time (ms)	lx (deg)	ly (deg)	rx (deg)	ry (deg)
0.000	-2.55250	-0.30896	-8.42891	-6.48309
3.996	0.17355	-4.44140	-4.32242	-4.69313
7.996	1.73666	-2.15366	-7.85590	-7.09422
12.012	-6.54737	-6.34918	-4.20736	-6.36029
16.000	-3.14424	-4.68505	-1.35360	-10.51394
19.996	-6.42501	-6.79145	-4.40707	-7.26688
23.996	-2.64411	-5.92394	-8.99695	-10.06661
28.002	-1.56670	-4.73737	-4.66761	-6.11734
32.004	3.57461	-7.00693	-5.18532	-4.86076
36.002	-2.12072	-3.92883	-4.10374	-4.82834
39.999	-2.40895	-3.52194	-8.84002	-9.06476
43.993	0.07418	-2.19938	-4.99677	-4.33493
48.003	-1.75543	-4.62044	0.61493	-10.69996
52.000	-2.05692	-4.64576	-9.17841	-8.94681
55.996	-2.40867	-4.47457	-1.70978	-5.54622
59.993	-0.59473	-1.53138	-3.70124	-9.06876
63.998	-2.12981	-4.69510	-1.96325	-3.97996
67.997	9.48094	-0.51952	-1.47952	-3.60239
72.027	2.62677	1.98602	0.06098	-0.10919
75.996	3.88584	-1.45493	-0.58821	0.13301
79.999	8.57626	-6.25361	0.43306	0.43924
83.994	1.02546	4.93150	-4.95204	4.21722
87.996	3.69914	4.68928	-0.05103	3.69045
91.995	1.48327	4.47287	-0.31161	3.20550
95.997	3.69879	2.25040	-1.68044	5.63409
99.996	2.92257	1.05755	1.09852	4.38889
103.992	4.39271	-1.48450	1.00347	2.75486
107.997	2.98054	-0.84285	-0.28205	5.91297
111.997	3.11895	4.55937	1.70531	0.77908
115.992	1.49416	-0.72995	0.44033	4.97979
120.009	0.44520	0.28329	-7.24510	2.05159
123.997	3.22000	-0.27556	0.89322	2.24164
127.997	1.99141	-0.74406	4.56323	0.96001
131.991	0.93713	1.51110	-5.68858	4.64471
135.998	4.09863	-0.48794	-1.18567	4.68141
139.993	2.67868	-0.59015	0.26855	4.43008
143.997	2.59938	0.31469	0.39172	4.26156
147.990	2.81907	1.04688	1.80449	4.15007
151.996	1.69413	0.60971	-0.08306	2.80531
156.017	6.03059	4.16919	-1.21077	3.33202
160.008	3.33416	4.22279	-0.73615	3.95127
163.993	3.20001	2.23862	-0.51741	4.53330
167.997	0.47877	1.18236	0.59660	3.14126
171.990	3.88171	0.27722	-6.32203	1.98217
175.997	2.07507	0.66398	-3.00435	2.93223
179.993	-0.02685	5.18841	1.93529	3.26735
184.001	2.29609	5.62575	-0.38529	5.37345
187.995	3.59100	3.69358	-1.57872	4.26368
191.996	1.91090	-0.10098	5.55430	2.48112
195.992	2.08773	-0.78290	1.68726	2.63518
200.002	1.95078	-0.36616	0.08805	2.31952
203.998	1.03687	2.03669	-1.84570	3.94278
207.996	0.23597	3.13858	-0.76176	4.49852
212.000	-1.31374	5.45418	-4.13463	4.03071
215.998	1.13414	3.28575	-1.27500	3.45331
219.997	2.18352	0.87153	4.47972	2.59800
223.993	4.04189	2.55638	0.25341	4.12301
227.996	-1.04007	0.60570	-1.65907	4.03471
231.991	-1.37171	2.42145	-0.82925	3.88654
236.003	-4.98236	0.83202	-5.16755	4.17174
239.997	-1.56563	7.15660	-3.94801	4.18910
244.001	1.23883	0.03493	0.95584	4.44996
247.992	3.69622	2.56245	0.44539	4.63283
251.997	-0.26932	5.36810	0.91815	4.82821
255.996	-1.12549	2.44377	-1.64568	5.14561
259.995	-1.51487	-0.27287	0.87012	4.29190
264.014	-1.19120	1.94221	4.54885	1.43884
267.995	-4.14665	1.08628	-0.45207	4.11550
271.992	-5.79558	1.87263	-1.02952	3.21184
275.993	-4.16640	-0.49060	-1.67752	3.96427
279.997	-1.19361	8.53578	-9.13712	2.35444
283.995	6.18097	10.47802	0.76613	2.66703
287.995	NaN	NaN	NaN	NaN
291.987	NaN	NaN	NaN	NaN
295.994	NaN	NaN	NaN	NaN
299.991	NaN	NaN	NaN	NaN
303.989	NaN	NaN	NaN	NaN
307.994	NaN	NaN	NaN	NaN
311.990	NaN	NaN	NaN	NaN
315.990	NaN	NaN	NaN	NaN
320.034	NaN	NaN	NaN	NaN
324.006	NaN	NaN	NaN	NaN
327.993	NaN	NaN	NaN	NaN
331.994	NaN	NaN	NaN	NaN
335.985	NaN	NaN	NaN	NaN
339.989	NaN	NaN	NaN	NaN
344.004	NaN	NaN	NaN	NaN
347.994	NaN	NaN	NaN	NaN
351.990	NaN	NaN	NaN	NaN
355.990	NaN	NaN	NaN	NaN
359.988	NaN	NaN	NaN	NaN
363.999	NaN	NaN	NaN	NaN
368.007	NaN	NaN	NaN	NaN
371.990	NaN	NaN	NaN	NaN
375.995	NaN	NaN	NaN	NaN
380.083	NaN	NaN	NaN	NaN
384.196	NaN	NaN	NaN	NaN
388.847	NaN	NaN	NaN	NaN
393.039	12.70182	-0.72797	1.39073	2.16667
395.997	12.89206	1.82433	3.85671	1.71409
399.998	10.72002	1.87578	-1.73338	11.04697
403.994	3.31467	7.62431	-1.49190	0.83109
407.999	8.25139	-4.28156	-3.55167	12.10558
411.992	4.85430	-4.16590	-8.89128	3.51924
415.995	1.34127	4.52714	-7.55947	6.19874
419.990	14.66715	4.88207	-6.62544	6.54869
423.993	3.14046	5.45106	-5.12506	8.81958
427.991	5.13651	5.29625	-2.58596	9.18402
431.992	0.57118	3.49774	-3.85498	3.20432
435.986	3.07315	7.14539	-2.98487	3.07483
439.992	3.22428	7.31248	-3.21419	4.25836
443.989	4.83930	7.67259	-1.23084	1.98489
447.992	9.07165	9.45124	-0.19129	1.19916
451.988	14.38165	0.66184	-0.32593	0.32248
456.034	5.61910	6.57694	1.68699	-2.60844
459.999	3.42705	2.56139	0.96368	4.62069
463.988	3.80065	5.75788	-0.47172	3.35882
467.995	4.09584	5.51340	1.69656	2.95026
471.992	4.35894	3.81333	-1.69574	2.40177
476.013	3.19620	3.67060	-0.39459	1.02999
479.990	7.61287	4.80261	1.72785	1.43615
483.988	8.80233	0.17921	3.35899	1.38981
487.985	4.21651	1.67082	2.30429	0.66092
491.995	7.29194	8.77850	-0.10178	1.08637
495.986	3.76860	2.55023	2.71362	1.20514
499.989	3.57535	3.03778	-0.00022	-4.00543
503.861	4.53662	0.42559	-0.11262	2.06566
507.864	6.21406	2.94218	2.21705	2.03815
511.865	4.56604	3.02207	0.64496	0.30150
515.863	7.66012	-3.15456	2.82177	0.43537
519.868	5.22195	-1.51302	3.34611	-0.32472
523.861	7.51291	1.67471	1.54465	1.51621
527.866	7.24532	-5.10283	-0.06224	1.89532
531.868	6.72523	0.99890	1.97458	-0.46305
535.862	5.22362	-2.13192	0.38447	2.08318
539.869	4.06209	2.25134	-2.42901	-3.71160
543.860	4.56193	2.49177	0.88999	-1.00033
547.865	NaN	NaN	NaN	NaN
551.861	NaN	NaN	NaN	NaN
555.878	10.11764	0.81120	1.82621	-1.25407
559.862	7.10225	3.67012	1.40626	0.43027
563.865	12.36674	1.05389	3.13538	0.06424
567.862	11.34945	-3.22972	2.03120	0.68185
571.860	14.64027	4.45088	3.46686	-0.41855
575.861	7.73694	8.58528	1.18227	0.49309
579.866	8.76384	3.29256	1.16828	1.44261
583.870	4.17702	7.70212	1.42920	0.59486
587.858	2.90307	1.75034	1.05024	1.76756
591.874	0.55560	-1.28798	-0.06311	2.20353
595.869	-2.50442	-2.81150	1.06555	-0.83811
599.863	0.38861	6.14202	0.68546	0.96528
603.865	0.37946	5.87618	0.04045	4.99040
607.859	0.22224	1.77911	-0.38482	4.69647
611.862	-0.46145	2.03643	1.04091	2.04822
615.864	-0.99742	1.57833	-0.07795	2.74859
619.861	1.04121	6.15054	-2.95369	1.65245
623.869	-2.14758	-0.74958	-1.21152	0.24446
627.862	-2.40840	1.39968	-0.28711	-0.15386
631.862	2.55951	3.85735	-0.41547	0.88061
635.858	1.01270	2.62369	3.11509	0.94686
639.865	1.28914	-0.70106	0.56885	0.77479
643.861	0.51649	-0.87446	1.91090	0.71385
647.864	0.72766	1.94799	1.19425	1.48237
651.858	0.89356	3.13977	3.99951	0.64078
655.870	-2.04123	-1.86713	0.02256	-0.05380
659.860	2.05050	6.63758	2.08035	0.99455
663.871	2.61206	4.28393	0.16144	1.56230
667.860	0.99965	6.91361	0.64886	1.51391
671.860	1.02970	2.47621	-3.79519	1.27446
675.863	2.67464	2.71232	0.77248	0.59829
679.860	1.98333	2.30063	-0.09001	3.45273
683.861	3.67044	4.57792	0.99685	1.83234
687.857	5.52969	3.58945	0.30071	1.56836
691.863	-1.67717	3.58188	-0.31650	2.10613
695.861	2.63992	4.53585	3.36812	1.64043
699.890	5.85215	6.70042	0.72980	1.48950
703.856	1.92820	11.83065	3.67791	1.83341
707.867	NaN	NaN	-3.26881	1.52277
711.861	1.73467	3.98608	-1.37652	0.96182
715.860	4.09434	7.01785	0.81091	1.94559
719.861	3.47720	0.89677	-0.57687	1.81021
723.857	1.64945	3.53866	0.76538	1.20785
727.855	-0.08145	5.16746	0.45262	1.93776
731.860	0.69958	3.19129	-0.00774	0.56831
735.855	-0.13650	0.64625	-2.37751	1.18682
739.864	1.72369	1.28535	-0.25331	-2.24663
743.859	-0.88959	1.91177	0.00668	0.46305
747.865	0.32630	0.72072	0.11327	1.59304
751.856	-0.19067	3.09717	0.11697	2.04483
755.862	-0.49123	1.97274	-0.40502	1.63479
759.858	2.25040	2.24564	-0.32821	1.07627
763.860	2.16947	1.49582	4.84437	-0.15421
767.857	2.24411	0.84208	-0.00754	-3.99262
771.862	-0.00002	1.87941	0.69307	-3.92423
775.858	2.47061	1.23170	0.56247	-4.25169
779.856	-1.26939	7.01456	0.33238	-4.87301
783.858	-0.73228	1.41560	3.59204	1.20601
787.864	0.25217	1.70354	1.43731	-5.29762
791.872	1.14776	3.97046	4.15468	-1.43808
795.856	2.44051	1.94811	0.91756	-1.51120
799.862	1.09951	2.92217	4.68930	-2.18298
803.855	-6.06296	1.27896	0.75077	-0.13952
807.860	2.08664	-1.88762	1.64538	3.99232
811.861	0.32000	5.05110	3.59649	2.72619
815.855	1.44612	4.51242	2.40345	2.50095
819.861	2.20743	4.25814	0.40539	0.77334
823.858	0.49386	4.02954	2.05905	-0.65601
827.861	2.14022	4.24007	0.13578	3.12027
831.861	7.21975	-6.38331	0.45284	0.26076
835.861	2.62667	1.56699	0.29533	1.44224
839.888	-1.19460	2.71213	-1.58678	1.50225
843.855	-4.94923	1.18094	-1.66691	2.46262
847.862	0.06001	4.58339	-5.50429	3.79974
851.858	1.22551	3.31783	-2.60607	3.21271
855.861	2.46654	0.20663	0.70240	-0.27250
859.856	2.17556	5.85665	0.90612	2.20998
863.860	-1.28792	4.32449	3.06469	2.02216
867.863	-0.87954	2.43143	-0.39948	1.67804
871.863	-0.69104	8.90078	-2.78129	1.39817
875.864	4.37288	-0.24167	-0.39191	-0.14589
879.856	-0.97246	4.30087	-0.69928	-0.51000
883.861	-0.81955	0.81857	1.64761	1.76551
887.858	-0.50594	-0.96568	-1.42270	1.98910
891.860	-0.86128	8.48455	3.31398	-2.66675
895.855	-1.78052	3.33675	1.68027	1.38155
899.860	-1.12082	-0.06663	-0.46592	1.56622
903.860	-0.41862	1.37411	-3.09567	-0.49709
907.860	-1.92414	-2.55967	1.79200	-0.37849
911.902	-0.80794	1.55867	-1.75981	1.13870
915.865	-0.29059	3.19637	-0.48378	3.32868
919.860	-1.38555	-2.72754	-1.36424	1.48845
923.859	-1.86917	1.57594	-0.93353	2.21698
927.855	-2.20208	3.40822	-5.42240	1.82329
931.854	-2.85049	2.71377	-0.61575	1.69541
935.854	-2.18907	-0.74750	-0.67722	4.12827
939.856	-2.02681	-0.57187	-5.50877	2.80459
943.852	-4.01013	1.01453	0.56491	0.80045
947.858	1.49383	0.14408	-1.24702	2.95415
951.856	3.95209	3.60689	0.79704	-1.16967
955.862	2.10054	1.97744	0.92458	1.61121
959.852	3.70502	1.68964	0.79434	0.41265
963.882	0.19690	3.64294	0.74402	3.38921
967.861	-3.34413	3.79332	5.21439	-5.71837
971.853	-0.51183	-9.08500	-3.21891	-0.42370
975.859	-6.62679	-0.18942	0.71161	0.46063
979.855	-6.77888	-12.60442	-1.11492	0.04233
983.857	-5.03888	-2.79195	-0.90376	5.69399
987.853	-7.09915	1.11209	-0.90371	-0.07044
991.854	-5.01452	-3.18010	1.49242	-0.79215
995.861	-4.90733	-0.46418	1.24047	0.49479
999.858	2.34731	3.04478	-1.03394	2.01334
1003.860	0.06207	2.48524	1.13990	-1.67060
1007.855	2.85041	4.96009	0.03549	-0.51424
1011.854	2.19261	2.63130	2.88638	-1.89634
1015.857	2.10610	-2.14360	-1.78845	0.42751
1019.855	-2.41524	-0.73904	-1.08128	3.83533
1023.856	-2.20386	2.87260	-1.05545	0.95974
1027.893	0.76010	1.54754	-2.24582	4.06329
1031.856	-1.98665	2.15512	-2.15891	1.09221
1035.848	0.37184	1.93242	0.66583	0.30922
1039.863	-0.99035	2.15795	2.30960	-0.19719
1043.856	2.22973	-0.01979	0.09830	0.52783
1047.857	2.61835	-3.14781	7.14607	-7.88602
1051.851	1.89384	-0.63395	6.74922	-2.38535
1055.857	2.46590	0.45960	3.22411	-2.90759
1059.855	1.04563	-3.05951	7.61221	-2.63033
1063.848	1.80323	2.32271	8.05509	-2.62714
1067.873	1.93103	0.24502	8.76239	-0.94451
1071.862	0.44527	-0.22252	11.00362	-0.75995
1075.854	1.19572	1.09098	4.02465	3.18983
1079.863	-1.47479	0.20240	3.11626	-1.80646
1083.848	0.25190	0.07196	2.87480	5.95449
1087.851	1.28313	-0.69139	8.38631	1.78924
1091.851	0.91346	1.17595	10.59898	1.53415
1095.851	-1.75560	-4.13614	2.70847	2.92908
1099.858	2.01712	0.27645	8.29368	7.20662
1103.855	3.81054	-0.67221	8.44866	2.58926
1107.853	-2.60020	-3.61821	6.55109	6.03545
1111.857	-5.80887	-0.12771	7.50844	3.81487
1115.854	-1.40832	-0.58602	7.37245	4.79147
1119.855	4.05903	-0.09345	8.90412	7.14799
1123.850	5.01088	0.91654	3.05897	0.41222
1127.860	0.80268	3.11787	4.51990	5.65102
1131.853	-1.69859	-4.21733	0.83744	1.59305
1135.884	0.72697	-0.22320	-2.90059	3.00753
1139.872	3.28872	-4.70573	-0.23842	0.05718
1143.854	1.56037	-0.24122	0.67752	-0.45428
1147.850	-3.69387	-1.83617	-5.50909	0.82602
1151.875	-3.42307	-0.81855	2.42446	-0.66677
1155.852	-5.70394	-0.68884	2.45847	-1.89906
1159.859	-0.16990	-5.71573	1.03754	2.48610
1163.854	3.35140	-4.89824	0.82334	0.31070
1167.855	2.84049	-3.65039	0.71243	3.06372
1171.852	-2.17447	2.17246	0.43038	2.25259
1175.854	3.02960	-0.83011	-1.65904	0.31796
1179.848	-0.35305	1.94280	1.12769	0.29880
1183.856	-0.80811	-0.95765	0.97725	2.24603
1187.851	3.78163	-0.09591	1.37538	0.29760
1191.853	-0.29684	-0.91081	2.32117	0.61739
1195.849	-1.23129	-0.07739	0.61106	-0.08200
1199.852	-4.18521	-2.93129	1.27056	-0.07783
1203.860	2.38207	2.11768	-2.18369	0.00273
1207.855	-0.52505	2.23701	0.49458	0.09432
1211.862	-0.50453	-8.90825	1.05642	-0.59067
1215.853	-0.76756	2.29508	0.94400	0.01642
1219.855	-1.11323	1.45870	-0.09902	2.44079
1223.859	-0.26686	-0.60761	1.97535	-0.64276
1227.845	-1.21182	2.00860	1.54190	-0.16188
1231.849	-0.75781	4.09127	0.56411	1.45526
1235.851	-1.47099	-0.11578	0.87838	-0.10408
1239.854	6.92934	-7.98535	0.49691	-1.62729
1243.847	6.88135	-7.60904	0.59119	0.46591
1247.860	6.47585	-0.36813	-0.46656	1.52709
1251.850	1.78756	-5.39638	3.37982	0.43206
1255.853	NaN	NaN	1.69051	0.81015
1259.848	-0.09669	-2.19298	-0.23862	0.71688
1263.854	3.73497	-4.25116	1.39483	-0.31040
1267.851	1.85137	-5.04289	-4.54982	0.48953
1271.866	-9.02677	-6.05542	2.38402	0.58765
1275.850	5.72313	-4.10180	2.50930	0.49366
1279.852	-0.03762	-4.26200	2.26837	0.76044
1283.855	-5.85743	-5.55816	1.27066	2.42502
1287.856	3.39920	-8.40401	1.35968	1.54242
1291.853	-5.15729	-4.06697	-3.87272	1.99072
1295.851	-0.28054	-5.36363	5.66796	0.20074
1299.852	7.76333	-5.13821	1.28886	1.31843
1303.850	6.50729	-7.13628	-0.25093	1.95418
1307.853	5.59745	0.21802	-3.13140	0.64211
1311.854	-0.42522	0.42361	-6.70905	-1.46534
1315.850	-0.38482	-2.10388	1.21569	0.53144
1319.849	4.41516	2.52239	1.69021	1.12024
1323.852	3.28486	-0.01841	0.58558	2.57072
1327.852	0.76938	-0.22673	0.08247	3.53346
1331.856	-0.40494	-6.88380	0.11674	1.85677
1335.848	0.23299	-1.84906	-0.60153	1.55864
1339.890	5.53313	-2.50409	-5.74170	0.33224
1343.852	4.94842	-2.96489	5.21038	-0.89191
1347.851	5.82842	2.48793	4.82491	-1.07663
1351.846	5.16989	0.20301	-2.38707	0.01634
1355.727	7.06149	1.01683	-0.33851	1.72294
1359.728	4.40880	1.04123	0.16181	2.91868
1363.728	-4.24670	1.84146	3.67316	2.30654
1367.720	-0.51696	9.23547	-0.00037	3.59324
1371.725	4.72889	0.99246	2.44100	0.33141
1375.729	-4.03752	3.76993	-1.14769	2.55547
1379.730	7.67036	-2.75563	0.83024	-1.01766
1383.720	4.46949	4.32011	0.76518	-1.01318
1387.726	4.70111	3.06636	0.32620	2.44869
1391.722	-0.54967	5.18611	5.68637	-0.87395
1395.724	7.36818	8.24272	1.41070	1.44538
1399.720	0.18839	4.18097	0.67518	1.12877
1403.734	3.47762	5.85555	2.70716	-0.94018
1407.725	0.40824	2.21784	-0.23668	2.54179
1411.719	-4.30571	7.93348	1.99984	1.71132
1415.723	4.25842	5.04055	2.74512	1.10843
1419.733	3.79097	5.82696	-0.85701	0.36484
1423.725	0.59789	12.62140	0.67007	2.66362
1427.719	3.64548	5.18220	-0.03981	1.42605
1431.726	0.53664	7.33018	-4.02813	1.83808
1435.723	-7.06053	3.88950	-1.19820	-2.12493
1439.724	-2.68054	7.87234	-5.63682	3.44687
1443.719	-5.38779	3.72958	-10.83642	5.53879
1447.725	-10.80038	1.50925	-8.62025	2.68239
1451.721	-9.70162	6.73475	-10.65920	-4.50269
1455.725	-6.55959	11.64848	-11.94729	2.46897
1459.725	-18.89778	13.70153	-10.33483	2.31622
1463.731	-9.41033	12.46949	-13.01164	2.18214
1467.723	-19.77450	-12.09366	-11.37894	3.02343
1471.720	-10.06836	1.44901	-12.10589	2.32429
1475.718	-10.52504	5.30238	-11.94311	2.77772
1479.725	-9.29628	12.80950	-11.72374	2.41046
1483.722	-7.41094	11.88562	-12.08316	2.38237
1487.721	-10.28015	12.85215	-12.15742	1.62248
1491.716	-12.52421	11.50218	-12.34112	2.23018
1495.719	-19.88413	-12.08556	-13.13397	2.32197
1499.724	-12.15419	4.97720	-11.13262	1.97101
1503.729	-13.75793	13.62779	-12.00312	1.86290
1507.716	-9.22733	4.89483	-12.29453	1.53149
1511.737	-5.31844	4.89566	-12.53140	2.46265
1515.718	-20.18373	13.29599	-12.26384	2.24468
1519.725	-13.70741	11.65031	-13.05376	0.94663
1523.720	-18.85670	13.53709	-12.48435	2.34052
1527.723	-11.48878	9.31933	-13.09906	2.15739
1531.721	-13.45857	10.58553	-12.95588	1.00014
1535.718	-13.43338	11.89104	-12.40010	2.04398
1539.723	-19.43721	13.27455	-12.91687	2.31022
1543.725	-21.11223	12.36065	-12.82276	0.72130
1547.722	-13.85835	10.12461	-12.98534	0.98221
1551.748	-16.66708	12.19382	-12.76676	2.53970
1555.713	-16.32844	14.19194	-13.15188	3.04117
1559.723	-16.95742	14.34928	-13.19814	1.48682
1563.717	-13.66076	12.35667	-12.77657	1.33597
1567.718	-13.45346	11.93008	-12.15803	2.60731
1571.712	-12.52875	10.40195	-12.21148	2.05450
1575.718	-19.47946	13.70314	-13.07109	2.44995
1579.717	-11.67413	12.17351	-13.06862	2.25861
1583.723	-9.46628	10.40768	-12.29533	2.08219
1587.728	-11.78845	11.62629	-12.12497	2.16032
1591.719	-16.46717	14.19584	-11.83567	1.66393
1595.713	-19.78199	-12.09310	-13.30566	1.78938
1599.718	-19.86286	-12.08713	-12.55129	2.37401
1603.718	-19.90057	-12.08434	-12.41400	2.14944
1607.722	-17.21759	13.59942	-13.10570	2.09336
1611.721	-19.92384	-12.08262	-12.22725	1.98956
1615.717	-19.93806	-12.08156	-12.32037	2.57608
1619.719	-19.99346	-12.07744	-12.47413	1.76811
1623.721	-19.99350	-12.07744	-12.34590	2.41241
1627.727	-19.99352	-12.07744	-11.90832	2.05439
1631.718	-19.99355	-12.07744	-13.09996	2.87953
1635.742	-19.99357	-12.07743	-12.07711	1.83369
1639.724	-19.99357	-12.07743	-12.49656	2.23161
1643.722	-19.99359	-12.07743	-12.08874	2.05556
1647.713	-19.99359	-12.07743	-11.62232	2.31408
1651.722	NaN	NaN	-13.23497	1.99644
1655.722	NaN	NaN	-12.56836	2.05392
1659.713	NaN	NaN	-13.26526	2.20191
1663.716	NaN	NaN	-13.22465	1.96963
1667.721	NaN	NaN	-13.09551	2.39469
1671.723	NaN	NaN	-13.20736	2.68495
1675.716	NaN	NaN	-13.33104	2.14211
1679.716	NaN	NaN	-13.50145	1.51622
1683.719	NaN	NaN	-13.46848	0.96922
1687.723	NaN	NaN	-13.01308	2.13360
1691.720	NaN	NaN	-12.80829	1.98243
1695.720	NaN	NaN	-12.98662	1.51014
1699.713	NaN	NaN	-12.81141	1.87427
1703.717	NaN	NaN	-12.67787	2.06989
1707.719	NaN	NaN	-12.56112	2.57592
1711.722	NaN	NaN	-12.92526	2.51533
1715.722	NaN	NaN	-12.77060	2.44152
1719.735	NaN	NaN	-12.74690	2.25961
1723.723	NaN	NaN	-13.11634	1.82478
1727.716	NaN	NaN	-12.85298	2.04468
1731.715	NaN	NaN	-12.95136	1.98389
1735.715	NaN	NaN	-13.05234	1.74153
1739.710	NaN	NaN	-13.06056	2.32781
1743.722	NaN	NaN	-12.91168	2.32806
1747.716	NaN	NaN	-13.00127	2.31441
1751.723	NaN	NaN	-13.10860	2.09195
1755.715	NaN	NaN	-12.69533	2.00574
1759.712	NaN	NaN	-12.91435	2.11715
1763.716	NaN	NaN	-13.03651	2.52119
1767.716	NaN	NaN	-12.99015	1.13126
1771.721	NaN	NaN	-13.05340	2.01956
1775.733	NaN	NaN	-13.09932	2.24236
1779.733	NaN	NaN	-13.08995	2.64098
1783.722	NaN	NaN	-13.02509	2.53104
1787.711	-12.45617	4.08006	-13.12559	2.41537
1791.734	-15.30902	5.58546	-13.31617	2.41930
1795.722	-12.55961	3.48249	-13.25084	3.29523
1799.720	-13.17901	3.27833	-13.32799	3.44573
1803.709	NaN	NaN	-13.33476	3.04870
1807.720	NaN	NaN	-13.35889	2.76310
1811.724	NaN	NaN	-13.41389	2.69642
1815.714	NaN	NaN	-13.44465	2.80110
1819.724	NaN	NaN	-13.31196	2.82103
1823.714	NaN	NaN	-13.13934	2.72662
1827.714	NaN	NaN	-13.14899	2.73016
1831.709	-13.31894	5.29613	-13.30985	2.72518
1835.718	NaN	NaN	-13.15395	2.79046
1839.718	NaN	NaN	-13.31326	2.76389
1843.718	NaN	NaN	-13.19433	2.80603
1847.714	NaN	NaN	-13.01995	2.84207
1851.715	NaN	NaN	-13.06094	2.57582
1855.715	NaN	NaN	-12.77839	2.56889
1859.710	-12.70246	3.02094	-12.08834	2.86702
1863.718	-13.69703	11.88280	-10.93729	2.89024
1867.715	-12.76288	13.25244	-9.27813	3.33577
1871.714	-11.75826	1.31001	-8.27010	2.98561
1875.714	-6.95609	3.03995	-4.82560	2.58694
1879.720	-3.30341	10.41473	-6.99013	-0.65047
1883.727	-1.80526	8.50244	-6.08831	0.41977
1887.713	0.76754	9.17900	-5.18481	2.97270
1891.716	3.02371	9.17520	-5.17073	3.06936
1895.715	3.24563	10.97628	-3.65418	0.60653
1899.717	-2.45616	12.73575	-7.34958	1.45401
1903.715	2.40605	7.50564	-4.92745	1.06261
1907.718	1.59777	6.94367	-5.46025	0.46137
1911.711	0.97273	10.39449	-4.98856	1.63156
1915.717	0.80665	8.02689	-5.91354	0.57737
1919.736	3.88443	7.56226	-5.61389	0.83295
1923.723	3.88982	8.19085	-4.70402	0.97460
1927.714	-4.46788	0.58124	-5.71288	0.58961
1931.716	-5.64017	-1.58009	-5.46514	1.38224
1935.714	-6.30279	0.41943	-5.62335	0.95536
1939.717	-5.62635	2.10116	-4.36634	1.46126
1943.707	-6.07994	-0.35213	-5.51351	1.90106
1947.717	-6.33574	-1.96889	-6.30340	0.56006
1951.715	-5.90472	2.41775	-3.64308	2.19599
1955.716	-5.77386	2.58687	-5.91764	2.24600
1959.716	-5.42911	-0.69205	-6.26194	0.38800
1963.714	-6.22795	-1.12491	-6.28477	2.87161
1967.716	-6.27047	1.15338	-6.00644	2.17133
1971.713	-6.37609	0.26807	-5.23516	0.87399
1975.717	-5.71615	-1.74430	-7.50378	2.39506
1979.711	-6.65328	0.38298	-5.83380	1.40987
1983.717	-6.72403	0.51840	-6.20636	-0.16890
1987.714	-4.94159	0.02255	-5.35475	2.46355
1991.710	-6.60335	0.23225	-6.43618	2.81897
1995.715	-6.63103	0.22567	-5.50724	2.18850
1999.717	-6.45027	-0.02343	-5.06668	1.78964
2003.718	-6.95636	0.11810	-5.04208	0.70815
2007.710	-6.10313	1.07745	-5.07225	1.17622
2011.723	-3.05617	0.20623	-5.05068	0.66055
2015.718	-4.98398	0.16633	-5.36700	1.56406
2019.713	-5.17073	0.80503	-5.40845	2.28031
2023.715	-2.94111	0.59059	-5.09500	2.09785
2027.709	-3.11975	-0.03461	-4.97785	2.29983
2031.716	-2.77431	0.45162	-4.79883	1.34017
2035.708	-5.80410	6.91924	-5.79754	1.98298
2039.715	-8.41546	10.37193	-5.06065	1.49346
2043.718	-3.12328	6.51293	-4.96736	0.73927
2047.716	-4.75583	8.48193	-6.75783	1.61818
2051.709	-2.87460	10.71134	-5.04999	1.33257
2055.714	-5.83955	6.63797	-5.15359	0.76578
2059.712	-5.90679	8.88084	-8.73795	2.34032
2063.712	-8.06443	11.38170	-4.84499	-2.47334
2067.708	-8.10486	9.22647	-6.68575	-1.97528
2071.714	-1.15622	10.25170	-9.47522	0.88678
2075.713	-4.09688	12.28168	-6.14057	1.60805
2079.713	-9.19517	10.63611	-5.35743	1.31617
2083.718	-0.99931	6.62429	-5.49940	2.34696
2087.717	-3.27178	10.44010	-4.39577	2.22714
2091.713	-2.37548	10.30918	-6.23310	3.11201
2095.713	-3.43526	10.28370	-3.89276	2.29412
2099.709	-8.41512	10.84039	-3.83561	3.48723
2103.715	-8.24135	10.75902	-6.75527	1.74405
2107.710	-2.54269	8.82350	-7.53627	1.59246
2111.707	-1.93973	11.06000	-6.14943	1.99992
2115.713	-2.25573	9.53281	-4.16613	2.25874
2119.710	-3.28788	11.22890	-5.12481	1.02057
2123.713	-8.22966	12.86615	-3.21369	1.41783
2127.713	-8.18186	9.59759	-7.96699	2.08118
2131.715	-1.62205	8.81089	-4.69642	2.07075
2135.710	-3.38001	13.38764	-5.65216	0.66640
2139.713	-8.42129	11.63307	-7.36432	0.55977
2143.708	-5.13323	9.36103	-5.93399	0.56487
2147.715	-2.58549	11.69198	-2.25595	2.98151
2151.711	-2.40387	3.47518	-0.35337	2.43723
2155.717	1.62887	3.31951	-3.47599	0.50159
2159.711	4.91092	3.03555	3.53829	3.06040
2163.704	3.15807	0.40633	-0.19536	2.90224
2167.719	3.75244	-0.74902	-0.14833	3.02051
2171.711	3.04348	4.79987	0.13349	3.09135
2175.713	4.89052	3.36213	-0.24294	0.64058
2179.708	4.84415	3.33739	-0.05137	3.67051
2183.714	3.64427	-0.32856	0.03095	3.41764
2187.741	4.82124	1.39846	-0.91889	0.61327
2191.711	8.96278	2.66551	0.09666	4.51518
2195.705	-1.77432	5.59637	-0.28113	5.07602
2199.712	0.86538	3.70518	-0.93053	1.35146
2203.710	-1.11316	1.87993	-0.54828	5.94341
2207.715	-1.40705	2.03112	0.82272	4.11207
2211.607	-1.46380	2.67389	-0.58059	2.03674
2215.592	-0.35615	5.84667	0.08922	4.20540
2219.584	-2.19541	2.32236	0.51711	5.53339
2223.590	-2.57588	-0.00839	1.23930	1.26457
2227.590	-0.49180	2.52883	1.25012	1.82787
2231.581	-2.80823	0.13231	-0.05222	5.71383
2235.587	-4.73562	1.69002	0.43892	2.85768
2239.584	2.95936	2.52746	2.59158	2.43746
2243.586	-3.97239	0.57306	0.00807	3.92095
2247.580	-1.39753	-3.09711	1.55474	3.49482
2251.588	NaN	NaN	NaN	NaN
2259.588	-3.63480	2.05002	-0.10788	5.00097
2263.583	-5.58924	0.29526	-2.26002	2.85552
2267.585	-1.95656	-3.04410	3.62936	3.48484
2271.580	-6.28839	-0.36128	0.99112	3.66316
2275.587	0.90205	-2.89783	0.47830	4.49266
2279.585	-1.60270	-6.33303	0.26096	3.66292
2283.580	-0.50587	-3.22516	2.78802	3.91657
2287.587	-3.49072	-3.39197	1.99962	3.76027
2291.583	-3.99931	-5.68114	-2.54905	3.69401
2295.581	-2.72647	-1.88906	0.15978	2.85832
2299.591	-5.79374	-6.38776	0.72632	3.60847
2303.584	-4.24616	-3.50251	-0.66563	4.87649
2307.584	-0.35916	-8.62593	-0.04209	3.59250
2311.579	-5.41559	-5.25944	1.73995	3.38410
2315.583	-3.15753	-3.20957	1.09128	3.96194
2319.584	-2.30600	-5.64730	1.40224	3.56834
2323.580	-5.62021	-3.97480	0.17491	3.27595
2327.587	-2.97547	-3.68208	-0.98817	3.48653
2331.583	-3.02764	-8.43229	1.47523	3.33017
2335.584	-4.64699	-3.60781	1.56015	3.36841
2339.584	-2.11760	-5.56543	1.49525	3.34655
2343.613	-4.39674	-4.40586	1.23233	2.86253
2347.589	-3.00118	-1.96114	-3.59278	3.26141
2351.581	-0.99179	-7.82288	1.48915	3.70917
2355.585	-7.65149	-5.55328	0.70302	4.06412
2359.602	-4.29971	-5.15241	1.33545	4.30418
2363.588	-4.66746	-10.85188	0.66233	2.86360
2367.579	-4.28397	-7.77046	1.13452	4.26616
2371.586	-4.60959	-10.22294	0.27284	3.40815
2375.581	-3.11289	-7.13548	0.30391	2.68047
2379.592	-7.14130	-9.90649	0.26664	5.81630
2383.582	-6.05582	-5.88290	-3.20204	2.72215
2387.586	-4.99403	-3.14173	0.38010	2.44955
2391.581	-5.86752	-11.62711	0.61625	3.79116
2395.584	-2.03196	-8.32538	1.01675	4.30497
2399.577	-4.84457	-9.55027	1.13367	4.93636
2403.596	-2.57848	-6.33266	1.47729	1.94196
2407.586	-6.94993	-8.80433	0.13831	3.82870
2411.579	-7.16679	-11.77895	0.57838	4.60042
2415.580	-5.79018	-9.46395	-4.41206	2.51177
2419.581	-4.83582	-11.51263	1.47640	3.78310
2423.583	-3.50756	-8.03971	1.22042	4.08862
2427.593	-6.54773	-13.15331	0.81970	3.82132
2431.581	-19.99372	-11.91191	0.97787	3.92936
2435.584	-19.99372	-12.04556	1.37466	3.62015
2439.580	-3.61557	-12.64785	1.03719	3.86252
2443.581	-4.18694	-14.52168	-2.85106	2.06360
2447.577	-7.01573	-14.85406	1.50127	3.55801
2451.583	-19.99372	-12.03827	1.14171	4.97935
2455.580	-19.99372	-12.09475	1.27755	5.81780
2459.582	-19.99372	-12.09185	0.74087	5.38763
2463.582	-19.99372	-12.10781	0.99338	3.54179
2467.590	-19.99372	-12.10330	1.02992	3.34091
2471.583	5.03223	3.46508	1.83672	2.73950
2475.576	4.28715	3.00653	0.94859	4.59839
2479.591	-0.54324	2.88936	1.14714	4.05766
2483.586	-0.07827	5.15077	-2.87277	0.53260
2487.582	-3.03690	0.81117	-1.64476	3.32253
2491.576	1.06121	1.32762	-0.62684	3.20176
2495.587	NaN	NaN	-2.37689	3.02251
2499.583	NaN	NaN	-4.13458	1.07614
2503.588	NaN	NaN	-6.65027	0.58247
2507.583	NaN	NaN	-6.63911	2.14246
2511.583	NaN	NaN	0.33513	1.02743
2515.582	NaN	NaN	-1.90485	1.80380
2519.577	-2.85130	-15.00642	-1.58304	1.57161
2523.582	-19.99372	-12.07919	-3.67717	1.16133
2527.578	-19.99372	-12.07896	-1.83028	1.53301
2531.577	-3.68878	-12.85350	-2.34121	2.96410
2535.579	-7.36847	-13.85152	-1.30035	0.45799
2539.581	-19.99372	-12.13069	0.14752	-0.61785
2543.581	6.70374	-2.89911	-1.73819	2.40130
2547.584	-2.56144	-1.57471	0.29071	9.50101
2551.582	-1.83251	-3.81099	1.00695	7.76121
2555.575	1.79145	-2.02228	4.98278	6.50895
2559.583	-2.95497	-2.12579	4.17623	6.59450
2563.583	-4.11263	-1.13095	1.61905	5.74983
2567.579	-2.56223	-4.49059	5.04297	3.99902
2571.581	2.83133	-3.41301	5.61797	7.21254
2575.575	1.72446	-1.77060	5.42838	5.92773
2579.582	-2.62417	-0.50109	4.41257	5.77501
2583.579	1.88288	-3.35029	-1.10872	-0.23123
2587.581	-3.36436	-0.26347	3.97746	3.38547
2591.579	-4.13675	-2.85763	4.45316	4.44345
2595.581	-1.41784	-1.62343	4.37527	2.87666
2599.576	-0.08823	-0.59909	5.53530	4.16139
2603.578	-1.35824	0.03865	5.29014	1.58685
2607.580	1.77638	0.16867	5.77676	2.51429
2611.577	-1.11415	-0.87038	3.53369	3.04078
2615.582	0.25502	-0.15384	4.23441	-1.71512
2619.578	-2.45916	-1.57610	3.85533	1.49661
2623.594	-0.93525	-1.66500	8.00932	1.86510
2627.598	-0.53811	-1.29074	4.71282	2.02935
2631.599	2.44090	0.41306	5.81747	-0.47931
2635.579	0.10587	0.25083	8.84484	-3.65840
2639.582	-2.82754	0.26055	4.46919	-2.08917
2643.578	-2.93044	0.30460	-0.73253	0.78746
2647.581	-3.83329	-1.72318	-0.64216	0.03044
2651.576	-3.12509	-1.32337	-2.52124	-0.43379
2655.579	-0.78841	0.16849	8.31863	-1.70217
2659.579	-2.73350	0.09973	3.87376	0.25013
2663.575	3.57646	-1.21781	1.63869	0.70038
2667.579	3.42621	0.44529	-0.31218	-0.76761
2671.574	-3.02796	-0.41472	-2.15328	-0.38650
2675.580	-2.10734	-0.86790	-0.68201	-0.70250
2679.575	0.00506	0.17760	-0.30516	-1.15213
2683.578	-3.75917	-0.48814	-4.35442	-0.75971
2687.576	-0.01727	-1.19194	0.08741	-0.62369
2691.576	4.69090	-1.41093	-0.40584	-0.74293
2695.579	4.08525	1.17355	3.66335	-0.49169
2699.583	-2.50058	0.28723	1.85886	-1.79605
2703.574	1.32399	0.36588	-3.25562	-0.66962
2707.579	-2.29228	0.97907	-2.39217	-0.82620
2711.576	0.19559	0.63042	-0.29456	-0.81566
2715.577	-4.83422	-1.79882	-3.26577	-0.92167
2719.591	-2.92797	-0.39632	-2.80580	-1.13760
2723.579	0.16834	0.91983	-3.25486	-0.90369
2727.573	-3.99637	-1.16067	-7.83339	-2.06393
2731.580	-2.52867	-2.81720	-6.50183	2.06464
2735.574	-2.27934	-2.36151	-2.96802	2.16247
2739.576	-2.88876	-1.38867	0.73012	0.49286
2743.574	4.45451	0.18878	-0.04117	-0.63189
2747.575	2.20713	-0.28622	-2.82444	-0.86033
2751.575	1.56045	-0.22910	-2.36678	-0.49086
2755.581	-1.84537	-0.52388	-2.49010	-0.47384
2759.573	-2.11770	-0.19967	-1.06319	-9.36174
2763.577	-1.65619	0.73554	-5.26450	-3.13011
2767.579	-1.55824	1.17432	2.70210	-0.13970
2771.578	-4.29117	-2.40210	4.97889	-3.03919
2775.573	2.12045	-0.46547	0.61335	-9.38911
2779.579	-1.56437	0.51368	0.87168	-3.22403
2783.576	-0.88016	0.07081	0.40393	-4.89788
2787.568	-4.33332	-0.25402	-5.03506	-7.32241
2791.580	4.12394	-0.88492	1.05634	-4.46665
2795.578	-0.91403	0.90886	0.55979	-7.34824
2799.578	-1.42144	0.20440	0.47624	-9.02970
2803.568	-1.32845	1.20943	0.28883	-6.75041
2807.578	-4.24954	-1.18049	-4.97169	-7.54588
2811.574	-1.97319	-0.28939	0.91297	-4.56679
2815.572	1.53418	1.28410	-3.35758	-5.57924
2819.578	0.95400	1.15095	1.33790	-10.83308
2823.576	-2.81729	-1.97596	-0.02824	-13.50768
2827.571	NaN	NaN	-19.99372	-12.29638
2831.568	3.35686	-1.74195	-19.99372	-12.21327
2835.573	NaN	NaN	-19.99372	-12.17539
2839.582	NaN	NaN	-19.99372	-12.15357
2843.594	NaN	NaN	-19.99372	-12.13928
2847.579	NaN	NaN	-19.99372	-12.12915
2851.575	NaN	NaN	-19.99372	-12.12154
2855.574	NaN	NaN	-19.99372	-12.11558
2859.573	NaN	NaN	-19.99372	-12.11076
2863.568	NaN	NaN	-19.99372	-12.11022
2867.567	NaN	NaN	NaN	NaN
2871.575	NaN	NaN	NaN	NaN
2875.572	NaN	NaN	NaN	NaN
2879.572	NaN	NaN	NaN	NaN
2883.586	NaN	NaN	NaN	NaN
2887.578	NaN	NaN	NaN	NaN
2891.573	NaN	NaN	NaN	NaN
2895.579	NaN	NaN	NaN	NaN
2899.572	NaN	NaN	NaN	NaN
2904.124	NaN	NaN	NaN	NaN
2907.891	NaN	NaN	NaN	NaN
2911.592	NaN	NaN	NaN	NaN
2915.592	NaN	NaN	NaN	NaN
2919.574	NaN	NaN	NaN	NaN
2923.574	-5.50702	5.78340	-7.52796	-1.05418
2927.576	-0.72506	-0.40811	-2.33762	2.52441
2931.575	3.14543	0.08811	-1.38609	2.45352
2935.571	4.77444	-0.02466	-1.19108	1.07069
2939.571	3.16461	-2.12808	-1.27820	0.19017
2943.569	3.72664	0.10367	-1.62691	2.62336
2947.575	2.19489	-0.66919	-1.06394	2.09180
2951.572	0.78357	2.74306	-0.64290	2.53444
2955.574	-0.48359	-0.19623	-0.94075	0.70713
2959.569	0.45065	2.89044	-0.88927	1.74945
2963.579	-0.26763	-0.01931	-0.55084	1.24444
2967.578	-1.28182	1.60885	-1.93070	1.88549
2971.580	-4.29685	-2.12601	-0.82275	0.18232
2975.571	6.45084	-0.10926	-1.49138	2.73517
2979.575	1.32575	2.66066	-0.73695	0.97948
2983.572	5.12863	-0.81594	-1.34447	2.97024
2987.574	2.71305	-5.10049	-0.17839	1.39075
2991.575	7.06102	-0.45599	-0.49125	0.86711
2995.571	7.52132	-1.58380	0.70374	1.08552
2999.573	-1.65535	-0.65509	-0.71034	0.99312
3003.574	1.26413	-5.13492	-0.11376	0.33740
3007.576	4.85832	-4.99096	-0.18673	0.06580
3011.571	4.28688	-1.24644	-1.10100	0.19982
3015.570	5.05159	-0.89924	-0.95266	0.35385
3019.574	0.33441	0.70140	-0.78861	0.58940
3023.573	0.29292	0.71494	-1.02144	1.13034
3027.573	-1.01424	-1.26323	-0.58523	0.97285
3031.575	1.90195	-3.54038	-1.39850	4.47874
3035.572	0.43301	-2.83218	-0.49106	0.71276
3039.569	4.85443	-6.28036	-0.84803	1.67206
3043.568	6.30416	-6.10413	-1.04230	0.79978
3047.581	-1.28772	-3.79894	-2.12208	-0.00057
3051.572	1.53042	-3.57489	-1.28192	-0.35853
3055.599	5.11923	-8.13536	-0.83456	1.12930
3059.566	1.60739	-1.99548	2.36183	1.57286
3063.447	-0.32707	-1.91828	-1.09428	0.75578
3067.444	5.36043	-1.93793	-0.45564	0.85122
3071.446	2.03744	-4.37715	-1.09120	2.97295
3075.442	-0.95584	-3.99266	-1.35886	4.14542
3079.447	-0.22266	-2.01030	-1.05287	1.71516
3083.444	0.10342	-4.91452	-1.88544	1.03305
3087.446	1.31530	-2.49791	-6.30563	-0.15790
3091.454	2.47095	-2.61668	-0.95929	1.61119
3095.448	0.23038	-3.19502	-6.34174	-0.21326
3099.446	5.85310	-7.54993	-5.89446	-0.32373
3103.442	2.24542	-7.23400	-0.29803	0.89881
3107.457	0.86183	-3.52779	-0.13397	1.00147
3111.452	6.79914	-5.21507	-5.29479	-0.83532
3115.448	0.84925	-3.21713	-0.53376	0.52806
3119.442	0.54014	-2.40415	-0.83099	1.72601
3123.446	0.40589	-3.09438	-0.89121	0.48886
3127.444	0.76694	-3.69621	-0.79593	1.59232
3131.446	4.99132	-2.53792	-0.11136	0.56361
3135.446	0.56826	-2.82560	-1.08363	1.10804
3139.451	0.39827	-2.66309	-0.82865	1.87194
3143.443	0.81779	-5.33828	0.00447	0.78881
3147.445	-5.99996	-2.89331	0.43505	0.73418
3151.440	-0.15528	-0.15516	-0.90307	2.30360
3155.453	-0.11580	-1.18764	-0.57538	1.33153
3159.443	1.20847	-2.47991	-0.65739	1.76677
3163.441	3.29389	1.28660	-0.11002	1.03105
3167.444	2.96616	0.27084	1.49458	0.95951
3171.443	1.00375	-2.68764	2.11147	1.19349
3175.462	-0.70429	-2.65375	4.57465	1.61386
3179.451	3.64437	-5.01951	5.25731	0.95812
3183.443	5.52890	-0.62175	7.46289	1.66336
3187.449	8.15893	-4.32819	9.47942	1.07956
3191.444	10.50155	-2.01559	7.16358	1.12307
3195.446	8.41361	-4.65546	7.50686	1.31706
3199.443	10.34268	-1.38784	7.12146	1.35879
3203.446	10.33075	-5.11208	5.09852	1.95409
3207.441	10.47583	-1.12763	7.30676	1.53733
3211.447	10.33747	-4.66424	7.08815	2.34711
3215.443	2.78857	-0.84793	7.14189	-1.23177
3219.449	9.02861	-1.13547	7.05885	0.58008
3223.447	8.79482	-0.10061	7.11802	1.35745
3227.441	7.92103	-1.85454	7.68391	2.06420
3231.444	9.27245	-0.95754	6.98631	1.17294
3235.443	8.29013	-0.55558	6.91557	2.68353
3239.444	5.44962	-5.04577	6.75921	1.28775
3243.450	8.62967	-6.34829	6.79462	1.29840
3247.444	5.11913	-6.81085	9.33968	1.31383
3251.471	2.63247	-6.80030	7.13615	1.75791
3255.438	4.31830	-5.78260	7.34887	1.21674
3259.451	3.98005	-5.07399	6.98551	2.90784
3263.440	4.67919	-3.24202	6.28790	2.11915
3267.442	4.79336	-2.33920	7.38949	1.33756
3271.439	6.77494	-0.65124	6.79887	1.19639
3275.443	7.64586	-0.75902	7.02455	0.53351
3279.443	8.77136	-0.99874	5.55118	2.82578
3283.439	9.08709	-0.93410	7.01805	3.13693
3287.444	7.21178	-3.61874	7.06325	2.18921
3291.441	8.71955	-0.85057	7.55586	0.71803
3295.442	5.93122	-0.33354	6.09920	1.03041
3299.437	8.22124	-3.84927	6.75223	2.77212
3303.448	2.84913	-3.87541	7.34113	0.00628
3307.441	4.00991	-3.68569	6.95338	-0.64473
3311.444	5.15770	-5.52201	7.92339	0.58665
3315.443	9.11830	-3.35659	7.95940	0.84361
3319.440	8.17099	1.12312	5.57146	3.99674
3323.439	7.96894	-0.34753	7.43347	2.09687
3327.440	3.23423	-4.80289	7.18565	0.24745
3331.446	3.37111	-5.88882	7.06857	0.66368
3335.441	6.37516	-2.04634	7.13673	0.42118
3339.442	7.36464	-3.48830	7.39940	2.72965
3343.449	7.04061	-1.55925	5.38818	3.73408
3347.439	6.53267	0.13423	7.58103	2.70595
3351.442	3.23279	-0.98122	7.12957	3.15994
3355.437	5.98221	-2.91315	5.30269	2.80298
3359.443	8.36506	-1.80073	6.70597	2.44764
3363.439	5.62490	-0.88722	7.00756	2.45998
3367.443	6.36143	-0.53599	6.06738	3.61114
3371.438	3.51918	-3.24993	6.85383	-1.95851
3375.443	7.20448	-2.66019	7.01841	2.83164
3379.440	7.28537	2.58777	7.52810	2.22175
3383.446	7.30529	-1.51473	6.98377	3.04926
3387.437	3.20127	-0.64911	6.54754	-1.21585
3391.445	4.08876	-1.68515	6.62713	-0.86083
3395.440	8.89799	-2.60844	5.85391	2.04450
3399.442	8.33372	-2.98383	6.83357	2.71280
3403.465	4.44585	-2.75764	7.01443	3.52539
3407.443	7.03091	-1.98639	6.58175	3.02522
3411.439	3.29651	-2.93243	7.48959	2.36771
3415.443	4.41391	-2.44586	7.08810	2.78059
3419.439	6.91038	-3.99349	7.69673	2.82111
3423.442	6.66038	-2.22185	6.68110	2.45698
3427.443	7.16986	-3.04550	7.59005	2.39655
3431.447	9.34529	-1.41806	7.50159	2.94137
3435.440	3.76984	1.30919	6.33248	3.64289
3439.438	6.53906	1.36323	5.92240	2.16557
3443.437	3.68008	0.78270	7.24031	1.89975
3447.469	2.21172	-4.85330	7.91709	0.75580
3451.447	2.80077	-4.64975	7.50454	1.54216
3455.441	3.10577	-2.10312	6.47264	1.61699
3459.436	4.36881	-2.20211	5.93767	2.16598
3463.441	4.99699	-4.31225	9.85100	1.59687
3467.457	5.85976	-2.75709	7.14502	2.20111
3471.472	7.14313	-0.06130	7.71857	1.77829
3475.438	5.75229	-0.05939	6.77803	3.40581
3479.437	6.58677	-2.98706	6.55915	1.73994
3483.440	6.78590	-1.82517	6.90896	1.57455
3487.433	7.10553	1.93317	7.04288	2.62155
3491.442	7.17568	-0.46522	6.52738	1.82368
3495.437	7.17607	-0.57554	6.96032	1.78438
3499.438	8.17123	-0.68351	7.76384	1.86970
3503.434	7.57678	1.76710	6.27412	1.74945
3507.440	5.51329	-0.52143	6.89453	-1.09379
3511.442	7.34248	0.41073	6.27079	1.48397
3515.435	7.22610	0.73246	6.39913	-1.01787
3519.437	6.60424	-2.50344	6.19604	0.30818
3523.434	6.60962	-2.00818	6.49575	-0.32834
3527.455	2.71473	-1.45002	6.34201	0.39043
3531.442	3.17901	-2.96573	6.92855	1.87169
3535.435	4.14070	-3.14558	5.11807	3.76034
3539.440	5.41111	-1.20379	7.15474	2.49235
3543.437	6.90094	-1.64831	7.32309	2.19362
3547.438	6.29945	4.05504	6.76887	3.77206
3551.434	7.54505	1.97395	6.02077	-0.23066
3555.445	7.70426	2.57481	6.06490	0.33571
3559.434	6.17747	1.75658	5.69770	0.24125
3563.434	6.31179	0.74657	6.44797	1.16091
3567.439	3.56855	2.00959	6.22255	1.84982
3571.436	3.40865	-1.73162	6.41481	3.31017
3575.438	4.08846	-2.55487	7.16305	3.05632
3579.433	5.02585	-1.91776	7.43249	2.83298
3583.447	5.34405	-2.13961	6.48066	2.18954
3587.440	6.01814	-3.88478	5.95594	2.09117
3591.443	6.17249	-1.93952	5.53412	2.61026
3595.438	7.63496	0.14920	6.75066	1.98113
3599.436	7.69405	-1.18919	7.03306	3.71829
3603.428	6.23312	-2.13862	6.63786	2.53522
3607.441	5.95457	-1.61878	6.66332	-0.49423
3611.441	5.36880	3.70181	7.14695	1.24181
3615.439	7.12879	2.12464	6.58210	2.58392
3619.434	6.72406	-1.26354	6.06014	-0.71972
3623.434	6.09643	0.70456	6.94822	1.83216
3627.433	6.46211	2.62507	6.99284	1.69412
3631.428	6.17698	-0.12703	5.96446	1.65532
3635.438	6.34062	1.87486	6.17423	2.18319
3639.448	10.60296	-4.25122	6.18679	1.40861
3643.442	7.59775	-0.16559	6.99247	1.76531
3647.433	6.54117	3.21908	8.33289	1.84143
3651.467	3.70601	4.16734	6.87178	1.58146
3655.441	3.44055	2.58663	6.63769	1.88995
3659.441	3.28751	2.46979	7.82540	0.90318
3663.435	6.97064	1.15996	7.93893	1.35645
3667.428	6.51770	1.11662	6.09822	1.29349
3671.439	6.83604	-4.94087	6.08696	0.96230
3675.441	6.29450	-0.64574	6.81211	0.83243
3679.439	4.83920	4.62705	2.53959	3.06445
3683.433	3.31774	2.48396	2.25964	5.18536
3687.438	3.63240	-0.80468	1.23429	1.40044
3691.461	3.16352	-4.88900	-6.82525	3.84497
3695.430	-4.64108	0.35670	-3.65838	2.05271
3699.438	-4.45515	1.76266	-6.56155	0.56118
3703.433	-7.81174	1.26804	-5.89439	0.65272
3707.435	-4.93282	3.71834	-6.91664	0.99682
3711.431	-7.19657	4.62577	-6.81901	1.92508
3715.452	-7.44952	3.94657	-6.17070	3.99595
3719.446	-8.57258	4.78738	-6.87120	1.94643
3723.444	-7.54459	5.90334	-3.78140	1.20342
3727.433	-7.25179	6.76380	-5.39460	1.00799
3731.437	-7.12811	6.65322	-6.50552	2.31175
3735.431	-6.71963	6.65002	-6.45856	1.02799
3739.436	-6.84069	6.93819	-6.03834	0.75387
3743.433	-7.51535	6.86005	-5.81137	-1.21347
3747.435	-7.30227	6.22516	-7.76511	0.87197
3751.433	-8.08166	5.90926	-4.12382	0.83303
3755.438	-7.02494	6.64849	-7.42068	2.39768
3759.438	-11.82421	6.62975	-6.61185	2.67721
3763.435	-7.12899	5.87902	-5.13744	0.38106
3767.431	-12.05307	9.57492	-4.17993	0.77802
3771.435	-7.01717	8.30159	-7.71023	2.01724
3775.433	-9.37689	6.14855	-7.48954	2.16662
3779.429	-7.09160	6.65527	-5.26135	0.41137
3783.435	-8.50100	9.36305	-4.92344	1.41787
3787.446	-11.86536	9.04895	-7.29308	2.57124
3791.437	-7.16605	9.47177	-6.73813	1.14222
3795.431	-8.73036	8.09719	-1.95696	1.73876
3799.440	-11.87475	9.05273	-6.90392	1.90505
3803.432	-6.53624	7.94317	-5.50257	2.76832
3807.435	-7.70419	8.98726	-6.93621	2.66683
3811.432	-6.75299	12.06655	-6.96731	0.84627
3815.428	-10.58637	9.43347	-7.70248	2.89080
3819.436	-9.02822	9.58727	-7.06034	2.86051
3823.430	-9.80747	9.26950	-6.75916	0.69673
3827.435	-12.29097	12.20743	-7.19586	1.51677
3831.430	-13.10092	13.05630	-7.28088	3.24595
3835.432	-13.09817	13.26309	-6.19407	1.52539
3839.430	-12.66840	10.79747	-7.35869	2.65800
3843.435	-9.41252	11.17674	-7.02528	1.20619
3847.443	-9.17070	13.71173	-6.18475	1.18580
3851.431	NaN	NaN	-7.14577	2.30270
3855.434	NaN	NaN	-6.68636	1.29645
3859.435	-8.29251	10.94626	-7.29133	0.82896
3863.425	-8.11586	14.22517	-6.76065	1.51880
3867.434	NaN	NaN	-7.38083	1.25094
3871.433	NaN	NaN	-6.90979	0.88151
3875.431	-5.38727	2.54917	-6.60688	1.04602
3879.426	NaN	NaN	-6.85366	0.82153
3883.434	NaN	NaN	-7.36320	1.15061
3887.433	NaN	NaN	-6.99137	1.07773
3891.433	NaN	NaN	-6.54362	0.97500
3895.430	NaN	NaN	-6.85449	1.13287
3899.430	NaN	NaN	-7.02577	1.27033
3903.433	-5.41679	2.03515	-6.98729	2.12706
3907.464	-8.47961	14.46525	-7.01947	1.49638
3911.433	-6.46566	1.93418	-7.72461	1.50150
3915.320	-11.21988	14.74198	-7.01098	1.93677
3919.307	-11.47131	2.12468	-8.91725	4.02704
3923.304	NaN	NaN	-10.31268	4.02794
3927.304	-11.45827	2.58295	-13.35666	5.47043
3931.313	NaN	NaN	NaN	NaN
3935.309	-18.18093	13.81314	-14.81859	2.00675
3939.304	-15.84454	11.29978	-15.09104	1.70261
3943.303	-17.64627	13.61773	-12.97064	-0.45749
3947.309	-19.98300	-12.07822	-14.30074	0.78238
3951.305	-19.98577	-12.07802	-14.42346	1.04947
3955.303	-18.51119	14.09516	-14.33374	1.24220
3959.302	-19.95928	-12.07998	-14.98912	2.90680
3963.303	-19.96503	-12.07956	-14.88593	2.74828
3967.305	-19.96606	-12.07948	-16.21190	1.63227
3971.308	-18.79531	13.12421	-14.95155	1.91552
3975.310	-18.75151	13.50122	-14.85695	1.35249
3979.304	-19.91110	-12.08356	-14.71456	1.56452
3983.307	-19.92257	-12.08271	-13.18692	0.80502
3987.302	-18.97801	13.88106	-14.26837	0.79728
3991.303	-19.89594	-12.08469	-14.48052	0.71699
3995.302	-19.78151	13.33651	-14.43973	0.81389
3999.308	-20.19837	13.72703	-14.41122	0.76000
4003.303	-19.94084	-12.08135	-14.49718	-0.10879
4007.307	-19.94347	-12.08116	-14.24156	0.75911
4011.301	-19.16851	13.27746	-14.58024	0.00750
4015.309	-19.23748	13.75124	-14.35344	0.60357
4019.306	-18.53440	9.73789	-14.21498	0.44678
4023.302	-18.41232	10.02365	-14.18836	0.63641
4027.302	-17.73707	10.31154	-14.26163	0.84175
4031.321	-19.88474	13.51113	-14.27767	1.30611
4035.312	-19.85419	13.56946	-14.35934	1.95884
4039.302	-19.92123	-12.08281	-14.86650	1.47775
4043.306	-19.88205	-12.08571	-17.54698	1.63297
4047.302	-19.88742	-12.08532	-14.58638	0.57459
4051.303	-19.89315	-12.08489	-14.62579	0.29076
4055.309	-19.93784	-12.08158	-14.53819	1.01072
4059.306	-18.32138	13.69484	-14.39622	1.16735
4063.304	-19.96766	-12.07936	-14.43952	1.44732
4067.305	-19.97338	-12.07894	-14.45719	1.65808
4071.298	-17.36314	13.90600	-14.37247	1.84112
4075.307	-17.10376	14.02739	-14.36183	2.00178
4079.304	-19.98320	-12.07821	-14.39070	2.07266
4083.306	-19.98351	-12.07818	-14.31731	1.69475
4087.298	-19.98388	-12.07816	-14.35852	0.32809
4091.318	-19.98428	-12.07813	-14.49558	1.19532
4095.311	-19.98471	-12.07809	-14.37566	1.14234
4099.306	-19.98517	-12.07806	-18.41324	-2.14963
4103.307	-19.99368	-12.07743	-14.53633	1.49311
4107.302	-19.99368	-12.07743	-16.52716	0.78335
4111.307	-19.99368	-12.07743	-14.37187	2.08891
4115.330	-17.65260	14.12006	-14.45600	2.11778
4119.311	-19.99265	-12.07750	-14.44380	2.77990
4123.303	-20.12478	12.87705	-14.46682	2.71527
4127.306	-14.39040	10.12605	-14.52372	2.19727
4131.311	-20.04271	-12.07377	-14.46794	1.09511
4135.327	-19.24418	13.27684	-14.24685	1.31201
4139.300	-22.82413	12.53028	-14.31948	0.96403
4143.302	-22.65910	12.66619	-13.99900	1.68423
4147.302	-18.74761	14.01301	-14.15724	1.43886
4151.303	-19.98769	-12.07787	-14.16835	1.40046
4155.314	-19.98656	-12.07796	-14.11106	1.62309
4159.302	-18.49430	12.97309	-14.09381	1.32275
4163.297	-18.81137	13.10279	-14.03078	1.74602
4167.305	-17.77907	13.98090	-13.94609	1.73307
4171.312	-18.06225	12.89260	-14.01218	2.50680
4175.307	-17.21211	12.96824	-13.91530	2.64930
4179.301	-19.86653	-12.08686	-14.01076	1.54596
4183.300	-19.89831	-12.08451	-14.00611	-1.15307
4187.302	-19.91812	-12.08304	-13.99739	1.56933
4191.304	-20.71344	13.68671	-13.94937	2.00653
4195.302	-17.17750	13.66071	-13.92229	2.66354
4199.300	-19.98693	-12.07793	-14.02540	1.53408
4203.299	-19.99493	-12.07733	-14.06474	1.70123
4207.300	-20.02501	-12.07509	-13.92157	1.69318
4211.295	-18.09648	13.25389	-18.25702	1.25688
4215.302	-20.01355	-12.07595	-14.01742	0.74009
4219.306	-20.01068	-12.07616	-13.98005	0.66209
4223.303	-20.00983	-12.07622	-13.93050	1.19320
4227.320	-19.61481	12.84724	-13.89921	0.97343
4231.298	-18.13609	13.17978	-13.84347	1.18149
4235.299	-18.95981	13.11831	-13.85487	1.11075
4239.301	-22.02640	13.19135	-14.09962	1.04508
4243.301	-19.88966	-12.08515	-13.96764	0.99395
4247.294	-20.44032	12.55730	-13.82740	1.09694
4251.305	-17.27760	13.28592	-14.24168	0.73726
4255.301	-21.23457	13.73193	-13.97398	1.25102
4259.302	-17.62005	12.53209	-13.85697	1.24400
4263.305	-18.07744	13.04510	-13.86261	1.22435
4267.297	-19.56562	12.61646	-13.38313	0.77165
4271.303	-19.97248	-12.07900	-13.74961	0.68717
4275.298	-16.67806	10.17497	-9.87772	0.74684
4279.299	-20.02085	-12.07540	-14.15034	0.64628
4283.302	-21.29438	13.50036	-13.87779	3.53928
4287.301	-20.03259	-12.07453	-13.81797	1.70838
4291.298	-23.51335	11.75591	-13.76294	1.27994
4295.297	-17.91406	10.78438	-13.74924	0.74828
4299.298	-20.28526	14.02667	-13.49523	1.53604
4303.305	-21.19382	13.59144	-13.58320	1.33447
4307.305	-20.06021	-12.07247	-14.13771	2.55937
4311.298	-20.10025	-12.06947	-13.86453	1.75882
4315.302	-19.82516	11.66281	-13.90441	1.73871
4319.301	-21.96984	12.66489	-13.81184	1.75835
4323.295	-17.46841	11.24852	-13.84684	1.41151
4327.297	-17.25069	12.58585	-13.74250	1.15431
4331.376	-20.35034	9.68122	-13.79620	1.02474
4335.305	-20.08302	-12.07076	-13.83463	0.88095
4339.297	-19.57331	8.86171	-13.83400	0.79503
4343.298	-19.28742	12.87745	-13.89484	0.88991
4347.302	-18.22877	10.92247	-13.81467	1.03243
4351.298	-18.23510	11.45750	-13.55693	0.53146
4355.299	-19.82226	-12.09013	-13.79723	1.29618
4359.296	-23.06506	12.47040	-13.57168	0.57930
4363.295	-19.91101	-12.08357	-13.68338	0.69372
4367.296	-18.36559	13.40509	-16.33866	-0.89650
4371.299	-19.91614	-12.08319	-13.80599	0.40137
4375.292	-15.78026	10.12207	-13.77609	0.76246
4379.301	-18.41683	9.59039	-13.98295	1.04872
4383.296	-22.99593	12.77087	-13.90319	1.63774
4387.305	-22.69548	13.27900	-14.79558	2.41594
4391.298	-20.31049	12.35870	-14.00648	0.37416
4395.301	-20.06001	-12.07248	-14.31200	0.46518
4399.295	-20.12511	11.19346	-14.15241	0.91406
4403.299	-20.07409	-12.07143	-13.89858	1.20764
4407.298	-19.85838	10.21597	-14.07480	1.06225
4411.293	-19.52301	10.72165	-13.97706	1.26413
4415.296	-21.30131	11.18011	-13.94640	1.72828
4419.294	-19.84134	12.54818	-14.38148	1.71740
4423.295	-13.67981	4.77630	-14.04886	1.42352
4427.296	-20.04470	12.72699	-14.12074	1.34591
4431.301	-19.83228	9.80325	-13.93006	0.86458
4435.299	-19.65439	11.55663	-14.06425	1.20135
4439.292	-19.73084	11.74390	-13.99543	1.32137
4443.295	-21.90420	9.79860	-14.54709	-1.08190
4447.297	-19.76680	-12.09422	-13.99433	0.98783
4451.312	-19.82178	-12.09017	-15.07257	0.15536
4455.297	-17.07086	11.67805	-14.08879	1.54300
4459.296	-17.93726	8.62327	-13.99288	1.45194
4463.297	-22.12049	11.23973	-14.04486	1.31626
4467.318	-20.57668	11.14998	-13.88600	1.05470
4471.305	-19.27285	10.38222	-14.11547	0.89445
4475.300	-20.53273	11.68834	-14.66083	1.04918
4479.291	-20.43649	12.10841	-14.18575	1.53418
4483.295	-21.99506	12.61251	-14.16282	2.35945
4487.298	-18.89505	8.80872	-13.97933	1.73637
4491.295	-20.21876	12.96483	-13.86832	1.85701
4495.291	-20.32438	12.66932	-13.94490	1.41708
4499.301	-19.98449	10.68147	-13.97405	1.26557
4503.294	-17.67599	7.64410	-14.01228	1.05560
4507.298	-20.09425	-12.06992	-13.95769	1.02366
4511.294	-20.03969	-12.07400	-14.17714	0.96047
4515.309	-16.46964	12.93149	-12.44687	-0.88107
4519.302	-15.00431	0.16801	-20.23749	-0.68077
4523.295	-18.33330	12.71485	-14.33597	0.03428
4527.326	-19.69706	-2.60464	-10.45771	5.23491
4531.306	-15.35154	-0.10627	-10.13323	2.27327
4535.327	-11.79420	0.05692	-9.35075	2.02391
4539.299	-11.00451	8.26306	-9.05446	1.45373
4543.319	-8.39739	4.07567	-9.88757	0.09378
4547.298	-5.93124	5.95094	-8.78905	2.44499
4551.293	-5.92076	6.18646	-7.94825	1.89977
4555.297	-6.75690	6.77430	-8.74161	2.30111
4559.288	-8.37257	5.95630	-8.72896	2.44536
4563.292	-7.88702	6.57468	-8.63318	2.16166
4567.295	-8.36355	7.43068	-8.39902	1.78970
4571.292	-11.41118	5.59008	-8.75364	1.99514
4575.291	-12.19451	5.94888	-8.57580	1.52093
4579.298	-10.32623	3.90723	-8.65256	0.22097
4583.293	-4.02334	4.13711	-8.37281	-0.17022
4587.288	-4.32483	5.88076	-7.10247	1.22157
4591.290	-4.43253	4.41979	-6.36650	1.63716
4595.312	-5.08990	6.39439	-7.92164	1.93262
4599.294	-7.90255	5.27391	-7.67318	1.45638
4603.299	-8.72144	4.52854	-7.94138	1.26482
4607.293	-8.57631	5.87554	-8.23461	0.50606
4611.298	-9.53789	8.85682	-8.33972	1.01013
4615.299	-6.94379	7.71039	-8.00134	1.54240
4619.295	-4.53223	1.81724	-7.43742	1.66961
4623.296	-7.40679	5.51721	-7.30415	1.26544
4627.292	-10.59112	10.60447	-7.54983	1.16332
4631.296	-9.36820	8.55300	-7.44616	1.16490
4635.290	-7.84145	5.49540	-7.35148	1.38322
4639.309	-8.07601	5.17738	-7.69246	1.35755
4643.294	-7.19043	6.05007	-9.34505	0.98774
4647.297	-9.11363	6.71579	-7.86189	1.35100
4651.288	-3.36156	5.17557	-7.95816	1.04152
4655.305	-5.92861	10.27096	-8.12819	1.06059
4659.299	-7.48375	5.24804	-7.72393	1.55520
4663.289	-7.19901	5.51143	-7.86242	1.39848
4667.291	-9.04730	5.04964	-8.08808	1.48609
4671.292	-11.70611	4.96846	-7.94835	1.43840
4675.299	-9.76686	3.97208	-8.15956	1.26945
4679.296	-12.64508	1.06813	-8.29562	1.23640
4683.291	-12.85107	-1.28915	-8.48311	1.29228
4687.290	-13.12825	3.70214	-8.62527	1.34270
4691.295	-9.71237	7.84134	-8.92718	1.22570
4695.292	-10.04333	0.87986	-8.94748	1.26116
4699.287	-7.40157	3.18201	-8.52399	1.04603
4703.293	-9.93325	4.33855	-8.95290	0.91916
4707.287	-11.47789	4.81925	-8.97770	1.07655
4711.291	-11.49550	6.29326	-9.09209	0.95815
4715.305	-12.96948	3.62451	-9.15326	0.92296
4719.293	-12.94759	4.79654	-8.96157	0.83366
4723.303	-12.69918	0.50547	-9.17744	0.95167
4727.292	-8.88053	2.38199	-8.99341	0.68145
4731.292	-11.84446	0.11158	-9.29174	0.77454
4735.297	-6.70932	-1.17233	-9.27201	0.99302
4739.297	-12.03695	2.22101	-9.03280	0.98571
4743.296	-11.10194	1.62720	-9.06516	1.01406
4747.289	-11.92241	6.17070	-9.17885	1.02403
4751.291	-11.59377	5.56916	-9.15323	1.01611
4755.290	-13.48437	5.29972	-9.21174	0.92828
4759.290	-11.58498	5.65539	-9.02941	1.06070
4763.318	-6.15652	4.10350	-8.90037	1.71509
4767.294	-10.74448	13.17747	-13.57037	1.51994
4771.165	-12.26505	11.16568	-15.00538	3.33197
4775.168	-15.87155	12.73980	-4.63139	1.24380
4779.289	-15.85359	14.55351	NaN	NaN
4783.166	NaN	NaN	NaN	NaN
4787.164	NaN	NaN	NaN	NaN
4791.162	NaN	NaN	NaN	NaN
4795.182	NaN	NaN	NaN	NaN
4799.161	NaN	NaN	NaN	NaN
4803.165	NaN	NaN	NaN	NaN
4807.406	NaN	NaN	NaN	NaN
4811.162	NaN	NaN	NaN	NaN
4815.170	NaN	NaN	NaN	NaN
4819.163	NaN	NaN	NaN	NaN
4823.163	NaN	NaN	NaN	NaN
4827.160	NaN	NaN	NaN	NaN
4831.167	NaN	NaN	NaN	NaN
4835.163	NaN	NaN	NaN	NaN
4839.166	NaN	NaN	NaN	NaN
4843.164	NaN	NaN	NaN	NaN
4847.165	NaN	NaN	NaN	NaN
4851.180	NaN	NaN	NaN	NaN
4855.208	NaN	NaN	NaN	NaN
4859.224	NaN	NaN	NaN	NaN
4863.409	NaN	NaN	NaN	NaN
4867.395	NaN	NaN	NaN	NaN
4871.480	NaN	NaN	NaN	NaN
4876.548	9.08876	13.88460	NaN	NaN
4880.759	1.41740	12.19765	0.13315	8.77134
4883.412	3.60319	2.87390	-1.49644	8.04456
4887.175	-5.31258	7.84305	3.81274	12.52900
4891.171	-7.90930	6.99230	NaN	NaN
4895.171	-5.79632	5.84851	-1.91858	6.81865
4899.166	-6.74746	5.51097	-2.93762	6.31139
4903.169	-10.01515	8.51381	-2.03085	2.92045
4907.170	-5.86101	4.90850	-3.44728	2.79789
4911.163	-4.53398	3.45582	-5.55573	4.94059
4915.164	-5.15165	5.10281	2.28626	-2.00936
4919.168	-2.20453	10.49828	-1.75012	5.85833
4923.163	-5.57613	10.28406	-4.14697	5.42451
4927.167	-3.21901	5.78411	-4.00252	3.23795
4931.159	-2.19574	-0.14007	-4.13006	2.89782
4935.166	-2.20364	0.11623	-2.99755	2.69113
4939.165	NaN	NaN	NaN	NaN
4943.167	NaN	NaN	NaN	NaN
4947.173	-2.28447	2.14991	-1.95398	3.74942
4951.167	-2.50593	-1.39263	0.08401	2.95185
4955.163	-2.80129	3.29301	-6.03537	3.24997
4959.166	-2.07603	1.87111	-2.13192	2.69526
4963.160	-1.92518	1.64639	0.20276	4.34147
4967.177	-3.18977	1.41037	-0.56210	3.46967
4971.168	-7.24368	4.34705	-0.83205	1.71544
4975.195	-1.92205	1.02985	-4.99785	2.78370
4979.167	-1.75324	1.98613	-0.98452	4.34318
4983.162	-1.91563	1.05277	-1.67544	4.07646
4987.165	-1.76028	2.15601	0.37015	3.54549
4991.166	-2.67695	2.54135	-0.70704	2.86166
4995.160	-10.01674	-1.31050	-2.03823	1.97874
4999.163	-8.69629	-0.05944	-1.21283	2.53497
5003.160	-5.68295	-0.98945	-4.64004	2.45051
5007.164	-3.73917	1.25568	-2.35241	3.03462
5011.162	-1.62341	2.30949	-2.12771	3.64610
5015.170	-1.81471	1.81280	-0.83694	3.35766
5019.168	-1.97518	-0.38282	-0.71848	2.33296
5023.163	1.23776	0.93820	-0.89073	2.07985
5027.158	-2.01484	0.99151	-0.78764	1.96230
5031.162	-3.03393	1.09279	0.02172	3.09659
5035.162	-3.94730	0.91485	-1.18475	2.99503
5039.165	-2.02527	1.06251	-7.06889	3.43682
5043.163	-1.83685	1.20049	-3.52299	3.71218
5047.164	-1.76336	0.19450	-0.80431	3.87472
5051.159	3.78677	-0.65307	4.80734	0.28850
5055.164	-3.78837	2.41500	0.87793	3.44344
5059.165	-3.13934	1.71443	-1.12211	3.63215
5063.164	0.93177	1.09944	-2.71124	3.57284
5067.158	-2.92371	3.29024	-2.28351	3.54709
5071.165	-3.11925	1.23288	-1.45889	5.98843
5075.160	-1.57451	-1.24299	-0.92934	4.41182
5079.163	-3.38751	1.25170	-1.05994	4.20442
5083.184	-5.12494	1.23868	-1.59579	4.19217
5087.166	-5.17863	0.38584	-1.13079	3.71789
5091.167	-5.29558	3.23844	0.14101	4.04038
5095.164	-7.48375	2.86291	-1.25833	3.50992
5099.169	-3.85279	-0.19881	-0.44984	2.57150
5103.162	-5.61156	4.13477	0.05959	3.78769
5107.164	-11.33361	3.29334	-1.27204	3.18547
5111.161	-6.35839	2.97348	-0.21604	2.41087
5115.157	-3.32612	1.80993	-2.85784	2.41425
5119.163	-2.68933	0.07809	-0.71439	2.98114
5123.160	-1.99701	1.22282	0.11151	2.65598
5127.163	-0.25738	0.30944	-0.96894	4.01245
5131.158	-3.34984	0.02910	-6.38055	2.31254
5135.164	-2.61201	0.61671	-2.90277	2.26436
5139.160	-5.76502	-0.01540	-6.31934	1.77706
5143.167	-8.45473	5.65370	-5.15539	-1.44531
5147.158	-6.74254	7.86757	-6.62542	2.52908
5151.209	-6.80284	9.10258	-7.04059	2.24775
5155.187	-7.61048	7.93024	-8.20870	-1.41761
5159.168	-8.88145	11.70364	-7.14233	-4.53266
5163.162	-12.65635	11.03246	-6.21259	0.53091
5167.157	-9.61547	10.80866	-7.05198	-0.81677
5171.164	-9.69127	10.99965	-6.66499	1.09761
5175.160	-10.11016	11.32987	-6.21563	3.07480
5179.189	-13.81404	11.21091	-5.84328	2.75993
5183.160	-13.14953	11.29242	-6.84243	3.03364
5187.163	-13.58845	11.63219	-6.59003	2.96665
5191.161	-5.77278	1.65055	-6.60953	2.29865
5195.161	-10.27386	11.79166	-5.83277	2.58581
5199.156	-5.78180	0.08715	-2.29193	-14.85116
5203.163	-5.88095	1.42781	-2.33591	-13.68230
5207.157	-6.26574	1.25050	-19.99372	-12.34176
5211.160	-6.00771	0.50277	-4.60412	1.05264
5215.174	-6.70700	-1.53709	-3.99946	-0.70716
5219.160	-7.18941	-0.27940	-4.42449	0.12402
5223.173	-6.70986	1.45653	-5.20866	-3.78398
5227.163	-7.11305	-0.58025	-6.05143	-0.58006
5231.161	-6.37668	0.60642	-4.30211	-2.26030
5235.154	-2.40077	-1.18137	-5.84264	-1.49298
5239.156	-4.52207	0.97747	-6.99206	-2.36138
5243.160	-6.21696	0.20118	-4.27809	-1.18699
5247.159	-5.58100	0.14240	-7.45416	1.41762
5251.155	-7.20086	10.99995	-6.48367	-1.09241
5255.159	-6.49016	11.25289	-6.72276	-1.01496
5259.158	NaN	NaN	-6.64067	-0.69455
5263.156	-10.63195	11.04939	-7.14805	-1.59850
5267.161	NaN	NaN	-6.43883	0.15428
5271.161	-5.01179	12.83308	-6.14953	0.12477
5275.158	-5.68720	1.16858	-5.81405	-0.81301
5279.160	-5.73207	1.83804	-5.99544	-0.88360
5283.162	-7.54481	1.62679	-3.90755	-0.14942
5287.171	-5.50427	0.70765	-4.20126	0.55699
5291.164	-7.36506	10.98481	-4.60296	-1.15876
5295.155	-7.69653	11.09976	-5.37874	0.62520
5299.165	-9.88665	10.54590	-6.13537	1.23848
5303.158	-5.59064	10.55518	-7.18411	2.03040
5307.164	-6.91293	9.99134	-7.61680	2.91519
5311.161	-5.81233	7.93171	-7.15193	1.88817
5315.154	-8.60194	8.22282	-5.81921	2.84866
5319.161	-7.53942	9.34045	-3.77305	2.86328
5323.156	-7.27812	9.74810	-5.88783	0.82352
5327.160	-6.69165	9.17661	-7.91587	-1.21114
5331.155	-8.25776	3.76543	-7.84766	0.89099
5335.160	-10.62056	4.66939	-7.86398	1.80588
5339.156	-7.93245	4.53160	-6.88419	2.40167
5343.157	-10.35918	5.15294	-8.30291	0.80737
5347.159	-3.99823	5.65063	-7.58732	0.73361
5351.162	-8.14059	4.94412	-6.38690	2.23304
5355.159	-7.39598	5.16279	-7.15247	2.61259
5359.161	-4.74930	2.31342	-6.56814	0.30072
5363.157	-6.41395	2.08441	-7.18274	1.74938
5367.155	-6.42729	3.92337	-6.05503	-0.12022
5371.155	-5.01920	1.57113	-6.82498	1.78267
5375.159	-4.33962	-1.85663	-6.74313	2.52940
5379.157	-4.89227	0.28004	-6.81754	1.04189
5383.158	-4.61142	-1.66998	-5.33167	1.02894
5387.153	-8.31494	0.93141	-6.74533	0.00533
5391.165	-6.98306	-1.11128	-6.68563	0.55706
5395.159	-5.16051	0.90458	-6.63230	2.24829
5399.186	-7.37536	0.27201	-4.88552	1.77442
5403.161	-4.69677	0.38911	-6.74648	1.52745
5407.157	-3.75034	1.04280	-6.38832	-1.08062
5411.157	-3.88779	0.82202	-6.97827	1.67169
5415.170	-4.57278	-0.23001	-8.65853	1.34616
5419.158	-3.04633	1.08176	-8.10873	5.71688
5423.188	-9.07152	0.97371	-8.07905	-3.71214
5427.165	-15.17924	1.02595	-15.14608	1.78515
5431.153	-9.10971	5.86322	-15.57240	2.27136
5435.162	-12.23661	6.86498	-16.19267	1.02375
5439.154	-15.21920	4.05799	-16.17885	1.80308
5443.153	-13.88794	5.41044	-16.13899	2.20349
5447.155	-14.05028	5.54326	-15.90591	2.79118
5451.153	-15.13549	6.76971	-15.45057	1.53775
5455.148	-15.28226	2.54614	-15.87462	1.28289
5459.158	-15.55471	2.64528	-16.00392	1.49292
5463.154	-15.19399	2.26299	-16.12655	1.71300
5467.151	-14.43885	1.04964	-15.83962	1.79816
5471.158	-13.78302	1.53359	-15.65403	1.97943
5475.157	-14.19525	1.22515	-15.76561	2.10431
5479.153	-14.67030	1.82234	-15.90224	1.91041
5483.152	-15.89118	1.67325	-15.70374	2.12518
5487.153	-16.65478	2.10312	-15.66238	2.32548
5491.152	-16.65722	2.39705	-15.66882	2.03764
5495.160	-16.28363	1.30312	-15.83317	1.77045
5499.152	-16.73010	-0.63289	-15.78021	2.01856
5503.153	-14.41063	0.81828	-15.75024	1.93714
5507.147	-15.54515	-0.26880	-15.77575	1.91576
5511.151	-14.41902	-1.32344	-15.77807	1.82286
5515.174	-16.59531	-1.03606	-15.89565	1.49908
5519.157	-16.44754	0.60015	-15.90265	1.94650
5523.150	-15.37607	0.12270	-15.81282	2.79633
5527.160	-16.05573	1.79945	-15.67299	2.19216
5531.156	-14.64050	1.80573	-15.49015	1.83521
5535.152	-14.65277	0.34107	-15.77081	1.66780
5539.151	-16.49122	2.05729	-15.49094	1.45020
5543.152	-13.49300	0.37619	-15.44714	1.52518
5547.147	-13.49145	0.76818	-15.60970	3.01092
5551.158	-18.14889	5.22562	-15.52149	2.17864
5555.152	-16.27110	2.11042	-15.67745	1.95719
5559.159	-16.74000	1.08492	-15.74876	1.39842
5563.160	-10.29848	6.28066	-15.40057	3.21532
5567.154	-16.40276	2.30599	-15.28155	2.40135
5571.153	-16.71797	6.46348	-15.33100	1.62584
5575.152	-20.39876	8.48726	-15.23551	1.83968
5579.159	-16.33173	2.09665	-15.22033	1.58973
5583.153	-15.93573	1.19447	-15.58364	2.81047
5587.152	-15.73419	1.41937	-15.51057	2.73121
5591.168	-15.06271	2.24626	-15.10059	1.87582
5595.156	-14.98329	-0.21292	-15.37314	2.40961
5599.157	-15.00776	1.26177	-15.45308	1.43919
5603.147	-13.72875	0.89875	-15.31108	2.61647
5607.154	-15.29462	1.68099	-15.56620	2.45348
5611.151	-15.29092	-0.15753	-15.59625	2.10483
5615.183	-14.93471	1.58330	-15.51822	3.28455
5619.156	-15.09714	1.32527	-15.64867	2.45495
5623.022	-14.74479	0.83477	-15.74290	2.18438
5627.025	-14.03825	0.41184	-15.66505	2.12458
5631.026	-15.84123	2.07623	-15.42913	1.85532
5635.022	-18.68795	5.16155	-15.51149	1.29286
5639.026	-15.50695	2.64866	-15.67326	3.44602
5643.025	-17.61372	1.46389	-15.36341	2.22373
5647.034	-14.53767	1.11787	-15.36733	1.59520
5651.022	-15.27376	0.08162	-15.47561	1.09602
5655.025	-16.38614	2.25516	-15.61391	1.30539
5659.024	-14.19233	2.57203	-15.45032	1.46370
5663.020	-13.75570	0.84623	-15.32375	1.62513
5667.029	-16.68100	2.26327	-14.92211	0.97973
5671.027	-14.90526	0.81132	-14.81614	1.14735
5675.024	-15.81902	0.11158	-14.95609	1.65451
5679.024	-14.27611	0.49472	-15.09772	2.49406
5683.024	-15.41344	2.33144	-14.96865	1.91722
5687.034	-14.02797	1.38127	-14.99225	0.99438
5691.023	-15.51734	0.13186	-15.18039	0.80241
5695.054	-16.08880	0.75534	-15.30228	0.90300
5699.026	-14.22190	0.36384	-15.38994	1.19570
5703.024	-14.82590	1.24767	-15.34169	2.01255
5707.025	-14.51812	1.29946	-15.15388	1.40829
5711.024	-13.94528	0.37224	-15.12888	1.23106
5715.021	-15.28831	0.20295	-14.99544	1.26725
5719.030	-13.64816	-0.20735	-15.20563	1.25329
5723.026	-15.16671	1.93805	-15.15073	0.92741
5727.022	-15.17651	0.93068	-15.02369	0.97967
5731.028	-13.79173	-0.69045	-15.10443	1.20017
5735.026	-14.25075	1.21837	-15.16107	1.90327
5739.028	-14.53881	1.20567	-14.90072	0.19650
5743.019	-14.56151	1.17843	-14.91645	1.00916
5747.023	-14.60116	-0.93336	-14.76407	1.48044
5751.023	-14.59061	-1.00476	-14.77830	2.29725
5755.028	-14.54128	0.59436	-14.75298	0.46415
5759.019	-14.84051	0.28228	-14.83432	0.62783
5763.059	-14.67748	0.04719	-14.93631	1.65188
5767.030	-14.98486	1.69705	-14.74242	0.33910
5771.029	-14.41971	0.35615	-14.98725	1.01245
5775.024	-14.41240	0.29735	-15.09819	1.82532
5779.024	-14.67023	2.30898	-14.89900	0.19028
5783.023	-15.01362	1.19056	-15.10855	0.98194
5787.021	-14.67690	0.11610	-15.12784	1.74210
5791.017	-13.13992	0.37166	-15.20843	1.68973
5795.022	-14.26674	2.22103	-15.14814	0.68800
5799.022	-14.32414	2.57451	-15.17568	1.19742
5803.023	-15.24385	0.05613	-15.17686	1.59610
5807.022	-14.27979	1.01201	-15.24064	1.83209
5811.033	-13.64485	0.97927	-15.15418	0.90548
5815.045	-14.29042	0.67655	-15.05309	0.93441
5819.027	-14.95195	1.26815	-15.04464	1.63637
5823.023	-13.81237	-0.62006	-15.05056	2.09329
5827.025	-13.89213	0.66842	-14.99593	2.60739
5831.025	-14.13589	0.14104	-15.02249	2.10404
5835.024	-13.90254	-0.34505	-14.85929	2.03116
5839.023	-13.87550	0.31293	-14.83940	2.13584
5843.021	-13.67321	0.00995	-14.57243	0.64203
5847.023	-14.36965	0.16053	-14.55025	0.94278
5851.023	-14.37708	0.74818	-14.30890	0.39948
5855.027	-14.16140	0.35444	-14.51560	1.50065
5859.025	-17.19544	1.38463	-14.44155	1.24490
5863.027	-13.63484	0.47311	-14.55023	1.21267
5867.021	-13.78366	0.14630	-14.61462	1.65454
5871.016	-14.66821	1.51225	-14.95834	1.30982
5875.019	-14.35130	0.91145	-14.84202	1.70408
5879.022	-16.89466	1.75054	-14.88820	2.25072
5883.024	-17.05045	2.38128	-14.59091	2.34416
5887.024	-14.70542	2.06433	-14.53500	2.57237
5891.016	-14.06502	2.35503	-14.52630	2.69734
5895.030	-14.33753	1.37710	-14.73304	2.82384
5899.024	-13.68122	0.05633	-14.96534	2.75016
5903.040	-14.55983	1.08650	-14.68742	2.67534
5907.022	-12.94815	1.36809	-14.93701	2.90511
5911.023	-17.24001	2.32851	-15.00420	2.95454
5915.020	-17.18627	2.24803	-14.91119	2.95925
5919.021	-13.07514	0.36583	-14.95060	2.72111
5923.020	-13.43714	1.63352	-14.74156	1.98733
5927.020	-14.44567	1.30561	-14.59424	2.22084
5931.016	-14.36621	1.02794	-14.71317	1.56434
5935.025	-13.72104	0.45023	-14.91497	1.95583
5939.024	-14.14390	-0.05576	-14.84403	1.35456
5943.027	-15.31332	0.71875	-14.84714	1.27647
5947.020	-16.54825	1.89371	-14.90359	1.67711
5951.024	-16.71975	3.06828	-14.84619	1.30805
5955.022	-16.31653	2.08395	-14.91814	2.59472
5959.024	-14.60172	2.08915	-14.88366	1.80361
5963.016	-12.50415	0.54168	-14.75683	1.69049
5967.018	-14.81530	2.08023	-14.79092	1.47469
5971.023	-15.18936	2.38553	-15.68902	1.39900
5975.020	-14.55049	2.11661	-15.45364	1.27139
5979.021	-10.98047	-0.06123	-15.12236	1.08684
5983.025	-11.63023	1.97508	-15.15896	1.29681
5987.020	-12.35251	2.64591	-15.36248	1.08759
5991.016	-16.82270	0.09724	-15.11132	1.12069
5995.019	-17.50523	0.36023	-15.12675	0.88867
5999.031	-17.53071	1.09678	-15.04529	0.14031
6003.028	-17.40080	0.27105	-14.81347	0.83023
6007.020	-17.22257	-0.32443	-14.96013	0.80579
6011.018	-17.89835	2.14731	-14.86898	0.61508
6015.020	-16.62840	3.70701	-14.61446	0.27137
6019.030	-11.86453	2.19516	-14.60163	0.62370
6023.023	-11.81085	2.30570	-14.48892	0.52916
6027.023	-13.44998	2.31096	-14.57239	0.35415
6031.025	-13.88703	3.92495	-14.60851	0.54190
6035.037	-13.54035	3.11236	-14.61109	0.47111
6039.023	-13.68799	2.88241	-14.82704	0.68149
6043.039	-12.48050	1.89029	-14.91627	1.06074
6047.017	-12.59113	3.09106	-15.06584	1.23536
6051.017	-13.86338	2.15383	-15.17882	0.29359
6055.017	-17.42974	1.49804	-14.67469	1.01860
6059.022	-16.55573	1.88557	-14.77254	2.07737
6063.022	-13.45177	1.91593	-17.73196	0.89630
6067.022	-13.78829	1.24165	-11.02120	3.76064
6071.013	-9.94450	1.44996	-8.90548	1.92448
6075.018	-11.15331	0.63227	-6.60478	1.59133
6079.017	-5.84657	0.78239	-5.99748	0.93200
6083.017	-0.64647	-5.00189	-7.75814	-1.30433
6087.016	-2.83657	1.41304	-3.29337	1.30927
6091.021	-3.39829	0.80531	-3.70193	0.14492
6095.020	-4.95201	-0.93049	-3.32978	0.74026
6099.017	-3.69118	-1.53817	-2.61595	1.19703
6103.025	-0.33357	5.24173	-2.58024	1.32807
6107.023	-0.82955	2.61564	-3.36990	3.33754
6111.017	2.03771	0.79603	-4.86919	3.06618
6115.020	-2.41180	3.52334	-5.66676	1.83338
6119.021	-3.60002	1.32969	-6.20170	-0.16176
6123.015	-3.16273	0.49095	-6.79207	-0.03445
6127.022	-2.85133	5.13890	-6.35184	1.07346
6131.018	-1.09343	1.69545	-6.43765	0.68538
6135.020	-4.08841	3.30582	-3.84424	1.53134
6139.016	-3.05432	1.06777	-4.16816	1.48972
6143.019	-3.85817	2.08956	-3.64377	0.72769
6147.025	-4.04468	1.49215	-4.01766	0.62892
6151.065	-6.17026	5.11009	-5.32838	-0.05584
6155.044	-3.73307	5.51519	-3.83981	0.99863
6159.025	-6.32169	4.92368	-2.77042	-0.03060
6163.017	-2.79966	5.34528	-2.95403	-0.02943
6167.021	-4.94383	3.81454	-3.75319	0.82423
6171.021	-5.66332	4.02382	-3.59669	1.19671
6175.020	-3.74933	4.77235	-3.74105	2.19347
6179.014	-5.55302	3.58322	-3.31113	1.64789
6183.017	-4.37164	4.93434	-3.63475	0.83352
6187.025	-4.25006	5.30265	-6.82931	1.59343
6191.013	-4.70685	3.82225	-5.98930	0.44177
6195.023	-5.09027	4.13841	-5.14328	0.58488
6199.018	-5.05043	0.46928	-5.00795	0.18796
6203.020	-5.39300	1.75487	-4.08589	0.42341
6207.016	-1.41023	-0.62246	-3.90953	1.16875
6211.021	-3.47846	0.86346	-3.23900	0.23869
6215.016	-3.29377	1.34410	-3.99067	1.64855
6219.020	-5.34567	4.22574	-4.85958	1.43104
6223.020	-3.47695	3.74370	-4.53813	2.36402
6227.014	-3.45517	3.48166	-3.58358	1.16128
6231.026	-5.85406	3.30519	-3.29854	-0.12855
6235.016	-6.39263	3.37102	-3.37739	-0.17205
6239.033	-8.02222	-0.23624	-2.90970	0.05276
6243.044	-6.51697	0.12394	-3.81340	2.24275
6247.014	-8.68635	-0.17728	-3.19952	1.50213
6251.019	-4.73613	2.74797	-2.38658	0.75059
6255.013	-6.76706	3.94358	-3.04271	0.99284
6259.018	-3.99704	3.44986	-3.35971	0.44876
6263.015	-4.58861	-0.89686	-3.28996	0.26468
6267.018	-3.32291	-0.59340	-3.34267	0.40998
6271.017	-5.99870	-0.72497	-6.54678	0.08226
6275.024	-4.42365	2.57639	-6.58910	0.40532
6279.026	-4.64916	2.42024	-4.52774	0.03986
6283.017	-6.02018	2.88152	-3.78598	0.08542
6287.023	-3.01044	2.53990	-3.27529	0.04391
6291.014	-5.95754	2.39129	-3.03690	0.31206
6295.019	-2.36891	-0.89056	-4.23786	0.41597
6299.013	-4.58343	1.96621	-3.60961	0.85365
6303.019	-9.06334	2.10006	-3.30396	0.95219
6307.033	-5.02652	1.87145	-4.10026	1.69707
6311.028	-8.07847	1.01015	-3.77189	1.62629
6315.019	-7.92089	0.73180	-4.14601	1.93248
6319.014	-6.49247	-0.54380	-3.81812	1.05970
6323.018	-6.46208	-0.75144	-5.75107	0.24506
6327.016	-1.97753	-1.09047	-4.89387	0.50387
6331.018	-5.38115	-2.25188	-7.39183	-1.73855
6335.012	-5.09034	-1.71492	-6.08333	0.30988
6339.018	-1.85366	-2.23727	-5.67160	1.17078
6343.014	-1.58512	-2.92142	-4.20439	0.37272
6347.014	-3.29283	0.60996	-3.89960	1.42582
6351.017	-5.13597	-2.64171	-3.41328	0.45090
6355.019	-4.90033	-1.92963	-3.12091	0.73845
6359.017	-9.68146	-4.37045	-2.56629	0.52638
6363.012	-8.00732	-3.27910	-3.54937	-0.04487
6367.017	-7.79157	-2.79301	-3.23848	0.37273
6371.016	-7.71530	-3.83279	-3.85172	0.96805
6375.045	-6.73015	-3.10925	-3.46741	1.89706
6379.019	-7.65688	-2.51832	-3.23338	1.37895
6383.012	-5.78583	-0.81381	-2.73533	1.64775
6387.018	-5.86634	-0.80250	-3.72291	2.42892
6391.014	-9.36810	-1.47498	-2.55455	1.00199
6395.021	2.57281	-2.15682	-0.96368	0.50219
6399.011	-0.66923	-0.36960	-4.04364	0.59284
6403.016	-5.91381	-3.06945	-1.96657	0.12956
6407.016	-3.26797	-5.27959	-0.07897	0.31034
6411.011	2.37981	-5.55523	0.42934	0.58404
6415.014	-2.75789	-6.31941	-0.53190	1.83900
6419.025	-0.51746	-4.68708	-0.65136	2.30754
6423.017	1.97649	-1.53269	-0.02886	2.71497
6427.017	1.85440	-2.17768	0.56659	0.84663
6431.016	2.01010	-2.78937	-0.95098	2.46167
6435.015	3.10703	2.57741	-0.79215	2.61904
6439.012	-0.02899	-5.04738	0.07363	2.55769
6443.027	1.22330	-3.63113	-1.37079	2.46046
6447.019	0.92636	-4.25549	0.39112	2.37647
6451.014	0.07602	-6.24810	-0.36196	1.37364
6455.017	-0.11208	1.97775	-0.28270	0.79727
6459.013	-0.31074	-3.84511	0.03896	1.53397
6463.014	-1.46335	-0.07532	0.41388	0.90704
6467.015	-0.38273	-3.03748	-0.14707	1.54223
6471.015	0.32819	0.14656	0.28525	1.14625
6475.014	0.30168	-0.57749	0.42266	0.95921
6478.884	-0.25629	-1.62056	0.47048	1.12434
6482.890	-1.81438	-2.69223	0.70201	0.65510
6486.887	-0.74347	-4.01862	0.34250	3.50174
6490.885	-0.11108	-2.66045	0.48081	0.84637
6494.883	-0.27537	-5.35625	0.34590	0.98344
6498.890	0.23907	-4.23896	0.52602	-0.15068
6502.888	0.69424	-5.93980	-0.05274	1.03006
6506.886	2.28891	-2.53548	-4.04804	0.14610
6510.907	2.67474	-1.60691	-3.82373	0.24947
6514.887	6.03456	-4.38303	-3.65697	-0.05166
6518.891	6.20384	-3.16701	-3.10611	-0.23885
6522.886	1.98467	-2.66238	-2.90559	-0.25844
6526.899	0.02564	-2.44214	-0.22351	1.45807
6530.895	-1.37027	-2.34929	-0.02546	1.36359
6534.886	0.07559	-2.24248	-0.39251	2.94415
6538.889	0.33079	-2.51067	-0.58285	2.48073
6542.884	0.48227	-2.18318	-1.28576	4.49833
6546.890	0.18643	-2.27470	-0.96140	2.35866
6550.889	2.31403	-2.64193	-0.75528	2.90644
6554.888	0.29374	-2.11536	-1.09274	2.61710
6558.887	0.21333	-2.33977	-0.77146	2.44447
6562.892	0.18573	-2.34461	-1.04166	1.86004
6566.892	0.13863	-0.24399	-0.14476	1.99763
6570.889	0.24480	-2.50906	-0.86897	2.79993
6574.883	0.41631	-2.43964	-1.16471	3.52278
6578.882	0.28121	-0.02159	-0.93197	4.07509
6582.891	0.30942	-2.50490	-0.73054	2.94732
6586.885	0.29431	0.01752	-0.83272	4.38827
6590.888	3.09369	-2.27712	0.92200	3.32381
6594.890	2.17546	-1.99664	-0.18236	2.94678
6598.886	4.45074	-2.69392	0.25555	2.90895
6602.886	-3.64731	-1.91158	1.04260	2.86604
6606.889	-0.02966	-3.77728	1.10083	1.33131
6610.890	-3.53899	-1.30246	0.42088	2.49517
6614.883	-3.69269	-2.38796	0.62456	2.75326
6618.890	-3.59355	-4.49385	-0.06420	1.39120
6622.886	-3.71926	-5.04375	0.71469	1.74235
6626.883	2.93500	-1.35768	0.56074	1.35722
6630.886	1.27842	-2.09001	0.86314	1.49201
6634.887	0.82885	-1.29960	0.49785	1.53411
6638.882	0.93093	-1.58630	0.67680	1.52386
6642.889	0.50463	-1.53004	-0.21249	1.27616
6646.887	0.82610	-1.30519	-4.20202	0.62598
6650.896	3.01920	-1.24096	-3.85316	0.41909
6654.894	3.01433	-2.35664	0.22755	2.15133
6658.888	1.16456	1.48628	1.95944	0.51583
6662.884	1.08465	0.10330	3.39280	0.86364
6666.888	3.92070	0.42238	3.80115	1.04839
6670.914	NaN	NaN	NaN	NaN
6674.885	4.17973	-5.63260	7.04926	3.46449
6678.880	7.47827	-3.50294	8.76350	3.12736
6682.886	2.92495	-3.12025	7.13094	0.94408
6686.887	4.18092	-4.34171	7.15134	0.45166
6690.891	7.25289	-0.87078	7.60197	1.73074
6694.881	5.18788	-4.57212	9.31390	0.52256
6698.887	13.60092	-5.38910	8.69270	0.04137
6702.885	4.53287	-4.89412	9.48912	-0.06939
6706.885	7.26842	-0.83743	9.46563	-0.33114
6710.880	6.89571	-5.44352	9.83216	-4.51180
6714.902	7.09162	-0.67378	9.74065	-1.83289
6718.884	7.14167	-0.75018	10.65947	-4.89227
6722.886	7.11007	-0.54113	9.39716	-4.75943
6726.887	7.65439	-7.97683	9.63450	-4.58372
6730.882	8.23063	-5.06326	9.20760	-2.10234
6734.887	8.53030	-1.17517	9.38711	-2.22375
6738.879	7.76479	-5.30831	9.46153	-2.64348
6742.880	7.81542	-4.80115	13.46714	-3.13028
6746.881	8.45218	-4.60924	13.37545	-2.79861
6750.881	7.99997	-0.89187	13.53946	-2.87205
6754.876	8.01591	-2.81521	NaN	NaN
6758.879	7.64981	-4.77886	NaN	NaN
6762.882	7.77549	-6.04755	NaN	NaN
6766.895	9.47712	-4.45342	8.78551	-1.23317
6770.883	9.29746	-6.13253	7.85239	-1.41945
6774.886	10.28183	-7.72361	7.90243	-2.79433
6778.886	9.69070	-4.21926	7.16087	-2.89896
6782.884	9.67355	-7.05028	6.65081	-1.60746
6786.880	10.28719	-6.68165	NaN	NaN
6790.882	10.73823	-7.41426	NaN	NaN
6794.881	11.46740	-7.12313	NaN	NaN
6798.894	11.14801	-4.07709	NaN	NaN
6803.148	11.68741	-4.63831	NaN	NaN
6807.451	NaN	NaN	NaN	NaN
6811.648	NaN	NaN	NaN	NaN
6815.775	NaN	NaN	NaN	NaN
6819.908	NaN	NaN	NaN	NaN
6823.771	NaN	NaN	NaN	NaN
6827.894	NaN	NaN	NaN	NaN
6831.824	NaN	NaN	NaN	NaN
6836.018	NaN	NaN	NaN	NaN
6839.996	NaN	NaN	NaN	NaN
6844.167	NaN	NaN	NaN	NaN
6848.963	NaN	NaN	NaN	NaN
6852.924	NaN	NaN	NaN	NaN
6857.061	NaN	NaN	NaN	NaN
6861.021	NaN	NaN	NaN	NaN
6865.122	NaN	NaN	NaN	NaN
6869.289	NaN	NaN	NaN	NaN
6873.539	NaN	NaN	NaN	NaN
6877.717	NaN	NaN	NaN	NaN
6881.552	NaN	NaN	NaN	NaN
6885.668	NaN	NaN	NaN	NaN
6889.716	NaN	NaN	NaN	NaN
6893.817	NaN	NaN	NaN	NaN
6897.583	NaN	NaN	NaN	NaN
6901.347	NaN	NaN	NaN	NaN
6905.421	NaN	NaN	NaN	NaN
6909.426	NaN	NaN	NaN	NaN
6913.256	NaN	NaN	NaN	NaN
6918.002	NaN	NaN	NaN	NaN
6921.944	NaN	NaN	NaN	NaN
6925.521	NaN	NaN	NaN	NaN
6929.138	NaN	NaN	NaN	NaN
6932.825	NaN	NaN	7.21581	3.82244
6936.585	NaN	NaN	7.34658	3.67777
6940.336	7.16405	-1.12832	7.36227	3.24587
6942.888	3.96780	-4.34471	7.65310	2.77319
6946.883	3.26319	-1.41126	7.70085	2.81818
6950.883	9.58113	2.79108	7.46187	2.45244
6954.880	4.14026	-1.30888	7.52254	2.12857
6958.882	4.20096	-2.65245	8.07056	2.22108
6962.877	5.53456	-1.19637	7.61014	2.21781
6966.882	6.41199	0.51608	7.41692	1.90370
6970.880	4.10740	-1.88608	7.64179	1.69478
6974.876	11.56248	-6.92763	7.69117	1.63179
6978.880	11.29457	-4.40038	7.49022	1.74914
6982.884	11.26588	-7.05051	8.22662	1.32604
6986.892	10.14068	-3.63206	9.35752	-0.17401
6990.885	6.59696	-3.42619	7.53603	1.50184
6994.880	6.35253	-6.21903	7.53903	1.06361
6998.880	6.22814	-3.79780	8.30541	0.96100
7002.875	6.75044	-0.79575	7.67416	0.88602
7006.883	11.02481	-2.84027	7.64793	0.43404
7010.877	10.80175	-1.69156	7.60192	-0.06636
7014.878	13.84113	-6.83878	7.57798	0.75291
7018.881	6.17820	-9.03072	7.44186	0.97498
7022.882	8.58888	-7.60741	8.06073	0.57337
7026.886	8.86669	-6.81383	7.09130	0.89133
7030.896	8.10771	-8.51536	7.18701	1.70964
7034.886	8.11228	-7.32185	7.60812	0.99622
7038.876	7.08925	-2.09822	7.21804	1.94060
7042.882	8.42386	-7.34682	7.09030	2.44613
7046.880	8.14546	-6.30997	7.26234	2.07626
7050.882	5.88449	-8.17109	6.83996	2.56027
7054.937	5.37121	-9.21256	6.96174	2.98909
7058.891	6.36297	-6.61671	6.87491	3.92521
7062.878	6.26574	-7.60324	6.86983	3.85868
7066.887	4.99118	-7.49418	6.76929	4.14024
7070.877	5.44348	-5.72838	6.92442	3.10201
7074.881	5.26455	-6.99651	6.95401	3.17144
7078.877	4.91962	-6.89079	6.63122	3.96401
7082.880	4.70177	-7.92161	6.53465	3.51219
7086.876	4.60579	-0.22839	6.49893	3.39259
7090.881	4.55406	-1.06153	6.20989	3.92079
7094.882	8.10331	-1.65976	6.53725	3.60422
7098.896	4.09241	-4.27932	6.15367	3.42801
7102.880	6.98568	-4.96076	6.50266	3.12542
7106.884	3.84693	-7.50667	6.42329	3.09905
7110.877	11.77819	-4.92846	6.54952	3.48515
7114.880	6.04534	-6.06123	5.02208	3.64521
7118.875	9.60097	-6.49182	6.22645	0.51311
7122.892	11.34466	-2.42425	5.56959	3.20756
7126.883	11.40193	-7.45457	9.73344	-0.74636
7130.875	11.31961	-5.56838	8.37801	-0.72207
7134.879	11.23241	-7.20879	9.92174	1.95521
7138.873	9.83749	-7.77291	9.05270	-0.39599
7142.880	9.49600	-2.91287	8.54510	-0.95456
7146.875	6.45809	-6.96255	6.57943	1.41010
7150.897	12.15479	-5.30298	6.69084	3.61697
7154.892	13.29553	-1.58787	8.61174	3.04612
7158.885	4.61260	-0.68896	10.38423	1.71310
7162.871	11.22520	-5.86161	10.03792	1.29203
7166.879	11.47243	-8.83370	10.09371	1.53383
7170.876	14.64768	-2.74927	10.56860	1.30946
7174.876	14.70885	-3.69632	11.15573	1.03970
7178.869	14.08556	-2.90638	11.35861	1.01259
7182.874	14.50095	-4.43178	10.69206	1.00088
7186.876	13.92082	-6.26692	11.11071	1.02090
7190.882	14.79950	-5.28004	11.82934	0.77503
7194.880	11.16526	-6.80400	11.82143	0.73994
7198.873	9.11917	-6.97634	12.17501	0.60153
7202.878	11.18477	-6.70188	11.83355	0.60341
7206.874	9.33797	-7.00851	11.79475	0.64786
7210.873	10.22445	-7.29577	11.34685	0.68921
7214.888	15.09920	-7.43421	11.79375	0.63446
7218.879	11.02041	-6.82682	11.64285	0.55866
7222.869	14.45635	-7.10038	11.23790	0.56857
7226.879	9.43486	-7.30753	11.22876	0.48894
7230.880	15.71772	-7.28976	11.19024	0.38276
7234.882	12.37688	-7.59086	11.24452	0.33489
7238.872	9.23461	-7.85831	11.00506	0.26217
7242.878	12.26365	-9.44473	11.11095	0.17132
7246.873	12.19903	-5.43658	10.99984	0.22841
7250.873	16.84852	-4.43178	10.84305	-0.03446
7254.874	7.20333	-4.75872	11.28040	0.13725
7258.874	5.71912	0.08402	10.74815	1.76810
7262.873	9.73417	-4.46598	11.00757	2.36967
7266.876	11.60399	0.09805	11.00431	2.08649
7270.877	15.99931	-5.97333	11.22088	1.90596
7274.879	23.17271	-11.19215	11.36921	1.72997
7278.877	17.75202	-4.81404	11.33352	1.49988
7282.875	17.62098	-5.22601	11.30245	1.48512
7286.874	11.80723	-5.69493	11.12092	1.74959
7290.892	13.86762	-6.69406	11.21317	1.69404
7294.874	16.74412	-9.81853	11.06693	1.59250
7298.874	9.65852	-9.88515	10.93677	1.53218
7302.876	8.86696	-9.75526	11.18957	1.27175
7306.867	22.19551	-8.96441	11.11100	1.44421
7310.871	14.31493	-5.63547	10.98788	1.26438
7314.892	17.32129	-5.47314	10.73775	-0.10322
7318.875	12.37200	-9.97726	10.17509	1.27862
7322.872	22.05736	-8.71587	9.79289	1.42370
7326.870	19.03400	-7.12200	10.28421	1.57577
7330.754	18.23454	-5.86970	10.15528	1.46627
7334.747	8.89649	-13.32558	10.66129	1.21553
7338.747	22.01100	-8.70506	10.75768	1.25060
7342.751	21.82455	-9.94038	10.65793	1.38545
7346.749	14.68138	-9.39025	10.94213	1.37324
7350.747	9.27748	-8.76359	11.14201	1.53655
7354.740	9.96393	-9.76622	10.61591	1.59500
7358.746	8.67027	-7.01478	10.79921	1.63662
7362.750	9.26319	-1.20101	10.47902	2.28627
7366.746	21.74270	-9.29066	11.30806	0.32639
7370.738	21.35076	-8.74532	12.07075	1.38491
7374.745	19.91851	-6.66872	11.82483	1.60482
7378.748	19.53908	-6.67802	14.52274	1.30058
7382.746	-19.99372	-12.02353	14.93133	1.59545
7386.740	-19.99372	-12.07575	15.81431	1.49878
7390.745	-19.99372	-12.07644	15.28272	1.24461
7394.747	-19.99372	-12.07671	14.42605	1.64797
7398.750	-19.99372	-12.07707	14.53440	1.54668
7402.752	-19.99372	-12.07713	14.88607	1.62112
7406.755	-19.99372	-12.07718	14.67072	1.42572
7410.749	NaN	NaN	14.16989	1.38650
7414.763	NaN	NaN	14.79398	1.46629
7418.749	NaN	NaN	14.77876	1.31785
7422.747	NaN	NaN	14.37205	1.35673
7426.740	20.56985	-7.34791	14.63225	1.35903
7430.744	22.31524	-6.85462	14.08844	1.29616
7434.745	20.65534	-4.42618	14.37452	1.24590
7438.745	20.70374	-2.80969	13.99281	1.17278
7442.739	21.08434	-4.97431	14.31361	1.15791
7446.750	19.98542	-2.55813	14.29179	1.03360
7450.748	20.23356	-7.40369	14.23776	1.01480
7454.745	19.63828	-5.70627	14.76561	0.84682
7458.738	18.15590	-2.72004	14.64754	0.59304
7462.744	21.14507	-4.65166	15.17739	0.49837
7466.752	19.53313	-4.80658	14.72192	0.40383
7470.747	22.24173	-5.77182	14.89374	0.12490
7474.744	20.70467	-6.24008	14.67839	0.21293
7478.739	19.70926	-4.69456	14.72859	0.23004
7482.745	20.98869	-4.98326	14.76154	0.19701
7486.753	20.67287	-4.80043	14.85264	0.27043
7490.750	20.25516	-4.17792	14.69980	0.48058
7494.742	19.64184	-3.11739	14.75588	0.43084
7498.745	19.90081	-4.32859	14.47603	0.48548
7502.744	14.03442	-3.09979	14.66972	0.09137
7506.775	16.52341	-2.62507	14.43321	0.55841
7510.739	18.23286	-3.33368	14.22500	0.62287
7514.756	19.33262	-4.14072	14.17402	0.43260
7518.749	19.40834	-3.48027	14.24270	0.28979
7522.743	19.17848	-3.11146	14.27317	0.41290
7526.743	18.12408	-1.74001	14.08925	0.41505
7530.750	20.00571	-4.10445	14.18890	0.04175
7534.749	19.94707	-4.16530	14.31293	0.41021
7538.738	19.17407	-2.72507	14.32260	0.27479
7542.748	20.00902	-4.00805	14.21878	0.20359
7546.755	19.49779	-4.47948	14.30557	0.29128
7550.747	21.08106	-5.53313	14.40726	0.40881
7554.748	21.13805	-5.74288	14.38512	0.44618
7558.744	20.82767	-4.20713	14.35875	0.35038
7562.743	21.68702	-6.44602	14.54225	0.34042
7566.736	21.14617	-5.41268	14.55862	0.43106
7570.753	20.57753	-4.38341	14.96207	0.45734
7574.743	22.25876	-5.88290	14.43282	0.48807
7578.747	NaN	NaN	14.48125	0.57299
7582.737	19.95209	-4.34408	14.62621	0.48979
7586.742	20.92448	-4.43946	14.31591	0.60562
7590.744	17.75742	-3.03646	14.42879	0.40155
7594.742	19.87223	-3.61973	14.46131	0.39463
7598.785	19.56835	-5.10448	14.58554	0.35012
7602.748	21.00351	-5.27869	14.43661	0.68253
7606.738	18.05718	-3.82286	14.48995	0.55468
7610.746	21.50435	-5.27380	14.37515	0.69362
7614.758	19.92874	-5.82878	14.51267	0.27017
7618.745	19.90381	-5.37227	14.57604	0.50329
7622.743	18.44703	-5.10866	14.56616	0.75423
7626.741	18.62582	-5.74241	14.57876	0.87344
7630.741	19.70682	-7.00791	14.75212	0.98280
7634.742	18.53823	-7.48889	14.82977	0.90616
7638.742	19.56846	-5.57824	14.82975	1.24575
7642.747	15.81897	-5.56478	15.11861	1.17624
7646.737	17.90680	-5.48914	15.12821	1.53856
7650.748	18.58181	-5.88322	15.37215	1.44933
7654.745	17.04355	-5.45802	15.67158	1.49416
7658.752	16.70504	-5.58683	15.64560	1.70918
7662.742	19.24100	-6.56137	15.93217	1.65229
7666.783	15.70301	-5.53718	15.30418	1.63580
7670.749	19.82727	-5.86312	15.14763	1.79432
7674.747	18.70263	-5.52066	15.03601	1.83995
7678.741	16.74057	-5.45210	15.11620	1.81507
7682.741	17.73367	-5.33559	14.38106	1.92944
7686.741	18.83485	-3.41531	13.66208	1.99672
7690.744	18.19090	-3.39544	13.84324	1.99706
7694.745	15.70830	-4.45725	13.70804	1.98500
7698.736	19.26869	-5.37907	13.75191	2.09190
7702.767	19.67558	-4.81835	13.79054	2.12325
7706.740	16.28542	-3.15371	13.92744	2.18185
7710.739	16.45055	-3.44392	13.76195	2.28811
7714.754	17.14769	-3.23948	13.51475	2.06741
7718.741	21.57192	-4.79289	13.64005	1.93024
7722.747	14.66663	-0.85089	13.72186	1.85865
7726.740	13.95671	-3.65472	13.87527	1.40851
7730.738	17.93199	-3.53600	13.91191	-1.44279
7734.766	18.32776	-4.01082	13.92183	-1.33654
7738.748	19.84975	-8.01688	14.39541	-1.32421
7742.736	11.46542	-4.22573	14.21624	-0.91171
7746.741	7.80031	-6.94953	14.87879	-1.26277
7750.742	7.31311	-7.01791	14.53256	-1.09188
7754.740	7.25528	-7.15401	14.51386	-1.06528
7758.736	13.58517	-5.68024	15.11697	-1.08157
7762.744	16.79845	-8.59806	15.15270	-0.94354
7766.741	14.81985	-5.69662	14.81778	-0.83584
7770.740	12.26931	-4.88145	14.76270	-0.97238
7774.737	15.04786	-7.47441	15.15751	-0.83732
7778.746	17.13244	-7.63235	15.11357	-0.79950
7782.737	12.27076	-5.02104	15.01024	-0.74789
7786.734	13.63484	-5.87753	15.19766	-0.62787
7790.745	15.30265	-5.73480	14.99614	-0.66958
7794.741	12.42941	-5.98980	15.19304	-0.64141
7798.743	12.03496	-5.90228	15.30909	-0.64323
7802.779	16.17294	-8.08768	15.06461	-0.59012
7806.746	8.69246	-7.55666	14.98319	-0.53883
7810.738	8.50661	-7.75489	15.13561	-0.61551
7814.737	7.44986	-7.60673	15.03344	-0.64834
7818.743	8.58539	-7.53707	15.03855	-0.63355
7822.747	9.24810	-8.03976	14.97847	-0.76948
7826.740	7.26161	-8.49127	15.86059	-1.58652
7830.734	8.94503	-8.40765	14.83439	-0.88277
7834.743	13.58817	-7.48043	14.96418	-0.84329
7838.738	13.40265	-7.96786	15.25667	-1.22260
7842.737	13.66240	-7.57766	15.11313	-1.20787
7846.744	14.76045	-8.53973	15.78977	-0.83163
7850.741	17.07751	-4.74583	14.78182	-1.37263
7854.742	17.13040	-10.53109	15.12206	-1.32734
7858.735	17.85791	-6.34064	15.60192	-1.32439
7862.741	17.85683	-6.51421	16.76795	-0.53594
7866.738	17.18799	-4.47761	16.88748	-1.07617
7870.739	-19.99372	-11.99150	15.24133	-1.43224
7874.742	16.96519	-9.79743	18.08347	-1.71074
7878.738	17.76347	-11.11525	15.46655	-1.86236
7882.742	18.14210	-4.38907	15.17901	-1.62371
7886.732	16.44001	-4.41860	14.85911	-1.54433
7890.737	17.65911	-6.08273	15.15778	-1.35469
7894.739	19.96994	-6.20624	14.92725	-1.75155
7898.737	21.00113	-5.81902	14.43417	-1.47085
7902.760	-19.99372	-11.93668	22.36645	-6.59613
7906.749	20.39769	-7.75259	14.62305	-1.22989
7910.738	17.28575	-6.61646	14.56358	-0.24048
7914.743	-19.99372	-11.95485	12.97311	-0.75357
7918.741	11.92524	-4.62392	12.74076	-0.70910
7922.766	8.12612	-0.77506	10.97413	3.86574
7926.736	10.30336	-0.62317	10.20834	3.64386
7930.735	5.07331	1.85042	8.95968	3.88894
7934.737	9.46230	4.13154	4.29717	5.89634
7938.733	7.94518	-1.07833	3.90042	5.97987
7942.737	5.58656	1.75101	3.49621	6.17076
7946.743	5.05693	3.61137	3.16644	6.24750
7950.736	0.76074	6.25984	3.40984	6.23829
7954.740	-0.26433	9.23850	2.80486	6.56944
7958.741	2.72350	1.80534	3.13865	6.39571
7962.740	0.39462	7.07298	2.69663	6.57373
7966.734	-0.19541	7.54917	2.73650	6.15157
7970.748	0.54262	6.81456	2.58942	6.37963
7974.745	0.77086	10.37689	2.97542	6.58480
7978.735	2.88980	7.24643	2.73994	6.60522
7982.740	2.79991	7.33290	2.68002	8.04145
7986.742	2.95082	6.67299	2.83501	7.25948
7990.736	3.03234	7.10896	2.79285	7.36227
7994.741	3.10574	7.02671	2.80021	7.43905
7998.737	2.92582	6.55964	2.64059	7.71787
8002.740	0.80863	6.51552	2.50960	7.92990
8006.740	3.00851	7.40337	2.57335	7.71381
8010.737	-0.44507	2.64758	2.61776	7.93708
8014.737	3.42453	6.18836	2.82702	7.98496
8018.739	3.64597	5.83336	2.73640	8.16053
8022.735	3.75800	5.77672	3.02737	7.96267
8026.744	3.92371	5.65619	2.63529	7.36517
8030.744	3.56781	5.27793	2.55237	7.54691
8034.762	3.76747	5.16155	4.58599	6.47738
8038.735	-0.30543	3.34200	3.90449	6.24916
8042.740	4.12895	5.26599	2.66610	4.93641
8046.735	3.99265	4.74230	3.05865	4.47241
8050.738	5.54250	3.46117	2.78287	6.25093
8054.733	4.16969	5.01115	3.56336	5.94623
8058.739	0.36417	4.20950	2.76126	6.45176
8062.736	4.10155	4.21763	3.66036	5.95293
8066.739	0.67945	1.42545	2.58313	6.11030
8070.737	3.90825	5.24858	2.84742	6.05729
8074.735	2.34887	4.58405	3.41387	6.20483
8078.737	0.02760	9.89458	3.79905	6.15136
8082.738	-0.40993	9.54384	3.49268	6.14256
8086.732	-2.22698	7.83453	3.08414	6.31119
8090.742	NaN	NaN	4.25766	6.03005
8094.737	0.10545	14.76000	3.26705	6.29214
8098.733	-1.10877	10.43647	3.95286	6.19916
8102.740	-1.78364	10.59114	3.62108	6.15921
8106.735	-2.14092	11.01474	4.06280	6.21757
8110.743	3.30554	13.67123	3.85214	6.28092
8114.739	3.19093	13.37684	3.99181	6.35526
8118.735	3.35157	14.16546	3.16258	6.54729
8122.738	3.70208	14.30192	3.96064	6.18070
8126.733	3.83868	14.32942	4.00178	6.36529
8130.738	3.44708	11.09186	3.80335	6.33044
8134.734	3.83895	13.25762	3.16171	6.42215
8138.737	3.64353	10.67696	3.17552	6.41244
8142.736	3.45284	11.34636	2.91210	6.41164
8146.735	3.99568	10.94576	3.05605	6.61916
8150.757	3.44090	12.04601	3.41305	6.50835
8154.793	3.44552	12.17481	2.81714	6.71583
8158.756	3.53874	11.22022	3.48654	6.67975
8162.738	6.33032	1.29144	2.94344	6.61694
8166.733	6.39540	11.67578	2.84514	7.34788
8170.737	3.79779	6.54566	2.82264	7.09828
8174.731	1.02722	6.50843	2.54554	7.02166
8178.735	1.74950	4.89635	-0.26364	7.13534
8182.732	2.42564	9.50318	-2.95359	5.29479
8186.610	1.63955	6.74063	-0.23453	5.69774
8190.606	0.83632	6.21074	1.59412	5.04867
8194.611	-0.65819	3.20546	2.24423	1.08025
8198.613	1.61453	-1.31767	0.25991	2.87330
8202.616	2.68172	-0.37059	-0.27535	2.96297
8206.606	-3.93532	-1.21587	0.46577	2.49811
8210.628	-1.75582	-0.06301	0.74962	2.18218
8214.604	-2.80860	-2.93237	0.20859	2.89227
8218.614	-1.79098	0.22164	0.24852	2.60989
8222.606	3.81909	-3.14579	-0.12081	2.83798
8226.610	-3.84167	-0.01564	0.54282	2.72390
8230.610	-1.10477	2.49007	2.13413	1.91180
8234.605	-1.96791	-2.14068	0.21767	3.95177
8238.612	-5.53476	-0.04828	1.71858	2.18585
8242.612	-1.87183	0.85660	0.49510	2.01439
8246.615	-5.40818	0.34797	-0.21614	2.65195
8250.610	-3.13514	0.02516	0.01645	2.77777
8254.611	-3.83599	0.03295	0.52488	2.01172
8258.607	-4.73890	-0.00106	0.16370	2.13834
8262.609	-1.11169	0.03262	-0.08242	1.95705
8266.605	-1.20055	0.01188	0.37951	1.88079
8270.611	1.12335	0.89609	0.83476	1.93022
8274.609	1.52429	0.54530	0.18797	2.23667
8278.612	1.65280	0.69471	-0.04003	2.45548
8282.617	6.95264	2.41743	0.69521	1.86188
8286.610	-0.78883	6.78262	-0.70910	3.05416
8290.609	-4.21333	4.98559	-1.21204	3.70616
8294.606	6.63651	0.77662	-0.59084	2.95246
8298.609	-0.63667	6.72604	-0.58056	2.40791
8302.608	-2.38053	3.84858	-0.25574	2.98131
8306.609	6.42866	-0.37394	-0.98856	3.88323
8310.604	-0.87108	6.73885	-1.16424	3.81781
8314.616	-3.32800	4.53024	-1.15672	3.70962
8318.612	-2.39654	4.23488	-1.04220	3.69096
8322.605	6.30141	1.24389	-0.42308	3.39378
8326.616	-1.58284	6.38336	-0.83123	5.51457
8330.607	-4.48729	3.87960	-0.85610	5.89009
8334.610	1.85120	1.29367	-0.54977	4.52644
8338.603	-0.87428	5.82368	-1.22221	6.11747
8342.610	-1.30697	5.67433	-0.17067	5.00174
8346.607	-1.35931	2.61223	-0.52776	5.38877
8350.608	-0.07177	2.97029	-1.21464	6.23606
8354.607	0.49721	1.24910	-0.50748	6.08824
8358.604	-1.71109	3.31563	-1.32141	6.17983
8362.607	1.35335	1.74187	-1.22233	5.95531
8366.607	-1.53294	2.86091	-0.42626	6.14265
8370.609	-1.47117	2.18224	0.87106	5.72926
8374.604	-1.47089	2.29257	-0.47803	5.49221
8378.608	-1.06828	5.45474	-0.31818	5.65130
8382.602	-5.62456	2.60309	-0.01571	5.85430
8386.608	-5.36904	2.83928	0.36826	5.55582
8390.610	-4.82062	5.76813	-0.97767	5.54362
8394.611	-2.21224	5.76189	-0.23316	5.92101
8398.603	-2.46724	2.14472	-0.22785	5.81336
8402.605	-3.84073	2.58501	-0.13384	6.02008
8406.615	-4.13579	3.00167	-0.11773	5.36844
8410.609	-3.46995	2.80476	-0.36112	5.33775
8414.612	-3.47749	2.99063	0.09051	5.20965
8418.612	-4.61667	2.94133	-0.00678	5.45216
8422.606	-4.00946	3.11814	-0.00213	5.76072
8426.608	-2.83665	3.15702	-0.11989	5.90133
8430.602	-1.51040	0.33368	-0.26622	5.08335
8434.608	3.37695	0.36841	-0.39432	4.99945
8438.604	-4.74279	0.01260	-3.14362	5.15235
8442.606	-1.96090	0.47269	-2.50831	5.24532
8446.601	-4.22538	2.80534	-0.59265	1.86487
8450.611	-5.90556	7.24415	-5.75369	4.25330
8454.602	-7.35271	2.48707	-5.77205	5.44328
8458.603	-6.86606	7.68901	-15.60065	-1.52096
8462.598	-11.64309	0.28047	-8.85809	3.19331
8466.605	-11.79817	0.39713	-11.11635	2.11854
8470.605	-12.63017	7.13265	-10.86802	-0.04795
8474.603	-13.46115	6.99402	-14.22242	2.79937
8478.607	-16.18862	0.57565	-14.37608	2.69498
8482.671	-18.51893	0.46160	-14.16681	2.39604
8486.603	-16.80323	1.41230	-14.40621	2.39926
8490.613	-17.39219	0.56943	-14.20740	2.67866
8494.618	-16.70151	0.54762	-14.22657	2.52974
8498.602	-17.08440	-0.67960	-14.24065	2.54833
8502.596	-15.83262	0.17739	-14.21507	2.74260
8506.607	-16.76642	2.85868	-14.27194	3.39772
8510.604	-15.21964	1.06348	-14.29317	3.42253
8514.601	-15.03980	1.03780	-14.23869	3.62714
8518.602	-15.41713	0.52819	-14.30918	4.02122
8522.604	-15.11632	1.02304	-14.51833	3.29660
8526.606	-15.18100	1.14566	-14.53793	3.35739
8530.623	-14.80772	2.27442	-14.37943	3.84778
8534.610	-18.39628	7.73619	-14.46580	3.85930
8538.602	-17.53640	6.58954	-14.54305	3.95793
8542.601	-15.85255	7.28894	-14.57990	3.90184
8546.601	-16.01631	7.31539	-14.56797	3.93748
8550.601	-19.13270	7.95136	-14.64178	3.71040
8554.603	-18.85232	8.66471	-14.61620	3.78360
8558.599	-18.28539	6.85949	-14.79289	3.66171
8562.632	-17.69987	7.11955	-14.59549	3.71331
8566.600	-17.81471	7.26144	-14.20031	3.74461
8570.600	-18.17044	6.82490	-14.17192	3.81630
8574.604	-17.94481	7.03204	-13.86348	3.69797
8578.604	-17.47640	7.13079	-13.90497	3.67045
8582.599	-17.57031	7.16863	-14.06990	3.66855
8586.605	-17.84732	7.01590	-13.91383	3.61590
8590.602	-17.71784	6.71305	-14.05939	3.57122
8594.602	-17.70782	6.86264	-13.93120	3.54389
8598.606	-17.64367	6.77322	-13.89917	3.54962
8602.600	-18.80047	6.56953	-13.84747	3.61049
8606.601	-19.07728	6.24091	-13.83898	3.75681
8610.599	-18.65623	6.38372	-13.90202	3.74254
8614.607	-18.60507	6.44063	-13.90179	3.77720
8618.606	-18.73655	6.39030	-13.94168	3.66783
8622.600	-18.48753	6.36751	-13.95126	3.94125
8626.604	-18.62774	6.27392	-14.01027	3.77271
8630.600	-18.59385	6.26576	-13.97447	4.03571
8634.604	-18.67998	6.27185	-14.02608	3.78738
8638.599	-18.49041	6.43673	-14.04682	4.08107
8642.599	-18.50869	6.40478	-14.06808	4.13980
8646.603	-18.16119	6.49057	-14.08603	4.00807
8650.598	-17.54030	6.56325	-14.15295	4.06204
8654.603	-17.06344	6.84151	-14.24963	4.04864
8658.607	-16.90586	6.88234	-14.17565	4.22286
8662.597	-16.92260	7.06766	-14.20833	4.16041
8666.598	-18.03953	6.87511	-14.23769	4.17760
8670.600	-18.07156	6.72056	-14.17532	4.16796
8674.604	-18.34093	6.34423	-14.18575	4.20348
8678.601	-12.89756	2.24628	-14.18340	4.23307
8682.598	-17.85643	6.70852	-14.13118	4.20460
8686.603	-17.82328	6.87159	-14.08204	4.28343
8690.598	-18.05277	6.66753	-14.03489	4.38491
8694.605	-17.32285	6.94412	-14.15750	4.34443
8698.606	-17.74900	6.81518	-14.11752	4.38468
8702.606	-21.67554	7.60082	-14.12700	4.33100
8706.596	-18.13064	6.41920	-14.13899	4.33319
8710.598	-18.19405	6.45624	-13.92173	4.32932
8714.618	-18.16029	5.81279	-13.92409	4.33947
8718.608	-17.92792	6.30226	-13.99559	4.23776
8722.600	-17.40389	6.40188	-14.11920	4.21786
8726.604	-18.09386	6.35191	-14.10576	4.13462
8730.595	-17.19264	6.33497	-14.06726	4.07754
8734.603	-17.93358	6.08103	-14.04292	3.99073
8738.600	-18.16413	5.88636	-13.90391	3.88381
8742.604	-17.88387	6.16385	-13.68506	3.75144
8746.600	-17.98737	6.16593	-13.84518	3.68918
8750.600	-17.88994	6.27327	-13.88200	3.62678
8754.597	-17.88855	6.36114	-13.74233	3.43696
8758.603	-17.87554	6.32618	-13.67646	3.51716
8762.598	-17.89282	6.30878	-13.63632	3.31469
8766.599	-17.91608	6.07468	-13.53463	3.40136
8770.596	-17.92864	6.01038	-13.52501	3.33999
8774.598	-17.98193	6.19812	-13.38454	3.20831
8778.627	-18.06737	5.94898	-13.27562	3.05663
8782.604	-18.05110	6.09339	-13.25827	2.96833
8786.597	-18.01691	6.62687	-13.26269	3.07276
8790.595	-18.02425	6.53812	-13.17070	3.07013
8794.596	-15.30473	7.35001	-13.16195	2.98721
8798.593	-14.09539	4.03433	-13.24245	2.93125
8802.601	-10.54018	3.74878	-12.99811	2.69207
8806.597	-13.42178	3.51066	-11.54761	2.83241
8810.601	-13.62104	3.64070	-10.67411	2.96996
8814.598	-13.43822	4.21674	-10.35522	2.83956
8818.602	-12.60169	4.06884	-10.37419	2.79830
8822.607	-12.65628	3.77383	-10.48389	2.98661
8826.606	-11.09088	3.85933	-10.55037	2.78553
8830.592	-10.97090	3.64627	-10.48005	2.79584
8834.596	-14.80011	3.89912	-10.46270	2.69767
8838.595	-11.20801	3.73151	-10.62351	2.64779
8842.599	-11.28646	3.64093	-11.73692	3.11419
8846.601	-9.13981	3.52281	-10.88666	3.40063
8850.598	-9.15437	3.33126	-10.74391	3.06245
8854.597	-8.87450	3.16963	-10.82964	3.08550
8858.591	-9.68908	2.62923	-10.94272	3.31088
8862.596	-8.97818	2.53803	-10.92973	3.40824
8866.601	-9.21653	0.22546	-11.19946	3.94575
8870.595	-10.58059	2.54868	-11.15353	3.61674
8874.590	-11.67465	2.28179	-11.59573	3.94533
8878.594	-11.55978	2.14290	-11.93037	4.17854
8882.595	-11.89312	1.59509	-11.77648	4.20796
8886.595	-12.23941	1.33484	-11.82542	4.15440
8890.597	-12.45277	2.28945	-12.10141	4.36407
8894.594	-12.83970	0.98985	-12.06598	4.52655
8898.597	-13.27109	2.01180	-11.81377	4.52874
8902.613	-13.26481	1.26821	-7.91246	3.35291
8906.610	-13.61007	2.20379	-8.42823	4.01036
8910.594	-13.70184	1.07168	-9.94310	3.60114
8914.600	-13.76191	0.84044	-11.83614	4.32181
8918.594	-12.27007	1.62317	-11.45612	2.56261
8922.600	-11.84451	0.79529	-10.24478	2.94021
8926.597	-12.54197	1.05064	-11.64209	1.97295
8930.599	-11.18666	0.82698	-12.06976	2.11162
8934.594	-12.55926	0.39466	-12.27178	2.62797
8938.600	-13.10172	0.43433	-11.92560	3.21816
8942.595	-12.39322	-0.09140	-12.07263	3.21728
8946.599	-12.58654	-4.28211	-11.87772	2.43632
8950.599	-12.81830	0.11136	-11.12049	2.88254
8954.599	NaN	NaN	-17.53972	2.67693
8958.639	-19.52652	2.15152	-19.28426	3.21634
8962.604	-15.45562	10.07589	-9.71288	3.06797
8966.594	-16.86532	12.08869	-19.74478	-12.09584
8970.597	-19.83873	-12.08892	-19.84174	-12.08870
8974.597	-19.88378	-12.08559	-19.88523	-12.08548
8978.598	-19.90928	-12.08370	-19.91007	-12.08364
8982.597	2.89200	14.03115	-19.92623	-12.08244
8986.595	-19.92674	-12.08240	-19.93766	-12.08159
8990.599	-19.93839	-12.08154	-19.94619	-12.08096
8994.598	-19.94707	-12.08089	-19.95286	-12.08046
8998.595	-19.94959	-12.08071	-19.95845	-12.08005
9002.626	-19.99370	-12.07743	NaN	NaN
9006.595	-19.99370	-12.07743	NaN	NaN
9010.597	NaN	NaN	NaN	NaN
9014.597	NaN	NaN	NaN	NaN
9018.588	NaN	NaN	NaN	NaN
9022.592	NaN	NaN	NaN	NaN
9026.594	NaN	NaN	NaN	NaN
9030.593	NaN	NaN	NaN	NaN
9034.666	NaN	NaN	NaN	NaN
9038.467	NaN	NaN	NaN	NaN
9042.472	NaN	NaN	NaN	NaN
9046.470	NaN	NaN	NaN	NaN
9050.470	NaN	NaN	NaN	NaN
9054.582	NaN	NaN	NaN	NaN
9058.789	NaN	NaN	NaN	NaN
9062.939	NaN	NaN	NaN	NaN
9067.167	NaN	NaN	NaN	NaN
9071.387	NaN	NaN	NaN	NaN
9075.499	-6.95709	4.49238	2.33200	4.59510
9078.518	-7.06596	2.46809	-2.52649	4.94817
9082.477	-11.32810	4.60642	-5.40038	3.11590
9086.471	-8.19589	4.46115	-4.56294	1.68064
9090.467	-6.52733	2.15719	-5.51907	2.61657
9094.514	-8.48792	2.22919	-0.06996	1.55252
9098.483	-7.02497	2.09517	-0.55262	3.74286
9102.467	-8.68111	2.17294	-5.20657	5.18423
9106.471	-8.02606	3.77559	-4.42565	5.13371
9110.466	-13.16132	2.45929	-4.60925	5.90531
9114.472	-8.93861	5.12969	-5.30129	6.00944
9118.479	-3.97484	-0.13416	-5.60925	5.98536
9122.472	-6.77670	0.73768	-6.42888	3.19479
9126.470	-6.61531	1.36569	-6.79582	3.03044
9130.468	-3.83497	1.84581	-5.72792	2.46772
9134.470	-8.97746	5.09917	-5.98098	2.59035
9138.465	-5.40796	0.23796	-6.34755	3.85586
9142.471	-5.22372	0.28712	-4.31013	2.82243
9146.466	-6.12264	0.01302	-1.62031	1.68910
9150.470	-5.09488	0.51409	-6.96484	4.60623
9154.479	-6.43827	-0.10726	-6.45809	2.63307
9158.470	-5.31470	0.27706	-6.26755	3.45547
9162.473	-5.45504	0.73493	-6.22473	2.84230
9166.497	-12.52497	1.08417	-3.82672	2.64233
9170.464	-5.42530	0.33393	-4.12300	2.05284
9174.470	-8.96966	3.29133	-5.60888	2.38491
9178.468	-8.52780	4.89430	-6.42545	1.22980
9182.469	-5.52595	0.13952	-6.29210	1.22533
9186.463	-5.45481	0.64624	-6.16130	2.13777
9190.470	-5.41955	-0.35647	-9.53105	1.07133
9194.465	-8.77504	1.04700	-6.23670	3.20922
9198.469	-8.14105	0.53983	-5.45312	2.36828
9202.468	-5.52546	0.34988	-3.72786	1.40373
9206.471	-5.27183	-2.68726	-6.22880	1.99283
9210.465	-9.84645	-1.30269	-3.94641	1.84663
9214.483	-5.55821	-0.18497	-5.21584	1.23220
9218.472	-8.64044	2.78576	-5.26312	2.08412
9222.464	-6.29462	-4.04812	-6.13311	1.13355
9226.468	-4.73530	1.25258	-5.73298	1.93085
9230.465	-6.48352	2.08220	-4.29853	1.85462
9234.468	-2.78713	-0.55361	-5.95503	1.67980
9238.468	-5.75846	-0.48410	-6.60448	1.45625
9242.463	-5.06427	-0.63059	-5.74205	1.96023
9246.475	-5.85070	-0.36414	-6.42207	1.68875
9250.466	-6.28261	-2.94236	-5.73195	1.96931
9254.464	-3.69565	-0.65586	-5.23103	2.00249
9258.464	-6.16905	0.28772	-4.11471	1.89336
9262.465	-3.82546	-0.73277	-5.83758	2.28137
9266.470	-6.18529	-0.50164	-5.55086	2.12729
9270.463	-6.15639	-0.80239	-4.78757	1.43511
9274.469	-8.00148	-0.76772	-4.99349	2.67855
9278.482	-6.00727	-0.24085	-4.52508	1.90404
9282.466	-6.14540	-0.98485	-6.23005	2.88273
9286.474	-8.29214	-1.11005	-4.73996	4.20177
9290.466	-6.25181	-0.01571	-5.15810	2.82365
9294.471	-6.22959	-1.10762	-6.45378	1.19727
9298.464	-6.34189	-1.78939	-5.94870	1.12816
9302.472	-6.04900	-3.24713	-6.17695	1.35602
9306.462	-6.80866	-7.10378	-4.85748	1.13494
9310.468	-9.73740	-3.37824	-6.32110	1.73143
9314.468	-6.36319	-2.55092	-6.68780	1.24410
9318.462	-5.74200	-3.61141	-4.54444	2.51045
9322.467	-4.70739	-3.90575	-5.74365	1.95640
9326.465	-6.73627	-4.39520	-6.15134	2.52005
9330.472	-4.61832	-7.62755	-5.79015	3.70309
9334.463	-9.73248	-7.38992	-5.70925	2.44667
9338.481	-5.86091	-9.60157	-4.28903	2.15540
9342.471	-7.35019	-2.52590	-5.16740	1.72497
9346.463	-5.41782	0.74223	-6.35189	1.80438
9350.468	-6.04131	-0.62591	-5.66752	4.14210
9354.466	-6.04715	-1.07304	-4.84526	1.78895
9358.467	-8.29312	0.39554	-5.25537	1.67407
9362.463	-5.41081	-0.00134	-0.59759	-1.00484
9366.464	-7.04477	-3.12440	-5.20378	2.49917
9370.471	-6.26883	-6.80136	-4.87675	1.89025
9374.467	-5.67071	-0.59552	-4.84088	1.95925
9378.464	-5.85283	-2.71808	-2.84115	4.55679
9382.496	-0.22477	0.77989	-2.13960	1.92379
9386.463	0.47455	-6.56053	-2.13613	2.09557
9390.465	3.22151	-3.68323	-1.91967	1.52849
9394.459	2.21430	-4.72298	0.79630	2.20151
9398.465	NaN	NaN	NaN	NaN
9402.463	NaN	NaN	NaN	NaN
9406.461	NaN	NaN	NaN	NaN
9410.480	1.01913	-1.27867	-1.63147	4.73551
9414.470	-1.19921	-0.91030	-1.41442	6.41814
9418.461	0.89257	-0.95080	0.70446	8.69976
9422.467	2.76812	-0.60410	-0.33662	8.69790
9426.463	2.05506	-1.49928	1.05510	-0.24750
9430.464	6.10195	-6.99226	1.22633	0.87157
9434.465	1.93018	-6.29281	-2.36155	2.60275
9438.462	1.54105	-5.06322	-2.21127	1.40337
9442.465	-2.25256	-8.64263	-2.31852	1.24169
9446.460	2.64579	-4.94293	-1.47253	1.25039
9450.466	1.75545	-7.60153	-1.74737	1.15559
9454.470	-0.49649	-8.00521	-0.64754	2.50138
9458.465	0.81384	-0.79946	2.84878	0.94713
9462.459	1.23268	-0.04556	-3.79922	1.85730
9466.462	-0.06331	-2.08943	-0.81550	2.15490
9470.463	-0.46641	-1.85728	1.07376	1.86156
9474.459	1.19224	-0.42097	-0.77020	1.04211
9478.466	1.02027	-2.10426	0.64357	2.30677
9482.462	-0.28322	-0.67238	0.01109	1.17706
9486.463	-0.62464	-0.33228	0.38720	1.74180
9490.458	-0.58439	-2.06213	-3.73072	0.64736
9494.477	1.12854	-2.09203	0.47309	-0.23255
9498.463	1.99436	-1.84503	-0.15697	2.63197
9502.463	-0.69920	-2.55794	0.18164	2.04336
9506.466	-0.71940	-3.00049	0.40973	-0.01416
9510.476	-0.69923	-3.45653	-2.05221	-0.02707
9514.459	NaN	NaN	NaN	NaN
9522.469	-0.55855	-3.60334	-0.79617	3.24885
9526.472	-5.69942	-10.45691	-0.90031	2.53039
9530.461	-6.12053	-10.02383	-0.19680	-0.03270
9534.469	-1.65580	-8.53541	-2.30870	0.43385
9538.465	-0.76506	-4.35277	-1.78042	2.13565
9542.463	1.59747	-2.92747	-1.44609	6.90173
9546.459	2.98945	1.75821	-5.73460	3.50703
9550.465	2.95106	-9.22261	-0.95517	2.46848
9554.461	1.10899	-4.52222	5.40552	8.29254
9558.464	-19.99372	-12.07206	NaN	NaN
9562.459	-19.99372	-12.07276	NaN	NaN
9566.464	-19.99372	-12.07443	NaN	NaN
9570.483	-19.99372	-12.07733	NaN	NaN
9574.476	NaN	NaN	NaN	NaN
9578.456	NaN	NaN	NaN	NaN
9582.462	NaN	NaN	NaN	NaN
9586.461	NaN	NaN	NaN	NaN
9590.460	NaN	NaN	NaN	NaN
9594.491	NaN	NaN	NaN	NaN
9598.461	NaN	NaN	NaN	NaN
9603.574	NaN	NaN	NaN	NaN
9614.459	NaN	NaN	NaN	NaN
9618.465	NaN	NaN	NaN	NaN
9622.462	NaN	NaN	NaN	NaN
9626.461	NaN	NaN	NaN	NaN
9631.824	NaN	NaN	NaN	NaN
9642.459	NaN	NaN	NaN	NaN
9647.487	NaN	NaN	NaN	NaN
9650.455	16.06488	9.85490	12.43980	6.53799
9654.455	-2.62219	10.03435	-3.64916	12.66324
9658.467	15.87370	-6.31884	-2.70201	12.32161
9662.467	-2.81167	7.90443	6.71593	9.60569
9666.458	-0.67109	7.39027	-1.12345	0.71158
9670.462	5.54688	-12.36523	-4.22947	8.46006
9674.459	2.42450	-6.04821	-1.25121	6.69218
9678.457	7.96215	2.91601	0.70285	2.98920
9682.452	5.39173	2.82259	0.19926	7.28902
9686.462	5.52566	4.30538	1.06009	5.97226
9690.461	0.26185	-5.61732	1.77251	2.79228
9694.454	5.75566	-1.60139	2.00272	0.17150
9698.461	3.65144	-6.76783	3.29775	3.09934
9702.463	0.58853	-7.13443	1.64498	2.34944
9706.462	5.58390	-0.98779	2.52919	-0.88074
9710.456	3.60106	-1.84704	2.36752	1.74296
9714.462	2.75475	-2.64807	3.62393	-0.76765
9718.458	-0.18315	-1.50724	2.65575	-1.33270
9722.460	1.28219	-1.68856	2.93619	2.40433
9726.455	0.01112	-1.32427	2.87408	0.09776
9730.462	3.54415	-1.34331	3.70752	2.00190
9734.460	3.77960	-3.22474	3.27848	0.14897
9738.456	4.31015	-1.32521	2.38445	1.14229
9742.466	3.83045	-2.27149	2.54623	1.33138
9746.463	5.03093	-1.08318	10.73538	-5.81194
9750.461	NaN	NaN	4.34512	1.16422
9754.456	-0.56022	3.61594	7.02426	0.75601
9758.460	3.98269	-1.99947	2.77587	0.83191
9762.457	7.02719	-1.38695	3.74476	0.13187
9766.459	3.73052	-2.33966	3.67529	0.09555
9770.454	4.44953	-0.43706	2.46414	2.27113
9774.462	3.39958	1.50743	6.18397	0.76745
9778.461	2.95319	2.76525	2.25806	0.99146
9782.455	3.97933	2.68383	2.28053	0.58059
9786.469	-0.82300	-2.25582	3.50079	0.34674
9790.461	4.60476	0.62150	3.37556	0.52027
9794.457	4.12624	0.13483	3.10945	0.59020
9798.463	4.21913	-1.12066	3.85118	0.95179
9802.457	4.60473	0.88470	3.54274	0.87590
9806.459	4.76100	-1.62417	2.51165	1.13896
9810.452	3.05293	-1.97215	2.72229	1.18181
9814.461	1.95217	-1.96224	3.60561	0.96621
9818.478	4.20141	-0.38226	3.01336	1.12965
9822.457	4.10560	-1.73571	2.54608	1.28915
9826.459	4.58508	-2.16386	2.80300	1.42620
9830.460	4.72857	-1.64864	2.86410	1.49014
9834.457	3.35172	0.41173	3.02321	1.19619
9838.453	2.87933	-1.28009	2.82217	-0.85840
9842.475	4.67456	-8.13961	3.67504	-1.86210
9846.462	4.31696	-3.30154	4.88353	0.74528
9850.453	NaN	NaN	NaN	NaN
9854.456	10.30199	0.02917	NaN	NaN
9858.454	8.56124	-2.74714	4.18746	-0.30450
9862.453	3.49060	-1.25059	5.86268	-1.09419
9866.459	3.30408	-1.41391	6.44417	-4.70476
9870.458	4.34455	-1.21549	-1.08912	-1.12482
9874.457	2.38618	0.44458	3.68396	1.91504
9878.453	4.52930	-1.05025	4.46643	0.26830
9882.460	4.50187	-1.17284	3.37106	1.94926
9886.455	3.63806	-1.43517	-0.25847	-0.55513
9890.453	3.66656	0.09505	1.49259	3.82646
9894.328	3.66387	-1.10704	3.20822	2.03943
9898.328	3.51525	-1.12995	8.11744	2.20184
9902.330	10.29325	-1.03732	0.14528	1.95042
9906.345	9.86389	-4.94970	7.38644	3.95207
9910.336	10.10995	7.16493	2.81442	3.81121
9914.338	NaN	NaN	NaN	NaN
9918.339	NaN	NaN	NaN	NaN
9922.423	NaN	NaN	NaN	NaN
9926.337	NaN	NaN	NaN	NaN
9930.334	NaN	NaN	NaN	NaN
9934.337	NaN	NaN	NaN	NaN
9938.328	NaN	NaN	NaN	NaN
9942.327	3.03442	14.14535	NaN	NaN
9946.329	NaN	NaN	NaN	NaN
9950.330	NaN	NaN	NaN	NaN
9958.339	NaN	NaN	NaN	NaN
9962.326	NaN	NaN	NaN	NaN
9966.329	NaN	NaN	NaN	NaN
9970.336	NaN	NaN	NaN	NaN
9974.327	NaN	NaN	NaN	NaN
9978.328	NaN	NaN	NaN	NaN
9982.329	NaN	NaN	-9.75900	10.08262
9986.332	NaN	NaN	17.90684	12.93110
9990.330	NaN	NaN	NaN	NaN
9994.334	NaN	NaN	NaN	NaN
9998.335	NaN	NaN	NaN	NaN
10002.332	NaN	NaN	NaN	NaN
10006.321	NaN	NaN	NaN	NaN
10010.331	NaN	NaN	NaN	NaN
10014.329	NaN	NaN	NaN	NaN
10018.329	NaN	NaN	NaN	NaN
10022.322	NaN	NaN	NaN	NaN
10030.329	NaN	NaN	NaN	NaN
10034.338	NaN	NaN	-7.47458	15.01623
10038.327	NaN	NaN	NaN	NaN
10046.332	NaN	NaN	6.06932	13.17858
10050.326	NaN	NaN	3.05617	-1.40892
10056.382	NaN	NaN	NaN	NaN
10066.331	5.02846	8.24579	-7.77366	-4.92653
10070.332	NaN	NaN	-7.25858	-1.18286
10074.328	4.36895	1.56289	-2.96933	2.59275
10078.330	4.08088	4.85055	-2.78243	0.55503
10082.330	0.51565	5.02447	-1.95745	0.62628
10086.321	2.07678	4.79786	0.53959	2.43580
10090.328	1.75481	1.85504	-0.84905	-1.16126
10094.335	1.95267	1.86555	0.10140	-2.28597
10098.330	3.82692	-2.03748	0.14682	-2.37084
10102.325	0.84843	-1.61705	-0.07557	-1.43553
10106.327	1.77439	-0.16624	-0.34824	-1.78592
10110.323	0.15288	1.76710	-2.77909	-1.79623
10114.320	-0.67940	-1.06521	-2.57110	-2.32358
10118.325	-0.33362	0.15593	-0.64965	-5.07941
10122.331	1.04220	-4.87495	-0.30205	-3.63084
10126.356	-0.23227	-4.58163	-0.27314	-2.07415
10130.330	1.00194	-1.51618	-1.27641	-1.84951
10134.330	0.41604	1.52750	-0.16514	-1.97196
10138.330	1.21715	-1.30113	3.36770	-2.32768
10142.327	1.27698	-1.12820	-0.37099	-2.15954
10146.326	1.09254	0.89503	0.74025	-1.86131
10150.329	3.32859	-3.09266	1.47079	-2.20449
10154.335	NaN	NaN	2.40699	-2.28815
10158.327	NaN	NaN	0.99519	-2.58644
10162.326	NaN	NaN	0.24262	-2.11520
10166.338	2.75331	-2.24872	0.76196	-2.00766
10170.329	2.24155	-3.21137	0.89369	-3.60686
10174.327	1.73462	-3.85481	0.30761	-1.20608
10178.325	3.18779	-3.13782	-4.69783	-2.51685
10182.329	4.37031	-0.80559	-2.11779	-2.41719
10186.327	0.20651	-0.17292	0.52580	-2.76821
10190.326	0.13136	-2.26138	-0.61895	0.93672
10194.341	2.57167	-4.62487	-2.01077	-1.15467
10198.341	NaN	NaN	0.45028	-0.09676
10202.322	NaN	NaN	-1.76192	-1.13157
10206.324	2.13304	-2.98396	-2.70973	-2.86151
10210.331	1.21702	-1.95694	0.59009	-1.43171
10214.322	0.69744	-3.16023	-3.02658	-0.92113
10218.327	1.32654	-1.69064	-3.74533	-3.38029
10222.346	4.50971	-2.68718	-3.53990	-2.56529
10226.322	0.58037	-2.80643	3.66711	-2.70178
10230.319	0.61737	-2.35957	3.94327	-4.49151
10234.323	3.03945	-1.18057	-3.69615	-2.64532
10238.324	0.68288	-1.49011	-3.47438	-1.16228
10242.323	0.86823	-1.36765	-3.34979	-0.33087
10246.317	4.61642	-2.90625	0.66397	-3.04076
10250.323	1.07163	-2.44655	-0.10302	-4.11889
10254.324	3.76473	-2.82616	-1.10284	-2.29208
10258.320	2.38620	-1.26489	-2.88141	1.20286
10262.344	1.16332	-2.87088	1.13868	-2.40257
10266.331	1.89987	-1.96392	-1.70993	-2.69674
10270.323	NaN	NaN	-2.37228	-2.11051
10274.322	NaN	NaN	-0.43363	0.28752
10278.322	NaN	NaN	0.84086	-1.28425
10282.319	NaN	NaN	1.07664	-4.00923
10286.320	2.56820	-1.79011	-2.76170	-2.20273
10290.340	2.24574	-1.56487	0.19313	-1.25604
10294.327	2.29366	-1.05388	-0.12851	-1.14569
10298.327	0.80339	-4.78288	0.45825	-0.54150
10302.326	NaN	NaN	-0.63429	-0.21955
10306.325	NaN	NaN	-4.17080	-1.96094
10310.323	NaN	NaN	0.75087	-4.39878
10314.326	NaN	NaN	NaN	NaN
10318.324	NaN	NaN	NaN	NaN
10322.322	NaN	NaN	NaN	NaN
10326.324	NaN	NaN	NaN	NaN
10330.330	NaN	NaN	NaN	NaN
10334.331	NaN	NaN	NaN	NaN
10338.324	NaN	NaN	NaN	NaN
10342.322	NaN	NaN	NaN	NaN
10346.325	NaN	NaN	-4.48401	-0.99338
10350.323	NaN	NaN	-0.99851	-0.67293
10354.325	NaN	NaN	0.66910	-0.14069
10358.326	NaN	NaN	-0.97229	2.99246
10362.323	2.76064	-0.95257	-1.00970	1.55332
10366.324	-0.45482	-0.89670	-0.60129	1.85067
10370.323	1.54068	-2.74366	0.16928	-0.31983
10374.330	2.92280	-1.13014	-0.60588	0.04475
10378.325	0.60823	-1.28541	0.18065	0.80143
10382.322	1.59849	-1.10654	-0.06492	-0.62036
10386.324	-0.25282	-1.59442	-0.20589	-1.12713
10390.325	-0.35610	-2.97286	-0.80421	-2.83300
10394.325	-0.33575	-1.66283	-1.75778	-4.13394
10398.334	3.11881	1.44700	-3.27470	-3.46157
10402.340	0.47624	1.64535	-3.90214	-2.35254
10406.325	0.55967	1.80419	0.59307	-3.90786
10410.324	3.15238	0.26908	0.84042	-0.79069
10414.318	5.42225	-1.53415	1.74409	-2.42978
10418.322	NaN	NaN	0.62317	-3.06232
10422.320	NaN	NaN	-0.23428	-2.56615
10426.321	NaN	NaN	0.94452	0.07215
10430.318	NaN	NaN	-4.02134	-2.51652
10434.314	NaN	NaN	-1.85368	-0.75435
10438.318	NaN	NaN	-2.71196	-2.95246
10567.263	NaN	NaN	NaN	NaN
10617.056	NaN	NaN	NaN	NaN
10667.034	NaN	NaN	NaN	NaN
10717.034	NaN	NaN	NaN	NaN
10767.031	NaN	NaN	NaN	NaN
10817.029	NaN	NaN	NaN	NaN
10884.851	NaN	NaN	NaN	NaN
10888.572	NaN	NaN	NaN	NaN
10892.566	NaN	NaN	NaN	NaN
10896.561	NaN	NaN	NaN	NaN
10900.565	1.11668	11.88693	-4.61556	5.41723
10904.572	1.00633	11.81721	NaN	NaN
10908.565	6.35251	6.40919	0.43398	1.06024
10912.561	4.93657	6.42964	-4.65592	6.81308
10916.560	2.73719	2.53466	-1.97349	1.04814
10920.578	2.81152	2.69076	-2.24740	0.87906
10924.569	2.73479	2.47167	1.45507	0.96250
10928.561	2.68177	0.24621	-2.06173	0.43931
10932.562	0.23358	2.73007	-4.60550	0.56679
10936.562	0.06299	1.80737	-4.42755	0.78581
10940.561	-0.43120	-0.34812	-3.81395	1.21379
10944.565	-0.24373	-0.51332	0.82813	1.04622
10948.566	-0.51848	-0.34051	-1.88569	0.76705
10952.586	-3.27479	0.34350	-2.16959	0.53517
10956.571	-1.18924	-0.07861	-2.14890	0.94717
10960.564	-0.65933	0.26711	-2.27511	0.76346
10964.562	-0.01707	-0.25599	-2.97215	0.92388
10968.565	-0.28927	-0.89630	-2.25823	0.39164
10972.565	-0.97246	-1.20861	-1.90921	0.52262
10976.561	-2.60453	-1.21319	-1.89521	0.48085
10980.565	-1.75547	-2.00434	-1.90800	-0.34255
10984.561	-0.24755	-1.90027	-1.74486	-0.80320
10988.569	-2.00633	-1.81259	-1.72337	-1.50729
10992.569	-1.21812	-1.63846	-1.58111	-2.27305
10996.559	-1.79797	-1.67966	-0.54749	-1.03930
11000.564	-0.97745	-1.18931	-1.66790	0.46783
11004.560	-1.53042	-1.52496	-1.83779	0.26319
11008.566	-1.49991	-1.29934	-2.31180	-0.52231
11012.560	-1.46360	0.12465	-5.12925	-0.98949
11016.563	-1.25426	-1.02415	-2.31966	-0.32950
11020.559	-1.81860	5.65052	-0.89552	-0.58203
11024.561	2.64089	3.18505	-2.13547	-0.61218
11028.572	-4.93745	5.98215	-4.78173	-1.06757
11032.563	-3.98568	6.17069	-2.13118	-0.14144
11036.564	-2.69933	4.38111	-2.08277	-0.14525
11040.559	-4.37643	5.76346	-5.05619	-0.15540
11044.561	-0.04715	0.81149	-4.80615	0.12829
11048.558	0.36032	0.12971	-4.47269	0.05918
11052.560	2.24718	-0.21907	-3.16658	-0.78123
11056.560	-3.57459	2.50735	-1.64518	-0.15395
11060.563	-4.50619	1.22436	-2.36658	0.15118
11064.557	-4.92314	5.50223	-4.57038	-0.06027
11068.571	-4.93110	3.38904	-2.28526	-1.27716
11072.584	1.30962	-0.19342	-0.58446	-0.37348
11076.558	1.17026	-0.04725	-1.59090	0.49412
11080.562	-0.03457	-0.17787	-1.42424	-0.34902
11084.561	2.38004	0.51707	-4.18304	0.68856
11088.433	-3.01257	0.67039	-2.07618	0.19889
11092.452	-5.60057	1.70062	-2.23167	0.33684
11096.442	-0.33570	0.73362	-1.87242	0.26765
11100.430	-0.49386	0.74645	-1.89550	0.71580
11104.438	-0.56496	0.54443	-2.08367	0.51010
11108.434	2.76896	-0.16957	-2.03908	0.77724
11112.437	-2.95767	1.26650	-1.98383	1.01281
11116.438	-0.44249	0.91251	-4.76298	1.08238
11120.438	3.20793	0.76113	-6.31833	2.24175
11124.435	2.32169	8.83852	1.47660	3.09765
11128.437	0.62900	11.53920	NaN	NaN
11132.431	NaN	NaN	NaN	NaN
11136.437	NaN	NaN	NaN	NaN
11140.435	NaN	NaN	NaN	NaN
11144.445	NaN	NaN	NaN	NaN
11148.434	NaN	NaN	NaN	NaN
11152.444	NaN	NaN	NaN	NaN
11156.435	NaN	NaN	NaN	NaN
11160.836	NaN	NaN	NaN	NaN
11164.471	NaN	NaN	NaN	NaN
11168.446	NaN	NaN	NaN	NaN
11172.430	2.95193	14.19615	NaN	NaN
11176.436	NaN	NaN	NaN	NaN
11180.432	NaN	NaN	NaN	NaN
11184.434	NaN	NaN	NaN	NaN
11188.435	NaN	NaN	NaN	NaN
11192.516	NaN	NaN	NaN	NaN
11196.659	NaN	NaN	NaN	NaN
11200.772	NaN	NaN	18.32758	13.96786
11204.432	NaN	NaN	NaN	NaN
11208.431	NaN	NaN	NaN	NaN
11212.434	NaN	NaN	NaN	NaN
11216.435	NaN	NaN	NaN	NaN
11220.436	NaN	NaN	NaN	NaN
11224.435	NaN	NaN	NaN	NaN
11229.577	NaN	NaN	NaN	NaN
11233.779	1.18959	14.40080	12.96859	14.27585
11237.972	NaN	NaN	NaN	NaN
11241.330	0.58382	2.10766	4.64951	0.64754
11245.575	0.61022	1.58595	NaN	NaN
11249.660	0.73238	3.91460	-6.69713	7.77268
11253.817	1.32051	1.81402	4.08913	6.80435
11257.874	1.19080	1.89506	-7.78713	10.89639
11261.923	1.02774	2.02458	NaN	NaN
11265.988	0.75394	2.18791	-3.17836	9.74428
11270.090	-2.14154	8.11263	NaN	NaN
11273.958	-2.32062	1.82589	-3.30896	2.92044
11278.133	-0.36593	0.85731	-2.05591	2.74705
11282.401	-1.96947	0.55881	-1.73881	1.93980
11286.578	-1.23903	0.75423	1.63653	0.67003
11290.757	-1.92493	0.98059	-1.58480	0.82621
11295.960	-3.61901	1.13364	-1.07259	1.14154
11300.105	-0.71325	2.78048	-3.58309	2.31125
11303.879	-1.29338	0.61210	-0.05376	2.11261
11308.049	-1.29429	1.02463	-0.31841	2.46063
11312.203	-1.67516	2.52229	-3.80471	2.45163
11316.526	-5.58946	-2.30638	NaN	NaN
11320.444	-5.63316	0.84278	0.73116	1.20933
11324.768	-5.83306	0.97590	-0.37640	0.83657
11328.560	-5.83434	3.55665	0.03606	-1.94395
11332.441	-5.80975	1.20080	0.03502	1.03694
11336.670	-2.16580	1.11720	0.01772	1.97492
11341.005	-1.47952	-2.53844	0.03239	0.87124
11344.897	-5.64009	0.93032	-0.15020	1.75665
11348.608	-5.75482	1.87358	-0.08386	1.21529
11352.883	-5.48204	1.48625	-0.71099	2.83965
11357.014	-2.15351	1.17507	0.05869	1.78143
11362.035	-5.58842	1.36944	-0.26679	2.93350
11366.146	NaN	NaN	0.35561	2.07366
11370.293	-3.27044	0.09484	-0.69677	3.11073
11373.896	-5.53257	-0.35962	-3.11109	2.69632
11377.607	-4.17097	0.26972	-3.52054	3.11601
11381.259	-4.28668	-0.67162	-3.17143	1.33534
11384.900	-4.75644	1.39067	-3.66226	2.36824
11388.567	-3.84686	-0.94952	-3.90622	1.34533
11392.442	-4.78723	-0.31837	0.14992	1.96931
11396.787	-5.31465	0.65985	-0.01720	3.13413
11400.481	-5.21520	-2.06465	1.17225	3.15519
11404.462	-5.18210	1.11946	-1.21378	3.22368
11408.439	-4.95342	-0.01785	-4.49390	2.03487
11412.433	-4.69487	1.27931	-4.31289	1.17118
11416.435	NaN	NaN	-4.22481	3.45903
11420.424	NaN	NaN	-1.38456	1.92941
11424.432	NaN	NaN	-1.36506	3.76691
11428.890	NaN	NaN	-0.27160	3.34763
11432.519	NaN	NaN	-0.37462	1.53697
11436.435	NaN	NaN	-1.99106	1.06064
11440.646	NaN	NaN	-4.34983	8.77609
11444.849	0.89731	1.08026	-2.51911	3.25727
11448.981	0.69841	5.66165	16.24370	10.68554
11453.005	NaN	NaN	NaN	NaN
11456.429	NaN	NaN	NaN	NaN
11460.430	NaN	NaN	NaN	NaN
11464.426	NaN	NaN	12.41741	12.98291
11468.437	NaN	NaN	NaN	NaN
11472.433	2.93710	14.17457	NaN	NaN
11476.432	NaN	NaN	NaN	NaN
11480.425	NaN	NaN	NaN	NaN
11484.433	NaN	NaN	NaN	NaN
11488.431	NaN	NaN	NaN	NaN
11492.437	NaN	NaN	NaN	NaN
11496.927	NaN	NaN	NaN	NaN
11501.098	NaN	NaN	NaN	NaN
11505.302	NaN	NaN	NaN	NaN
11509.521	NaN	NaN	NaN	NaN
11513.759	NaN	NaN	NaN	NaN
11517.957	NaN	NaN	NaN	NaN
11522.092	NaN	NaN	NaN	NaN
11525.876	NaN	NaN	NaN	NaN
11529.599	NaN	NaN	NaN	NaN
11533.534	NaN	NaN	14.99306	13.87325
11536.431	NaN	NaN	NaN	NaN
11540.427	NaN	NaN	NaN	NaN
11544.427	NaN	NaN	NaN	NaN
11548.429	NaN	NaN	NaN	NaN
11552.431	2.99982	14.16365	NaN	NaN
11556.426	NaN	NaN	NaN	NaN
11560.426	NaN	NaN	NaN	NaN
11564.427	NaN	NaN	NaN	NaN
11568.427	NaN	NaN	NaN	NaN
11572.431	NaN	NaN	NaN	NaN
11576.442	-0.87756	11.00836	NaN	NaN
11580.574	NaN	NaN	-5.12545	7.26076
11584.422	2.01008	-2.07577	-0.80384	1.92001
11588.787	0.65057	-1.13424	NaN	NaN
11593.088	0.89771	0.86721	-11.19557	0.82652
11597.365	0.14603	4.63774	-5.01637	0.53398
11601.364	0.13531	7.52775	-3.78380	0.65632
11605.365	-2.16322	0.13297	-5.80786	-1.20997
11609.438	-0.53486	6.56076	-5.18424	-1.18239
11613.565	-0.24115	7.35343	-4.87660	-0.52892
11617.658	-1.77147	5.43709	-4.44995	1.36032
11621.894	-0.02675	1.39349	-4.29976	1.58769
11626.248	0.27741	1.09309	-4.52407	-1.14997
11631.358	0.45894	1.01184	-4.46670	-1.06076
11635.805	-2.12617	1.37680	-2.31207	0.77601
11640.112	-1.36846	1.88925	-1.99367	1.32161
11644.411	-7.12820	0.79492	-2.42636	0.27667
11648.736	-2.14263	0.89655	-2.15157	-0.36207
11653.127	-1.07091	1.14649	-1.72542	-0.31936
11657.389	-0.43730	1.11317	-2.52609	0.88576
11661.028	-2.74544	0.94496	-2.12605	0.82583
11665.201	-2.24061	0.44577	-1.55390	1.27793
11669.471	-2.45795	-0.10079	-2.02601	2.01563
11673.728	-3.10787	-0.00712	-2.38873	2.46951
11677.785	-2.75158	0.62761	-2.17512	1.42333
11681.953	NaN	NaN	-2.41606	2.56159
11685.789	NaN	NaN	-2.25722	1.33407
11689.949	NaN	NaN	-2.99769	0.87196
11693.477	NaN	NaN	-2.58687	1.47344
11698.462	-1.38064	0.82209	-2.31911	1.81202
11702.738	-1.04925	-4.69056	-2.44653	1.88177
11706.356	-0.72501	0.71926	-2.29934	1.85116
11710.086	-0.53136	-0.88671	-2.41782	1.49085
11714.301	-0.59553	0.68746	-3.80391	1.45452
11718.031	-0.74052	0.89085	-4.63800	1.37838
11721.840	-0.57391	0.48422	-5.60866	1.37931
11725.726	-0.78173	1.22588	-2.21006	1.44978
11729.458	-3.81372	-0.71138	-2.21402	1.63505
11733.124	2.87512	-2.58209	-2.07521	1.57366
11737.383	2.26886	-1.52334	-1.94885	2.38668
11741.042	1.00035	-1.48117	-1.99146	2.91842
11744.774	-0.86019	-0.26031	-3.69642	0.69940
11749.038	-0.81243	-0.54398	-2.23444	0.56395
11752.739	0.79352	-2.26370	-2.08377	1.77314
11756.886	1.06304	-2.26443	-2.17789	1.58581
11760.619	-0.59848	1.10070	-2.16139	2.20340
11765.296	-0.88108	0.45815	-2.53023	0.28409
11769.170	-1.08760	-2.79019	-2.49409	1.03110
11772.957	-4.40404	0.11518	-1.72570	0.33675
11776.757	NaN	NaN	-2.40575	2.61926
11780.646	NaN	NaN	-2.49154	3.00148
11784.537	-1.05642	-1.81945	-2.51148	2.35725
11788.881	-1.84947	-0.06701	-2.53952	0.88185
11793.161	-1.75590	-0.70354	-2.32605	1.32901
11796.989	-1.88442	-0.68230	-2.08320	0.78807
11801.318	-1.56794	-0.47987	-2.25836	1.10157
11805.632	-1.74494	-0.64039	-2.44487	0.60579
11809.911	-3.50155	-0.35346	-2.56451	0.50697
11813.667	-3.38783	-0.41512	-2.44569	0.53658
11817.906	-1.65704	-0.40154	-2.92126	0.47823
11822.223	-3.56566	-0.54821	-3.94201	1.12417
11825.932	-3.18873	-1.00163	-4.16887	1.81455
11829.690	-1.90165	-0.56693	-4.07103	2.69376
11834.869	-1.77219	-0.64644	-3.19128	2.43806
11839.279	-1.72012	-0.59348	-3.24417	1.14353
11843.612	-1.76187	-0.78186	-3.11230	1.44832
11847.911	-1.74243	-0.63495	-2.72476	2.60969
11852.225	-3.06701	-0.84876	-2.14927	2.25544
11856.561	1.40403	-1.00829	-2.86113	3.56487
11860.431	0.53309	-1.09616	-3.11737	2.23892
11864.428	1.45368	-1.03432	-2.71758	1.01143
11868.634	1.47575	-1.16289	-2.39225	0.87289
11872.424	1.74739	-1.58625	-2.87992	1.87902
11876.434	2.29129	-1.89984	-2.20005	1.27485
11880.422	4.29902	-1.42796	-2.63633	2.24021
11884.431	-0.03718	1.05383	-2.42515	0.78922
11888.418	-0.21239	-0.97051	-2.00864	0.93911
11892.422	NaN	NaN	1.33046	-0.86115
11896.418	NaN	NaN	-1.91833	0.48887
11901.420	NaN	NaN	-6.08985	0.76551
11905.860	1.80060	2.92201	-2.41633	0.81090
11910.183	1.82475	2.90260	-3.42376	1.26005
11914.141	1.41844	0.73204	-1.97066	0.93980
11917.994	-0.07999	-1.67078	-2.71419	0.80421
11922.295	2.23462	1.68075	-2.70867	0.46705
11926.493	-1.91851	-1.90662	-2.56728	0.72292
11930.688	-3.80908	0.98922	-1.85730	0.57963
11934.934	1.40393	-5.20655	-2.35935	0.71452
11939.291	-2.15081	-1.87474	-2.78322	0.71234
11943.633	-3.81829	-6.42696	-2.79196	0.62464
11948.014	-4.01677	-1.92271	-2.81608	2.17963
11951.769	-3.83196	-1.96878	-2.80266	2.76925
11955.987	-3.69318	-1.90581	-2.81407	3.06364
12085.332	NaN	NaN	NaN	NaN
12152.723	NaN	NaN	NaN	NaN
12156.450	NaN	NaN	NaN	NaN
12160.425	NaN	NaN	NaN	NaN
12164.408	NaN	NaN	NaN	NaN
12168.416	NaN	NaN	NaN	NaN
12172.411	NaN	NaN	NaN	NaN
12176.412	NaN	NaN	NaN	NaN
12180.409	NaN	NaN	NaN	NaN
12184.412	NaN	NaN	NaN	NaN
12188.408	NaN	NaN	NaN	NaN
12192.415	NaN	NaN	NaN	NaN
12196.410	NaN	NaN	NaN	NaN
12200.416	NaN	NaN	NaN	NaN
12204.407	NaN	NaN	NaN	NaN
12208.412	NaN	NaN	NaN	NaN
12212.410	NaN	NaN	NaN	NaN
12216.412	NaN	NaN	NaN	NaN
12220.418	NaN	NaN	NaN	NaN
12224.413	NaN	NaN	NaN	NaN
12228.429	NaN	NaN	NaN	NaN
12232.406	NaN	NaN	NaN	NaN
12236.409	NaN	NaN	NaN	NaN
12240.412	NaN	NaN	NaN	NaN
12244.408	NaN	NaN	NaN	NaN
12248.403	3.07488	0.67722	0.53853	3.20768
12252.417	2.99769	1.02059	0.84394	1.38661
12256.413	-0.31258	0.38940	0.84106	-0.23288
12260.415	0.73223	1.06614	0.60436	1.76572
12264.408	1.96764	0.95510	0.54488	1.06434
12268.416	0.78158	0.76914	0.67990	0.91570
12272.413	0.27190	1.22829	0.64995	1.28907
12276.409	2.75715	0.79048	-0.86225	1.85167
12280.415	0.32707	0.97810	-0.52078	1.44856
12284.418	0.85625	0.90637	0.26245	-0.60341
12288.411	1.14719	0.68810	-0.33588	1.38480
12292.447	1.88821	0.73259	0.68752	1.39091
12296.418	0.86339	-2.70877	-0.75230	1.09433
12300.413	0.37057	-1.34645	0.53168	1.61817
12304.411	2.66706	-2.76365	0.24210	1.87587
12308.413	2.59517	-2.86351	0.31627	1.75353
12312.411	0.90808	-0.36518	0.22358	1.63062
12316.410	0.76389	-2.63941	-0.65886	2.26459
12320.416	0.76498	-0.04070	0.68987	2.49494
12324.418	1.92153	-0.48052	0.39388	1.85968
12328.413	0.23800	1.37592	0.82034	2.00567
12332.417	0.92239	0.91731	0.75784	2.09193
12336.412	2.76059	1.00723	0.83384	2.01750
12340.410	0.72881	1.71568	0.36906	1.97414
12344.415	0.49572	1.88575	1.04684	1.81105
12348.414	0.12280	0.44780	0.88704	1.88792
12352.411	5.55787	-2.76631	0.66315	2.01251
12356.407	0.26120	0.17702	0.57396	2.03091
12360.410	5.04738	-0.63137	1.95051	2.03053
12364.422	0.47607	0.61460	2.86873	2.11547
12368.415	2.05861	-1.09332	5.76089	2.01543
12372.415	3.05001	-0.75849	6.73236	2.03893
12376.415	4.80231	2.45955	7.05591	1.75960
12380.412	7.49951	-0.70654	6.96988	1.82739
12384.414	5.96615	1.32911	7.35705	2.09701
12388.411	2.64193	1.02284	7.33383	2.49485
12392.410	4.83952	-5.20668	8.02698	2.31509
12396.410	5.65400	-1.95399	8.24672	1.58594
12400.410	8.05083	-1.07454	8.08273	1.67843
12404.417	8.20693	1.59674	7.25482	2.56782
12408.419	7.83541	-1.19974	8.01287	1.95880
12412.412	7.87314	-0.48338	8.01058	1.46776
12416.410	6.87734	-1.70681	8.06550	1.46353
12420.411	8.14125	-1.72437	7.71272	2.06851
12424.410	6.55097	-0.27733	7.65515	2.45275
12428.441	7.10186	-1.71313	7.77076	2.70806
12432.415	7.18430	-1.88513	8.13614	0.37119
12436.412	7.06623	-1.77390	7.76111	1.26920
12440.413	8.19312	-1.54772	7.65488	1.33232
12444.409	8.08119	-1.64796	7.69739	1.07580
12448.417	6.96484	-1.44644	7.84213	0.52639
12452.432	7.31882	-3.70980	7.75361	0.77744
12456.408	8.05137	-1.44920	7.74157	0.81638
12460.407	7.78825	-0.27417	7.50908	0.83348
12464.411	7.49027	-1.36786	7.72712	0.81693
12468.410	8.31990	-1.79276	7.61151	1.02992
12472.408	7.62389	0.49460	7.79490	0.99022
12476.411	7.75285	-1.12845	7.64986	0.93910
12480.410	7.95258	-1.96870	7.84367	0.87373
12484.406	7.51422	-0.66080	7.87428	0.88754
12488.419	7.50212	-0.95044	7.80455	0.89005
12492.413	7.82633	-2.93938	7.99593	0.91210
12496.409	7.09629	-2.78600	8.04611	1.00994
12500.409	7.58449	-0.31858	7.49554	1.36748
12504.412	7.95429	-2.87013	8.12160	1.76640
12508.409	7.78129	-1.17605	8.07730	2.24028
12512.408	7.28427	-1.22879	8.08513	0.94717
12516.408	7.19864	-3.11653	8.06231	1.11125
12520.409	7.82935	-1.36444	8.03793	1.61216
12524.410	7.15389	-1.23595	8.01243	2.20118
12528.410	6.39177	-2.06600	7.92313	1.18106
12532.412	7.28740	-0.44401	7.76011	0.97829
12536.410	6.20626	-3.31790	7.94199	1.31898
12540.411	6.83411	-2.83270	7.81025	2.00892
12544.406	7.63421	-2.68947	7.82923	2.66882
12548.413	6.75500	-1.67238	7.63508	1.66292
12552.408	8.18183	-1.05304	7.45213	0.84265
12556.408	6.99822	-1.65777	7.62033	0.72838
12560.406	8.13349	-1.22839	7.75392	1.02997
12564.406	8.23056	-1.32861	7.68354	2.38199
12568.408	8.11284	-3.04996	8.05066	1.67660
12572.413	7.75570	-0.73376	7.39618	2.65217
12576.412	8.44339	-2.78790	7.79858	2.60694
12580.405	8.22372	-2.37429	7.96178	2.46505
12584.405	8.41930	-0.94974	7.71055	1.82086
12588.409	8.15015	-2.99399	7.63923	0.55065
12592.413	8.14730	-0.79391	7.80431	0.67731
12596.413	8.44174	-0.66677	7.98330	0.68725
12600.410	7.85285	-2.89068	7.80645	0.83120
12604.410	8.41434	0.36916	8.03740	0.62760
12608.410	8.22713	-3.05949	7.81261	0.68768
12612.407	8.45842	-2.56758	8.02200	0.64682
12616.415	8.38950	-1.65886	7.96641	0.70303
12620.411	6.65084	-3.32051	8.07158	0.86886
12624.404	3.10129	-6.17022	8.06623	0.71417
12628.405	6.04723	-3.05088	7.77671	0.84785
12632.409	6.37253	-3.50873	7.74530	0.95952
12636.410	3.21332	-6.45716	7.87197	1.18403
12640.409	6.00690	-6.91948	7.64323	1.23020
12644.404	6.05903	-8.38202	7.90487	1.42008
12648.410	3.42529	-6.73419	7.81393	1.66435
12652.408	6.16101	-8.26096	7.80750	1.51218
12656.419	-2.13465	-11.92026	7.69437	1.70820
12660.406	3.38570	-9.23084	7.87489	1.54662
12664.407	5.85428	-9.25195	7.84157	1.45324
12668.430	2.57456	-8.71878	7.57576	1.73083
12672.408	3.11316	-11.74543	7.87742	1.69511
12676.406	5.83414	-9.44213	7.78031	1.63679
12680.405	1.80935	-9.09120	7.56318	1.75226
12684.408	3.49557	-9.39624	7.84233	1.49584
12688.405	1.75905	-13.03344	7.99221	1.46992
12692.402	6.23766	-9.75346	7.94333	1.35272
12696.408	7.05288	-2.58955	8.00506	1.29940
12700.409	5.14212	-2.24064	7.15484	1.29465
12704.411	5.82353	-3.45924	6.69020	1.12274
12708.404	3.40722	-0.30637	4.53149	0.30815
12712.407	3.52371	0.18929	2.56842	1.84308
12716.408	-0.47768	-0.01362	1.61379	2.63823
12720.406	-0.73270	-0.12769	-2.08746	3.37948
12724.406	1.65180	-1.04811	-2.20959	0.90036
12728.403	-2.78698	-0.05143	-3.85227	0.96337
12732.407	-6.43763	0.17033	-5.50815	2.78673
12736.405	-3.62538	-1.19345	-5.46536	1.99763
12740.411	-3.12477	1.32699	-6.01495	0.95166
12744.406	-4.12327	-0.22314	-3.83678	0.86699
12748.411	-4.68050	-0.23330	-5.56760	1.06075
12752.408	-3.95241	-0.35764	-2.95797	1.61093
12756.407	-3.87072	-0.87273	-3.85086	0.98044
12760.404	-3.72931	-0.62643	-5.54287	1.74761
12764.409	-3.69509	-0.17571	-6.00904	-0.80234
12768.443	-3.44127	-0.46138	-3.86321	2.63905
12772.410	-3.69968	-0.05755	-3.66436	1.71115
12776.406	-3.79391	-0.24532	-3.82946	1.45723
12780.412	-3.93095	0.34377	-4.01198	1.09340
12784.408	-3.73752	-0.34690	-4.00329	-0.82292
12788.405	-3.81461	-0.28982	-4.00494	0.54144
12792.404	-3.73828	-0.38364	-4.38045	-1.00526
12796.407	-3.86257	-0.01381	-2.22993	-1.01580
12800.405	-3.79403	-0.50563	-4.06594	-0.21713
12804.402	-3.81703	-0.39980	-3.97299	0.22087
12808.404	-3.83144	-0.49571	-4.03868	-0.41060
12812.407	-3.66068	2.82117	-3.81187	0.93037
12816.405	-3.77298	-0.16072	-4.29073	0.58671
12820.404	-3.71505	0.35429	-4.06713	0.47758
12824.406	-3.61686	0.12139	-4.28049	3.56058
12828.412	-3.58368	0.40970	-4.32967	3.21418
12832.404	-3.70129	-0.32911	-4.10643	2.85371
12836.405	-5.24119	-0.90231	-3.87544	2.50434
12840.407	0.60950	-2.68177	-4.24495	3.22995
12844.405	-3.45161	-0.77897	-4.25127	3.07064
12848.401	-3.63557	0.07881	-4.45094	2.17193
12852.408	-4.64194	0.39620	-4.14892	0.08617
12856.403	-3.96190	-1.44112	-4.35408	1.16686
12860.401	0.44093	-2.31357	-4.14149	0.71338
12864.403	-3.98353	0.11363	-5.70672	1.50282
12868.406	-3.97417	1.36460	-3.21114	-1.91354
12872.405	-4.14870	-2.03028	-3.60039	0.19014
12876.401	-4.04446	0.33279	-5.11620	0.23849
12880.406	-3.78558	0.50280	-3.98123	0.69659
12884.403	-4.00744	0.94371	-3.63673	0.42438
12888.410	-3.92769	-0.03587	-3.57780	0.56623
12892.434	-3.88880	0.39840	-3.75622	0.05753
12896.406	-4.02791	-1.75874	-3.50482	-1.66134
12900.401	-3.90988	-0.50722	-2.92374	-0.52312
12904.410	-3.89283	0.22469	-3.36691	-0.07883
12908.410	-3.91207	0.06954	-4.33026	-0.54060
12912.402	0.43207	-2.49085	-5.15990	-0.88681
12916.400	0.53471	-3.69168	-5.28094	-0.06817
12920.277	-6.44005	-2.90348	-3.54376	-0.33869
12924.280	0.32672	-2.30435	-3.57140	0.36690
12928.276	-3.69353	-0.41751	-3.83384	1.17448
12932.278	-4.10518	-0.71220	-3.71105	1.37808
12936.274	-3.86437	-0.60948	-4.62249	-0.72661
12940.280	-4.00450	-0.57934	-3.38538	-0.40463
12944.277	-4.07866	0.03894	-3.68132	-0.61928
12948.274	-2.92891	-0.75989	-3.03982	-0.76508
12952.278	-3.93725	0.37294	-3.62741	-0.53667
12956.281	-4.20746	0.41457	-5.34599	-0.48373
12960.277	-3.42806	0.14087	-4.63060	0.79993
12964.278	-3.52418	1.99589	-3.92845	0.53899
12968.282	-4.18929	0.45208	-3.06662	-0.20158
12972.275	-4.07263	-0.06660	-2.25194	-0.80330
12976.279	-4.26131	-0.96199	-4.28074	0.04436
12980.277	-4.11967	0.25865	-5.15694	0.34212
12984.279	-2.87428	0.93394	-3.84861	0.44183
12988.281	-3.75094	0.61199	-5.04612	0.77440
12992.276	-4.72494	0.17977	-3.78825	0.52896
12996.287	-4.18909	0.35588	-3.76767	0.79841
13000.278	-3.57174	0.58997	-4.29389	0.45212
13004.277	-4.31677	1.40360	-5.29683	0.47300
13008.275	-2.59648	1.23746	-3.59871	0.35593
13012.279	-7.96147	0.83716	-0.96085	0.15188
13016.275	-1.88224	0.79651	-3.58020	-2.72965
13020.277	-1.86955	-0.00678	-2.28856	0.51053
13024.275	-4.47422	0.87909	-2.24002	0.45664
13028.282	-1.96298	0.54389	-0.44793	-1.34512
13032.279	-1.26852	-0.65809	-3.59851	-2.04992
13036.285	-1.72374	-0.12712	-1.47000	-0.68548
13040.284	-1.51038	-0.31540	-1.95656	-0.06720
13044.272	1.24109	-4.62611	-0.34494	-0.08988
13048.277	1.19897	-2.86319	-2.07745	-0.63890
13052.276	1.46812	0.37368	-2.11975	-0.04810
13056.276	-1.07775	-1.31572	-1.61627	-0.21613
13060.272	-0.77563	-3.79279	-4.33959	-0.13928
13064.277	-1.25200	-2.69576	-0.27399	-0.81717
13068.276	-3.18034	-1.62790	-1.47682	-0.64688
13072.276	0.57029	-4.32611	-1.16399	-0.33042
13076.284	-1.23412	-3.93263	-1.91506	-1.22980
13080.279	-2.70230	-3.51886	-2.48958	1.79550
13084.275	-2.18855	-6.85777	0.28066	-0.42352
13088.278	-1.39316	-7.65916	-3.89953	-0.31448
13092.307	-1.95889	-7.76140	-3.26653	3.42620
13096.277	-6.58820	-7.54084	-2.55146	1.89089
13100.272	-0.12898	-8.54937	-1.94707	1.90482
13104.277	-1.31272	-8.16330	-3.31022	1.06336
13108.278	-2.41623	-7.48785	-2.72278	1.79728
13112.277	-0.98449	-7.81273	-2.26182	1.71158
13116.272	-1.71675	-7.77588	-1.96933	0.43455
13120.280	-1.65590	-7.64655	-2.80347	-4.45036
13124.272	-2.15822	-7.38695	-2.51641	0.31823
13128.277	-2.24545	-10.32054	-1.91357	0.04654
13132.273	-0.86954	-8.12699	-1.18795	-0.29467
13136.276	-0.64722	-12.44519	-2.60750	0.72086
13140.269	-2.02830	-7.32341	-2.66669	1.55530
13144.277	-2.32697	-11.26852	-2.49894	1.66011
13148.272	-1.53223	-14.23906	-1.29620	-0.16332
13152.274	0.18985	-14.24521	-4.50853	-0.14606
13156.289	-1.98053	-9.47863	-2.83095	2.20758
13160.282	-2.02212	-7.73597	-2.45780	0.96468
13164.275	-7.85923	-14.20995	-2.24577	0.96113
13168.276	-7.81488	-14.42113	-2.55121	0.73802
13172.272	-1.67291	-7.01604	1.21789	-0.47671
13176.317	-1.12273	-11.17071	0.04363	-1.77463
13180.278	-1.17612	-9.57455	-3.40215	-1.83876
13184.272	0.68275	-10.73661	-2.42282	-1.59871
13188.275	-1.15992	-11.11982	-1.93336	2.49898
13192.271	-1.56910	-10.86712	-2.74853	2.45821
13196.276	-1.49619	-12.04969	-2.66526	1.78080
13200.272	-7.49422	-13.14493	-2.34205	0.57841
13204.278	-7.34672	-14.19386	-2.37895	0.10619
13208.273	-6.95428	-14.80360	-2.32389	0.96222
13212.276	-6.64173	-14.37811	-2.24386	0.18588
13216.281	-5.99772	-10.77250	-1.64384	-0.39555
13220.272	-6.42148	-10.52852	-1.72044	1.71673
13224.277	-6.31500	-13.23970	-1.63700	2.17954
13228.272	-5.23755	-10.76537	-1.73363	1.56377
13232.274	-6.20646	-13.21375	-1.55631	1.59188
13236.268	-6.56956	-14.59142	-1.25783	1.70314
13240.275	-5.05723	-13.82252	-2.07985	1.41786
13244.276	1.90673	-10.50130	-6.33108	1.14653
13248.277	-6.76679	-7.40523	-4.20005	6.46732
13252.272	-1.11913	8.51768	NaN	NaN
13256.274	-19.99372	-12.37483	NaN	NaN
13260.298	-19.99372	-12.30075	NaN	NaN
13264.275	-19.99372	-12.25268	NaN	NaN
13268.275	-19.99372	-12.18715	NaN	NaN
13272.272	-19.99372	-12.17133	NaN	NaN
13276.277	-19.99372	-12.12556	NaN	NaN
13280.273	-19.99372	-12.11493	NaN	NaN
13284.277	-19.99372	-12.07700	NaN	NaN
13288.281	NaN	NaN	NaN	NaN
13292.278	NaN	NaN	NaN	NaN
13296.273	NaN	NaN	NaN	NaN
13300.273	NaN	NaN	NaN	NaN
13304.274	NaN	NaN	NaN	NaN
13308.271	NaN	NaN	-7.09504	15.06188
13312.270	NaN	NaN	NaN	NaN
13316.271	NaN	NaN	NaN	NaN
13320.263	NaN	NaN	NaN	NaN
13324.274	NaN	NaN	NaN	NaN
13328.273	NaN	NaN	NaN	NaN
13332.270	NaN	NaN	NaN	NaN
13336.272	3.14286	14.13705	NaN	NaN
13340.273	NaN	NaN	NaN	NaN
13344.269	3.14607	14.13421	NaN	NaN
13348.269	NaN	NaN	NaN	NaN
13352.269	NaN	NaN	NaN	NaN
13356.269	5.08313	6.22537	NaN	NaN
13360.274	NaN	NaN	NaN	NaN
13364.274	9.52328	0.69603	-0.35819	9.94016
13368.293	1.80474	-1.20744	-0.25339	-0.04324
13372.471	4.91762	-3.38388	0.71327	1.46835
13377.455	2.03209	-0.88353	-5.25001	-0.38582
13381.779	1.35581	-1.37803	-0.47641	0.15508
13385.948	0.85046	-0.85684	0.91778	0.35383
13390.035	3.71743	2.36663	0.52193	0.46972
13394.075	0.10148	-0.88207	-0.34670	5.14610
13398.204	-0.71273	-0.82668	-0.67186	0.66397
13402.323	1.75609	-0.51569	-0.81312	0.38097
13406.714	1.53086	-0.51440	0.61193	0.86317
13411.069	0.90562	-0.28632	1.06845	1.22422
13415.368	-0.29071	0.08247	0.43276	1.47858
13419.697	0.29029	-0.98777	0.18229	2.16848
13424.061	0.12860	-0.68809	-0.00233	1.94531
13428.445	0.38253	-0.78638	-3.61085	0.80349
13432.776	0.72461	-2.33112	0.67471	-0.94238
13436.482	0.20139	-0.75343	0.37735	0.42856
13440.776	1.09827	0.10472	1.74786	-0.58011
13445.904	0.51178	-1.27376	0.65568	-0.28279
13449.575	2.75655	-2.55800	0.29195	1.16609
13453.241	0.50336	-1.06912	-0.09865	2.13077
13457.430	0.50701	-0.08734	-0.10880	1.93367
13461.634	0.61124	-0.43632	-0.54205	-0.12255
13465.905	0.26669	-1.00585	-0.24190	0.46176
13470.227	0.28508	-0.18197	-0.31774	1.00098
13474.490	-0.73275	-2.61216	0.11860	0.98718
13478.734	-0.10570	-0.20071	-0.51416	-0.17192
13482.999	-0.12580	-1.05535	-0.40340	-1.42591
13487.474	-0.23664	-0.48203	0.38127	-0.40440
13491.839	-1.27931	-2.46824	1.89131	-2.80337
13495.454	-0.08800	-2.53728	1.09321	-1.18981
13499.171	-0.09927	-1.97671	2.30687	-2.71243
13502.883	-0.21738	-1.50699	1.13655	2.82271
13507.093	-0.11632	-2.55141	2.60644	0.99393
13510.844	-0.03100	-2.56200	0.30357	1.32331
13516.006	3.15973	-2.43234	0.29031	2.02995
13519.793	3.01081	-1.48015	0.91143	2.13785
13524.156	NaN	NaN	1.30965	0.37403
13528.442	1.25121	-0.19127	-0.93721	0.67354
13532.279	0.13483	0.13364	0.61846	1.36699
13536.533	0.45934	0.03268	1.08909	1.67256
13540.793	0.49026	0.02848	1.33550	1.47494
13545.158	0.19608	0.66021	1.74114	4.48354
13549.396	1.20460	0.41237	4.90826	1.67453
13553.680	5.09251	-1.26252	8.13821	2.39761
13557.401	NaN	NaN	7.13446	2.65521
13561.626	5.98292	-4.98435	9.39119	1.50769
13565.805	10.13648	-1.61729	8.87576	1.10910
13570.020	9.78076	0.53179	8.91568	1.24767
13574.301	-6.13068	-14.15154	8.68589	1.61980
13577.043	11.26371	-4.39804	8.77521	1.70446
13580.276	10.47163	0.78684	8.95946	1.53155
13584.282	1.98378	-12.03821	8.81494	1.45849
13588.275	5.07060	-13.41350	8.85356	1.37714
13592.269	9.22881	-4.49796	8.87731	1.65615
13596.266	0.61967	-8.20287	9.11544	1.85778
13600.265	3.96264	-9.27086	8.90674	1.65705
13604.267	12.11662	-1.81760	8.74188	1.50956
13608.265	9.31549	-3.12774	8.56947	1.45959
13612.263	4.37557	-5.52171	8.92539	-0.31969
13616.265	8.83192	-4.60440	8.97010	-0.07705
13620.270	8.98395	-1.41800	8.59128	-0.09973
13624.267	-0.03800	-9.58987	8.99390	-0.01262
13628.262	5.04903	-4.90256	8.82349	-0.25915
13632.264	11.55342	-3.20197	8.93280	-0.39374
13636.268	8.82322	-3.66084	8.77330	0.02146
13640.268	8.90432	-2.25426	8.93721	-0.26401
13644.266	5.50132	-3.98692	8.68992	-0.34595
13648.264	8.62331	-2.39654	8.58689	-0.32910
13652.263	9.08994	-1.72829	8.79436	-0.06360
13656.268	8.59085	-2.81551	9.00196	-0.02346
13660.274	8.83713	-1.53810	8.47010	0.73775
13664.267	10.05955	-4.50252	8.61186	1.04168
13668.268	6.92819	-6.43052	8.71986	2.56329
13672.264	9.39462	-2.69219	8.88169	2.57384
13676.267	6.69512	-4.58143	8.87626	2.00293
13680.267	8.38901	-2.12491	8.39423	2.46182
13684.266	9.73289	-1.85304	8.59155	2.37802
13688.291	8.31346	-2.09576	8.75768	2.41524
13692.264	9.96032	-2.22981	8.44392	2.56780
13696.267	8.92684	-0.97435	8.66384	2.49196
13700.269	10.67114	-1.75240	8.65172	2.40021
13704.267	10.87857	-2.51083	8.88816	2.36214
13708.263	11.10254	-3.25747	10.42996	2.21086
13712.262	8.54884	-2.52345	8.82255	2.50433
13716.264	9.54788	-0.88644	8.53770	2.24090
13720.267	8.06883	-2.97772	8.69173	2.48368
13724.263	11.75141	-2.28997	8.63491	2.71167
13728.262	9.59375	-1.64652	8.59946	1.86613
13732.265	9.56578	-2.14101	8.68979	1.77894
13736.267	9.90441	-1.03918	8.74486	1.07350
13740.260	9.90457	-0.39283	8.79552	0.49312
13744.265	10.32380	-1.09709	9.19735	0.41638
13748.264	8.90124	-1.55171	8.67767	0.82313
13752.264	8.61919	-1.02047	9.14022	1.68669
13756.259	9.01290	-0.39071	8.63913	0.72216
13760.260	9.82571	-0.44769	8.76530	0.58608
13764.264	10.06301	-2.14626	9.31027	0.27518
13768.265	9.98646	-2.17585	9.40214	0.60825
13772.134	7.63645	-2.75551	9.05146	0.65818
13776.137	7.13485	-2.43368	8.86127	1.03343
13780.135	7.69061	-1.96473	9.30868	0.72081
13784.141	9.29667	-3.07301	8.81295	1.15725
13788.136	10.02057	-3.03275	8.42508	1.23864
13792.151	10.25961	-2.33784	9.92174	-0.59295
13796.137	9.99513	-3.22338	8.94428	0.85935
13800.134	9.85667	-1.17533	9.00898	1.27647
13804.134	10.34751	-0.93364	8.85955	1.45721
13808.135	7.24610	0.26837	7.51818	3.41426
13812.140	5.51582	2.12707	7.02127	2.69076
13816.134	3.12135	2.37053	8.02589	-0.62818
13820.140	2.25615	0.21907	-0.13136	3.77353
13824.138	-0.48155	2.74180	1.06738	-2.00069
13828.139	-3.94416	2.07092	-4.30652	4.34204
13832.141	-4.47309	2.60727	-6.08026	4.49338
13836.140	-4.54479	2.86466	-8.27637	4.37002
13840.138	-8.31025	2.97202	-7.25340	4.18318
13844.140	-8.80638	2.28357	-11.76951	3.65855
13848.137	-9.90860	2.06866	-13.07403	-0.41327
13852.135	-10.42994	1.48871	-12.47179	4.08916
13856.139	-11.27830	1.79443	-12.76402	3.56821
13860.137	-12.57363	1.72112	-12.91126	4.03672
13864.138	-12.88754	1.26267	-12.61828	3.64346
13868.131	-13.54197	1.37828	-12.39499	4.04533
13872.140	-13.64389	1.40631	-12.38907	4.05249
13876.142	-13.25221	1.47351	-12.54767	3.89954
13880.137	-13.39032	1.40894	-11.87736	4.76625
13884.140	-13.62741	1.54969	-12.60550	3.03967
13888.135	-12.85732	1.91080	-12.78056	3.81901
13892.133	-13.15614	1.26926	-12.75370	3.67853
13896.135	-12.70879	1.46542	-12.68916	3.88219
13900.134	-12.69866	1.51463	-12.50271	3.98661
13904.156	-13.03517	1.55450	-12.42929	3.79389
13908.135	-12.82158	1.49479	-12.28076	3.89753
13912.139	-12.60599	1.50316	-8.36309	2.52483
13916.156	-12.66715	2.10073	-11.90889	3.77294
13920.136	-12.21402	2.20220	-13.72746	0.96611
13924.159	-12.31303	3.19433	-14.32164	-0.16447
13928.138	-12.51030	3.50773	-12.66301	3.51778
13932.134	-12.31239	3.06513	-14.55363	0.02480
13936.133	-12.35737	3.25065	-12.39679	3.65062
13940.136	-12.16183	2.24317	-11.55199	3.39593
13944.132	-12.19930	2.88414	-11.63568	3.36421
13948.138	-12.07659	2.82349	-11.44783	3.44480
13952.135	-12.26666	2.84044	-14.06119	0.71881
13956.141	-12.05079	2.72380	-11.90131	3.03798
13960.131	-11.85880	2.45506	-11.72798	3.22031
13964.134	-11.97275	1.20179	-13.40056	2.22054
13968.135	-12.14366	2.03440	-11.93033	3.49807
13972.134	-11.92469	0.67728	-11.65751	3.65698
13976.133	-12.14195	2.00651	-12.11346	3.59650
13980.133	-11.83576	2.13982	-12.40309	3.29968
13984.131	-11.84988	1.70634	-11.83270	-4.91394
13988.137	-11.95517	1.94586	-10.09583	3.71413
13992.133	-11.82580	2.28141	-10.88101	-3.70572
13996.136	-11.63968	2.77476	-12.23467	3.70561
14000.141	-11.52886	2.05373	-12.13043	-4.38181
14004.133	-11.73545	2.06475	-10.24286	3.89388
14008.130	-11.73469	2.42343	-12.09669	3.69534
14012.131	-11.55204	2.79030	-12.13370	3.61525
14016.136	-11.95394	2.72366	-12.27929	3.91177
14020.136	-11.51428	2.95547	-12.19674	3.53726
14024.130	-11.47097	3.19962	-12.37198	4.01110
14028.134	-11.83160	3.22693	-12.27363	4.62207
14032.135	-11.60766	2.63096	-12.28642	5.00641
14036.136	-11.67408	3.06576	-12.24111	4.71884
14040.137	-11.93211	3.56891	-11.82143	4.67472
14044.136	-11.74627	3.21687	-10.68645	5.45138
14048.131	-11.61173	2.70112	-7.35446	3.59024
14052.137	-11.02928	8.24104	-5.57476	3.23714
14056.132	-5.14461	8.84075	-3.92813	3.30898
14060.137	-5.32828	2.83937	-3.29362	5.01979
14064.134	-2.49221	2.24693	-1.13757	3.69715
14068.133	-2.12644	2.18974	-2.81603	2.55166
14072.139	-1.65466	2.11186	-0.55731	3.49200
14076.133	-0.77263	0.99430	-0.70747	2.44460
14080.136	0.83858	2.05683	-2.47494	2.66384
14084.139	4.08737	-1.31291	-0.18308	3.03921
14088.134	0.95748	0.75303	0.89587	2.82584
14092.141	1.41618	1.97479	0.13652	2.90535
14096.135	1.18391	1.60070	-3.79784	3.34050
14100.134	1.97161	1.90713	1.97788	0.06757
14104.132	5.33409	-1.90227	-0.75570	0.60967
14108.135	1.27083	1.26453	1.90334	2.55623
14112.133	1.01295	2.10945	-3.39198	0.84353
14116.134	0.83674	1.89247	0.46986	4.72577
14120.131	1.05853	0.88319	0.61585	4.26220
14124.140	0.89589	1.48556	0.26929	3.58528
14128.160	0.87793	0.73712	0.82401	3.50124
14132.135	0.80811	1.08537	-4.22720	3.12263
14136.130	1.16280	1.37950	0.70327	3.69141
14140.134	0.42691	1.36392	-0.31516	3.77715
14144.129	0.89885	0.56217	-1.44570	3.97413
14148.134	0.80868	0.90976	0.01879	1.39250
14152.131	1.55745	0.84251	-2.61644	1.18685
14156.139	0.93820	0.79688	-4.50651	0.86907
14160.135	1.14045	0.79755	-1.29933	1.16323
14164.141	0.78077	0.20041	0.92048	1.42323
14168.132	0.69245	0.72771	-0.25823	1.38948
14172.134	-3.29822	1.78914	-0.38201	3.34576
14176.131	-3.25879	2.84528	-0.17427	3.50792
14180.132	1.16066	3.44814	-1.49264	1.88853
14184.133	0.90793	3.96134	-1.53495	1.38107
14188.131	0.72528	3.57711	-2.64438	1.45807
14192.130	0.61689	3.54212	-4.38965	1.44769
14196.170	1.40073	1.87235	0.61799	1.80834
14200.130	0.02407	3.51277	0.52587	1.61813
14204.134	-0.24966	3.99291	0.14846	3.01191
14208.136	0.28672	3.53872	0.11791	3.62140
14212.132	-0.32349	1.96968	0.14618	3.62729
14216.133	-2.20872	4.04773	-0.02807	3.95686
14220.130	-3.31432	4.36911	2.09373	1.53989
14224.132	1.25064	4.14384	0.06326	4.00912
14228.128	0.71712	4.11029	0.07334	4.08401
14232.134	0.47113	4.32094	-0.29659	3.88907
14236.131	0.26535	4.44194	1.36218	3.92173
14240.132	-0.01971	4.27018	0.20383	3.95437
14244.129	0.02693	4.28298	-2.34220	1.15876
14248.139	-0.53865	4.41603	-0.74938	2.76249
14252.130	3.13034	4.12844	-5.77030	1.12158
14256.132	-0.17556	4.51270	1.37017	3.93287
14260.128	2.56557	4.26962	0.39574	1.51908
14264.135	1.01779	2.64632	0.65543	3.69118
14268.129	-3.35281	4.63288	2.64022	0.38286
14272.131	-0.80126	4.65972	3.33777	-0.75888
14276.129	-1.32972	4.93205	3.43959	-0.72229
14280.132	-1.66834	5.20906	-1.28646	1.30296
14284.129	-1.87121	5.27805	-0.59481	3.13178
14288.140	1.54624	5.31906	-0.78687	2.77920
14292.134	0.58414	5.56678	-0.57101	3.45979
14296.142	0.70853	2.39304	-1.02171	3.72253
14300.129	0.32394	2.44277	-0.52453	2.72599
14304.134	0.80449	-0.11564	-1.19624	2.26901
14308.131	0.65548	1.45560	-1.67821	1.92734
14312.132	-4.29833	5.69581	-2.00093	1.72147
14316.128	4.03463	2.58797	-3.27418	1.78400
14320.132	2.55235	-1.49452	-1.20785	1.83621
14324.128	-1.95386	3.28231	-0.51138	1.60549
14328.131	-2.44598	2.73765	-0.51667	2.50531
14332.188	-1.31268	2.18896	-1.10070	0.59130
14336.149	-2.21278	5.87206	1.07790	1.79370
14340.125	-2.59557	5.79193	-0.72925	1.48923
14344.131	-2.72523	5.79285	4.41943	-1.90214
14348.129	-4.69290	5.39860	-0.88031	3.08817
14352.126	-2.80125	5.55453	1.79911	1.85660
14356.131	-2.95304	5.49471	1.75756	3.24175
14360.128	-3.24607	5.41236	-0.04328	3.76879
14364.129	-0.40092	5.44676	-0.03159	3.83144
14368.126	-0.33841	5.25141	-0.55627	5.32763
14372.133	-0.19715	4.89090	0.03125	3.72638
14376.128	-1.28407	4.99191	0.92378	1.44607
14380.125	-1.34544	5.03653	1.62681	1.46656
14384.129	3.62689	0.67379	0.03886	2.15519
14388.128	-1.73673	4.70294	0.55183	2.38822
14392.127	-1.94045	4.51056	-0.02343	1.36431
14396.132	-2.16307	8.52600	-0.66218	1.62966
14400.130	-1.98266	9.38671	-1.51529	1.79463
14404.130	-2.41848	7.93939	-1.69599	1.97972
14408.132	-0.32354	4.02409	-2.05940	1.80097
14412.126	-2.82113	6.75275	-2.70857	1.81597
14416.134	-2.24847	4.87751	-3.07530	1.86925
14420.127	-2.47878	5.04850	-3.25847	5.04525
14424.131	-2.41640	5.79746	-3.11878	2.45695
14428.127	-2.53583	5.06887	-3.42611	1.40280
14432.128	-2.72048	4.72558	-3.46523	3.59247
14436.127	-2.84180	5.01387	-4.00220	4.84994
14440.133	-2.87000	5.50409	-0.02812	1.04718
14444.128	-2.86549	5.16296	-4.24754	4.04450
14448.127	-2.97433	5.07096	-1.76978	1.03605
14452.126	-2.81949	4.86283	-3.98778	3.43893
14456.134	-2.74118	4.82742	3.38427	0.73687
14460.127	-2.82751	4.90358	-0.07552	2.96704
14464.128	-2.83603	4.78674	0.00467	1.08116
14468.128	-2.87737	4.63063	0.31233	3.30695
14472.126	-4.75607	4.58985	-3.91175	0.70277
14476.130	-4.55221	4.75441	3.02074	1.61743
14480.128	-2.83331	2.92015	-3.85812	2.46588
14484.125	-1.80057	4.58647	0.33355	3.09461
14488.131	-1.82472	2.57868	-3.55587	2.87761
14492.127	-4.51233	4.37171	-3.37252	0.90416
14496.141	-3.39500	8.58329	-2.89755	2.63563
14500.130	0.08932	-0.40585	-2.75482	1.63852
14504.130	-0.36395	-0.30442	-2.38980	1.20386
14508.127	-0.17412	-0.25540	-2.34381	1.94386
14512.129	-0.05959	-0.28112	1.55698	2.09224
14516.124	0.59568	-2.66926	0.46701	2.70737
14520.128	-0.15786	-0.41900	0.28448	3.05753
14524.126	-0.10962	-0.43987	0.62000	2.74531
14528.128	-0.19933	-0.15692	-1.74724	2.01601
14532.131	-0.39358	-0.08091	-0.04137	2.42190
14536.124	-0.63186	0.06321	-1.68052	3.09321
14540.132	-0.11354	0.16711	0.34603	3.30474
14544.126	-0.37638	0.09606	0.38683	3.13485
14548.150	-0.11575	0.09236	1.18001	2.71142
14552.125	0.01201	0.24228	0.85493	2.21085
14556.125	1.43114	-0.07157	-2.03154	2.27011
14560.122	0.65134	0.61888	-5.68986	6.92573
14564.125	0.15893	0.74026	-5.77723	5.08929
14568.123	-0.28490	1.30034	-0.55977	2.30142
14572.124	-0.74672	1.29081	-0.77732	1.58043
14576.124	0.94269	0.27184	-0.81669	3.55904
14580.133	0.96698	0.82827	-0.94299	1.97947
14584.128	1.55326	0.39050	-2.18788	2.13652
14588.124	-3.35261	-4.41673	-0.94227	2.63545
14592.125	-1.67878	-3.95680	-1.56350	2.04502
14596.125	-1.89121	-2.24798	-2.03650	1.80152
14600.121	-2.50417	-2.24855	-0.75268	0.71608
14604.135	-1.18425	-2.43328	-1.99025	1.65834
14608.123	-2.57367	-0.43637	-2.72290	1.20136
14612.128	-2.43501	-0.61302	-2.07472	1.08402
14616.125	-3.67425	-3.78583	-0.54823	-1.25765
14620.125	-2.45054	-1.87762	-2.28175	-0.21686
14623.997	-1.11115	-2.45482	-1.57401	-4.44644
14628.003	4.63186	-3.73524	-2.29518	-4.10029
14631.999	-0.03110	-3.68543	-2.18937	0.32568
14635.999	4.14115	-0.64379	-2.78008	-2.09974
14639.994	1.22280	-4.08002	-0.36360	0.34862
14644.002	1.16751	-3.86603	-0.12756	0.77167
14647.998	0.69474	-1.10803	-1.75220	0.34576
14652.001	-1.28157	-1.13460	-1.13819	0.86121
14655.998	-1.78208	-1.77817	-1.11068	-0.08062
14660.001	-2.56810	-2.32822	-2.72528	-3.01981
14663.998	0.07396	-2.37558	-1.97391	-0.34872
14667.998	-0.73156	-5.16249	0.02628	-0.04418
14672.029	-4.82683	-8.01291	-1.00045	-0.05009
14675.998	3.89846	-7.24686	-1.40239	-0.32458
14680.001	2.51926	-3.16677	-3.33601	0.01486
14683.998	2.79748	-0.27842	-4.11742	-0.15302
14687.995	0.29049	-1.92265	-0.76779	-0.03700
14692.001	-1.12514	0.98595	0.10307	0.15235
14695.996	0.10485	-0.50045	-2.51031	1.45319
14699.998	0.03594	0.61537	-2.33715	4.04569
14703.997	-1.95686	-1.51888	3.33725	-0.32804
14708.001	-2.05905	0.08622	1.70437	-2.22019
14712.004	-4.24152	-1.10644	-2.84833	0.33552
14716.002	-4.96317	-5.97371	-0.12573	2.29751
14720.001	-3.65700	-2.52061	-2.36770	3.17341
14723.996	0.35484	-1.74620	-0.75260	0.60709
14728.000	-1.49064	-4.80303	-1.14087	-0.96608
14731.993	3.16995	-1.57033	-4.20427	2.65696
14736.001	0.29903	-6.78765	-0.90629	1.27789
14740.048	-1.43466	-2.75906	-3.08095	4.10469
14744.005	-2.38318	-0.80982	-2.48393	2.66494
14747.999	-0.91880	3.15044	-1.41685	2.96079
14752.004	-3.79425	-1.24814	-2.13775	3.23023
14755.997	-3.23210	-0.97780	0.58682	1.38388
14760.000	-1.73368	0.05680	-2.64225	2.73277
14763.997	-3.20676	-0.54224	-1.56506	4.19522
14768.026	-2.82694	-0.70497	-1.66549	2.77053
14771.993	-3.64365	-1.38108	-2.17824	1.41621
14776.006	-4.24752	-3.29078	-2.00227	2.65402
14779.997	1.45502	-3.64936	1.68151	1.38053
14783.998	-3.82131	-1.16230	-1.21283	2.63861
14787.995	-3.72487	-1.18353	-2.46778	2.67590
14791.993	-2.94834	-3.46291	-2.34210	1.33371
14795.997	-3.09607	-3.86348	-0.56501	1.77494
14799.993	-3.95434	-3.23418	0.09264	-0.32169
14803.996	-3.15090	-4.25112	-1.79872	-0.03127
14808.043	1.16118	-3.02040	-4.33142	2.46396
14812.002	3.90659	-0.41428	-2.04034	1.08174
14815.992	2.02007	-1.56597	-1.94476	-0.68983
14819.998	1.36950	-4.18894	0.02854	-0.17777
14823.995	0.98722	-3.64913	0.25391	0.98134
14827.993	-0.03514	-1.87996	-0.77101	-0.41255
14831.998	0.79868	-0.54607	-2.14392	1.48927
14836.000	0.04822	-0.22580	0.22222	-0.28253
14839.997	-3.50516	-3.71170	0.35749	-2.12101
14844.000	-0.02437	-2.58918	-0.75074	-0.34584
14847.995	1.14392	-0.38744	3.98338	-2.62422
14851.996	0.04882	-1.09065	-0.17253	-0.41142
14855.994	-0.22470	0.13853	0.13307	-1.14012
14859.999	-1.59643	-0.57082	-1.73123	-0.19393
14863.994	-1.07917	-2.25543	-0.20884	-0.53943
14867.997	-0.47830	2.08857	-0.27612	-0.33066
14871.994	-0.51309	0.53586	-1.11159	0.62750
14876.016	-0.51188	-0.17011	-0.69848	-0.94978
14880.005	-0.94381	-2.57026	-0.67245	1.41234
14883.995	2.13613	-5.07127	-0.48671	-0.40957
14887.996	-4.16825	-4.57341	-1.17212	-0.32269
14891.991	1.01992	-4.93127	-2.72944	-1.32699
14895.993	1.02699	-4.75594	-3.16584	-0.27074
14899.996	0.30468	-6.49191	-0.86677	1.40105
14903.997	-1.11732	-1.82934	-0.97909	0.00189
14907.999	-3.87354	-3.05905	-0.56860	0.00852
14911.993	-4.03974	-1.87928	0.95877	-1.03640
14915.995	-3.71812	-0.49855	-0.60114	-1.14233
14920.001	-4.94984	-3.09375	1.58522	-1.17929
14924.003	-4.70848	-2.39106	-0.60364	0.93335
14927.995	1.55750	-4.59869	-1.67291	1.00074
14931.992	1.34209	-2.19189	-3.10057	-1.34071
14935.993	-1.42253	-5.33184	3.20857	-1.63257
14939.998	-2.20198	-4.17806	-0.44783	-0.59706
14944.021	-3.10099	-4.01539	-0.74747	0.40207
14948.000	-2.44071	-0.27828	-2.81249	1.46424
14951.990	-3.48860	-5.54593	1.49061	-1.22317
14955.998	2.04220	-2.01790	1.68109	-0.78480
14959.999	-3.10562	-2.09551	-0.03715	-0.04200
14963.997	-4.73747	-2.06328	-0.57684	1.55778
14967.996	-5.39352	-2.09319	-0.50416	0.37828
14971.995	-4.99145	-1.78977	-1.27710	0.39790
14975.990	2.23757	-3.96095	-0.82674	1.72733
14979.993	1.69339	-1.88095	-3.77226	4.33501
14983.994	-3.51409	-3.45443	-0.63220	1.19756
14988.025	-0.85247	0.52787	-1.56298	0.72784
14991.995	1.83085	-2.13222	-0.61603	-0.29877
14995.991	2.26819	-0.52883	-0.29545	0.75598
14999.995	-2.89257	0.72925	-1.25800	1.48663
15003.994	-5.47682	-1.20475	-0.45646	-0.59000
15007.995	1.16218	-4.51283	-4.67567	-1.11376
15012.023	-2.97262	-1.66913	-1.32461	2.29876
15015.997	-2.83187	2.97555	-1.54706	-0.51502
15019.993	-2.94510	10.00531	-4.56313	-0.31802
15023.993	-0.78900	3.71688	-3.15746	7.31546
15027.992	-11.72251	1.30573	-10.62583	9.96669
15031.995	-9.38745	2.58343	-4.67101	-0.99780
15035.992	-12.42494	6.76415	-3.52966	-1.05533
15039.990	NaN	NaN	NaN	NaN
15043.996	NaN	NaN	NaN	NaN
15047.993	NaN	NaN	NaN	NaN
15051.992	NaN	NaN	NaN	NaN
15055.995	NaN	NaN	NaN	NaN
15059.995	NaN	NaN	NaN	NaN
15063.994	NaN	NaN	NaN	NaN
15067.992	NaN	NaN	NaN	NaN
15071.993	NaN	NaN	NaN	NaN
15075.995	NaN	NaN	NaN	NaN
15080.268	NaN	NaN	NaN	NaN
15083.996	NaN	NaN	NaN	NaN
15088.006	NaN	NaN	NaN	NaN
15091.998	NaN	NaN	NaN	NaN
15095.996	NaN	NaN	NaN	NaN
15099.997	NaN	NaN	NaN	NaN
15103.995	NaN	NaN	NaN	NaN
15108.058	NaN	NaN	NaN	NaN
15111.998	NaN	NaN	NaN	NaN
15115.991	NaN	NaN	NaN	NaN
15120.210	NaN	NaN	NaN	NaN
15124.422	NaN	NaN	NaN	NaN
15128.454	NaN	NaN	NaN	NaN
15132.400	NaN	NaN	NaN	NaN
15136.630	NaN	NaN	NaN	NaN
15140.111	-5.82894	13.36113	-0.55478	4.49125
15143.998	-6.55579	4.30948	-0.47726	1.90367
15147.989	-5.92923	3.38022	-13.36474	12.12896
15152.006	-6.04527	1.00719	-3.10626	-2.23793
15155.996	-5.99507	0.57553	-1.34088	-1.48549
15159.991	-5.62960	0.61141	4.76983	-12.77484
15163.992	-6.04578	0.95862	4.33478	-7.60459
15167.993	1.77010	9.97346	0.32747	1.83207
15171.994	-6.10561	3.22358	-0.06160	4.24087
15175.991	-5.01551	3.17225	0.30856	4.66502
15179.991	-9.05311	1.78946	-1.47928	2.37236
15183.992	-6.72673	2.50102	-1.63174	2.08080
15188.010	3.93312	5.35175	-2.91275	2.21221
15191.987	-8.14859	2.08317	-1.90966	0.65138
15195.992	-8.94174	1.21704	-3.27195	-1.32100
15199.988	-5.89510	2.79250	-4.04423	0.40006
15203.990	0.48267	-0.58160	-2.02091	0.96874
15207.986	-1.61009	-1.18407	-2.82395	2.69702
15211.995	-0.74466	-0.38632	-4.29966	2.75827
15215.994	-2.77780	2.55816	-4.32380	-1.45005
15219.989	-3.87579	2.55712	-4.78099	-1.22609
15223.987	-3.78672	-0.03506	-4.81981	-0.54065
15227.989	-3.91232	0.73487	-4.60607	-0.97669
15231.990	-3.92527	1.00083	-4.45473	0.30566
15235.985	-4.12764	0.32155	1.06155	-5.63814
15239.990	-4.00489	0.29865	-4.18393	-8.53565
15243.988	-3.95258	1.62321	-4.18588	-9.03564
15247.988	-3.33347	0.79509	-5.13038	0.26927
15251.991	-3.86761	0.47824	-1.74620	-0.60182
15255.996	-1.10787	0.00718	-2.53825	-0.52801
15259.987	1.10767	-0.62347	-3.50576	-3.01488
15263.990	-3.13786	0.59274	-2.79654	-2.75151
15267.985	-2.76908	0.10132	-1.89907	-1.66984
15271.993	-3.18635	0.25399	-2.25632	-0.32365
15275.987	-3.58208	0.16795	-2.98341	-1.06245
15279.991	-2.53652	-0.03880	-1.92974	-1.25613
15284.028	-3.46325	2.23436	-5.80231	-0.67977
15287.995	-1.03029	0.33046	-4.56627	-0.67962
15291.992	-2.91777	-0.08870	-1.67774	-1.28699
15295.995	-3.62348	-0.39024	-1.81753	-0.97810
15299.987	-3.45185	-0.76576	-3.49562	2.28344
15303.988	-2.96886	-1.33371	-4.58925	2.01914
15307.984	-3.25879	-0.75102	-4.11473	0.80777
15311.990	-3.02306	-1.11255	-4.32644	0.73434
15315.986	-2.57105	-1.31786	-6.06132	0.37018
15319.990	-3.60519	-1.51634	-3.62840	-1.06880
15323.985	-3.01029	-0.57256	-4.01228	-1.14222
15327.991	0.66657	-1.49141	-4.72721	-1.32720
15331.986	-2.99861	-0.61710	-3.10025	-1.33930
15335.993	-3.20080	-0.45814	-3.76935	-1.29601
15339.988	-3.42262	-0.52518	-3.44327	-1.49791
15343.988	-3.23375	-1.89171	-4.62594	-1.15226
15347.987	-3.08530	-0.27111	-4.33093	-1.42891
15351.989	-3.32914	-1.48292	-4.43169	1.04964
15355.987	-2.79347	-1.80952	-4.57278	-0.62185
15359.988	-2.40243	-1.18079	-5.67787	-2.08364
15363.985	-2.14037	-0.13116	-1.53146	-3.92680
15367.989	-3.04034	0.27529	-4.63950	-1.38823
15371.985	-3.39967	-0.51914	-4.11399	-1.45388
15375.991	-3.42168	-2.07533	-3.01064	-1.07783
15379.989	-3.26453	-0.54129	-4.74341	1.00386
15383.987	-3.55011	-1.91530	-4.18556	-1.01233
15387.984	-2.56433	-0.12037	-4.60478	-1.34723
15391.988	-3.58072	-0.60397	-3.90380	-1.72866
15395.988	-3.22265	2.07850	-3.94950	-1.16225
15399.984	-3.40907	-3.95196	-4.50167	-1.75065
15403.986	-3.40781	-3.18456	-4.75925	-1.14194
15407.984	-3.50556	0.25765	-3.85787	1.26349
15411.983	-4.06199	-0.88098	-3.37769	0.41711
15415.986	-4.18781	-1.58451	-4.66455	-1.62531
15419.990	-3.83673	0.05559	-4.49129	0.80672
15423.987	-4.23446	0.09801	-4.37668	-1.41085
15427.984	-5.78317	-0.94491	-5.26664	-1.68185
15431.984	-4.39274	-0.47703	-5.05097	0.80127
15435.986	-4.44146	-1.03683	-5.11263	0.36444
15439.986	-6.57566	-1.28850	-4.22923	-0.01209
15443.982	-5.69089	-2.10949	-2.78577	-1.66318
15447.989	-6.10948	-1.62945	-6.40663	0.37300
15451.984	-4.40929	-0.67595	-6.47465	-0.45069
15455.987	-5.21324	-0.17699	-6.59701	0.75151
15459.985	-5.49586	-1.49214	-6.71224	0.97553
15463.988	-3.93626	0.25128	-7.04276	0.15300
15467.989	-4.99253	-1.62435	-6.25402	-0.46178
15471.983	-3.73085	0.05443	-6.44400	-2.69045
15475.988	-3.80666	-0.74622	-6.93291	-4.39693
15479.858	-3.48175	-0.14688	-6.39726	-1.62039
15483.857	-3.61065	-0.93172	-6.29325	0.08418
15487.889	-6.15191	-1.59876	-5.75119	-0.80996
15491.861	-3.82032	-1.28845	-4.61995	-2.20221
15495.862	-4.52750	-1.25176	-3.95782	0.83695
15499.856	-3.77288	-1.41275	-4.31795	-0.59454
15503.862	-4.31390	-1.69640	-4.88769	-3.19401
15507.861	-3.62553	-2.45080	-5.60578	-1.11883
15511.863	-4.44970	-3.08330	-5.24252	-4.33076
15515.857	-4.64384	-3.67211	-4.78535	-2.01828
15519.862	-4.83706	-2.77308	-4.80468	-1.87741
15523.858	-4.65375	-2.99016	-5.12757	-1.00241
15527.859	-5.74568	-2.55998	-5.16263	-2.22477
15531.862	-4.30630	-1.53234	-4.67895	-1.83446
15535.859	-4.16334	-1.20235	-3.02210	-2.07017
15539.861	-3.71421	-2.96275	-7.77466	-3.77441
15543.857	-6.03378	-2.79027	-5.80143	-4.12160
15547.866	-4.77939	-1.44267	-4.98073	-4.39555
15551.858	-4.31741	-2.32581	-3.03957	-5.13784
15555.863	-4.98554	-2.12257	-6.07356	-4.07220
15559.858	-4.06416	-0.10167	-5.11942	0.28603
15563.859	-4.28120	-2.27419	-4.45069	-1.83126
15567.858	-5.61750	-2.78486	-2.33029	0.56933
15571.862	-4.67865	-1.26464	-1.72887	-0.91937
