time (ms)	lx (deg)	ly (deg)	rx (deg)	ry (deg)
0.000	-2.25818	-1.81962	-1.29080	0.19360
3.995	-0.98318	-3.76510	-0.55185	0.52130
8.000	1.26875	-3.94915	-2.41690	0.83547
11.995	-2.34639	-0.82973	-2.33313	-0.41808
15.874	-2.32714	-0.57690	-2.58630	-1.25653
19.870	-1.54467	-0.67674	-4.36582	0.16796
23.872	-0.06279	-0.57742	-1.88229	1.49217
27.902	-1.55884	-0.24907	-0.85352	2.51855
31.877	-0.93909	-0.79362	-0.04085	2.99334
35.870	-0.81851	-0.20802	1.07765	1.85764
39.871	-0.03715	-0.27237	0.42485	0.59386
43.867	-0.16022	-0.15116	-5.01807	2.98374
47.872	0.15610	-0.16708	0.61273	1.63327
51.869	0.19303	0.22215	0.01844	1.17031
55.871	0.34313	0.47917	-1.75994	0.16246
59.872	0.86562	0.45006	0.29630	0.44685
63.870	1.52265	0.48229	-0.22830	-0.04808
67.869	0.51778	0.45126	0.69280	1.04926
71.876	0.14583	0.57919	0.08426	0.41502
75.873	0.69863	0.57567	0.55029	0.10285
79.872	0.33618	0.68057	0.76533	0.41141
83.867	0.31220	0.74587	0.08840	0.51501
87.869	0.94351	0.67582	0.21715	0.95873
91.870	1.51333	-0.19398	0.22867	1.15845
95.866	1.65505	-0.71661	-0.00154	1.61889
99.871	1.37692	0.46682	-0.03584	1.99009
103.870	1.55849	0.32960	0.08053	2.24782
107.869	2.64639	-0.01457	0.28907	2.13747
111.871	1.79410	0.46288	0.39420	2.34655
115.882	1.78642	0.34238	0.65843	1.97177
119.871	2.19549	0.51001	0.62104	2.22893
123.869	2.20624	1.71430	0.49751	2.27373
127.870	1.61716	0.47598	0.37879	1.90449
131.880	1.72161	0.78940	0.31295	2.80686
135.870	1.68419	-0.22029	0.32819	1.87620
139.867	1.41286	-0.63291	0.25083	1.58741
143.871	1.40509	-0.64148	0.09326	2.55059
147.868	1.54038	0.00733	-0.26860	4.90982
151.870	1.80605	-0.67024	-0.04331	2.53056
155.871	1.54425	-0.24231	0.01504	2.12105
159.874	1.28169	-0.29210	0.70052	1.42827
163.869	1.29618	-0.48902	0.09120	2.79388
167.868	1.67943	-0.54944	0.09349	2.49633
171.867	1.65614	-0.74989	0.46636	2.64043
175.870	1.43687	-0.39045	0.42465	2.61577
179.869	1.83347	-0.29572	0.17496	2.31680
183.865	0.72057	0.06060	0.48637	2.73201
187.869	0.32801	-0.07542	0.64928	2.53429
191.869	-1.05290	-0.10380	0.76732	2.71726
195.875	0.85014	0.01729	0.66273	3.38988
199.872	0.41973	0.07027	0.75886	2.81067
203.868	0.34958	0.04063	0.63141	3.44341
207.871	0.35037	1.19296	0.60307	2.93853
211.868	-1.32309	1.23605	0.78503	3.20782
215.874	0.16092	0.32989	0.50803	3.92285
219.867	0.14675	2.12509	0.52476	4.16322
223.870	0.27498	1.40651	0.58188	2.84805
227.868	0.24525	0.47622	0.25316	3.12959
231.871	0.14759	0.61184	0.34084	3.08685
235.867	-0.35603	1.32253	0.46505	2.48556
239.874	-0.67635	1.26729	0.21445	2.44219
243.871	0.20544	1.30472	0.09825	2.65360
247.905	-0.76064	1.09564	0.02186	1.86425
251.865	0.25306	1.29113	-0.27920	2.45034
255.864	0.66615	0.54327	-0.34506	3.05020
259.869	0.89158	0.80312	0.83056	1.60683
263.866	0.34486	-0.70356	0.04807	2.22368
267.868	0.29282	-0.96014	0.18444	2.00375
271.867	-0.00335	-0.60078	-0.15437	2.17032
275.864	0.15598	-0.06707	0.66106	1.50139
279.872	0.13608	-0.18361	0.37000	2.20507
283.867	0.24981	-0.28641	0.33915	2.89680
287.863	0.08232	-0.01717	0.39177	2.26739
291.867	0.28026	0.01956	-0.02807	2.09765
295.865	0.06098	-0.02154	-0.33347	2.26354
299.867	0.08423	-0.29702	-2.33740	1.87284
303.872	0.10634	-0.25448	-0.27034	1.82788
307.864	0.11659	-0.22389	-0.45110	1.63644
311.865	0.15841	-0.07191	-0.06721	1.47961
315.863	0.27349	0.88636	-1.04444	1.18742
319.872	0.21445	0.50112	-0.34496	1.69714
323.872	0.15027	0.26062	-0.49515	1.95266
327.865	0.03147	0.39134	-0.45438	2.23155
331.862	0.11716	-0.05725	-0.34578	2.21508
335.897	0.08225	2.33636	-0.68977	2.11571
339.870	-0.02596	0.31794	-0.24095	2.72504
343.868	-0.08815	0.70874	-0.34955	2.75885
347.866	-0.10940	0.71112	-0.32853	2.26632
351.867	-0.11684	0.91417	-0.34169	3.10568
355.862	0.19526	0.71735	0.06917	1.82128
359.867	-0.22450	0.60495	-0.31871	3.04483
363.871	-0.33719	0.54897	-0.03862	0.61728
367.865	-0.40683	0.58285	-0.04790	0.36056
371.867	0.79940	0.43620	-0.29612	0.08705
375.865	1.01218	0.34552	-0.36424	0.91855
379.862	-0.30503	0.23206	-0.60972	0.45046
383.864	-0.26073	0.44076	-0.57478	0.49523
387.866	0.32084	0.16495	-0.84969	0.33905
391.864	0.23393	0.01821	-4.14223	0.19589
395.862	0.44118	-0.14544	-0.63399	0.63883
399.867	-0.00345	-0.22906	-6.13880	0.55245
403.869	-0.14193	-1.03222	0.05827	1.69941
407.868	-0.56123	-1.26764	-0.03221	0.76183
411.865	-0.06753	-0.31556	-0.15335	1.62397
415.862	-0.21107	-0.19186	-0.46639	2.66966
419.867	-0.15958	-0.15364	0.00467	3.26066
423.863	-0.18782	0.07181	0.35655	3.24522
427.871	-0.11530	0.19395	0.05452	2.22777
431.868	2.48039	-1.75866	0.97976	0.98746
435.865	0.16958	0.37243	0.93041	0.97049
439.864	0.31168	0.05437	-0.19385	2.06160
443.862	0.69891	-2.12439	-0.46125	2.65322
447.872	0.70064	-1.44861	0.90696	1.77697
451.863	0.35615	-0.45562	-0.11659	2.84071
455.864	0.43735	-0.47196	-0.75536	3.77737
459.861	0.36690	-0.65389	-0.98395	3.76027
463.866	0.25517	-0.83504	1.38324	2.72303
467.864	0.39169	-0.71737	-0.00037	3.44936
471.889	-0.76121	-0.49549	-0.76764	3.08023
475.860	-1.25895	-0.51675	-1.44875	1.68914
479.866	-0.75635	-0.48021	-2.67197	1.64042
483.861	0.04919	-0.36438	2.06828	0.53081
487.865	0.09322	-0.21022	0.70903	2.74047
491.870	1.91298	-0.30887	0.28548	2.41450
495.864	0.44529	-0.31314	-0.63082	3.14243
499.867	0.82860	-0.36484	-0.60151	4.40242
503.861	0.63749	-0.31164	-0.15327	2.80042
507.865	0.16541	-0.05745	-0.59064	5.67321
511.859	1.17592	-0.23602	-0.82014	2.98067
515.866	-0.52617	-0.01078	-1.18790	5.84794
519.862	-0.62868	0.11360	-0.67975	1.93594
523.862	-0.86863	0.22779	-2.72689	2.68095
527.863	-0.14044	0.17352	-0.94237	2.30326
531.868	0.19412	0.00696	0.38360	2.61613
535.861	0.52252	-0.06801	0.94147	1.88916
539.865	0.54503	-0.20890	-0.84724	4.64811
543.862	1.59911	-0.09367	-0.60640	3.58878
547.876	0.27607	-1.02491	-0.81243	3.28532
551.862	0.23490	-0.01884	-1.27455	4.10772
555.861	-1.14955	0.04467	-0.58588	3.24325
559.865	-1.55626	-0.25687	-2.90059	1.91481
563.862	0.02015	-0.69274	0.03504	1.94363
567.859	2.25672	-0.55878	0.47793	1.90601
571.868	0.28749	-0.48183	0.03576	2.82430
575.862	0.23852	-0.07693	-0.03772	2.46476
579.862	0.19874	-0.30693	2.86549	-0.87378
583.859	0.08383	-0.17832	4.12690	-3.26292
587.861	0.08902	-0.17660	-1.39272	1.73440
591.861	-0.18844	0.06893	-3.08117	1.59153
595.859	0.05232	0.15054	-6.28560	-0.56190
599.863	1.70214	0.14125	0.15268	-0.30793
603.860	0.38139	0.18284	0.18256	0.11764
607.863	-0.10021	0.32636	-2.53144	3.65198
611.867	-0.17248	0.33131	-0.65082	2.84891
615.862	1.84751	-0.01368	0.25043	1.43808
619.861	-0.27470	-0.08717	0.51495	0.13898
623.862	-0.23182	0.08990	0.01077	3.33972
627.858	-0.29644	0.30231	-1.70184	3.54131
631.863	-0.75335	0.07362	-1.83531	3.87057
635.863	-0.96914	0.12080	-0.82719	0.12160
639.861	-0.49934	-0.17806	-0.28128	-0.75959
643.859	-1.30801	0.02514	-1.82046	0.50020
647.861	-0.69141	-0.07340	-0.09729	-0.75895
651.861	-0.97303	-0.16709	-1.41871	-1.95082
655.865	-1.27093	-0.01322	0.35784	-0.07609
659.863	1.16808	0.47371	-2.61228	-4.78989
663.859	-0.94907	-0.02701	-0.12334	0.56448
667.857	-2.24265	-2.44991	-0.51024	1.10464
671.862	-0.63878	1.73840	-4.46357	-0.70463
675.861	-1.28125	-0.10923	-0.35114	1.18641
679.867	-0.90339	2.11175	0.61111	0.60425
683.863	-1.23474	-0.27936	-0.29610	1.41018
687.888	-1.38190	-2.77089	-0.09912	1.81120
691.858	-1.94776	-2.64087	0.10761	1.01456
695.867	1.05136	-0.80319	0.60071	-0.43977
699.857	1.17503	-0.53020	0.69595	-0.55875
703.861	-1.59083	-0.36725	-0.12255	0.84113
707.856	0.84116	-2.56887	0.10528	1.08965
711.862	-1.21814	-0.03140	0.74183	-0.68093
715.858	-1.36392	-0.58841	0.50902	0.18726
719.860	-4.21819	-0.26531	-0.15005	1.29884
723.856	1.03741	-0.32979	1.06565	1.64636
727.856	0.28689	-2.97437	0.83419	1.81294
731.859	2.92483	2.68537	4.06925	1.24686
735.860	2.54380	-0.73283	6.31436	1.38867
739.865	5.49291	-0.56191	7.98822	1.56586
743.857	5.44749	-0.58869	8.78760	0.64328
747.857	8.51557	-4.80691	8.67888	-0.33081
751.856	8.37638	-0.22044	9.30314	-0.34601
755.856	8.34650	-0.29764	9.99024	-1.16698
759.857	8.22898	-0.80700	9.75876	-0.95804
763.859	8.22499	-0.69955	9.68471	-0.96984
767.854	8.33532	-0.12190	9.75326	-1.10970
771.860	5.31667	-3.81273	9.60955	-0.96109
775.860	5.45681	-4.28035	9.72689	-0.94454
779.861	8.18033	-3.23572	9.03304	-0.66793
783.862	6.61839	-3.05746	8.83219	-0.42000
787.860	5.61672	-2.38755	8.89339	-0.51972
791.857	7.09683	-3.25466	8.49746	-0.18818
795.860	5.34533	-4.52069	8.44611	-0.16348
799.857	7.55740	-4.17146	8.64560	-0.00742
803.855	7.78855	-4.55489	8.49100	-0.08241
807.857	9.59356	-3.33541	8.78828	0.00420
811.853	7.82986	-3.33294	8.81692	0.01694
815.860	5.78445	-4.47659	8.96862	0.12773
819.859	5.30151	-4.74758	8.96085	0.21254
823.867	5.19967	-4.91978	8.71877	0.47883
827.855	5.00049	-4.96307	8.82150	0.54135
831.859	5.24201	-4.98609	8.73230	0.65841
835.853	6.41457	-5.17798	8.45514	0.75412
839.854	6.46235	-4.89434	8.57949	0.73714
843.858	7.15833	-5.02045	8.64999	0.72936
847.858	7.71662	-4.67931	9.11106	0.74908
851.856	7.67011	-6.54663	8.46021	0.79753
855.855	7.92610	-4.19230	8.71155	0.43760
859.855	8.11982	-5.06537	8.48175	0.26406
863.860	8.32665	-5.91032	8.47828	-0.19377
867.734	8.30323	-4.56636	8.53367	-0.61094
871.732	8.54304	-5.84928	8.54176	-1.13456
875.733	8.41733	-5.34454	8.58417	-0.61739
879.728	9.58644	-4.93302	8.60645	-0.36998
883.786	10.17637	-4.50430	8.69947	-0.45198
887.739	8.48107	-4.03881	8.83600	-0.93219
891.731	10.38212	-1.65968	8.75339	-0.96105
895.726	9.82479	-3.70839	8.92515	-0.90531
899.732	10.20166	-3.81270	8.93709	-0.92644
903.731	9.52661	-2.66922	8.97368	-1.13143
907.732	9.50877	-2.80849	9.08590	-1.11538
911.753	9.42117	-2.83281	9.11970	-1.11866
915.733	9.56617	-3.55370	9.02600	-0.93301
919.729	10.09703	-2.64147	9.06596	-0.98263
923.727	10.44211	-2.84194	9.08169	-1.06479
927.768	9.15957	-4.03318	9.14617	-1.10067
931.743	9.32734	-2.84729	9.12268	-1.09150
935.727	10.13883	-4.49203	9.12735	-0.97145
939.733	9.13552	-3.35997	9.06223	-0.89133
943.731	9.53434	-2.94343	9.01583	-0.84134
947.731	8.98283	-3.56882	8.93585	-0.77804
951.736	10.22111	-3.17111	8.93244	-0.67530
955.739	9.41177	-4.08310	8.90347	-0.68935
959.728	10.74288	-4.21169	8.98424	-0.68856
963.728	10.25314	-4.16376	8.97598	-0.66869
967.726	10.33384	-3.98069	8.88503	-0.54784
971.732	10.48900	-1.43114	8.83554	-0.47001
975.730	10.44583	-4.73570	8.83180	-0.40946
979.731	9.68517	-1.85233	8.88111	-0.36011
983.726	10.16670	-3.22847	8.91163	-0.34435
987.730	9.59300	-3.06393	8.94140	-0.24135
991.732	10.24528	-3.28322	9.04694	-0.16353
995.746	9.94457	-2.83802	8.95956	-0.13650
999.737	9.43779	-2.77628	9.15335	-0.06894
1003.729	9.31107	-2.76591	9.13056	-0.11644
1007.732	9.57044	-2.92668	8.97995	0.00697
1011.728	9.91977	-2.87220	9.01774	-0.00631
1015.729	9.37300	-2.89312	9.09163	0.04431
1019.730	9.80766	-2.85928	9.08595	0.04247
1023.727	9.57228	-2.88127	9.07138	0.04137
1027.726	10.55426	-2.92044	8.91585	0.11965
1031.737	9.80708	-2.96049	8.23114	-0.17441
1035.734	9.38634	-2.92321	6.82339	0.13454
1039.730	8.67165	-3.01095	6.29538	-1.07849
1043.727	7.62182	-3.03586	5.76671	-1.48722
1047.727	6.08792	-3.40497	5.26430	-2.18804
1051.731	5.16386	-3.24008	4.95056	-2.19643
1055.729	4.59684	-3.36644	4.47010	-1.99592
1059.735	4.71087	-3.94186	4.72095	-2.01132
1063.729	4.29589	-4.44478	4.60996	-2.15273
1067.730	5.27978	-3.66212	4.45094	-1.99844
1071.729	4.49504	-3.44529	4.39259	-1.87984
1075.738	7.73241	-3.93220	4.34159	-1.99958
1079.759	4.78348	-3.89161	4.41561	-1.99258
1083.748	5.30377	-4.00745	4.29880	-1.88502
1087.726	7.58215	-4.06205	4.18240	-1.93420
1091.730	4.82284	-3.85114	4.08510	-1.91173
1095.725	7.50515	-4.11944	3.95416	-1.88302
1099.724	7.43374	-4.14384	4.05308	-1.87068
1103.723	4.74582	-3.59188	3.99852	-1.92612
1107.725	7.36071	-3.98457	3.91106	-1.87028
1111.728	5.82633	-4.20247	3.92499	-1.94734
1115.730	5.95864	-4.08823	3.97896	-2.01384
1119.727	7.36181	-4.52067	4.14764	-1.54397
1123.727	5.42498	-4.66347	4.11001	-1.28490
1127.726	4.97090	-4.06858	4.05942	-1.07795
1131.725	5.46187	-0.43869	4.14557	-1.33483
1135.724	6.79843	-3.40365	4.15127	-1.72355
1139.727	5.64518	-2.83771	4.24223	-1.01904
1143.728	6.47355	-3.42912	4.19045	0.28128
1147.723	6.35702	-3.90793	4.16961	0.57580
1151.724	5.65941	-4.87609	4.21187	0.43425
1155.727	5.49465	-1.30180	4.18428	0.40688
1159.727	5.35165	-0.99146	4.28621	0.23659
1163.731	5.63392	-2.61312	4.25332	0.22067
1167.725	5.84092	-2.23621	4.21967	0.40084
1171.727	6.76133	-1.09587	4.38825	0.27995
1175.720	6.13942	-1.67866	4.32363	0.28790
1179.728	5.83633	-1.35025	4.41674	0.35758
1183.726	5.62060	-1.07151	4.47570	0.31895
1187.728	5.46881	-1.36688	4.51689	0.31896
1191.724	5.70067	-2.14529	4.91553	0.23215
1195.724	5.55915	-0.99923	4.71294	0.20273
1199.730	5.50508	-0.86883	4.67431	0.19786
1203.725	5.65118	-2.21654	4.68851	0.18834
1207.725	5.74758	-2.24468	4.79041	0.11893
1211.720	5.52350	-2.47145	4.57305	0.06480
1215.721	5.75485	-2.82775	4.73774	0.04737
1219.722	5.57955	-2.64678	4.71432	0.04814
1223.729	6.07884	-2.63050	4.66455	-0.00401
1227.725	6.36876	-2.97532	4.63299	-0.02831
1231.725	6.12980	-3.32968	4.53495	-0.38095
1235.725	6.43072	-2.60354	4.49536	-0.43354
1239.723	6.52821	-2.82052	4.32992	-0.52447
1243.730	6.17985	-2.96774	4.35205	-0.39101
1247.725	5.98371	-2.94107	4.30287	-0.56063
1251.726	6.48443	-2.79577	4.21925	-0.69475
1255.724	6.29242	-2.81702	4.27133	-0.36924
1259.723	2.70280	-2.54122	4.31415	-0.32170
1263.720	5.67841	-0.48439	4.39461	-0.77859
1267.728	5.83667	-3.51586	5.68450	-1.49972
1271.724	6.89255	-2.89800	6.83893	-3.89260
1275.726	14.00132	-6.17320	7.15484	-2.72855
1279.718	13.95631	-6.97350	7.42393	-2.24555
1283.728	8.97380	-6.63355	7.43569	-4.52807
1287.724	10.99214	-7.30187	4.41016	-8.80716
1291.726	11.20321	-8.50561	8.90083	-8.73903
1295.723	8.91161	-7.38993	8.50496	-9.12794
1299.725	11.58903	-11.04395	9.66142	-8.76994
1303.726	9.08084	-10.82493	9.36073	-8.72894
1307.725	11.43512	-8.02155	9.17551	-8.85475
1311.724	11.26724	-9.27488	8.92055	-9.02272
1315.723	11.82858	-10.02268	8.90381	-9.06201
1319.720	11.50210	-10.14137	8.84763	-9.13874
1323.732	14.72789	-11.35356	9.01498	-9.46772
1327.727	10.81372	-11.12019	8.94583	-9.32282
1331.721	12.35244	-11.02583	8.88516	-9.07360
1335.718	11.52924	-10.38378	8.86073	-9.29987
1339.761	10.78587	-10.46793	8.77652	-9.38373
1343.734	10.82859	-10.50322	8.58648	-9.45700
1347.722	10.75634	-10.36846	8.48219	-9.50241
1351.720	10.97906	-9.75817	8.53180	-9.48774
1355.720	12.94572	-10.99893	8.30114	-9.45499
1359.725	10.29089	-10.44080	8.60560	-9.31318
1363.723	11.42639	-10.08774	8.68550	-9.19530
1367.732	10.84145	-10.23234	8.93365	-9.22586
1371.725	10.25677	-10.21220	8.96586	-8.82015
1375.721	12.81174	-8.42268	8.96661	-8.95778
1379.717	13.09878	-9.44799	9.00951	-9.02957
1383.725	13.89816	-10.43666	9.25028	-8.82659
1387.724	7.40203	-8.82831	8.95041	-8.80595
1391.719	14.22424	-10.62432	9.19312	-8.65759
1395.726	7.40684	-9.30389	9.51640	-8.97175
1399.722	9.43552	-10.01831	9.70159	-9.28721
1403.724	10.46822	-9.89777	9.51459	-9.45279
1407.722	9.00721	-10.06459	9.59310	-9.47036
1411.721	8.66629	-10.28552	9.58096	-9.10598
1415.720	8.65261	-9.62398	9.60270	-8.81939
1419.724	6.15495	-10.74869	9.62468	-8.47876
1423.722	7.77819	-10.08610	9.51042	-8.33932
1427.722	6.63401	-10.71622	9.59776	-9.10745
1431.721	6.16319	-10.21056	9.79578	-8.07494
1435.720	7.81948	-10.27721	10.23747	-8.13837
1439.721	8.39105	-10.03106	9.46708	-6.13784
1443.720	7.37553	-9.98947	9.36537	-6.11920
1447.715	6.76980	-9.35356	9.48888	-6.26344
1451.723	7.88957	-10.10116	9.36223	-7.24576
1455.721	6.41807	-10.41046	9.32108	-7.61654
1459.719	6.22508	-10.64781	9.29512	-6.62175
1463.720	12.33572	-9.44859	9.39834	-7.44804
1467.718	11.60937	-9.27085	-19.99372	-12.07740
1471.716	12.14122	-9.90937	NaN	NaN
1475.718	12.81389	-10.25511	NaN	NaN
1479.723	13.91715	-10.71125	NaN	NaN
1483.724	13.58097	-10.85389	9.70989	-7.81553
1487.724	12.78342	-9.27898	11.93800	-7.53677
1491.741	-19.99372	-11.65759	15.54255	-12.64397
1495.724	13.56751	-12.21218	15.61373	-12.95425
1499.719	13.82590	-12.16253	15.54764	-13.11801
1503.720	13.24332	-10.91563	15.51085	-13.67791
1507.722	13.60878	-10.56715	15.55729	-14.26785
1511.748	17.10032	-12.19747	-19.99372	-12.29986
1515.717	14.22624	-11.56285	-19.99372	-12.29043
1519.720	14.25180	-11.61973	15.52011	-14.37075
1523.720	14.57608	-11.42914	-19.99372	-12.31787
1527.718	14.68696	-11.35344	-19.99372	-12.26555
1531.729	14.56825	-11.16425	-19.99372	-12.23000
1535.720	14.53395	-11.57482	-19.99372	-12.16419
1539.718	14.55844	-11.03105	-19.99372	-12.11832
1543.717	14.71299	-11.11708	-19.99372	-12.08423
1547.721	14.75372	-10.82220	-19.99372	-12.07887
1551.719	14.77930	-10.70671	-19.99372	-12.07818
1555.717	14.26881	-10.31035	-19.99372	-12.07816
1559.718	14.66650	-10.27398	-19.99372	-12.07812
1563.721	14.73256	-10.48121	NaN	NaN
1567.720	14.75925	-10.63399	NaN	NaN
1571.715	14.44113	-10.50530	NaN	NaN
1575.726	13.82494	-11.10923	NaN	NaN
1579.721	14.27998	-10.56473	NaN	NaN
1583.717	14.70054	-10.64921	NaN	NaN
1587.720	14.61857	-10.60977	NaN	NaN
1591.719	14.42730	-10.65774	NaN	NaN
1595.720	14.51246	-10.66946	NaN	NaN
1599.715	14.60560	-10.78542	NaN	NaN
1603.717	14.27662	-10.72877	NaN	NaN
1607.717	13.32035	-10.81080	NaN	NaN
1611.716	14.28678	-10.65952	NaN	NaN
1615.722	14.29809	-10.57709	NaN	NaN
1619.726	12.85940	-10.46798	NaN	NaN
1623.716	13.91631	-10.46010	NaN	NaN
1627.722	14.23009	-10.37211	NaN	NaN
1631.723	12.99312	-9.01489	NaN	NaN
1635.718	14.19700	-10.35797	NaN	NaN
1639.719	17.10528	-12.97041	NaN	NaN
1643.714	18.35001	-13.31454	NaN	NaN
1647.717	13.90031	-10.26350	NaN	NaN
1651.719	12.86761	-10.02970	NaN	NaN
1655.717	15.63481	-10.20790	NaN	NaN
1659.721	14.59231	-10.19622	NaN	NaN
1663.718	14.53688	-10.25264	NaN	NaN
1667.715	18.24061	-11.35465	NaN	NaN
1671.716	14.62842	-10.14811	NaN	NaN
1675.716	14.83374	-10.19207	NaN	NaN
1679.722	14.37210	-10.03178	NaN	NaN
1683.720	16.08701	-8.99287	NaN	NaN
1687.718	14.17565	-8.99381	NaN	NaN
1691.715	14.66206	-9.99466	NaN	NaN
1695.720	14.57983	-10.05453	NaN	NaN
1699.723	21.28649	-11.97935	NaN	NaN
1703.715	4.80113	-13.21546	NaN	NaN
1707.721	14.41194	-10.07378	NaN	NaN
1711.717	14.38228	-10.11970	NaN	NaN
1715.719	11.52169	-10.03370	NaN	NaN
1719.713	11.34922	-8.96610	15.55515	-11.20508
1723.590	10.65623	-9.32117	15.74702	-11.46593
1727.592	11.67008	-9.27351	15.81266	-10.92569
1731.594	14.49069	-9.93337	16.17276	-10.96622
1735.612	14.24772	-9.74299	16.83648	-10.74964
1739.590	14.20238	-10.05305	10.52182	-8.49429
1743.589	14.11787	-10.08736	10.80663	-8.52151
1747.593	12.01995	-10.13481	10.91373	-8.32424
1751.597	14.69984	-10.74380	11.01550	-8.36850
1755.595	9.63332	-9.64350	11.33461	-10.68242
1759.594	12.78200	-10.51044	11.43164	-8.48811
1763.592	12.52537	-9.17746	11.08873	-7.23435
1767.589	13.56910	-9.39361	10.96150	-7.17932
1771.592	13.62233	-8.26879	11.11432	-4.50561
1775.591	13.51942	-6.01470	11.03580	-2.96851
1779.589	13.16866	-6.05618	10.91341	-4.08871
1783.588	13.21157	-5.27048	11.04494	-1.41161
1787.596	12.81943	-2.78616	11.14352	-0.04779
1791.589	13.14421	-2.91650	10.99410	-0.93722
1795.594	12.66920	-2.23427	10.73126	0.31136
1799.589	12.77797	-1.68020	10.76247	0.90681
1803.592	12.46976	-0.95090	10.68679	0.80572
1807.594	12.84095	-1.76274	10.68377	0.34864
1811.591	12.40044	-1.58349	10.66066	0.25380
1815.588	12.25360	-1.58940	10.47628	0.13991
1819.587	12.14945	-1.47086	10.36641	0.30713
1823.591	12.08252	-1.40698	10.38819	0.27037
1827.593	11.94935	-0.95481	10.30766	0.38698
1831.591	11.84972	-0.88915	10.19466	0.40329
1835.592	11.78210	-0.89501	10.22575	0.41922
1839.591	11.76478	-1.15448	10.18755	0.60701
1843.585	11.63175	-0.97538	10.22442	0.59256
1847.593	11.63351	-0.96715	10.15317	0.69287
1851.590	11.71254	-0.85498	10.11851	0.72675
1855.592	11.65458	-2.62557	9.95560	0.89808
1859.585	11.60799	-0.78227	10.05589	0.80642
1863.593	11.72056	-0.90159	10.10398	1.03211
1867.592	11.81044	-0.35263	10.10153	0.97311
1871.592	6.63188	-4.09098	10.19531	1.10890
1875.592	11.87090	-2.87452	10.19700	1.15060
1879.590	12.44889	-3.49701	10.08801	1.22162
1883.588	12.09199	-0.79250	10.17582	1.27421
1887.591	10.40399	-3.12839	10.08700	1.35007
1891.590	11.88171	-0.72873	10.08236	1.33677
1895.589	11.79667	-0.36508	10.08919	1.33288
1899.628	12.01891	-0.53726	10.09884	1.39401
1903.598	12.14428	-0.08532	10.14047	1.43627
1907.594	11.97125	-0.34926	10.22788	1.44704
1911.600	11.83731	-0.18883	10.06580	1.58966
1915.591	11.66706	-0.02132	10.30723	1.34587
1919.588	11.61916	-0.24664	10.17875	1.49882
1923.588	11.84836	-0.39670	10.34681	1.44259
1927.589	11.64009	-0.20865	10.54555	1.53100
1931.602	11.60089	-0.37398	10.65319	1.33802
1935.592	12.09230	-0.89819	10.62636	1.27084
1939.588	11.68841	-0.24823	10.65803	1.37886
1943.586	11.99191	-0.40084	10.74278	1.35351
1947.591	11.64278	-0.34182	10.70864	1.29961
1951.588	11.81617	-0.51565	10.74089	1.15252
1955.601	11.66161	-0.68717	10.68652	1.16085
1959.587	11.60239	-0.55010	10.64868	1.31898
1963.587	11.59942	-0.61679	10.56097	1.21268
1967.586	11.56424	-0.70815	10.55469	1.18900
1971.589	11.50034	-0.34840	10.51134	1.22306
1975.587	11.45803	-0.56779	10.46270	1.26253
1979.588	11.27460	-0.69582	10.37839	1.31075
1983.588	11.33299	-0.80700	10.29872	1.27499
1987.589	11.50196	-0.81957	10.17767	1.22517
1991.588	11.47081	-0.89029	10.24805	1.27253
1995.596	11.42694	-1.29377	10.14665	1.32790
1999.588	11.55395	-1.38088	10.16740	1.31392
2003.586	11.53682	-1.09807	10.10644	1.29080
2007.584	11.63573	-0.98337	10.08467	1.28658
2011.585	11.56148	-0.99651	10.05690	1.33548
2015.589	11.64735	-1.16619	10.04403	1.35013
2019.585	11.73362	-1.21449	10.04040	1.35895
2023.584	11.78414	-1.24009	10.03325	1.34279
2027.589	11.81023	-1.16676	10.04427	1.38994
2031.589	11.82240	-1.16978	10.08125	1.40372
2035.594	11.87855	-1.46527	10.09932	1.41227
2039.592	11.83835	-1.22355	10.10182	1.36080
2043.603	11.85656	-1.20177	10.10899	1.39837
2047.596	11.68162	-1.26580	10.01867	1.44412
2051.586	11.75655	-2.10519	9.98203	1.34124
2055.586	11.68926	-1.87960	10.01472	0.99465
2059.589	10.42300	-1.12352	9.94195	1.53868
2063.587	10.69000	-1.72524	9.68382	0.32328
2067.584	11.11826	-2.66292	13.35259	-3.41507
2071.584	11.04730	-2.95577	12.91604	-3.99861
2075.589	10.85497	-3.03031	9.85283	-0.25484
2079.591	11.60920	-5.78422	13.60735	-4.26504
2083.587	10.94301	-3.07829	13.10612	-4.46709
2087.589	10.65412	-3.36354	13.78312	-4.49911
2091.585	10.64580	-3.12541	13.69568	-4.34258
2095.586	10.61260	-3.26633	14.07013	-4.39380
2099.584	10.68370	-3.34165	14.29576	-4.34459
2103.583	10.67250	-3.26876	14.41164	-4.36577
2107.591	10.78942	-3.26326	14.46615	-4.40013
2111.585	10.68211	-3.30407	14.51514	-4.62384
2115.587	10.77337	-3.27650	14.69241	-4.59618
2119.591	10.76635	-3.11428	14.85804	-4.60298
2123.590	10.76875	-2.96002	13.15470	-2.87407
2127.587	10.73320	-2.76873	12.77957	-2.45973
2131.583	10.76422	-2.84341	12.63532	-2.48895
2135.589	10.74410	-2.77287	12.55238	-2.24084
2139.620	10.77308	-2.69774	12.59940	-2.07946
2143.583	10.64604	-2.42565	12.35559	-1.95034
2147.582	10.38824	-2.42375	12.39601	-1.79589
2151.587	10.05089	-2.41691	12.34122	-1.66685
2155.585	9.95117	-2.25773	12.31961	-1.93792
2159.582	10.07083	-2.18774	12.51555	-2.04952
2163.588	10.04239	-2.51110	12.51880	-2.15187
2167.590	10.30814	-2.54445	12.50089	-1.86554
2171.908	10.43940	-2.56677	12.52580	-1.91085
2175.587	10.50218	-2.83037	12.52643	-1.74473
2179.587	10.63564	-2.77893	12.51537	-1.69996
2183.584	11.14149	-3.03178	12.43303	-1.53097
2187.580	11.33421	-3.23611	12.36873	-1.47510
2191.586	10.83920	-3.13898	12.23284	-1.51583
2195.582	11.05070	-3.22357	12.21248	-1.39709
2199.586	11.08005	-3.32033	11.97501	-1.29155
2203.588	11.23950	-3.21172	12.10390	-1.24676
2207.582	11.19593	-3.31099	11.85181	-1.15460
2211.584	11.65830	-3.57087	11.74066	-1.06056
2215.584	11.21515	-3.49833	11.73802	-0.92371
2219.580	11.63123	-3.69194	11.60735	-0.79622
2223.585	11.56036	-3.64324	11.52495	-0.79409
2227.582	11.63685	-3.57272	11.52159	-0.73733
2231.582	11.59256	-3.74919	11.43081	-0.73128
2235.579	11.35537	-3.41834	11.41306	-0.71523
2239.578	11.58691	-3.77464	11.33645	-0.66285
2243.602	11.61954	-3.71553	11.27880	-0.67643
2247.586	11.63556	-3.84213	11.26729	-0.67673
2251.580	11.49967	-3.61478	11.23838	-0.64519
2255.587	11.45758	-3.43835	11.26130	-0.67726
2259.582	11.48756	-3.60601	11.21993	-0.74510
2263.581	11.25404	-3.40891	11.23974	-0.75804
2267.582	11.32672	-3.38574	8.56217	0.50195
2271.580	11.01940	-3.75041	8.54564	0.45224
2275.582	10.90439	-3.57179	8.48782	0.41942
2279.580	11.45744	-3.68849	8.24849	0.88170
2283.582	10.67770	-3.85162	8.17726	0.98580
2287.588	10.37306	-3.18735	8.33710	0.98403
2291.582	10.35793	-3.09395	8.34312	1.00623
2295.581	10.28676	-3.10108	8.32500	1.10103
2299.585	10.32601	-2.95457	8.33445	1.21524
2303.582	10.38754	-2.79228	8.43292	1.18709
2307.998	11.19910	-3.03696	8.39052	1.20354
2311.585	12.25140	-4.18813	9.08755	0.65659
2315.579	10.76221	-3.02100	9.79959	0.53600
2319.586	10.64494	-3.24211	10.27938	0.17242
2323.583	10.51907	-2.88020	10.72685	-0.11272
2327.589	10.49078	-3.01145	11.10670	-0.37165
2331.580	12.24268	-3.50566	10.66546	-0.83972
2335.585	10.90298	-3.75234	8.89463	-0.72864
2339.582	10.78489	-2.85890	8.70883	0.74792
2343.583	9.77006	-2.74321	8.95595	1.41895
2347.579	8.27200	-0.59751	5.54577	2.56681
2351.584	4.10898	0.34052	3.63873	3.46602
2355.582	2.48237	2.62868	-0.28575	4.29726
2359.583	2.02299	1.56691	-0.98670	7.08148
2363.580	-1.00412	4.17728	-1.07778	7.12717
2367.637	-2.15648	5.26484	-1.55085	7.85017
2371.592	-2.62167	5.79388	-0.97231	8.70828
2375.587	-3.18655	7.53799	-3.41958	8.44437
2379.583	-4.79681	7.61904	-4.56597	8.98370
2383.581	-5.35131	9.46187	-5.61237	9.36683
2387.576	-5.49266	9.41240	-5.14596	9.54153
2391.583	-5.37756	9.63881	-4.89831	9.60578
2395.578	-4.68868	11.31860	-4.30191	9.58077
2399.578	-3.66538	9.98364	-4.51371	9.64555
2403.575	-4.53273	9.99922	-4.03942	9.63825
2407.577	-4.73673	9.97675	-4.29643	9.79138
2411.585	-4.66297	9.98388	-4.24408	9.77670
2415.577	-4.63861	9.63542	-4.37396	9.83059
2419.575	-5.04908	9.53869	-4.30346	9.81407
2423.582	-4.67175	10.38970	-4.89740	9.82425
2427.579	-4.77444	9.80089	-4.88530	9.81476
2431.585	-4.69093	9.87817	-4.92023	9.77045
2435.580	-4.63040	9.38415	-5.02413	9.75858
2439.577	-4.68923	9.44906	-5.09788	9.73549
2443.603	-4.81655	9.31292	-5.14963	9.73993
2447.587	-4.54082	9.07592	-5.18232	9.69498
2451.583	-4.96453	8.63974	-5.23544	9.64099
2455.583	-4.52178	8.93633	-5.27053	9.58369
2459.580	-4.62956	8.87431	-5.31024	9.54637
2463.585	-4.94814	8.85721	-5.33578	9.52454
2467.585	-4.94539	9.37225	-5.37679	9.54932
2471.580	-5.06998	8.68500	-5.41054	9.54098
2475.578	-4.07809	9.44952	-5.46507	9.54713
2479.576	-4.05473	9.78338	-5.48774	9.50239
2483.573	-4.91388	9.72069	-5.52168	9.47626
2487.580	-4.51746	9.89116	-5.54621	9.44112
2491.583	-4.89954	10.02603	-5.58988	9.42440
2495.587	-4.95026	9.99885	-5.58646	9.39521
2499.582	-4.78385	9.93500	-5.61072	9.37434
2503.577	-4.90107	9.80989	-5.62358	9.35957
2507.574	-4.83242	10.08676	-5.62311	9.31415
2511.575	-4.83257	10.07610	-5.56527	9.27897
2515.580	-4.92964	10.02597	-5.51764	9.17259
2519.580	-4.76601	9.51605	-5.49539	9.17059
2523.579	-4.81108	9.53077	-5.42102	9.13592
2527.579	-4.98162	9.14222	-5.35884	9.09980
2531.580	-5.25729	9.39579	-5.30579	9.06812
2535.579	-5.04688	9.60657	-5.25542	9.03651
2539.583	-5.75964	9.35391	-5.21838	9.01516
2543.580	-4.91824	9.64542	-5.18230	8.99687
2547.578	-5.00600	9.14608	-5.14549	8.97270
2551.577	-5.27776	9.56392	-5.11570	8.95730
2555.581	-4.77572	9.40361	-5.10064	8.93611
2559.580	-4.64145	9.22798	-5.11174	8.94779
2563.582	-4.78057	9.17105	-5.11349	8.95494
2567.578	-4.84445	8.97335	-5.12533	8.91265
2571.576	-4.93332	9.32276	-5.12718	9.00406
2575.452	-5.08471	9.38233	-5.13767	9.01876
2579.480	-4.88032	9.23617	-5.16706	9.09510
2583.469	-4.99061	9.26261	-5.21009	9.13697
2587.453	-5.05306	9.23890	-5.23507	9.11806
2591.452	-5.16745	9.25211	-5.26770	9.13479
2595.450	-5.10012	9.21239	-5.34439	9.10341
2599.450	-5.11563	9.25690	-5.45125	9.17318
2603.453	-5.09074	9.24973	-5.31836	9.06755
2607.450	-5.13877	9.22436	-5.30916	9.05364
2611.450	-5.23049	9.11041	-5.34565	9.14581
2615.450	-5.12678	9.16541	-5.39446	9.08637
2619.449	-5.09059	9.15577	-5.41475	9.13515
2623.463	-5.10049	9.17608	-4.67554	9.13445
2627.457	-5.06794	9.12935	-4.38487	9.12340
2631.454	-5.16913	9.08016	-4.69263	9.08118
2635.445	-5.07156	11.33021	-4.26931	9.10744
2639.455	-5.22047	9.11299	-5.43588	9.25611
2643.450	-5.28603	9.46062	-5.63596	10.07935
2647.872	-6.20352	9.30914	-6.48271	11.21353
2651.474	-7.17199	9.44546	-7.57605	11.92313
2655.458	-8.14502	9.74762	-8.25627	12.09668
2659.452	-9.37873	9.79198	-7.35312	10.71080
2663.447	-8.44210	10.18559	-6.97211	11.10129
2667.452	-9.14917	10.21866	-6.93102	11.28252
2671.451	-8.91013	10.31029	-6.94399	11.23152
2675.448	-9.06344	10.49539	-6.89470	11.37738
2679.451	-9.21715	10.44564	-6.88609	11.28423
2683.455	-9.27871	10.39465	-7.00431	11.36214
2687.446	-9.28267	10.39636	-7.92381	11.53989
2691.456	-9.19885	10.32924	-7.16280	11.28699
2695.450	-9.29531	10.54728	-7.08888	11.21003
2699.450	-9.33084	10.53564	-7.03465	10.36080
2703.448	-9.33799	10.54514	-7.07385	11.20196
2707.452	-9.38950	10.58655	-7.15963	11.15057
2711.453	-9.41349	10.49584	-7.26708	11.10978
2715.453	-9.51389	10.50604	-5.26507	10.85978
2719.455	-9.43706	10.52990	-6.23376	11.20385
2723.449	-9.28434	10.52876	-7.57217	11.86922
2727.448	-9.15959	10.57406	-7.95694	11.39111
2731.445	-8.99554	10.59223	-8.05626	11.68839
2735.453	-8.79295	10.55280	-7.94973	11.85779
2739.449	-8.60555	10.44861	-8.04465	11.53272
2743.454	-8.26646	10.48578	-8.08757	11.74641
2747.453	-8.31239	10.43970	-8.12707	11.69515
2751.454	-7.05205	10.31409	-8.28527	11.61557
2755.452	-8.31470	10.44858	-8.23974	11.71035
2759.446	-8.05570	10.19294	-8.25977	11.69237
2763.447	-8.08355	10.22251	-8.29703	11.56844
2767.451	-8.13972	10.14774	-8.33919	11.38416
2771.452	-8.02017	10.15817	-8.34101	11.39332
2775.447	-7.92963	9.95587	-8.37006	11.26987
2779.447	-8.09282	9.94616	-8.31066	11.03604
2783.445	-7.68991	10.33268	-8.44280	11.28405
2787.448	-7.28681	9.92889	-8.49280	10.92185
2791.463	-6.94242	9.99601	-8.47044	10.66026
2795.449	-7.42832	9.97467	-8.48712	10.87655
2799.447	-7.39769	9.91896	-8.45473	10.63407
2803.460	-7.36035	9.95301	-8.44919	10.35323
2807.449	-7.28207	9.82002	-8.45956	10.40799
2811.446	-7.34382	9.88938	-8.37266	10.15306
2815.443	-7.22815	9.66212	-8.34713	10.21263
2819.451	-7.15694	9.63761	-8.36448	10.19757
2823.444	-7.16092	9.64666	-8.23172	10.26310
2827.444	-7.06532	9.47713	-8.27088	10.15979
2831.450	-7.14719	9.52536	-8.17537	9.99363
2835.452	-7.14937	9.67817	-8.11590	10.05265
2839.445	-7.06178	9.62790	-8.09657	10.01503
2843.443	-6.89774	9.62819	-8.02117	9.93184
2847.444	-6.94800	9.61023	-7.89354	9.85375
2851.445	-6.87301	9.68256	-7.96079	9.77432
2855.449	-6.71542	9.80311	-7.85185	9.89715
2859.446	-6.57142	9.79118	-7.79308	9.83259
2863.446	-8.55724	9.69341	-7.76284	9.77765
2867.448	-8.86316	9.60233	-7.80730	9.83640
2871.443	-8.79669	9.65580	-7.62960	9.84798
2875.450	-8.87941	9.68422	-7.24571	9.60686
2879.446	-8.84644	9.68939	-7.52191	9.96663
2883.450	-8.85957	9.67833	-7.18523	9.80119
2887.449	-8.83263	9.51780	-6.91650	9.71339
2891.448	-8.82969	9.41739	-7.68486	10.06387
2895.448	-8.74435	9.48407	-7.71886	10.09585
2899.444	-8.76256	9.34218	-6.97321	9.80613
2903.444	-8.70250	9.16775	-7.84723	10.34919
2907.446	-8.58794	9.07549	-6.84169	10.11968
2911.445	-8.54654	9.02494	-6.82944	9.81583
2915.446	-8.52634	9.03451	-6.78877	9.66747
2919.757	-8.46575	8.93916	-7.78155	10.31142
2923.453	-8.36729	8.91726	-7.59068	10.24446
2927.447	-8.34322	8.93830	-7.68323	10.46144
2931.460	-8.27491	8.96800	-6.90855	10.16824
2935.455	-8.22073	8.96825	-7.49751	10.43171
2939.443	-8.12962	8.93438	-7.54774	10.33169
2943.442	-8.10022	8.91987	-7.70407	10.67874
2947.444	-8.04630	8.96457	-7.68384	10.79691
2951.446	-8.06952	9.00852	-7.81978	10.90753
2955.444	-8.02107	9.06926	-7.76365	10.66502
2959.448	-8.01540	9.14568	-7.82284	10.82091
2963.443	-8.04195	9.35458	-7.81868	10.74794
2967.444	-8.03523	9.36992	-7.84808	10.83646
2971.444	-8.05285	9.42797	-7.83507	10.83798
2975.442	-8.07608	9.69192	-7.92020	10.93285
2979.444	-8.06373	9.76829	-8.03297	10.96437
2983.449	-8.10999	9.86309	-8.01589	11.05542
2987.450	-8.14242	9.98526	-8.02083	10.98234
2991.446	-8.19987	10.05337	-8.04375	10.96492
2995.446	-8.26006	10.15584	-7.98892	10.93180
2999.451	-8.28804	10.17658	-8.03385	10.98380
3003.445	-8.34460	10.26784	-8.04224	10.98972
3007.443	-8.37655	10.29867	-8.01307	10.99788
3011.442	-8.43535	10.35422	-7.91833	10.99847
3015.441	-8.48158	10.40149	-7.98970	10.95994
3019.441	-8.48156	10.44257	-8.02088	10.95592
3023.446	-8.50600	10.45401	-7.95967	10.90108
3027.448	-8.55554	10.47835	-7.98763	10.88991
3031.444	-8.51392	10.51601	-7.99751	10.90382
3035.444	-8.52984	10.56420	-7.98104	10.86239
3039.447	-8.48561	10.50822	-8.03195	10.88555
3043.448	-8.44142	10.56273	-8.05803	10.82637
3047.442	-8.32495	10.52569	-8.00187	10.82529
3051.441	-8.27681	10.48100	-8.14207	10.89833
3055.445	-8.15560	10.47609	-8.13154	10.79698
3059.451	-8.20170	10.52251	-8.16170	10.82058
3063.444	-8.05049	10.36662	-8.14614	10.86686
3067.442	-8.00985	10.41608	-8.09888	10.88505
3071.439	-7.91210	10.32600	-8.14256	10.77780
3075.446	-7.91509	10.11508	-8.17179	10.83766
3079.443	-7.90211	10.14778	-8.06360	10.79230
3083.447	-7.73024	10.03729	-7.99515	10.86072
3087.448	-7.82396	10.17842	-7.95828	10.91061
3091.444	-7.77731	10.23869	-7.71823	10.87807
3095.440	-7.77968	10.06168	-7.77130	10.82522
3099.438	-7.46829	10.07109	-7.67938	10.86137
3103.442	-7.25592	10.12475	-7.55271	10.91233
3107.442	-6.88979	10.09049	-7.50869	10.86321
3111.442	-6.68734	10.19915	-7.50652	10.77632
3115.439	-6.57424	10.35108	-7.47924	10.74847
3119.444	-6.35800	10.27119	-7.44381	10.73928
3123.490	-6.35189	10.35835	-7.36745	10.68324
3127.445	-7.87815	10.32354	-7.39720	10.58123
3131.440	-7.76596	10.24221	-7.34941	10.53597
3135.444	-7.90280	10.21367	-7.38495	10.49822
3139.442	-7.87596	10.22328	-7.38849	10.45977
3143.443	-8.16228	10.32662	-7.39815	10.41913
3147.442	-8.16938	10.25937	-7.40552	10.45759
3151.441	-8.16938	10.17649	-7.41768	10.44144
3155.441	-8.18069	10.15052	-7.39435	10.46491
3159.446	-8.26847	10.22350	-7.39051	10.44774
3163.444	-8.20804	10.03180	-7.40399	10.52813
3167.449	-8.26344	10.01731	-7.46150	10.46701
3171.447	-8.21906	10.12572	-7.45401	10.57056
3175.447	-6.20310	10.25962	-7.47256	10.58795
3179.449	-6.38111	9.79770	-7.48617	10.62343
3183.444	-6.27604	10.18119	-7.50437	10.68790
3187.441	-7.95918	9.35388	-7.53523	10.77263
3191.443	-7.95309	9.32301	-7.58954	10.79324
3195.439	-7.85458	8.93363	-7.64505	11.05105
3199.448	-7.90538	9.27426	-7.69461	11.07673
3203.444	-8.11989	9.00223	-7.69931	10.94455
3207.445	-7.66612	9.02702	-7.76228	11.04116
3211.441	-7.72320	8.97170	-7.80433	11.13425
3215.474	-7.72334	9.00990	-7.94540	11.58829
3219.443	-7.75407	9.06609	-7.77551	11.43549
3223.439	-7.84934	9.00132	-7.84971	11.62763
3227.439	-7.69788	9.12185	-7.57883	11.24344
3231.444	-7.74817	9.16804	-7.74398	11.51337
3235.441	-7.78918	9.15663	-7.67455	11.50209
3239.437	-7.73031	9.23649	-7.65268	11.61889
3243.439	-7.76121	9.06534	-7.61416	11.38362
3247.446	-7.66587	9.27779	-7.70760	11.46267
3251.443	-7.70831	8.70066	-7.65983	11.39536
3255.435	-7.74069	8.22776	-7.65749	11.36706
3259.464	-7.69892	8.52242	-7.60634	11.24324
3263.450	-7.64035	9.36307	-7.66629	11.46241
3267.439	-7.54196	9.50469	-7.66753	11.14235
3271.439	-7.58615	8.47146	-7.71045	11.09416
3275.439	-7.29475	9.32825	-7.67543	11.04632
3279.438	-7.52649	8.41093	-7.72719	10.95166
3283.440	-7.17419	9.36793	-7.70468	10.90368
3287.442	-7.13339	9.45567	-7.70221	10.86947
3291.447	-7.12356	9.52179	-7.61153	10.78103
3295.437	-7.05958	9.63897	-7.56554	10.70313
3299.437	-6.96255	9.72857	-7.53203	10.66323
3303.441	-6.91743	9.55162	-7.49117	10.73520
3307.441	-6.94971	8.87623	-7.41551	10.66977
3311.440	-6.87704	9.65234	-7.40469	10.68050
3315.442	-6.78419	9.53730	-7.37206	10.77203
3319.438	-6.85309	9.62980	-7.35510	10.76066
3323.437	-6.83553	9.67400	-7.26144	10.76553
3327.466	-6.80984	9.56754	-7.22786	10.75886
3331.446	-6.84952	9.64075	-7.23841	10.69325
3335.464	-6.85874	9.54683	-7.22681	10.73738
3339.448	-6.93897	9.53651	-7.24630	10.75620
3343.440	-7.01181	9.71016	-7.23680	10.81394
3347.437	-7.36691	9.70806	-7.24263	10.73380
3351.436	-7.67879	9.77492	-7.29594	10.70452
3355.436	-7.65198	9.78963	-7.26566	10.72983
3359.438	-7.82168	9.85394	-7.31567	10.66048
3363.439	-8.05630	9.80612	-7.25179	10.70336
3367.438	-8.33413	9.70536	-7.31709	10.90293
3371.437	-8.27817	10.21980	-7.32663	10.85528
3375.442	-8.59893	10.44860	-7.35629	10.89104
3379.434	-12.29912	12.91039	-7.40870	10.77040
3383.436	-8.37878	10.31277	-6.70653	11.12270
3387.440	-8.34261	10.37821	-7.43244	11.40155
3391.438	-8.75286	10.94238	-7.45248	11.61881
3395.473	-9.03495	10.49008	-6.72957	11.67399
3399.448	-8.83767	10.50997	-7.32158	11.50445
3403.439	-8.31880	10.61994	-7.28483	11.74263
3407.438	-8.54787	10.21862	-7.56359	11.94504
3411.438	-8.68281	10.42592	-7.29543	11.84125
3415.443	-8.11454	10.52544	-7.47675	11.94269
3419.442	-8.21901	10.23375	-7.36213	12.01752
3423.438	-8.56833	10.00306	-7.54540	11.96300
3427.434	-8.36212	9.35994	-7.64264	11.98460
3431.386	-8.96196	9.81329	-7.39315	11.73101
3435.318	-8.65392	9.83825	-7.47814	11.37377
3439.312	-8.08815	10.30777	-7.54262	11.08735
3443.311	-8.21388	10.00227	-7.60931	11.21963
3447.313	-8.81947	9.77014	-6.85207	11.62994
3451.313	-8.23875	9.64391	-7.61816	11.46404
3455.311	-8.27980	9.81695	-6.32684	11.49767
3459.313	-8.28165	9.68236	-7.54903	11.61375
3463.319	-8.29244	9.71008	-5.27899	11.55124
3467.312	-8.56076	10.25645	-6.26422	11.27828
3471.311	-8.59820	10.74946	-7.02631	11.10606
3475.311	-8.49476	10.93646	-1.62606	6.05547
3479.310	-8.42445	11.53843	-2.16055	5.99210
3483.308	-8.89487	10.73024	-3.24261	5.69755
3487.312	-8.58231	10.46271	-5.51445	11.27278
3491.313	-8.55802	10.32862	-6.73260	11.28822
3495.313	-8.50001	10.40297	-7.97641	11.13542
3499.311	-8.44708	10.30526	-7.40116	11.29083
3503.314	-8.44938	10.08244	-4.61593	11.13818
3507.312	-8.50464	9.74956	-6.99186	11.13809
3511.315	-8.39224	9.90064	-7.51964	10.87240
3515.311	-8.42012	9.97859	-6.57318	10.84950
3519.308	-7.66636	10.37089	-7.70056	10.63043
3523.311	-8.22973	10.47941	-7.53081	11.42929
3527.310	-8.28937	10.51640	-7.64106	11.18989
3531.309	-8.19637	10.30526	-7.76177	11.03071
3535.313	-8.24521	10.12488	-7.75665	10.66993
3539.310	-8.06638	9.96913	-7.56964	10.42994
3543.311	-8.38566	10.26742	-7.83441	10.96276
3547.316	-8.07241	10.16800	-7.93859	11.43001
3551.313	-8.29329	10.22827	-7.72164	11.12840
3555.315	-8.74338	10.85882	-7.85290	10.89958
3559.311	-8.44718	11.13564	-8.13150	10.57127
3563.311	-8.31698	10.38175	-7.93109	10.56268
3567.313	-8.38236	10.52180	-7.93359	11.30338
3571.310	-8.88336	10.27486	-4.36737	11.26350
3575.311	-8.76539	11.00515	-8.21449	11.36682
3579.310	-8.31904	10.62725	-7.11902	11.20099
3583.313	-8.85514	11.07515	-7.62840	13.44674
3587.319	NaN	NaN	NaN	NaN
3591.313	NaN	NaN	NaN	NaN
3595.312	NaN	NaN	NaN	NaN
3599.448	NaN	NaN	-19.65815	-7.36953
3603.315	NaN	NaN	-19.90757	-12.08382
3607.311	NaN	NaN	-19.92330	-12.08266
3611.311	NaN	NaN	-19.93437	-12.08184
3615.305	NaN	NaN	-19.94264	-12.08122
3619.316	NaN	NaN	-19.94911	-12.08074
3623.409	NaN	NaN	-19.95433	-12.08035
3627.326	NaN	NaN	-19.95865	-12.08003
3631.316	NaN	NaN	-19.95985	-12.07994
3635.314	NaN	NaN	-19.96117	-12.07984
3639.391	NaN	NaN	-19.96257	-12.07974
3643.312	NaN	NaN	NaN	NaN
3647.314	NaN	NaN	NaN	NaN
3651.332	NaN	NaN	-7.34863	15.02429
3655.312	NaN	NaN	NaN	NaN
3659.303	3.09114	14.12869	NaN	NaN
3663.311	NaN	NaN	NaN	NaN
3667.311	NaN	NaN	NaN	NaN
3671.314	NaN	NaN	NaN	NaN
3675.313	NaN	NaN	NaN	NaN
3679.310	NaN	NaN	NaN	NaN
3683.311	NaN	NaN	NaN	NaN
3687.525	3.08201	14.13154	NaN	NaN
3691.309	3.07590	14.13400	NaN	NaN
3695.309	NaN	NaN	NaN	NaN
3699.303	NaN	NaN	NaN	NaN
3703.306	NaN	NaN	NaN	NaN
3707.308	NaN	NaN	NaN	NaN
3711.308	NaN	NaN	NaN	NaN
3715.311	NaN	NaN	NaN	NaN
3719.430	NaN	NaN	NaN	NaN
3723.549	NaN	NaN	NaN	NaN
3727.758	NaN	NaN	NaN	NaN
3732.339	NaN	NaN	NaN	NaN
3735.980	NaN	NaN	NaN	NaN
3739.904	NaN	NaN	NaN	NaN
3743.758	NaN	NaN	NaN	NaN
3747.689	NaN	NaN	NaN	NaN
3751.723	NaN	NaN	NaN	NaN
3755.668	NaN	NaN	NaN	NaN
3759.727	NaN	NaN	NaN	NaN
3763.832	NaN	NaN	NaN	NaN
3767.809	NaN	NaN	NaN	NaN
3771.939	NaN	NaN	NaN	NaN
3776.155	NaN	NaN	NaN	NaN
3779.920	2.52002	11.54515	NaN	NaN
3784.038	NaN	NaN	NaN	NaN
3787.939	-0.26669	3.54667	NaN	NaN
3791.979	NaN	NaN	NaN	NaN
3796.166	1.80677	10.13982	NaN	NaN
3800.906	NaN	NaN	NaN	NaN
3804.201	1.94340	8.07873	5.02100	-2.62437
3808.071	NaN	NaN	4.97056	-1.88924
3811.914	1.98633	-1.68186	6.03378	-1.67785
3815.835	1.19646	1.35944	6.37418	-3.09502
3819.662	1.88923	-3.27075	-8.29956	7.84577
3823.581	1.93127	-3.80949	-1.85222	-3.54412
3827.382	1.72793	3.34538	-5.19502	5.60043
3831.307	1.57823	3.36717	1.57882	-4.01074
3835.358	1.35653	-1.51867	-5.35532	-4.22740
3839.424	1.91479	1.20955	-2.26182	-1.68278
3843.306	2.11693	0.03231	-2.41819	3.80945
3847.315	2.28960	-0.43570	-5.27046	0.53478
3851.314	2.51257	-8.55457	-5.26051	-5.23289
3855.361	2.75707	-8.55357	-6.17214	4.08637
3859.364	2.70607	-8.61366	-5.35578	-4.59075
3863.313	2.68920	-9.17238	-5.24555	-6.78322
3868.210	2.44467	-9.52875	-4.72206	-4.08515
3872.286	1.51980	-9.26139	-4.37897	-7.51355
3876.309	0.76687	-10.31998	-5.06949	-4.38514
3880.506	1.51735	-10.05486	-4.00724	-2.93654
3884.710	-0.45934	-11.04270	-4.75945	-4.04815
3888.561	0.79670	-10.40445	-3.91773	-2.78729
3892.742	-0.14034	-10.34195	-1.34294	-1.93227
3896.561	0.64838	-10.10788	-2.89220	-2.52469
3900.798	0.58086	-8.71198	-2.11467	-0.15413
3904.575	1.46149	-10.16016	-3.65492	-0.49663
3908.341	-4.40169	-10.48236	-3.63243	-5.07005
3912.307	0.50562	-8.43089	-3.31531	-5.12323
3916.520	-2.76933	-8.95571	-3.60032	-7.27563
3920.456	2.24478	-10.40973	-3.46474	-5.51855
3924.463	-19.99372	-11.87043	-2.29404	-5.74864
3928.771	2.85101	-10.15014	-3.77019	-6.95596
3932.843	-19.99372	-12.05391	-3.01408	-5.67419
3937.762	3.71542	-10.28943	-3.03200	-5.89530
3941.858	-19.99372	-12.06130	-2.78948	-6.30531
3945.969	-19.99372	-12.06559	-3.17524	-7.39694
3949.969	-19.99372	-12.06845	-1.73266	-11.19806
3953.902	-19.99372	-12.07410	-2.65884	-11.20911
3957.875	-19.99372	-12.07463	-2.58544	-11.45936
3961.805	-19.99372	-12.07503	-2.40778	-11.18486
3965.693	5.06378	-13.18207	-2.28063	-11.28135
3969.684	7.62550	-14.57581	-2.38635	-10.44490
3973.668	-2.56136	-12.95554	-2.49087	-11.20298
3977.653	-5.81695	-14.32512	-2.39279	-10.39581
3981.588	-19.99372	-12.16414	-1.94694	-9.01098
3985.533	2.22233	-14.19450	-1.31620	-5.45022
3989.722	8.85487	-14.67822	-1.56424	-5.58535
3993.763	2.30068	-8.56907	-0.49319	-1.01725
3997.522	3.64531	-7.50940	-19.99372	-11.69826
4001.527	3.93480	-6.62052	-19.99372	-11.95212
4006.621	3.13632	-5.35293	-19.99372	-12.00479
4010.822	3.68856	-4.60119	4.32005	-0.67729
4014.864	3.07016	-4.91350	-0.64034	-0.85278
4018.705	4.11555	-4.66246	2.97007	0.34096
4022.934	3.71520	-5.03056	2.18505	0.49701
4027.077	3.69778	0.15141	2.29069	0.35654
4031.311	5.08594	-5.93930	2.47710	0.57465
4035.569	5.65698	-6.04007	2.36187	0.80827
4039.966	3.81086	-3.80554	2.30813	1.09614
4044.261	3.59889	-4.77645	3.28491	0.18341
4048.538	3.94130	-4.79765	4.08461	0.04338
4052.759	4.32096	0.32735	4.33762	-0.81123
4057.044	3.37724	-4.82733	4.58696	-1.02183
4061.181	5.28320	-4.58937	2.12270	-0.95508
4065.337	3.67089	0.41526	4.56407	-1.26888
4069.506	3.41486	-1.07584	4.53625	-1.30418
4074.583	3.36119	-6.49787	4.28866	-1.21444
4078.715	3.31865	-1.30296	4.49689	-0.99571
4082.870	3.61683	-5.42409	4.37956	-0.90172
4087.048	4.70500	-4.07446	4.00569	-0.95035
4091.187	7.27843	-1.07070	3.82919	-0.99212
4095.383	5.04124	-2.66996	3.00737	-0.95541
4244.299	NaN	NaN	NaN	NaN
4311.709	0.38881	1.22296	-4.54908	-0.65930
4315.426	-0.46227	0.04706	-1.96464	-1.03571
4319.424	0.38442	0.66206	-1.95480	-0.63140
4323.422	0.62250	0.29772	-1.78944	-0.60138
4327.423	1.07478	-0.59538	-1.60149	-0.23627
4331.427	-0.41564	-0.76988	-1.00147	-0.28960
4335.421	0.01395	-0.40580	2.67484	-0.99688
4339.426	-1.18026	-1.78098	-0.98879	-0.36709
4343.425	-0.40159	-0.82305	0.05040	-0.29558
4347.426	-0.10448	-0.53837	0.02785	0.00420
4351.420	0.87240	-1.21716	-1.10199	0.07001
4355.427	1.71764	-1.08214	-0.89892	0.20319
4359.423	3.09169	1.13505	-1.01295	-0.20018
4363.426	3.28580	-1.21587	-1.15114	1.04903
4367.420	3.53819	-1.11056	-1.90596	0.71122
4371.432	4.07908	-0.71980	-0.83458	1.45189
4375.424	-0.60816	-0.67332	-0.64198	1.00776
4379.420	5.36169	-0.55644	1.69272	0.09327
4383.438	1.20380	0.54289	-0.15533	0.80411
4387.425	-0.46932	-0.44413	-0.88599	0.81172
4391.418	5.34744	0.00287	-1.02623	0.67963
4395.428	2.44710	-0.13972	-5.55401	2.02687
4399.423	2.00048	0.02876	-4.74240	0.81085
4403.419	1.69297	0.06508	-4.30554	0.90565
4407.301	-1.19075	0.46979	-1.17431	0.37387
4411.299	-0.63791	0.52201	-2.13430	1.12107
4415.300	-0.79580	0.54624	-1.59856	0.67453
4419.301	-1.75813	-0.34635	0.42566	-0.23069
4423.308	3.50338	-3.27391	1.47092	-1.89135
4427.305	3.63720	-2.17768	1.64268	-1.72132
4431.298	0.39844	-0.50185	1.08929	0.01128
4435.303	0.22380	0.79211	-0.39675	0.23037
4439.298	-0.33901	-0.48697	-0.16869	0.60744
4443.300	-1.00385	-4.03741	-0.63168	0.37109
4447.293	1.08004	0.09493	0.62379	0.23031
4451.331	0.44663	1.15885	-0.44639	0.26103
4455.295	0.98097	-1.58638	-0.25046	0.31354
4459.303	2.54071	-1.05808	-0.29170	1.08214
4463.303	4.03157	-0.48362	-0.45445	0.50200
4467.294	4.91499	-1.41608	0.06450	0.89961
4471.297	5.11004	-0.39949	-4.64147	0.78135
4475.299	0.97556	0.66859	-4.49992	0.87138
4479.294	1.04128	-0.26823	-2.64111	-0.35049
4483.301	0.45381	0.77803	-2.91421	1.04339
4487.296	4.91947	-1.17951	-1.43508	0.92074
4491.298	3.66713	-1.51561	-0.77067	0.67779
4495.299	0.26383	-1.62970	-1.42568	0.41286
4499.293	-1.71786	0.27677	-1.05178	0.44964
4503.302	-2.77953	-0.74987	-2.13380	0.02324
4507.298	-2.18414	-1.07729	-2.65731	0.37134
4511.296	-1.12923	-1.51627	-2.15180	0.23294
4515.299	0.50217	-1.32082	-2.02559	0.25216
4519.298	2.19219	-2.54132	-2.32213	0.28118
4523.296	-1.47546	-2.33973	-2.27342	0.23672
4527.298	-0.07478	-1.65385	-1.84892	0.21431
4531.289	2.68636	-4.12241	-2.26453	0.22036
4535.294	3.20268	-2.07582	-2.25793	0.29118
4539.294	3.09324	-1.96142	-2.34369	0.37053
4543.306	-0.83493	-1.01900	-5.62992	0.61007
4547.290	-1.88045	-1.84273	-2.46639	0.49107
4551.299	3.96797	-4.05904	-5.63746	0.46494
4555.316	-1.91534	-0.27880	-3.90284	0.55291
4559.295	4.93804	-2.63134	-5.16196	1.17331
4563.293	-1.02677	-1.92927	-3.58247	0.54584
4567.296	-0.86041	-1.35564	-3.60482	0.44329
4571.297	-1.79604	-0.96328	-4.32871	0.34399
4575.294	-1.82128	-0.62027	-4.27733	-0.26128
4579.299	-1.51896	-0.18836	-3.17695	-0.46572
4583.295	-1.68654	0.88840	-3.47534	-0.81298
4587.302	-1.99225	-0.72979	-4.80322	-0.87975
4591.294	-2.05065	-0.44664	-3.60813	-1.15864
4595.298	-0.16285	-0.96120	-4.74644	-0.62623
4599.294	4.86559	-5.70343	-5.51024	-0.57963
4603.291	3.65482	-3.53499	-3.40925	-1.26540
4607.300	3.46103	-0.90095	-3.28724	-0.26954
4611.294	2.50283	-5.05385	-2.93406	0.11594
4615.295	2.42661	-2.81278	-2.44591	-0.43292
4619.296	2.44529	-2.03410	-2.44841	-0.70496
4623.296	1.62185	-2.84000	-2.51207	-0.55227
4627.300	-2.11596	-0.63938	-2.52327	-0.74191
4631.289	-0.59027	0.28336	-2.58006	-0.40917
4635.292	-0.95055	-2.59560	-2.53417	-0.41204
4639.297	-2.24641	-2.27750	-2.61833	-0.51614
4643.297	-2.44630	-1.73579	-2.77109	0.08245
4647.295	1.26192	-1.96789	-2.63150	0.11446
4651.298	0.63647	-2.88230	-2.79540	0.64585
4655.293	-1.83008	-2.01133	-2.61179	0.71996
4659.298	-1.31126	-2.10787	-2.65491	0.80184
4663.288	-3.66071	-2.44966	-2.70815	0.99449
4667.297	-2.96923	-1.85034	-2.72625	1.26842
4671.318	-2.02455	-1.70008	-2.69222	1.51918
4675.295	-2.44061	-1.48480	-2.54115	1.62915
4679.320	-2.35362	-1.81637	-1.56836	1.42072
4683.298	0.34791	-1.74496	-2.00956	1.93601
4687.291	2.01960	-2.61746	-2.45393	1.23805
4691.296	-2.11192	-1.64940	-2.46392	1.75109
4695.293	0.45053	-1.69402	-2.08144	1.41726
4699.291	-2.12863	-1.78097	-2.26237	1.23070
4703.303	-1.84604	-2.89979	-2.23390	1.48975
4707.297	-1.61012	-1.53567	-2.73291	1.42395
4711.300	-3.23878	-2.12027	-3.77510	2.15575
4715.292	-1.09008	-0.58289	-2.28571	1.24289
4719.297	-3.50279	-3.65011	-3.41652	2.25819
4723.303	-2.92787	-2.83778	-2.48128	1.15727
4727.294	-3.63871	-3.03559	-2.53702	1.05484
4731.286	-3.73181	-2.88466	-2.85967	0.93125
4735.292	-2.69472	-3.74763	-3.28499	0.87398
4739.293	-1.33559	-1.40796	-2.58794	0.73363
4743.291	-3.64731	-3.16322	-2.64715	0.67442
4747.296	-2.08215	-0.91769	-2.39926	0.43559
4751.297	-1.11998	-3.15486	-2.52750	0.44992
4755.296	1.47154	-3.01559	-2.48049	0.11673
4759.286	1.46072	-2.93509	-2.45597	-2.95117
4763.296	2.02014	-3.24307	-2.41090	-0.13173
4767.293	1.31563	-2.20233	-2.57877	-0.11739
4771.285	-1.86593	-0.98142	-3.74832	-0.94405
4775.294	-2.27969	-0.89270	-2.78352	-0.27396
4779.289	-3.83591	-0.76910	-3.21896	-2.11409
4783.290	-1.88105	-0.34089	-2.92955	-0.32735
4787.285	-1.03898	-1.07760	-2.57060	-1.62190
4791.324	-2.52475	-0.88477	-2.61251	-1.78730
4795.302	-2.73093	-0.57568	-2.59817	-1.24999
4799.291	-2.26118	-0.08561	-2.25883	-1.75614
4803.300	0.95348	-1.01909	-2.49914	-1.13080
4807.293	-2.33115	-0.69249	-2.51386	-1.17836
4811.291	-1.38376	-0.21103	-2.48111	-1.33283
4815.288	0.33082	-0.16286	-2.55829	-1.10581
4819.289	-2.88386	-0.28034	-2.34245	-1.00569
4823.293	-0.55657	-0.85419	-2.63863	-0.47758
4827.289	-2.15326	-0.27019	-2.64599	-0.59803
4831.296	-1.67596	0.07235	-2.41715	-0.13322
4835.298	-1.30784	0.07572	-3.16307	-0.26300
4839.294	-1.45433	-0.69115	-3.69002	-0.76598
4843.289	-1.30794	-0.19469	-3.10955	-0.44446
4847.295	-1.21236	-0.20367	-2.22518	-0.11606
4851.306	-0.50557	0.00542	-2.48874	0.00119
4855.297	-0.94333	0.08388	-2.77364	0.26019
4859.315	-1.07594	0.03046	-2.45240	0.24094
4863.293	-1.01717	0.08318	-2.70213	-0.02033
4867.298	-0.87098	-1.88466	-2.40753	0.18653
4871.293	-1.24831	0.14332	-2.35551	-1.62623
4875.298	-0.95157	-1.70918	-2.33182	-0.57623
4879.295	-0.99576	-1.54186	-2.31554	-0.62162
4883.292	-0.88860	-0.41592	-2.18382	-0.42118
4887.321	-1.38163	-1.21898	-2.11613	-0.65837
4891.293	-1.12176	-0.87592	-2.22706	-0.05587
4895.289	-1.09884	-1.42335	-2.11103	-0.22116
4899.288	-1.17835	-1.42458	-2.02418	-0.31712
4903.301	-1.30804	-1.37672	-1.90344	0.32169
4907.291	-1.43925	-0.79989	-1.93378	0.03241
