time (ms)	lx (deg)	ly (deg)	rx (deg)	ry (deg)
0.000	3.65781	-1.99040	0.63409	0.18427
3.993	3.22035	-2.26151	0.46917	0.34909
8.001	3.60519	-2.01025	0.62506	0.35718
11.991	3.52296	-1.89264	0.66173	0.71132
15.995	3.53572	-1.97372	0.61558	0.85095
19.984	3.20902	-2.80926	0.71506	0.97543
24.021	3.27685	-2.06298	0.72945	1.04463
27.988	2.76383	-2.49222	0.87213	0.79853
31.994	1.27386	-3.37828	0.72109	0.49914
35.991	1.36402	-3.70520	0.68967	0.33536
39.993	2.72536	-1.59384	0.50937	-0.78130
43.987	1.01442	-3.17399	0.41762	-1.34955
47.992	0.89480	-3.35699	0.09125	-0.76705
51.986	0.34355	-2.88032	0.17139	-1.26051
55.992	1.89402	-2.87996	0.61106	-0.97006
59.990	1.33071	-2.66100	0.37501	-1.17530
63.988	0.92197	-2.44036	1.21375	-1.27985
67.986	1.99810	-3.12262	1.40103	-1.46514
71.988	4.71669	-4.40204	1.01223	-1.26397
76.034	3.56522	-3.93758	0.80987	-1.25168
80.006	3.89703	-3.72120	0.61655	-1.04408
83.866	3.75111	-4.35614	0.44445	-1.16280
87.868	0.66920	-5.85784	0.57843	-0.47739
91.857	0.84007	-2.59652	0.35777	1.25759
95.865	1.17785	-2.43138	0.37360	-0.99958
99.863	5.78541	-3.14018	0.70675	0.49405
103.861	4.08868	-1.11733	0.17680	0.46656
107.867	4.01070	-0.11596	0.30034	0.44811
111.860	0.86612	-2.12929	0.19330	0.31021
115.865	0.73429	-1.36497	0.36896	0.21916
119.860	0.52302	-2.17205	0.32449	0.00912
123.871	0.64240	-2.26244	0.16509	0.17953
127.863	4.20254	-2.36834	0.65213	0.00482
131.865	0.90525	-2.64011	0.29434	0.18363
135.856	3.81476	-1.87399	0.08349	0.09254
139.863	1.40601	-1.98096	-0.40065	0.40594
143.921	1.52275	-1.92232	-0.52778	0.28153
147.870	1.21315	-2.08701	-0.27944	3.36449
151.864	0.81612	-1.89330	-0.34422	3.18664
155.861	0.59220	-1.73075	-0.33863	2.97822
159.866	1.48121	-0.79051	-0.48689	2.87122
163.862	1.05500	-0.80773	-0.62064	2.48500
167.871	0.54957	0.06060	-0.85942	2.12672
171.860	1.56243	-1.59386	-0.60933	1.88789
175.864	-0.09331	0.12698	-0.47890	1.61295
179.865	1.28856	-1.60850	-0.41328	1.19814
183.864	1.20747	-1.29453	-0.42601	1.03170
187.859	0.92852	-1.12100	-0.39884	0.89249
191.864	0.27257	-1.05082	-0.27969	1.01067
195.861	0.45664	-1.42233	-0.17553	0.88080
199.860	-0.11275	-1.07567	-0.15042	0.73604
203.871	-0.36092	-1.23377	0.90066	0.68992
207.872	-0.29682	-1.47726	1.10120	0.64869
211.869	-0.47862	-1.08649	0.08979	0.57971
215.864	0.31411	0.76542	0.49460	0.46008
219.859	-0.15826	-0.70970	0.66034	0.55204
223.864	0.02606	-0.55071	0.35695	0.48444
227.858	-0.36566	0.54641	-0.01482	0.51146
231.865	-0.33690	-0.07181	0.58240	0.59464
235.861	-0.70223	-1.67229	0.78034	0.67466
239.860	-0.52895	0.97636	0.06271	0.66993
243.859	0.22301	0.37067	-0.21671	0.73010
247.869	0.62280	-0.51110	-0.19653	0.85680
251.867	0.68238	-0.54822	-0.15816	0.85271
255.933	0.27505	-1.72744	-0.29173	0.80525
259.869	1.68994	-0.52119	-0.24100	0.94872
263.866	0.92438	0.37788	-0.27937	0.93597
267.863	-1.21462	0.64288	-0.29113	1.00911
271.857	1.01367	0.43943	-0.45443	1.07077
275.864	-1.16366	0.39079	-0.48411	1.10936
279.884	-1.44329	0.33312	-0.19430	1.18722
283.868	-1.61076	0.36382	-0.35050	1.20556
287.858	-1.35794	0.58414	-0.43651	1.11399
291.867	0.09091	0.51836	-0.39164	0.93060
295.867	-0.12084	0.15193	-0.18750	0.86590
299.862	-0.20996	0.09120	-0.16362	0.53682
303.872	-0.35576	0.06600	0.34868	0.45450
307.853	-0.86128	-0.18873	0.16469	0.00949
311.867	-0.19660	-0.18130	0.50505	-0.01078
315.857	-0.33474	0.04115	0.67744	0.12496
319.858	-0.35454	0.22334	-0.01087	0.61790
323.870	-0.51009	0.33455	-0.09796	0.57588
327.860	-0.32218	0.29920	-0.10312	0.41333
331.867	-0.30364	0.13220	0.07430	0.32974
335.860	-0.30935	-0.29118	-0.06460	0.97618
339.861	1.26525	-0.09291	-0.15603	2.15593
343.857	1.38099	-0.32940	-0.46177	1.60831
347.858	2.30823	-0.47969	-0.51545	1.52599
351.860	1.86444	-0.71348	-0.18849	1.52788
355.862	-0.01861	0.10384	-0.09813	1.72033
359.854	0.58980	-0.20015	-0.25547	1.33191
363.863	0.21847	-0.03847	0.03641	1.34784
367.858	0.11575	0.12690	-0.03055	1.48498
371.861	0.09354	-0.02351	-0.28448	1.34986
375.861	0.10413	0.07713	-0.24004	1.28999
379.860	0.14732	-0.12534	-0.24602	1.28370
383.861	0.05266	0.16308	-0.12188	1.11563
387.873	-0.00206	0.13302	-0.18824	0.87944
391.862	0.08426	0.19536	-0.08128	0.93007
395.860	0.10118	0.10372	-0.11565	0.85017
399.855	0.07344	0.13041	-0.05884	0.70732
403.860	-0.00941	-1.32760	-0.11850	0.72737
407.860	-0.03350	0.27103	-0.17313	0.50427
411.862	-0.12972	0.34035	-0.20105	0.27992
415.861	-0.10319	0.18622	-0.26880	0.48772
419.859	-0.19082	-3.58218	-0.28634	0.43480
423.860	-0.20916	0.50293	-0.30667	0.41850
427.856	-0.10843	0.73547	-0.26711	0.44158
431.857	-0.05088	0.69803	-0.26304	0.34930
435.858	1.15580	0.39581	-0.29235	0.34959
439.858	-0.41941	0.60568	-0.33412	0.27023
443.856	-0.17042	0.72036	-0.30508	0.28111
447.865	-0.07353	0.75666	-0.26897	0.25604
451.861	-0.13526	0.70180	-0.25927	0.38038
455.854	-0.06162	0.63661	-0.35586	0.39506
459.864	-0.04971	0.63231	-0.23324	0.44516
463.860	-0.00727	0.60195	-0.16407	0.35882
467.900	-0.01904	0.65184	-0.16906	0.29950
471.854	0.08048	0.42158	0.01710	0.39924
475.859	-0.03740	0.34284	0.01102	0.39015
479.856	0.16921	-3.20286	0.82932	0.36569
483.862	0.10997	-0.98505	0.38139	0.42664
487.859	-0.00191	-0.01722	1.76110	0.38353
491.853	0.01963	-3.34098	0.40189	0.23822
495.861	0.49994	0.11477	0.63732	0.34975
499.861	0.35668	-0.52116	0.56240	0.42981
503.857	-0.00625	-0.49344	0.92445	0.70862
507.860	0.06539	-0.63559	0.98745	0.48611
511.873	0.03417	-0.54428	0.82411	0.45364
515.859	0.34072	-0.53503	1.02804	0.50864
519.855	0.11647	-0.56105	1.17150	0.63114
523.857	0.15757	-0.51759	0.96919	0.62256
527.854	1.52285	-0.52705	0.84622	0.53051
531.853	0.52145	-0.38266	0.82759	0.63711
535.854	0.23788	-0.36170	0.70290	0.53266
539.860	1.15277	-0.49329	0.49182	0.56988
543.858	1.89072	-0.83792	0.78121	0.60880
547.854	1.61329	-0.53910	0.40618	0.58057
551.854	0.11788	-0.23857	0.55498	0.56324
555.857	0.83573	-0.31281	0.43073	0.57530
559.855	0.94383	-0.28138	0.75226	0.48595
563.855	0.07229	-0.03332	0.33633	0.46844
567.858	-0.66764	0.55237	0.62756	0.51379
571.855	-0.71558	0.74212	0.25974	0.51560
575.854	-0.96398	1.17672	0.28007	0.75091
579.858	-0.61893	0.83157	-1.47690	0.82988
583.860	2.02621	1.37212	-7.13251	0.27946
587.861	1.21139	1.06875	2.62945	4.67045
591.853	4.09481	4.14607	0.13603	8.41684
595.857	2.85440	-0.58063	NaN	NaN
599.856	-3.67222	11.34242	NaN	NaN
603.852	NaN	NaN	7.91300	13.00448
607.859	NaN	NaN	NaN	NaN
611.854	NaN	NaN	NaN	NaN
615.870	NaN	NaN	NaN	NaN
619.851	NaN	NaN	NaN	NaN
623.861	NaN	NaN	NaN	NaN
627.854	NaN	NaN	NaN	NaN
631.850	NaN	NaN	NaN	NaN
635.991	NaN	NaN	NaN	NaN
640.162	NaN	NaN	NaN	NaN
643.978	NaN	NaN	NaN	NaN
647.944	NaN	NaN	NaN	NaN
651.866	NaN	NaN	NaN	NaN
655.936	NaN	NaN	NaN	NaN
659.861	-19.92913	11.94129	NaN	NaN
663.874	4.55273	14.37048	17.29394	7.99650
667.853	4.99815	9.24668	13.70364	14.05298
671.858	4.90646	-4.96581	NaN	NaN
675.853	5.32139	-3.60892	NaN	NaN
679.857	6.41942	-2.47306	-7.70438	8.01292
683.851	5.51044	4.02715	-6.25882	8.34250
687.896	5.37305	-3.69843	1.03158	11.35796
691.850	4.69916	-2.79837	2.22560	0.05135
695.878	3.89174	-2.60838	-1.80268	-1.35738
699.858	3.49985	-2.64131	-1.87032	-1.58110
703.856	2.63670	-2.63572	-2.67870	-2.37678
707.856	2.81541	-2.53318	-5.76308	-2.49520
711.853	-0.84312	-2.54030	-3.34467	-2.24179
715.851	-0.41695	-2.59432	-1.90108	-0.45684
719.852	0.04370	-2.51863	-0.42586	-0.63418
723.854	-0.02554	-2.53428	-0.77823	-0.05200
727.859	-0.09019	-2.57192	-0.64369	-0.29658
731.854	0.25095	-2.56962	-0.25254	0.01141
735.855	0.30096	-2.54136	-0.45874	0.27668
739.851	0.39385	-2.54146	-0.36271	0.24297
743.854	0.79972	-2.48240	-0.29414	0.57175
747.854	0.70144	-2.36687	-0.21964	0.54428
751.855	0.80387	-2.46677	-0.26570	0.91687
755.851	0.83704	-2.39135	-0.29826	1.28847
759.856	0.95514	-2.21612	-0.27359	1.03412
763.855	0.94470	-2.09945	-0.25438	1.28115
767.850	0.45525	-2.13617	-0.28535	1.51267
771.855	0.88987	-1.96459	-0.26148	1.07022
775.851	0.85215	-2.07139	-0.17884	1.07104
779.854	0.98177	-2.10687	-0.06321	1.18292
783.849	0.78657	-1.89346	0.03005	0.83286
787.855	0.15893	-1.81554	0.16303	0.54112
791.857	-0.43601	-1.75859	0.07296	0.53051
795.856	-0.26173	-1.59568	-0.00812	0.39475
799.855	-0.51577	-1.51610	-0.11890	0.43845
803.854	-0.87585	-1.61334	-0.39119	0.57103
807.849	-0.37303	-1.50704	-0.38082	0.72532
811.854	-0.68913	-1.53426	-0.43368	0.68901
815.851	-0.70508	-1.49646	-0.48448	0.74444
819.854	-0.55590	-1.50405	-0.66774	0.57234
823.852	-0.48790	-1.67191	-0.72722	0.30778
827.856	0.10749	-1.42309	-0.81193	0.38646
831.855	1.51427	-1.42220	-0.81267	0.41009
835.853	1.98093	-1.47086	-0.85069	0.50787
839.850	1.85430	-1.44389	-0.74511	0.34808
843.853	2.10221	-1.50460	-0.71459	0.41057
847.851	1.95929	-1.49669	-0.51791	0.55847
851.853	1.48439	-1.27586	0.22157	0.42444
855.853	0.52466	-1.14279	0.04887	0.31789
859.849	-0.13270	-1.50928	-0.21293	0.39671
863.852	-0.47180	-1.51008	-0.40767	0.47243
867.848	-1.14647	-1.34060	-0.54230	0.53039
871.857	-0.79888	-3.46054	-0.56044	0.49851
875.857	-0.48426	-3.07002	-0.60799	0.68497
879.851	1.56072	-3.65268	-0.76454	0.91563
883.854	0.95981	-3.37146	-0.96599	1.26704
887.852	1.28135	-3.20173	0.12161	1.09626
891.852	-0.53553	-2.75834	-1.74613	0.91007
895.852	-1.33634	-2.38072	-1.08656	1.14223
899.847	-2.89329	-1.48413	-4.29527	2.49274
903.851	-5.62766	-1.50530	-5.87516	2.07072
907.898	-6.20165	-1.17074	-5.81553	0.85438
911.848	-6.30938	-0.56025	-7.27565	2.13013
915.859	-9.35848	-0.66793	-8.74702	1.66248
919.850	-8.31994	0.59443	-12.78899	1.49324
923.849	-2.48844	-2.98505	-13.30738	1.76228
927.846	-15.67352	2.32896	-17.57058	0.27755
931.847	-15.28173	2.59818	-19.86644	0.45672
935.850	-15.16100	3.51759	-20.51272	1.34020
939.725	-17.20151	7.88634	-19.93420	2.03745
943.721	-16.72646	6.81379	-20.00518	-12.07657
947.773	-19.48959	11.37901	-20.00242	-12.07678
951.733	-21.82992	11.62929	-20.05487	12.57354
955.737	-19.80354	-12.09152	18.87179	12.88086
959.730	-19.87324	-12.08637	-20.02284	-12.07525
963.731	-19.90627	-12.08392	-20.01875	-12.07556
967.728	-19.92564	-12.08248	-20.01553	-12.07580
971.723	-19.93845	-12.08153	-20.01323	-12.07597
975.722	-19.94762	-12.08085	-20.02291	-12.07525
979.720	-19.95453	-12.08034	-19.98833	-12.07782
983.722	-22.30504	13.34722	-22.65730	3.42079
987.724	-19.45555	9.06394	-20.00843	-12.07633
991.722	-19.91886	8.53209	-20.00775	-12.07638
995.721	-17.68502	6.35467	-12.75819	-1.74712
999.721	-17.50799	6.27634	-23.20989	2.72449
1003.728	-17.53265	3.23332	-21.11283	2.16985
1007.733	-17.54856	2.88955	-21.64398	1.40839
1011.735	-15.35893	0.21515	-20.29550	-1.07705
1015.726	-15.66429	2.34511	-15.56279	1.17979
1019.723	-13.46515	0.40395	-15.75959	1.36391
1023.721	-12.69500	0.32357	-14.28345	1.54139
1027.726	-10.02006	0.24915	-14.09696	1.34718
1031.725	-8.03372	0.35121	-13.06341	0.89928
1035.716	-7.88120	0.33923	-12.75665	0.61554
1039.726	-11.64670	0.37820	-12.71238	1.44060
1043.728	-11.63949	0.37130	-12.67239	1.55881
1047.730	-12.13505	0.29791	-12.89074	1.56756
1051.720	-11.78602	0.12017	-12.85940	1.48174
1055.725	-11.00919	0.42004	-12.38592	0.29807
1059.722	-9.96966	0.19359	-12.46010	1.38733
1063.725	-10.23719	-0.23969	-12.56488	0.30844
1067.720	-11.24547	-0.03127	-12.47151	1.68600
1071.730	-11.54270	-1.03245	-12.21231	0.27072
1075.729	-11.10562	-0.30421	-11.87142	0.26107
1079.718	-9.97048	-0.59553	-12.24590	-0.12994
1083.725	-10.39062	-0.56202	-12.12744	-0.13705
1087.728	-10.98975	-0.49439	-12.12170	-0.30364
1091.727	-10.89887	-0.72447	-12.02325	-2.12301
1095.724	-11.04398	-0.79213	-12.08117	-0.43620
1099.727	-10.76597	-0.57393	-12.05001	-0.35806
1103.760	-10.76235	-0.47988	-12.04771	-0.27799
1107.723	-10.63243	0.12841	-12.01917	0.01060
1111.720	-10.71226	-0.19228	-11.91004	2.38106
1115.721	-10.75375	-0.51922	-11.98657	2.41620
1119.722	-11.09305	-0.60433	-11.99671	2.39869
1123.713	-10.44259	0.44512	-11.94339	2.38848
1127.729	-10.47417	1.06051	-11.86365	0.72443
1131.720	-10.77100	0.75170	-12.11821	2.42283
1135.734	-11.38011	4.81595	-18.78366	0.84437
1139.727	-13.72463	2.72119	-21.68525	3.82015
1143.720	NaN	NaN	-19.85713	-12.08756
1147.721	NaN	NaN	-19.91946	-12.08294
1151.717	NaN	NaN	-19.94323	-12.08118
1155.726	NaN	NaN	-19.95586	-12.08024
1159.728	NaN	NaN	-19.96371	-12.07966
1164.352	NaN	NaN	-19.96913	-12.07925
1167.995	NaN	NaN	-19.97307	-12.07896
1171.837	NaN	NaN	-19.97612	-12.07873
1175.732	NaN	NaN	-19.97853	-12.07855
1179.716	NaN	NaN	-19.99865	-12.07706
1185.086	NaN	NaN	NaN	NaN
1195.763	NaN	NaN	NaN	NaN
1199.726	NaN	NaN	NaN	NaN
1203.725	NaN	NaN	NaN	NaN
1207.716	NaN	NaN	NaN	NaN
1211.724	NaN	NaN	NaN	NaN
1215.721	NaN	NaN	NaN	NaN
1219.721	NaN	NaN	NaN	NaN
1223.726	NaN	NaN	NaN	NaN
1227.725	NaN	NaN	NaN	NaN
1232.414	NaN	NaN	NaN	NaN
1236.277	NaN	NaN	NaN	NaN
1240.043	NaN	NaN	NaN	NaN
1244.171	NaN	NaN	NaN	NaN
1248.187	NaN	NaN	NaN	NaN
1252.326	NaN	NaN	NaN	NaN
1256.666	-12.53646	7.81645	-14.40013	-2.53079
1260.929	NaN	NaN	NaN	NaN
1271.718	-5.01832	5.26668	-18.14387	1.55667
1275.721	-11.90775	2.48093	-17.71390	1.48841
1279.715	-11.36231	1.87412	-16.27687	0.92628
1283.722	-10.35810	2.39953	-13.92634	1.32506
1287.719	-8.97467	1.85154	-6.31605	1.85773
1291.722	-8.31268	2.52187	-9.67152	1.81792
1295.728	-8.88184	2.43588	-10.83484	1.28599
1299.718	-8.20430	1.71316	-10.95418	1.11095
1303.725	-10.15689	1.33797	-10.14347	0.95158
1307.722	-9.36124	2.26470	-9.79426	0.95459
1311.717	-9.69241	2.13938	-9.75353	0.68184
1315.722	-9.49245	1.11707	-6.72029	1.12070
1319.720	-9.53883	1.58290	-7.92198	0.95692
1323.720	-9.64125	1.25741	-9.35991	1.02434
1327.719	-9.35322	1.54465	-9.59020	1.36900
1331.715	-9.39525	1.90528	-9.84982	1.05350
1335.725	-9.62774	1.29165	-11.21694	1.29750
1339.719	-9.53871	1.34606	-9.65406	1.14010
1343.720	-10.94191	1.15535	-9.52396	1.42430
1347.713	-9.51498	0.96432	-9.67852	1.55660
1351.717	-9.37928	1.37418	-9.49330	1.19517
1355.717	-9.46846	1.20702	-10.61025	1.37866
1359.720	-9.61940	1.00613	-9.06797	1.39136
1363.713	-9.07852	1.22232	-10.06294	0.81995
1367.714	-8.47328	1.00445	-10.00088	0.50540
1371.719	-8.93462	0.80160	-10.06568	1.43438
1375.716	-9.23418	1.12590	-9.79129	0.72728
1379.726	-9.28881	0.97785	-9.67647	0.95605
1383.718	-9.59752	0.73860	-10.22077	1.18479
1387.720	-8.45572	0.96260	-10.30682	1.73891
1391.721	-7.85261	0.85441	-9.75244	1.59264
1395.716	-8.83340	0.86651	-9.75333	0.99331
1399.719	-8.96535	1.07455	-10.08674	1.75357
1403.720	-9.21952	1.09132	-9.94828	2.44768
1407.715	-9.43230	1.02670	-9.91394	2.05701
1411.719	-9.01203	0.88571	-10.01698	2.35478
1415.719	-9.10519	1.06945	-9.66494	1.82119
1419.739	-9.05715	0.99176	-9.57003	0.92465
1423.719	-9.40149	1.09877	-10.16516	1.55275
1427.719	-9.37129	1.05372	-9.86996	2.68242
1431.715	-9.35061	1.07199	-10.35803	2.52638
1437.560	-9.26768	1.09066	-10.21966	2.65591
1440.310	-9.10589	1.10896	-9.79149	1.97137
1443.724	-9.15705	1.04139	-9.82038	2.30698
1447.718	-9.23077	0.95400	-9.45303	1.34153
1451.720	-12.13735	1.34902	-9.31170	1.48573
1455.715	-9.33055	0.98447	-9.44428	1.64438
1459.722	-9.15321	0.92701	-9.54459	1.20626
1463.724	-9.36810	0.96711	-9.31395	1.16964
1467.717	-9.18942	0.87723	-9.35972	1.32299
1471.720	-9.48077	0.90816	-10.40699	1.61069
1475.714	-4.62614	0.73810	-12.87803	1.04649
1479.715	-12.15799	4.47430	-14.72868	1.50052
1483.720	-16.16246	5.71658	-18.26800	3.33995
1487.713	-12.44626	4.09663	-12.67738	3.78061
1491.717	-12.14255	6.41285	-19.93753	-12.08160
1495.708	NaN	NaN	7.11657	11.89023
1499.719	NaN	NaN	-19.96580	-12.07950
1503.717	NaN	NaN	-19.97531	-12.07879
1507.718	NaN	NaN	-19.98015	-12.07843
1511.716	NaN	NaN	-19.98309	-12.07821
1515.875	NaN	NaN	-19.98509	-12.07807
1519.902	NaN	NaN	-19.98653	-12.07796
1524.083	NaN	NaN	-19.98763	-12.07788
1528.004	NaN	NaN	NaN	NaN
1531.902	NaN	NaN	NaN	NaN
1535.748	NaN	NaN	NaN	NaN
1539.734	NaN	NaN	NaN	NaN
1543.731	NaN	NaN	NaN	NaN
1547.716	NaN	NaN	NaN	NaN
1551.726	NaN	NaN	NaN	NaN
1555.895	NaN	NaN	NaN	NaN
1560.116	NaN	NaN	NaN	NaN
1564.390	NaN	NaN	NaN	NaN
1569.482	NaN	NaN	NaN	NaN
1573.799	NaN	NaN	NaN	NaN
1578.015	NaN	NaN	NaN	NaN
1581.765	NaN	NaN	NaN	NaN
1586.030	NaN	NaN	NaN	NaN
1590.049	NaN	NaN	NaN	NaN
1594.259	NaN	NaN	NaN	NaN
1598.478	NaN	NaN	NaN	NaN
1602.454	NaN	NaN	NaN	NaN
1604.752	-2.84316	13.18013	NaN	NaN
1607.716	-0.60816	-1.23914	-6.99702	6.37634
1611.716	-2.55886	5.51976	-6.73368	8.26269
1615.713	-0.52004	-0.32146	1.46978	0.92083
1619.708	-0.44113	-1.77234	-3.40094	-1.00355
1623.716	4.06325	3.17302	1.47087	-0.58474
1627.716	1.11807	-1.35623	-1.48406	0.40800
1631.717	3.34554	-2.91016	-6.03108	-0.62943
1635.714	3.28039	-1.17161	-3.59936	-1.22370
1639.710	2.37904	-0.89906	-6.03822	-1.43656
1643.715	-2.54868	2.39614	-4.31343	-1.31943
1647.709	-1.15431	2.76452	-2.24391	-0.27797
1651.712	-0.97901	-0.41792	-1.99429	-0.05858
1655.712	-1.92964	1.24836	-2.77745	0.63705
1659.712	-1.91826	0.32181	-1.73792	1.08826
1663.707	-1.08587	-0.49358	-5.16511	0.90200
1667.721	-1.70678	-0.28936	-1.13829	1.74824
1671.719	-1.07706	-0.49860	-1.81857	1.26482
1675.715	-1.99449	-0.89006	-1.55765	0.55627
1679.709	-0.85773	-0.78780	-1.97332	-0.23446
1683.715	-1.81151	-0.89621	-1.81592	0.06145
1687.711	-1.42947	-0.86263	-0.68191	1.15619
1691.713	-1.84954	-0.86761	-1.86325	0.41267
1695.710	-1.53505	-1.02900	-1.45658	0.62629
1699.714	-1.80779	-1.05440	-1.79185	1.16412
1703.713	-1.43838	-1.27038	-1.62693	1.18061
1707.714	-1.20477	-1.20879	-1.65399	0.80232
1711.723	-1.34738	-1.34618	-2.15284	1.75713
1715.716	-1.56838	-1.02990	-1.79386	0.25185
1719.710	-1.31099	-1.34233	-1.97240	-0.01279
1723.715	-1.96405	-1.13956	-1.98266	0.31308
1727.711	-1.30600	-1.21962	-2.00500	0.15260
1731.714	-1.71422	-1.01949	-1.97495	0.56707
1735.708	-0.73310	-1.08326	-2.09913	0.13772
1739.714	-1.47030	-0.91027	-2.25236	0.32373
1743.711	-1.13955	-0.50517	-2.01308	0.41278
1747.714	-1.22102	-0.49529	-2.30690	0.48773
1751.714	-1.57803	-0.44927	-2.29292	0.76897
1755.715	-1.56027	-0.19586	-2.25764	0.80007
1759.726	-1.95698	-0.56529	-1.82906	0.80718
1763.712	-1.47345	-0.53297	-2.14870	0.79431
1767.712	-1.92302	-0.18077	-2.26076	1.30173
1771.709	-1.60920	-0.47705	-2.31512	0.95250
1775.711	-1.48277	-0.55011	-2.09351	1.39894
1779.708	-2.49565	-0.15260	-1.60982	1.10507
1783.708	-0.37769	-0.90809	-1.88735	1.53100
1787.708	-2.10332	-0.94186	-2.34072	2.42548
1791.588	-1.61709	-0.63732	-2.12389	0.56672
1795.584	-1.66815	-0.39267	-0.63007	1.18616
1799.587	-3.13558	-0.85228	-0.57027	-0.12282
1803.582	-1.64861	-0.73589	-2.22983	0.31256
1807.585	-1.86300	0.06845	-1.79643	-0.42239
1811.583	-2.14047	-0.90869	-1.91898	-0.66498
1815.581	-1.59311	-0.78056	-1.85988	0.48722
1819.596	-2.12166	-0.89761	-1.81262	0.78963
1823.586	-1.69428	-0.92723	-2.61890	0.30517
1827.587	-1.63236	-3.04377	-1.99828	0.60446
1831.583	0.88359	-0.37818	-1.26941	0.64363
1835.583	-1.57019	-0.53861	-0.35417	0.23199
1839.586	3.66513	-0.42714	3.11534	0.74584
1843.587	6.39508	-0.11621	3.03192	2.30998
1847.589	3.76265	3.39505	5.51100	1.80718
1851.586	6.34201	-0.68420	9.52002	1.76913
1855.583	10.55155	-2.72795	10.28349	1.19631
1859.583	6.40347	-7.18090	12.60982	1.05715
1863.582	15.56883	-3.40265	12.58257	1.33446
1867.581	19.01067	-6.03086	15.51133	0.75111
1871.583	15.56072	-6.64192	12.53762	9.04270
1875.584	15.47289	-2.30964	11.71822	9.31581
1879.583	16.23654	-2.63584	12.52298	9.42739
1883.636	14.29273	-2.30552	10.53583	9.70554
1887.585	16.09148	-2.47905	12.43317	9.73920
1891.582	14.89944	-2.69616	10.09383	10.15843
1895.581	16.47057	-3.16569	13.08929	0.48362
1899.585	13.18602	-2.57753	12.34688	0.44450
1903.583	16.08972	-3.05978	13.64902	0.59895
1907.586	13.49826	-2.85018	12.18327	0.75915
1911.586	16.76271	-3.81822	13.71491	0.09149
1915.587	16.60666	-3.57991	12.40990	1.02308
1919.600	16.67289	-3.86094	12.10644	0.66273
1923.589	14.45965	-2.93552	11.81772	1.08212
1927.587	15.22303	-3.40337	11.80286	-1.34306
1931.581	15.22657	-2.47211	11.70042	1.16803
1935.585	15.15459	-2.87401	11.72586	0.46281
1939.579	19.16645	-5.66731	11.27032	0.91455
1943.581	15.22611	-3.04397	11.75405	0.73795
1947.590	15.11123	-2.64493	11.52059	0.28904
1951.588	18.60139	-3.84906	11.58058	0.40365
1955.581	15.52681	-3.52557	11.65213	0.44390
1959.586	17.68912	-4.42146	11.42763	0.77437
1963.600	15.40064	-2.86049	11.71458	0.32675
1967.590	15.43194	-3.22427	11.83362	0.50642
1971.583	15.43648	-3.75377	11.60296	0.61584
1975.580	15.47505	-2.88524	11.65482	0.55240
1979.585	15.71545	-3.03129	11.30677	0.62126
1983.581	15.53902	-2.75211	11.99296	0.62648
1987.578	15.48478	-2.91365	11.97543	0.71509
1991.585	15.56365	-3.32022	11.10151	0.85314
1995.583	16.06332	-3.52027	11.43302	0.92849
1999.583	15.32359	-2.31957	11.28032	0.97730
2003.578	15.08530	-2.71499	11.73157	1.04177
2007.593	15.64208	-3.65402	11.01816	1.13482
2011.588	15.05890	-1.94074	11.36859	1.26518
2015.581	15.74612	-2.68724	11.33614	1.30897
2019.594	15.14810	-2.35161	11.09934	1.40202
2023.587	18.11867	-3.89563	11.94178	1.43322
2027.577	17.24693	-4.29391	11.83564	1.50008
2031.584	15.53515	-2.86771	11.15126	1.53102
2035.581	15.17270	-2.80487	11.00042	1.66913
2039.583	15.62745	-2.87025	11.15448	1.81013
2043.579	15.36313	-2.42603	11.65008	1.77797
2047.582	18.65441	-7.01249	11.85782	1.90573
2051.587	15.84105	-4.60247	12.11187	1.82023
2055.583	15.27792	-2.89679	11.02545	1.90217
2059.577	16.09625	-2.78309	10.61003	1.89481
2063.583	15.58004	-2.53870	11.01603	1.92933
2067.580	15.51460	-2.76706	11.07291	1.83731
2071.587	15.73299	-2.73765	11.54389	1.73187
2075.584	17.92210	-3.26132	11.28617	1.25639
2079.579	18.57865	-4.98060	11.61294	1.20027
2083.583	16.52814	-4.27463	11.68236	1.26888
2087.576	17.48464	-3.63786	11.96515	0.65457
2091.617	15.81943	-2.33982	11.94966	0.73796
2095.589	18.18783	-4.59531	12.07490	0.61528
2099.580	18.09986	-4.62301	12.35318	0.52597
2103.578	15.76810	-2.45278	12.69618	0.50252
2107.582	18.88385	-4.81551	12.84661	0.35938
2111.580	16.30775	-2.74652	12.42423	0.36415
2115.582	12.09235	-3.56120	11.67884	0.62382
2119.581	12.96364	-1.57334	12.08988	1.08291
2123.580	17.26724	-2.12343	13.27931	1.32871
2127.582	17.54768	-1.97262	18.91011	1.98695
2131.581	19.83577	-3.61810	16.14787	1.44991
2135.606	22.22085	-4.50624	16.32860	1.11446
2139.587	21.89926	-4.80491	16.38840	1.20758
2143.578	21.46874	-4.42895	16.39399	1.19861
2147.584	21.80464	-4.36515	15.94438	0.83262
2151.579	21.09229	-4.48316	15.84227	0.87511
2155.582	20.33284	-4.53271	15.64809	1.01916
2159.576	20.36387	-4.56289	15.67798	1.12549
2163.583	19.83831	-4.31616	15.34494	1.59394
2167.579	19.48749	-4.22641	20.73459	1.17318
2171.581	20.26233	-4.50886	18.36076	0.88327
2175.606	20.64795	-4.55318	16.32954	0.51932
2179.580	21.24507	-4.47305	15.79636	0.23935
2183.576	20.63739	-4.31212	16.32885	0.18953
2187.579	20.65812	-4.43676	16.23496	0.62024
2191.579	21.42934	-4.42860	15.76037	0.43833
2195.574	20.72706	-4.23759	16.40582	0.45693
2199.590	20.57181	-3.96583	16.09563	0.27857
2203.584	20.71481	-3.79437	16.04297	0.11282
2207.575	20.58560	-3.37724	16.07858	0.23920
2211.580	20.33858	-3.16603	15.94919	0.27660
2215.584	20.94366	-3.74694	15.89907	0.38127
2219.576	20.21612	-3.36939	16.03288	0.49878
2223.579	19.74944	-3.35046	15.98571	0.55940
2227.576	19.69967	-3.11391	15.75168	0.67282
2231.580	19.22148	-2.88046	15.67975	0.85820
2235.574	20.62150	-3.42509	15.84991	0.66690
2239.580	20.34831	-3.15296	16.65344	0.66240
2243.577	19.83452	-3.03514	16.66599	0.55865
2247.578	20.01842	-2.66025	16.15303	0.51554
2251.577	20.33313	-3.02421	16.21794	0.09446
2255.583	21.99713	-4.14180	15.82304	0.02924
2259.580	20.62376	-3.75982	16.03621	0.14093
2263.579	20.98333	-4.02752	15.76996	0.62900
2267.578	20.32193	-3.93944	15.90428	0.89137
2271.574	20.22615	-3.44726	15.91170	0.91047
2275.581	19.89752	-4.06627	15.91344	0.66715
2279.580	18.49916	-2.72514	20.94907	-0.24453
2283.581	20.89947	-4.19492	20.93567	-0.05767
2287.573	20.93567	-4.26471	20.98411	-0.04680
2291.580	19.81389	-4.05334	18.13035	0.68219
2295.578	19.63189	-3.71345	17.71559	0.78419
2299.577	18.79760	-3.55831	NaN	NaN
2303.579	20.78662	-4.31743	23.20987	-0.63412
2307.577	19.86372	-3.97658	23.10885	-0.68645
2311.575	20.84634	-5.05642	23.27798	-0.74529
2315.593	19.91029	-4.39082	23.05754	-0.67633
2319.577	19.66460	-4.26691	22.69253	-0.20832
2323.581	19.34254	-4.00165	22.64849	-0.32060
2327.578	19.39968	-3.87243	21.74766	-0.11716
2331.575	19.42039	-3.78462	20.35723	-0.12538
2335.574	19.92659	-3.96399	20.34788	-0.05231
2339.580	20.34401	-3.89596	20.22407	-0.04878
2343.578	20.86788	-3.97602	NaN	NaN
2347.574	19.96803	-3.48882	16.35744	-0.01402
2351.572	19.96437	-4.09361	16.16461	0.78078
2355.574	19.15069	-2.68571	15.44271	1.87401
2359.577	16.04845	1.79243	13.03873	2.64785
2363.575	16.37915	0.65881	12.48551	3.91453
2367.573	13.88560	0.89335	12.14380	5.92595
2371.575	11.48580	3.88565	9.06001	6.09229
2375.578	11.01022	4.33566	9.11399	6.49992
2379.574	5.73119	4.63157	5.62149	7.02108
2383.580	5.21429	4.85567	6.93653	8.08993
2387.608	4.91708	7.38447	6.94357	8.30974
2391.577	8.57614	7.34026	7.12129	8.56618
2395.568	9.12989	4.53222	7.45726	8.18726
2399.578	8.55042	4.71986	7.34799	7.85329
2403.573	9.56892	5.16906	7.15286	8.47724
2407.577	8.27168	5.02184	7.21508	8.31790
2411.571	6.65076	5.31266	7.14844	8.34409
2415.577	6.08745	5.30891	7.22060	8.19943
2419.591	5.81496	6.13787	7.09209	8.30951
2423.585	5.26598	6.49265	6.98868	8.38394
2427.577	4.68824	8.10234	7.07999	8.24764
2431.569	4.36752	6.47140	6.99162	8.20145
2435.578	4.32725	4.40989	6.93812	8.06149
2439.572	4.10389	6.63518	9.21101	7.78800
2443.576	4.11671	6.38973	9.31868	7.87454
2447.570	4.45409	6.59287	9.03094	7.92190
2451.574	7.19520	4.64516	9.13003	7.92143
2455.577	4.42802	6.63004	9.12703	7.81672
2459.571	7.69137	5.61908	9.10981	7.78183
2463.581	7.83936	8.63765	9.08709	7.72253
2467.578	7.89751	5.61677	6.93090	7.65131
2471.576	7.92953	5.68112	6.87937	7.75028
2475.570	11.48211	6.87166	7.13615	7.70449
2479.572	8.16160	6.97806	7.13544	7.79611
2483.570	8.22963	5.44805	7.23948	7.85991
2487.577	8.18273	7.34494	7.03064	7.90239
2491.571	8.49149	5.39857	6.95670	8.13992
2495.576	8.57493	7.84534	6.99277	8.09768
2499.568	8.88823	7.03815	6.94166	8.41818
2503.577	8.27902	5.73342	7.02800	8.18922
2507.598	8.36360	7.71234	7.08761	8.20195
2511.570	4.84142	5.71746	6.91642	8.52327
2515.570	7.82713	5.39086	7.03162	8.27593
2519.589	8.54032	5.39350	6.89094	8.42168
2523.575	4.37285	5.15373	6.83071	8.42085
2527.581	7.47805	5.46430	6.94494	8.34463
2531.572	5.15433	4.66418	6.90258	8.44441
2535.571	4.95282	5.25935	7.02976	8.36709
2539.574	7.94343	5.16129	7.06000	8.31989
2543.572	8.04234	5.08223	7.05811	8.22914
2547.574	8.00455	5.23293	6.99673	8.32009
2551.578	8.08732	4.94534	7.01541	8.36194
2555.596	8.21983	4.90350	6.98306	8.39237
2559.580	8.24018	4.98199	7.04303	8.37866
2563.571	10.28702	7.03522	7.03098	8.41754
2567.572	8.24485	5.05756	7.09477	8.43036
2571.582	4.85199	7.03525	7.06249	8.58927
2575.573	4.23048	6.69192	7.01360	8.52715
2579.576	4.17156	5.20434	6.98467	8.49447
2583.571	6.83758	5.05880	7.02308	8.39586
2587.575	8.23493	5.25336	7.03506	8.25044
2591.582	5.74318	5.04958	7.09150	8.07156
2595.573	7.44303	4.92547	7.17380	8.10090
2599.574	8.45169	4.97575	7.09443	8.43474
2603.568	11.46971	4.88772	7.12183	8.40698
2607.601	12.50747	4.25329	7.05327	8.44689
2611.572	8.36907	5.03790	7.09680	8.59561
2615.570	7.80026	5.10486	7.07750	8.53253
2619.586	10.28758	5.88153	7.08018	8.44634
2623.573	7.04797	5.25904	7.06105	8.64390
2627.569	7.16530	5.23377	6.90997	8.58092
2631.576	3.70737	6.20928	6.96083	8.67606
2635.569	5.09985	5.73040	6.97235	8.51366
2639.574	6.55111	5.32601	6.92589	8.65495
2643.441	8.50476	6.72731	7.07476	8.48675
2647.448	9.52912	4.73788	7.63633	6.65063
2651.446	9.18714	3.38948	8.31834	6.56219
2655.448	4.56913	3.48784	8.35124	3.99733
2659.572	9.72002	0.84096	8.47262	3.33365
2663.446	10.58999	0.71061	8.43739	3.54897
2667.446	10.89614	0.72336	8.60907	1.90245
2671.439	11.21250	0.18140	8.64437	-0.01007
2675.445	11.32483	-5.63148	8.67524	0.24233
2679.450	11.06834	-1.29202	8.72071	2.65773
2683.446	14.87100	-3.61758	8.73380	2.69457
2687.437	10.88288	-1.18712	8.85291	2.88694
2691.448	13.87197	-4.34687	8.65545	3.72247
2695.459	11.19062	-1.26287	8.28583	3.76884
2699.445	11.03767	-1.24477	8.52052	3.68765
2703.452	13.75128	-2.23163	8.44803	3.54103
2707.444	11.54790	-0.79585	7.98462	3.08955
2711.444	11.44058	-1.19563	8.35534	2.87393
2715.443	12.17637	-1.20930	8.33467	2.60462
2719.456	11.36603	-1.24727	8.46590	2.45393
2723.449	11.92391	-0.84331	8.44934	2.35935
2727.446	10.77114	0.68937	8.45861	2.04098
2731.444	11.65420	-0.00565	8.58238	1.91790
2735.447	11.58065	2.07713	9.03159	2.08661
2739.438	11.22439	0.18958	9.56084	1.67285
2743.448	11.74922	-1.43017	9.40484	1.77301
2747.443	11.81282	-1.62254	9.24837	1.98947
2751.447	11.49552	-4.74462	9.06366	2.03614
2755.437	10.03833	-2.19671	9.13078	2.21853
2759.453	11.74087	-2.22736	9.38784	2.05712
2763.449	11.65054	-1.92972	9.07532	1.90620
2767.441	11.42003	-0.35123	9.02343	2.15080
2771.441	11.39613	0.04587	9.04188	2.16733
2775.446	11.29560	-2.15636	8.93532	2.28196
2779.445	11.60944	-2.15344	8.49544	2.16384
2783.441	11.89464	-2.25112	8.60354	2.19387
2787.448	4.44943	-2.26735	8.64330	2.26002
2791.443	11.61859	-2.24636	8.49309	2.32657
2795.445	11.76894	-0.27333	8.51695	2.33023
2799.444	11.26966	-1.94371	8.49534	2.31139
2803.450	11.25242	0.02549	8.40419	2.28394
2807.438	11.39883	-2.05582	8.42675	2.37406
2811.447	12.05098	-2.13378	8.42556	2.31537
2815.441	11.62713	-1.59510	8.38826	2.33675
2819.441	12.63163	-2.59457	8.38172	2.29322
2823.449	11.57489	-1.90165	8.42872	2.26210
2827.443	6.56973	-1.35039	8.46087	2.28434
2831.437	11.70349	-2.10613	8.44363	2.22385
2835.445	11.22535	-1.09620	8.39720	2.17208
2839.442	11.67682	-1.56242	8.32609	2.10173
2843.449	12.03353	-3.05255	8.37589	2.03029
2847.445	9.56506	-4.31157	8.37944	2.03766
2851.445	10.54138	-1.62551	8.33856	2.03240
2855.445	11.62213	-1.04982	8.46092	1.93877
2859.439	11.65268	-1.33068	9.33620	1.02559
2863.867	15.01536	-1.71767	8.74971	0.17975
2867.459	15.48010	-2.72790	9.10410	1.14765
2871.444	15.15499	-1.84179	9.12788	2.29380
2875.440	11.29097	-2.45428	9.28954	2.10947
2879.445	11.57734	-2.74381	9.19532	1.92710
2883.440	18.53326	-6.96469	8.68941	2.18143
2887.442	11.36856	-4.39261	8.54180	2.65212
2891.450	11.82433	-6.83918	8.49908	2.42256
2895.440	9.22961	-3.39748	8.42054	2.12896
2899.444	9.05410	-3.03687	9.21957	2.36609
2903.438	16.38047	-2.63179	9.22397	1.59155
2907.444	11.13102	-3.80385	9.17362	1.00085
2911.440	10.79047	-4.31475	9.28086	0.64061
2915.439	12.76362	-5.40595	9.11341	0.75452
2919.456	16.70292	-3.00185	8.27518	1.03932
2923.443	16.82377	-2.95357	8.24565	1.87911
2927.447	14.55300	-2.55459	9.19928	0.77759
2931.443	13.16127	-2.54326	9.25693	0.83342
2935.442	12.06890	-0.04814	8.91827	0.56411
2939.438	16.73322	-2.26232	8.90836	0.88494
2943.443	13.18863	-2.24263	8.20598	0.99727
2947.452	12.43696	-2.33175	9.34635	0.99467
2951.454	11.55969	0.42645	9.15867	1.01212
2955.443	8.82150	0.61788	6.49960	1.54272
2959.444	8.61887	0.26630	3.03823	2.46746
2963.436	7.21515	3.62380	0.55225	3.35883
2967.449	1.06957	0.16492	0.41231	2.51968
2971.444	-1.06304	0.53395	-0.33779	3.29780
2975.443	-2.44816	0.31944	-5.03565	3.29735
2979.442	-4.47740	0.69285	-5.63343	2.71192
2983.445	-6.60042	0.77371	-5.24629	2.97174
2987.439	-6.78314	2.15789	-5.62043	3.44211
2991.443	-6.93071	2.88470	-8.34390	3.48165
2995.437	-7.68291	2.04352	-9.91194	3.00674
2999.438	-9.66390	2.69706	-8.60963	3.20773
3003.439	-10.08414	1.96809	-10.32390	3.38047
3007.445	-10.04774	1.49432	-6.66834	3.75345
3011.449	-10.34648	2.60991	-8.43652	4.08181
3015.438	-10.06003	2.30837	-8.61130	3.15430
3019.451	-10.40857	1.95639	-8.76038	3.92532
3023.470	-9.92500	2.28606	-8.38357	3.72638
3027.438	-10.05214	2.40894	-9.82344	3.62579
3031.442	-9.69385	2.49709	-9.15234	3.40321
3035.438	-9.89036	2.72610	-9.04132	3.68021
3039.440	-9.92984	2.86000	-9.69499	3.19856
3043.435	-9.84722	3.40930	-8.81697	2.86733
3047.442	-10.14105	3.00523	-9.35754	3.20656
3051.444	-9.62360	3.82819	-9.10141	3.01530
3055.440	-9.95288	2.22431	-9.31914	2.99547
3059.436	-9.11965	2.76771	-9.34360	2.73618
3063.441	-9.86083	2.76826	-9.13770	2.80041
3067.436	-8.64376	3.64148	-9.20148	3.04266
3071.438	-9.76666	3.49072	-9.06095	3.01926
3075.435	-9.04144	2.70014	-9.28855	2.30393
3079.442	-9.48630	2.96049	-8.89751	2.60614
3083.439	-9.11965	2.99516	-9.25458	2.65754
3087.437	-9.41025	3.07507	-8.32356	2.84778
3091.436	-8.94167	3.65507	-9.40472	2.80183
3095.445	-9.24278	4.05117	-8.82671	2.33868
3099.453	-9.11213	3.18734	-9.00130	3.16870
3103.444	-9.25088	2.91771	-10.15648	0.63698
3107.434	-9.24344	2.85558	-8.59053	2.55426
3111.440	-8.96700	3.29471	-8.76360	2.39601
3115.437	-9.09962	3.08661	-6.62099	2.92358
3119.436	-8.68688	2.94311	-9.75382	2.71779
3123.442	-9.18983	2.97414	-8.93556	3.29514
3127.436	-9.04352	2.95793	-8.56255	2.98554
3131.440	-8.93743	3.82750	-9.31960	0.91988
3135.441	-9.24450	3.20461	-6.15610	4.28543
3139.443	-8.95208	3.19095	-8.24835	4.82485
3143.437	-8.89346	3.38480	-8.82211	2.52222
3147.440	-9.47203	3.36803	-8.52736	3.77181
3151.434	-8.45104	2.47328	-9.46713	4.69761
3155.440	-8.82831	2.85431	-9.36810	4.90691
3159.437	-9.80166	2.70763	-8.91078	4.78201
3163.441	-8.00177	2.71325	-9.27868	5.04914
3167.433	-8.76653	2.79266	-9.36950	4.98413
3171.440	-9.81667	2.63035	-9.41921	4.82868
3175.436	-9.01738	2.66819	-8.38629	4.87263
3179.445	-8.20627	2.45259	-8.91965	4.70356
3183.434	-9.53735	2.59727	-9.45701	4.65309
3187.440	-9.71001	2.81406	-9.14738	4.37603
3191.435	-8.48255	2.57012	-8.68720	4.04509
3195.456	-8.96644	3.21774	-9.11196	4.18669
3199.443	-9.10400	3.52047	-9.19474	3.30687
3203.440	-9.13952	3.01770	-9.13400	2.66287
3207.435	-9.31820	2.80422	-8.63622	3.65868
3211.439	-9.49084	2.64390	-8.58439	3.17243
3215.437	-8.70206	2.73033	-9.85438	5.92733
3219.438	-7.59615	5.42374	-10.13431	11.44815
3223.445	-13.18866	8.68086	-9.85079	13.24342
3227.435	-10.77069	11.17865	NaN	NaN
3231.439	NaN	NaN	NaN	NaN
3235.433	NaN	NaN	NaN	NaN
3239.438	NaN	NaN	NaN	NaN
3243.438	NaN	NaN	NaN	NaN
3247.435	NaN	NaN	NaN	NaN
3252.816	NaN	NaN	NaN	NaN
3263.448	3.00324	14.11244	NaN	NaN
3267.443	3.00240	14.11133	NaN	NaN
3271.435	3.00556	14.10926	NaN	NaN
3275.438	3.00970	14.10699	NaN	NaN
3279.436	NaN	NaN	NaN	NaN
3283.437	NaN	NaN	NaN	NaN
3287.432	NaN	NaN	NaN	NaN
3291.434	NaN	NaN	NaN	NaN
3295.435	NaN	NaN	NaN	NaN
3299.436	NaN	NaN	NaN	NaN
3303.451	NaN	NaN	NaN	NaN
3307.740	NaN	NaN	NaN	NaN
3311.939	NaN	NaN	NaN	NaN
3316.163	NaN	NaN	NaN	NaN
3320.374	NaN	NaN	NaN	NaN
3324.581	NaN	NaN	NaN	NaN
3328.075	NaN	NaN	NaN	NaN
3332.236	NaN	NaN	NaN	NaN
3337.222	NaN	NaN	NaN	NaN
3341.405	NaN	NaN	NaN	NaN
3345.574	NaN	NaN	NaN	NaN
3349.550	NaN	NaN	NaN	NaN
3353.698	NaN	NaN	NaN	NaN
3357.872	NaN	NaN	NaN	NaN
3362.096	NaN	NaN	NaN	NaN
3367.423	NaN	NaN	NaN	NaN
3375.442	-11.71451	5.84942	-2.71478	-0.57328
3379.436	-6.08171	2.14495	-6.75757	0.04708
3383.482	-3.11277	0.79246	-6.40160	0.74162
3387.449	-4.11115	1.68191	-9.64275	0.98284
3391.439	-2.58618	0.06012	-7.31413	1.54738
3395.435	0.11937	-0.93782	-5.77747	2.08505
3399.447	8.61644	-4.39290	-5.34380	1.68849
3404.350	5.78634	-3.82317	-4.99305	0.52340
3408.415	5.38489	-2.81591	-0.21735	1.10505
3412.342	0.39529	-1.10766	-1.48163	1.95521
3416.409	3.77792	-2.76140	-4.39528	0.07401
3420.428	-0.62305	-0.57071	-3.85209	-0.03813
3424.514	-0.22984	-0.56788	-3.28412	0.23662
3428.507	-2.19056	-0.09756	-3.41896	0.94989
3432.498	-2.05167	-0.08990	-3.55103	0.90203
3436.541	-2.00096	-0.05364	-3.62227	1.18272
3440.622	-2.32407	1.05969	-3.72267	1.26294
3444.630	-2.40248	1.12302	-3.68095	1.30191
3448.701	-2.69329	0.34819	-3.72249	1.41015
3452.927	-2.99477	0.80793	-3.59807	1.45789
3457.075	-3.27274	0.87496	-3.59869	1.37315
3461.103	-1.24017	-6.70416	-3.68957	1.58040
3463.851	-1.18428	-6.59067	-3.64471	1.57431
3467.441	-1.51018	-6.64607	-3.53397	1.60739
3471.436	-2.76195	0.51282	-3.51958	1.66106
3475.430	-3.10856	0.40640	-3.62496	1.66328
3479.437	-3.16738	0.44285	-3.63216	1.70848
3483.433	-0.95643	-0.38336	-3.50660	3.73548
3487.428	1.74196	-2.65221	-3.73070	1.65022
3491.434	0.74556	-1.66734	-4.03796	1.92378
3495.432	-0.43961	-1.08070	-4.19013	1.75239
3499.308	-0.62789	-1.32121	-4.25201	1.78866
3503.303	0.01474	-1.33570	-4.05051	3.28786
3507.308	-3.20780	-6.13411	-3.77241	2.94893
3511.308	-3.22233	-5.96939	-3.66975	3.21150
3515.308	-3.08211	-0.76959	-3.93729	2.57534
3519.304	-2.88584	-0.66347	-3.54376	1.49408
3523.306	-2.87069	-0.63390	-1.44460	-0.09417
3527.307	-3.08835	0.37259	-3.55152	-0.78985
3531.303	-2.87492	0.09423	-3.49441	-0.55797
3535.318	-3.04623	-0.07598	-3.44476	0.32848
3539.304	-3.16649	-0.36065	-2.48287	1.68821
3543.306	-3.09248	-0.51024	-3.51807	0.88810
3547.309	-3.09119	-0.40611	-3.56022	1.25727
3551.309	-2.79119	-1.08489	-3.52514	1.31508
3555.310	-3.44169	-0.37072	-3.41921	1.82287
3559.313	-2.94040	-0.67297	-3.58025	2.40091
3563.303	-3.39134	-0.37064	-3.28056	2.60035
3567.308	-0.82109	-0.38124	-2.78401	1.24425
3571.305	-0.34350	-0.23385	-3.47950	1.37912
3575.303	4.29774	-1.55241	-11.32015	0.78519
3579.304	-2.87225	-0.03733	-5.70382	2.58857
3583.306	-4.56521	6.60844	-4.31203	0.80221
3587.307	NaN	NaN	NaN	NaN
3591.299	NaN	NaN	NaN	NaN
3595.309	NaN	NaN	NaN	NaN
3599.321	NaN	NaN	NaN	NaN
3603.565	NaN	NaN	NaN	NaN
3608.148	NaN	NaN	NaN	NaN
3612.435	NaN	NaN	NaN	NaN
3615.787	NaN	NaN	NaN	NaN
3623.314	NaN	NaN	NaN	NaN
3627.312	NaN	NaN	NaN	NaN
3631.305	NaN	NaN	NaN	NaN
3635.303	NaN	NaN	NaN	NaN
3639.311	NaN	NaN	NaN	NaN
3643.305	NaN	NaN	NaN	NaN
3647.301	NaN	NaN	NaN	NaN
3651.300	NaN	NaN	NaN	NaN
3655.302	NaN	NaN	NaN	NaN
3659.303	NaN	NaN	NaN	NaN
3663.303	NaN	NaN	NaN	NaN
3667.299	NaN	NaN	NaN	NaN
3672.791	NaN	NaN	NaN	NaN
3683.310	NaN	NaN	NaN	NaN
3687.317	NaN	NaN	NaN	NaN
3691.568	NaN	NaN	NaN	NaN
3697.309	NaN	NaN	NaN	NaN
3701.549	NaN	NaN	NaN	NaN
3707.309	-2.85207	5.03833	-0.43353	0.56327
3711.306	-5.34747	-0.82033	-7.48307	-3.55945
3715.301	-3.42309	-1.68587	-3.10822	-0.79442
3719.305	-7.04782	0.00501	-12.96206	0.25875
3723.311	-2.89829	-2.48457	-11.53036	-0.31301
3727.305	-0.16486	-3.57345	-12.58349	-1.50645
3731.299	-5.39374	-0.76556	-12.88553	-1.36209
3735.307	-2.98336	-1.28942	-6.84864	0.82231
3739.301	-0.48341	-1.93616	-6.49930	0.66143
3743.304	-0.45448	-2.20172	-5.97099	1.32230
3747.305	-1.58356	-2.39985	-7.27272	1.73640
3751.306	-3.03544	-2.20104	-7.14323	1.46360
3755.303	-6.79677	-2.16093	-5.86013	1.20128
3759.303	-6.89316	-2.38092	-5.92066	1.00141
3763.317	-4.48374	-0.44945	-5.48730	0.34389
3767.308	-4.37379	-0.60892	-5.47958	-0.46556
3771.304	-4.10769	-0.33874	-5.52468	-0.96969
3775.300	-4.12777	-1.57210	-2.23947	1.20471
3779.305	-4.15411	-1.99890	-2.21948	0.69919
3783.302	-4.13962	-0.33917	-2.11767	0.59612
3787.303	-4.22148	-0.44113	-5.40693	1.65663
3791.298	-4.37115	-0.28553	-5.33938	1.24006
3795.304	-4.27866	-0.30236	-5.31371	1.22820
3799.303	-4.27545	-0.75176	-5.28606	0.29274
3803.298	-4.07177	-1.56490	-5.24341	0.26235
3807.309	-4.25961	-0.53262	-5.25663	-0.05142
3811.302	-4.35454	-0.62434	-5.12989	0.51599
3815.304	-4.45061	-0.48638	-4.61063	0.73054
3819.299	-4.48241	-0.41975	-5.12454	1.19549
3823.318	-4.50138	-1.18037	-5.09862	1.49877
3827.303	-4.48574	-0.93678	-5.09574	0.71071
3831.310	-4.54474	-0.72937	-4.70360	1.01446
3835.300	-4.78245	-0.91854	-5.09793	0.67297
3839.304	-4.68476	-1.06455	-5.25195	0.26061
3843.298	-5.06740	-0.87393	-5.71446	0.79997
3847.308	-1.30739	-0.35862	-6.14136	0.60966
3851.325	-1.86868	-0.71633	-5.42636	1.46102
3855.311	-1.78431	-1.24161	-5.57702	1.47837
3859.300	-2.42884	-1.61429	-5.41143	1.25416
3863.302	-1.50445	-7.50240	-5.34489	1.00196
3867.298	-2.17874	-7.92074	-4.97556	0.52891
3871.304	-5.03610	-0.70494	-5.61089	0.12410
3875.300	-5.30380	-0.87531	-5.70549	0.23457
3879.303	-5.27643	-1.07645	-4.39535	1.19032
3883.303	-5.29651	-1.13219	-5.48241	2.85441
3887.331	-2.21231	-0.34899	-4.67744	2.28361
3891.313	-4.26975	-0.53925	-4.60456	0.67854
3895.300	-2.07341	-3.07615	-5.31851	2.67661
3899.301	-5.94374	-0.41818	-7.05975	2.22486
3903.299	-7.98537	0.25706	-7.17426	1.17943
3907.302	-10.77787	0.33318	-10.84034	1.77105
3911.295	-10.70232	0.28028	-13.26688	0.58049
3915.302	-9.22787	0.64519	-15.40643	0.66052
3919.297	-12.90911	0.54561	-14.29639	0.63515
3923.301	-14.62740	-0.88097	-14.83794	0.19031
3927.294	-14.17490	0.60251	-15.19752	-0.00611
3931.307	-10.93605	0.91979	-13.84970	1.25839
3935.299	-13.47284	1.15140	-13.47547	1.51743
3939.297	-14.26096	1.09089	-13.73732	1.42399
3943.296	-13.94364	0.79053	-14.37715	1.38434
3947.309	-15.45652	-1.02004	-15.67975	1.48528
3951.306	-14.57578	-1.38709	-14.38099	1.48771
3955.297	-11.99918	0.95566	-13.95507	1.63403
3959.304	-12.91182	1.09121	-13.98489	1.96559
3963.299	-13.88764	1.11062	-14.97069	1.56970
3967.301	-13.91823	0.99085	-12.93127	1.87596
3971.296	-14.03729	0.64971	-15.09236	2.44987
3975.306	-14.00921	0.20192	-15.41965	2.21490
3979.297	-11.80331	1.02509	-13.89858	1.92869
3983.300	-11.82119	-0.47580	-14.41056	1.90043
3987.291	-13.25865	0.48564	-14.52391	2.24535
3991.303	-13.58390	0.53229	-14.49697	2.27832
3995.298	-13.29072	0.84627	-15.14578	2.08984
3999.298	-13.49570	0.62512	-14.98912	2.24634
4003.295	-13.45306	0.63410	-14.54795	2.26146
4007.300	-13.36497	0.84579	-14.46412	2.32639
4011.296	-13.48448	0.98020	-14.39797	2.25530
4015.300	-13.01185	0.52232	-14.61234	2.22052
4019.297	-13.23433	0.73993	-14.60332	2.11678
4023.299	-13.50849	0.31473	-14.83828	2.25184
4027.299	-13.70409	0.32531	-14.87334	2.34207
4031.294	-14.11759	-0.02844	-14.15752	2.38000
4035.296	-12.77282	0.53997	-13.98730	2.25703
4039.299	-12.51648	0.07050	-14.08631	2.35717
4043.300	-12.44101	1.25984	-14.35701	2.29520
4047.295	-12.68649	1.26421	-14.53481	2.07975
4051.312	-12.50922	0.51101	-14.57620	1.79633
4055.301	-13.04629	0.68945	-14.65936	1.20914
4059.303	-12.84895	1.34440	-14.93689	1.71144
4063.298	-13.04257	1.62011	-13.83161	0.90733
4067.300	-13.12837	1.03409	-14.40630	1.09981
4071.295	-12.89518	1.06613	-14.47427	1.08666
4075.323	-13.64152	0.96405	-14.56478	0.96542
4079.298	-13.54373	0.73642	-14.43864	0.93200
4083.295	-12.27777	0.51875	-14.56253	1.07314
4087.294	-12.46173	0.26515	-14.72566	0.96983
4091.294	-13.22119	0.32296	-14.69587	0.85632
4095.296	-11.81591	1.45632	-14.77746	0.90097
4099.298	-11.65768	0.34528	-14.81247	0.96044
4103.296	-11.18508	0.38586	-14.79554	0.93834
4107.296	-11.08509	0.32659	-14.93990	0.90934
4111.300	-11.31164	0.14291	-14.80340	1.03099
4115.294	-11.45360	0.00477	-14.80187	0.99860
4119.297	-11.57924	-0.07162	-14.76261	1.04963
4123.290	-11.40093	-0.08560	-14.77150	1.08696
4127.300	-13.00992	0.05404	-14.73411	1.09078
4131.295	-13.38712	-0.13489	-14.82676	1.10460
4135.297	-13.08823	-0.12380	-14.69710	1.15050
4139.304	-13.33565	0.41321	-14.73128	1.05156
4143.296	-12.13500	0.39360	-14.58085	1.01485
4147.294	-12.96548	0.32705	-14.34145	0.84460
4151.313	-12.66455	-0.08372	-14.35458	0.99362
4155.292	-12.14252	-0.25275	-14.34140	1.26692
4159.299	-13.29497	-0.06196	-14.31526	1.17533
4163.297	-12.30265	-0.10879	-13.87487	1.28273
4167.293	-13.38656	-0.57684	-14.26606	1.62920
4171.293	-13.55667	-0.78275	-14.41522	1.56999
4175.296	-13.53162	-0.83909	-14.17495	2.10145
4179.303	-13.62453	-1.00289	-14.10819	2.05826
4183.304	-13.88649	-0.61774	-14.39334	1.72134
4187.298	-13.98608	0.35780	-14.23578	1.71194
4191.293	-14.09614	0.84036	-14.28730	1.82669
4195.296	-14.04979	0.21722	-14.49388	1.67199
4199.299	-14.11937	0.10933	-14.42798	1.49995
4203.294	-14.20924	0.05439	-14.38945	1.53191
4207.292	-14.29713	-0.03634	-14.38216	1.27793
4211.292	-14.28918	0.37430	-14.47261	1.25911
4215.296	-14.30356	0.14943	-14.31286	1.25712
4219.295	-14.16723	0.71766	-14.04430	1.03945
4223.300	-12.79081	0.64502	-12.14404	1.57103
4227.292	-11.75914	0.68866	-11.43383	3.44031
4231.297	-11.34869	0.51008	-5.70630	2.23610
4235.294	-8.95627	0.53249	-7.35026	3.29440
4239.296	-7.56815	0.27736	-3.98832	0.91184
4243.291	-4.00055	0.34728	-4.28567	1.30546
4247.297	-3.78168	-2.48264	-3.91852	1.16643
4251.312	-0.56188	0.17361	-2.17859	2.03577
4255.294	-3.39606	-0.15809	-1.15937	2.30074
4259.298	-1.32148	-0.20512	-1.66125	2.19799
4263.300	-0.31503	-1.31203	-1.47062	1.70128
4267.298	-0.57233	-1.72596	-1.79014	1.39512
4271.296	-0.61518	-0.25337	-1.74119	1.46900
4275.294	-0.73444	-0.49328	-1.74248	1.48464
4279.296	0.86458	-0.55684	-1.91990	1.33932
4283.291	-0.68891	-0.90519	-1.75190	0.57144
4287.292	-0.52041	-0.94360	-1.71184	0.32207
4291.293	-0.41011	-1.67712	-1.70321	0.97024
4295.298	-0.70672	-1.05127	-1.70544	1.22575
4299.329	0.25428	-2.33247	-1.77035	1.53001
4303.294	0.15603	-2.27448	-1.78260	2.07734
4307.294	0.27798	-0.94405	-1.69961	1.70305
4311.300	-0.36541	-1.20744	-1.61709	1.91683
4315.292	0.49900	-1.45914	-1.64350	1.83713
4319.290	0.06224	-1.53136	-1.69143	1.89162
4323.309	-1.56481	-2.28592	-1.76470	1.26312
4327.294	-2.04733	-1.10393	-1.89114	0.28829
4331.291	-1.02444	-0.78630	-1.65793	1.04947
4335.288	-0.55610	-0.98291	-1.50725	1.38983
4339.295	0.28615	-1.97721	-1.79462	1.05108
4343.292	-0.35325	-1.24301	-1.61773	0.00283
4347.299	-1.10413	-0.82575	-1.77472	0.88632
4351.194	2.56290	-0.93646	-1.36583	0.82155
4355.177	0.24624	-0.98419	-1.64184	0.48328
4359.167	-1.18582	-1.11006	-1.77789	0.20431
4363.165	0.03452	-0.99831	-1.44398	0.62111
4367.170	-0.58208	-0.78323	-1.74263	0.53404
4371.167	-1.34852	-1.22960	-1.60950	0.67043
4375.169	-0.87818	-1.41848	-1.56513	0.64785
4379.163	-1.72944	-3.33639	-1.62743	0.59959
4383.166	-0.69925	-1.42793	-1.64709	1.53579
4387.174	-0.12354	-1.29367	-1.47655	1.67358
4391.165	-1.34333	-1.68626	-1.52094	2.70695
4395.178	0.16645	-1.63820	-1.61337	2.82710
4399.165	-1.19296	-1.74270	-1.53245	2.81056
4403.169	-0.10101	-1.35507	-1.45443	1.10798
4407.163	4.08950	-1.91410	-1.51692	0.65310
4411.170	-1.60952	-1.34150	-1.31776	1.54498
4415.165	-0.36169	-1.57670	-1.51432	0.63197
4419.167	-0.94214	-1.43241	-1.76160	0.92102
4423.162	-1.86037	-1.61419	-2.06503	2.49575
4427.163	-1.69066	-1.31297	-1.28690	2.39540
4431.167	0.22336	-1.67837	-1.29777	2.64586
4435.170	5.13806	-1.66551	2.06186	3.25813
4439.170	5.29843	0.65707	6.22623	1.92346
4443.164	5.49234	-1.97110	7.14172	0.48666
4447.165	6.64697	-1.59921	9.23268	0.30612
4451.176	10.80687	-2.45640	10.52773	0.35058
4455.172	13.48920	-1.95447	9.55587	0.60293
4459.160	13.32797	-6.45248	11.26892	0.78786
4463.169	15.13885	-3.49435	12.39627	1.22978
4467.163	17.88862	-6.43820	14.36637	0.52601
4471.167	17.94021	-3.61081	14.87165	-0.28198
4475.164	20.28296	-6.89997	15.02756	-1.12161
4479.171	20.77734	-6.33209	14.96233	-0.08357
4483.161	20.39688	-7.67679	13.86888	0.26173
4487.169	18.04404	-3.85253	13.68005	0.34123
4491.165	19.60560	-4.02790	13.63707	0.68603
4495.167	18.86897	-3.06304	14.02286	0.66515
4499.167	22.97383	-7.63722	14.24541	0.86683
4503.162	20.39871	-5.68921	14.23093	0.81458
4507.163	20.23642	-5.83487	13.73008	0.45943
4511.166	20.19258	-4.34160	13.80498	-0.38820
4515.163	19.76764	-3.82628	14.14397	0.04400
4519.193	18.54633	-3.26196	14.84552	0.17472
4523.163	18.88448	-3.95277	14.10018	0.42737
4527.166	18.79889	-3.71106	14.23139	1.16286
4531.164	20.02473	-4.49895	13.37676	1.21923
4535.166	19.88523	-4.26412	13.40438	1.24173
4539.164	19.51726	-4.03250	15.33410	0.04366
4543.163	19.00727	-4.11952	13.77642	0.56489
4547.164	18.80608	-4.41873	15.98294	-2.07324
4551.180	19.14360	-4.39940	13.93550	0.40901
4555.164	19.40832	-4.58547	14.31211	0.55216
4559.169	19.18036	-4.41879	13.71301	1.00165
4563.172	18.71538	-4.55441	14.13526	1.20158
4567.161	19.27207	-4.42480	13.72090	0.77774
4571.175	19.28056	-4.65707	13.95820	2.08374
4575.169	18.64991	-4.58405	14.19072	0.87819
4579.161	19.26071	-4.67320	13.73812	1.16087
4583.164	19.36768	-4.74127	14.09932	-0.00713
4587.164	18.18597	-4.64814	14.05058	0.65738
4591.165	18.78733	-4.69180	13.80357	0.58604
4595.160	19.13288	-4.69717	13.87882	0.58722
4599.165	18.84870	-4.49396	13.67443	0.55481
4603.167	18.68350	-4.61147	13.38005	0.75522
4607.166	18.90925	-4.56771	13.70188	0.49881
4611.160	19.17071	-4.27849	12.89091	0.87770
4615.161	18.87086	-3.82389	13.68698	0.74377
4619.163	18.73266	-3.27040	13.09021	0.74816
4623.164	18.10780	-2.49777	12.87869	0.74754
4627.159	17.91006	-2.48797	13.73842	0.56366
4631.161	19.46967	-3.66346	12.87320	0.89372
4635.163	19.20909	-3.59874	12.68064	0.97128
4639.161	18.72885	-3.14203	13.37399	0.96588
4643.170	19.07520	-3.50234	13.32768	1.02681
4647.162	19.40392	-3.78350	12.82427	1.16493
4651.160	18.94358	-3.34581	12.69264	1.23077
4655.166	18.63248	-3.45830	13.09548	1.25196
4659.161	19.54272	-3.89280	13.47026	1.11740
4663.163	19.67010	-3.85780	13.33473	1.08281
4667.159	19.10352	-3.84814	13.29882	1.20998
4671.164	18.44004	-3.68359	12.52360	1.34379
4675.162	18.50575	-3.95207	12.34806	1.35746
4679.164	18.82344	-3.87978	13.48101	1.39049
4683.158	19.39668	-4.13661	13.30054	1.37817
4687.170	19.15168	-4.16837	13.57185	1.36756
4691.162	18.42121	-3.83428	13.53087	1.36166
4695.191	19.84905	-4.24624	14.23538	1.32633
4699.163	20.56324	-4.34477	15.11988	1.18505
4703.164	21.63039	-4.61152	15.16749	1.29144
4707.172	21.72053	-4.82592	15.32802	1.35299
4711.157	21.47266	-4.68963	15.23452	1.32860
4715.164	21.52632	-4.78284	15.42219	1.23198
4719.162	21.49447	-4.63631	15.44220	0.79236
4723.163	21.70211	-4.85083	15.55586	0.95484
4727.162	22.79157	-5.14022	15.52306	0.59230
4731.163	21.99293	-4.58713	15.65520	0.28411
4735.161	22.12043	-4.89109	15.65934	0.36234
4739.196	22.16087	-4.98148	15.70508	0.64714
4743.157	22.18730	-5.07001	15.64077	0.62414
4747.163	22.63116	-5.14432	15.62188	0.13521
4751.170	22.29639	-4.35040	15.60885	0.29325
4755.161	21.77637	-3.94722	15.46477	0.27570
4759.158	21.46528	-3.82928	15.49285	0.27955
4763.159	22.29250	-4.99661	15.30732	0.56727
4767.172	21.08041	-4.57488	15.35711	0.71645
4771.167	21.97086	-4.21379	15.30166	0.71196
4775.170	22.17721	-4.76710	15.14627	0.60737
4779.160	21.96220	-4.79874	15.14213	0.69814
4783.163	22.22478	-4.93041	15.17783	0.41139
4787.161	22.00722	-4.77248	15.37349	0.24705
4791.161	21.99037	-4.94589	15.61792	0.18396
4795.157	21.40834	-4.91260	16.07249	0.16824
4799.160	21.75520	-5.43065	15.96624	0.20498
4803.160	21.22051	-5.27855	15.50391	0.07471
4807.164	21.94563	-5.40342	15.11623	0.41074
4811.166	21.46980	-5.79301	14.90477	0.70780
4815.157	22.00867	-5.94502	15.04119	0.90627
4819.162	21.23517	-5.78029	15.02374	0.79996
4823.156	21.54129	-5.84539	15.30284	1.47319
4827.166	21.66600	-6.01169	16.09900	0.95678
4831.159	21.22219	-5.70909	15.82662	1.17325
4835.161	21.09290	-5.82563	15.90947	1.01718
4839.156	21.62524	-5.79728	15.67513	1.09855
4843.157	21.50242	-5.40339	14.94213	1.10103
4847.160	21.05324	-4.31039	15.19611	1.03025
4851.169	19.51812	-2.86217	12.26334	1.25201
4855.160	16.37965	-1.95065	9.06630	2.22440
4859.161	12.48847	-0.86565	7.81887	2.50482
4863.158	11.02624	-0.34773	6.96475	2.10221
4867.160	8.53190	1.35570	6.22373	1.56519
4871.154	4.68858	-0.27436	2.39844	1.67832
4875.161	5.33561	0.26832	2.21254	1.19741
4879.157	1.89181	0.17410	2.18111	1.66984
4883.160	2.48646	2.54867	0.93592	0.27030
4887.174	1.67214	0.32133	-2.01841	1.23655
4891.161	0.08383	0.03300	0.12965	0.34137
4895.166	-0.05954	-1.88472	0.54823	1.36042
4899.154	0.79081	-0.67637	0.55659	0.76284
4903.157	1.25823	-0.79838	0.74481	1.16474
4907.156	4.36693	-0.94355	0.72766	1.39544
4911.162	1.66061	-0.56129	0.24619	1.46485
4915.157	0.23520	-0.25241	0.28994	1.75405
4919.161	1.45319	-0.01294	1.02878	2.12284
4923.159	5.68787	0.49287	0.19482	1.94071
4927.158	2.70290	-0.41930	-0.08733	1.48555
4931.159	0.58754	-0.22579	0.02278	1.55525
4935.160	2.96819	1.08224	0.31332	1.71634
4939.157	1.06523	0.21811	0.39055	1.83993
4943.159	1.32240	-0.38756	0.09935	1.56453
4947.216	0.78655	-0.10547	-0.43013	1.62262
4951.171	2.12119	0.84954	-0.03780	1.50524
4955.161	1.71679	-0.24326	0.25962	1.27677
4959.157	1.02982	0.01441	0.02785	1.31946
4963.159	2.14833	1.30617	-0.47480	1.17822
4967.150	5.91371	-0.32661	0.06413	0.67052
4971.154	1.46449	-0.19202	0.12012	0.87999
4975.159	2.08401	-0.01833	-0.04497	0.71443
4979.160	1.58693	6.00763	-0.19239	0.56530
4983.157	2.31795	-0.46498	-0.26972	0.32231
4987.158	1.38875	-0.20889	0.03296	0.96788
4991.149	2.30514	0.35590	-0.33580	0.86440
4995.154	1.89431	-0.24585	-0.39909	2.16978
4999.157	1.70177	-0.29403	-0.84721	2.59939
5003.155	-1.22620	-2.45003	0.28416	1.94090
5007.153	2.30811	-0.34934	-0.31454	2.07317
5011.158	1.86580	-2.15767	-0.41730	1.54845
5015.157	1.72165	-2.37022	-0.53019	2.32071
5019.157	1.92138	-0.43558	-0.58421	2.12920
5023.159	1.88445	-0.83122	0.51992	2.04900
5027.155	5.20743	-0.19186	-0.51327	2.24713
5031.155	1.83338	-1.08361	-0.57205	2.08347
5035.152	1.58604	0.31439	-0.71082	2.32326
5039.159	2.06872	2.61843	-0.63486	2.35200
5043.153	5.53466	1.27529	0.12396	2.43615
5047.154	4.86911	-1.63118	-0.75134	2.40311
5051.157	0.55610	0.19995	-0.67206	2.46441
5055.156	2.21635	-1.17368	-0.76404	2.45492
5059.156	1.89035	-1.37424	0.09567	2.46771
5063.164	1.20827	-1.64107	-0.88743	2.47059
5067.155	1.68330	-1.41751	-0.82114	2.78502
5071.175	1.45445	-0.42522	3.36698	3.87396
5075.160	12.26235	-1.78228	4.99571	7.32380
5079.155	8.43421	6.26443	-10.09265	14.41129
5083.157	2.87609	12.16436	18.16267	13.90093
5087.151	NaN	NaN	16.70001	14.01834
5091.166	NaN	NaN	20.65449	13.43063
5095.158	NaN	NaN	NaN	NaN
5099.152	NaN	NaN	NaN	NaN
5103.157	NaN	NaN	NaN	NaN
5107.174	NaN	NaN	NaN	NaN
5111.164	NaN	NaN	NaN	NaN
5115.153	NaN	NaN	NaN	NaN
5119.150	NaN	NaN	NaN	NaN
5123.150	NaN	NaN	12.44590	12.45127
5128.559	NaN	NaN	NaN	NaN
5139.160	NaN	NaN	NaN	NaN
5143.161	NaN	NaN	NaN	NaN
5148.515	NaN	NaN	NaN	NaN
5159.153	NaN	NaN	NaN	NaN
5163.153	NaN	NaN	NaN	NaN
5167.155	NaN	NaN	NaN	NaN
5171.149	NaN	NaN	NaN	NaN
5175.190	NaN	NaN	NaN	NaN
5179.153	NaN	NaN	NaN	NaN
5183.157	NaN	NaN	NaN	NaN
5187.154	NaN	NaN	NaN	NaN
5191.151	NaN	NaN	-7.64964	15.05459
5195.150	NaN	NaN	-7.66209	15.05339
5199.151	NaN	NaN	-7.67438	15.05219
5203.150	NaN	NaN	NaN	NaN
5207.028	NaN	NaN	NaN	NaN
5211.025	NaN	NaN	NaN	NaN
5215.024	NaN	NaN	NaN	NaN
5219.024	NaN	NaN	NaN	NaN
5223.026	NaN	NaN	NaN	NaN
5231.030	NaN	NaN	NaN	NaN
5235.029	NaN	NaN	NaN	NaN
5239.040	NaN	NaN	NaN	NaN
5243.958	NaN	NaN	NaN	NaN
5247.836	NaN	NaN	NaN	NaN
5251.872	NaN	NaN	-21.10132	13.19303
5255.036	NaN	NaN	-20.00223	-12.07679
5259.030	NaN	NaN	-20.00216	-12.07680
5263.029	NaN	NaN	-14.07382	12.41870
5267.022	NaN	NaN	-20.00290	-12.07674
5271.045	NaN	NaN	-11.70159	7.39398
5275.033	NaN	NaN	-20.00363	-12.07669
5279.026	NaN	NaN	-11.88392	11.12318
5283.026	NaN	NaN	-14.65639	11.16446
5287.027	-21.09488	10.76532	-14.12772	11.35190
5291.026	-19.69475	10.29846	-12.33740	11.22529
5295.020	-19.41807	8.22104	-12.89055	13.84221
5299.031	-17.86342	8.22469	-12.27074	12.96686
5303.025	-17.47516	7.69993	-12.10442	13.05012
5307.029	-19.36057	8.30025	-12.06798	11.23021
5311.075	-17.64591	7.24814	-11.82240	11.29537
5315.028	-16.77232	7.82312	-11.94498	11.48295
5319.026	-17.01319	6.47239	-12.54490	11.26245
5323.041	-16.50649	6.37775	-12.85482	9.62106
5327.021	-14.47748	7.34243	-11.89305	11.12059
5331.031	-16.68052	7.02865	-13.27144	10.87064
5335.025	-16.20087	6.78989	-16.26349	5.10582
5339.024	-15.93550	6.69257	-16.03969	7.46589
5343.024	-15.66756	6.49885	-17.39146	3.71182
5347.026	-14.97798	6.59007	-17.35512	3.87331
5351.025	-14.99584	6.80921	-13.81855	6.19774
5355.028	-15.58308	6.04724	-17.18258	3.82751
5359.032	-14.04949	6.49736	-15.96580	3.80303
5363.051	-15.73226	5.38847	-17.51972	3.56387
5367.026	-15.19211	6.30396	-14.22589	3.95143
5371.037	-15.22160	6.28487	-14.60567	4.14837
5375.022	-15.15778	5.64651	-14.26520	4.04826
5379.026	-15.08067	6.28255	-14.86323	3.89841
5383.028	-14.64603	5.98681	-14.31526	3.88071
5387.026	-14.66071	5.92057	-14.50595	4.48254
5391.025	-14.85769	5.89205	-14.62287	4.24999
5395.021	-14.55446	5.58309	-14.33793	6.05382
5399.032	-14.51298	5.88952	-15.65608	5.47429
5403.023	-14.30394	5.96888	-14.30126	6.88602
5407.027	-14.23170	6.12179	-14.64197	6.52335
5411.018	-14.37562	6.18072	-14.83126	6.15599
5415.027	-12.09078	6.44638	-14.39862	6.07973
5419.022	-14.13678	5.95684	-14.68280	5.11264
5423.026	-14.36309	6.24142	-15.47552	5.48045
5427.020	-12.08983	6.84665	-14.56764	5.70502
5431.021	-14.03171	6.35755	-14.91717	5.72878
5435.022	-14.30529	6.33627	-15.23181	5.60591
5439.030	-14.24734	6.37360	-14.98442	5.14339
5443.021	-14.01917	6.30628	-14.81268	5.38059
5447.023	-15.11667	6.34179	-15.44808	5.36025
5451.026	-14.30934	6.07804	-15.35023	5.25345
5455.021	-14.28543	6.30300	-14.73669	5.04038
5459.020	-14.06850	6.35063	-14.51300	5.26473
5463.021	-13.96220	6.36669	-14.93985	5.11154
5467.024	-14.17955	6.49197	-15.46929	5.08928
5471.019	-14.07653	6.42723	-15.57827	4.89982
5475.027	-14.02814	6.22150	-15.17399	5.09889
5479.023	-14.10069	6.30246	-14.93784	5.22021
5483.030	-14.02326	6.49079	-14.69132	5.05902
5487.022	-14.21544	6.51359	-14.72448	5.06100
5491.024	-14.09824	5.95674	-14.34298	5.06972
5495.021	-11.79437	5.76520	-14.12315	5.29417
5499.022	-11.70668	5.66635	-11.29632	4.66244
5503.024	-11.69964	3.66573	-11.10744	2.61596
5507.019	-11.09081	4.90576	-10.41119	3.42123
5511.042	-10.29072	2.14077	-9.99746	1.32731
5515.026	-6.97032	1.64106	-10.45565	-0.29043
5519.029	-7.35607	1.29271	-6.14229	0.03382
5523.026	-6.68832	1.30690	-10.04490	-2.68074
5527.021	-4.26778	-0.79212	-10.22635	-5.64942
5531.021	-5.09234	1.14743	-8.38325	-5.69325
5535.022	-6.42163	-1.59112	-5.39490	-2.24906
5539.024	2.70225	-5.41096	-3.89093	-2.64639
5543.018	-3.03281	0.69561	-6.09577	-5.01198
5547.025	0.27247	-0.81327	-7.17900	-5.53742
5551.020	1.06252	-6.81618	-7.41895	-5.71360
5555.025	0.84848	-7.61502	-5.96343	-5.48676
5559.018	0.53103	-7.04232	-4.27123	-5.18409
5563.030	-4.53349	-7.54571	-2.91099	-4.21180
5567.024	2.05026	-7.59539	-3.80342	-4.12014
5571.016	2.50137	-8.40738	-2.15571	-3.58049
5575.025	3.63344	-9.63773	-3.31969	-3.24306
5579.017	3.71718	-9.32816	-3.20889	-4.58370
5583.045	3.81778	-9.80966	-3.18992	-4.59276
5587.024	-1.22236	-6.60715	-3.23561	-3.80334
5591.016	-1.25855	-6.50109	-3.27301	-4.19356
5595.024	-1.33378	-5.66258	-2.80531	-4.12449
5599.019	-1.84047	-5.81453	-3.05924	-4.10907
5603.023	-1.99102	-5.14005	-2.65493	-4.14429
5607.017	-1.16061	-5.94365	-2.89606	-3.95914
5611.029	-0.88880	-6.43164	-2.68683	-3.98521
5615.018	1.37052	-7.02030	-3.03452	-4.81889
5619.023	2.39426	-7.59193	-3.19086	-4.69106
5623.014	-0.44209	-5.47131	-3.26814	-4.76962
5627.024	-1.12916	-5.98642	-3.01235	-4.94630
5631.020	-0.82218	-6.68597	-2.53600	-5.20060
5635.021	-1.11536	-5.71509	-3.02529	-5.44436
5639.022	-2.24473	-7.49248	-3.26168	-5.40758
5643.020	-4.87939	-7.01701	-3.47188	-5.62290
5647.024	-2.33787	-6.91512	-3.18564	-5.84375
5651.026	-2.02336	-6.73119	-2.66645	-5.84000
5655.018	-1.27247	-6.11163	-0.34064	-5.45748
5659.025	-0.80533	-5.42026	2.13542	-9.29900
5663.018	-1.35591	-5.90774	2.57801	-9.48375
5667.022	-3.27977	-6.09879	4.00013	-9.67097
5671.035	-2.83927	-4.78899	1.56799	-9.42451
5675.022	-2.36985	-4.46666	1.60734	-9.16374
5679.017	-1.12869	-7.72934	2.06277	-9.17602
5683.016	-0.35499	-6.25607	2.35697	-9.40306
5687.018	-0.33977	-6.63979	2.24691	-9.67659
5691.027	3.23232	-6.68776	2.48217	-9.94431
5695.039	0.08450	-6.29186	3.02311	-9.73023
5699.023	0.04604	-4.81474	3.36159	-9.78132
5703.017	-1.12176	-5.96934	3.93055	-10.06963
5707.021	-0.41681	-5.74030	4.05345	-9.99612
5711.012	-1.45105	-6.54226	4.06989	-4.72649
5715.023	-1.44604	-5.23902	1.41288	-9.95279
5719.017	-1.50539	-4.91030	1.16245	-4.61570
5723.017	-0.41996	-4.07386	1.40591	-10.04846
5727.022	-1.43870	-5.71354	1.50254	-4.53006
5731.024	-1.83700	-3.76501	2.22379	-10.43910
5735.025	-1.19857	-6.81028	2.38531	-11.14267
5739.016	0.21298	-7.96546	2.40082	-11.71838
5743.016	-1.14833	-8.18753	2.28645	-11.53119
5747.018	1.11923	-8.18785	2.26492	-5.67309
5751.017	1.58574	-10.32938	2.36046	-6.11288
5755.014	-3.06397	-8.19917	3.53332	-6.02443
5759.017	-1.18019	-7.23313	-3.07055	-7.85999
5763.036	-1.78280	-8.33260	-3.52222	-6.23361
5767.018	-2.25499	-4.97620	-1.55211	-4.12218
5771.024	-0.02231	-4.94228	-0.87808	-2.25309
5775.023	-0.90259	-3.96953	-0.24649	-0.95990
5779.013	4.29596	-4.52467	1.32604	-0.93802
5783.022	6.55611	-4.60064	0.79898	-1.22597
5787.017	2.76933	-2.35730	0.64307	-2.38384
5791.020	2.71642	-0.96124	1.13186	-2.16403
5795.027	1.39909	-1.12178	0.61908	-1.65365
5799.061	2.09450	-2.29826	1.02702	-1.43769
5803.017	0.07515	-3.35306	0.62940	-1.95145
5807.015	3.53055	-2.09981	0.47480	-2.71456
5811.014	1.14451	-3.67661	0.36978	-2.17832
5815.019	1.80657	-0.57071	0.21827	-1.33390
5819.019	0.98457	-0.09933	0.07234	-1.38147
5823.015	1.43706	-2.71893	0.16313	-1.65975
5827.021	1.38758	-2.97192	0.16318	-1.70591
5831.016	3.04474	-3.40460	0.10389	-1.88715
5835.018	1.79232	-3.05724	0.56491	-1.99175
5839.015	2.10766	-3.16506	0.09217	-1.98855
5843.020	5.23059	-3.36202	0.24835	-1.80830
5847.016	5.81056	-3.38340	0.15310	-1.47621
5851.019	2.86455	-3.26847	0.64305	-1.55535
5855.023	2.55975	-3.68006	0.51428	-1.62818
5859.018	5.49551	-2.99423	0.24696	-1.46808
5863.012	2.59004	-2.94557	0.47589	-1.28705
5867.020	2.41264	-2.93906	0.27753	-1.21781
5871.031	2.81422	-2.97206	0.34330	-1.15359
5875.015	2.41782	-2.57434	0.19812	-1.19449
5879.013	2.45822	-2.23157	0.22155	-0.94914
5883.017	1.76715	-2.25045	0.17248	-0.95344
5887.019	2.20476	-2.76469	0.21926	-0.99428
5891.024	2.31978	-2.80228	0.24311	-0.97336
5895.013	2.45676	-2.74585	0.25612	-0.91819
5899.023	2.76690	-2.64371	0.33608	-1.00125
5903.010	3.97904	-2.64165	0.32943	-0.93664
5907.019	4.28414	-2.84319	0.46847	-1.10402
5911.014	4.51911	-4.85776	0.51148	-1.10764
5915.019	0.59116	-5.44060	0.51168	-1.34933
5919.009	0.26900	-4.24550	0.58096	-1.77427
5923.013	2.65949	-3.04633	0.18502	-1.91197
5927.013	0.50473	-0.64841	0.39966	-1.91238
5931.020	1.11130	-1.75749	0.27406	-1.42951
5935.014	0.33233	-0.73044	0.06507	-0.96093
5939.023	0.50322	-0.42619	0.18956	-0.74786
5943.011	2.16577	-1.44451	0.34861	-0.96481
5947.024	1.78813	-2.24633	0.40015	-0.48737
5951.020	2.20151	-2.05603	0.09547	-0.07271
5955.014	2.58885	-3.45513	0.42150	0.10123
5959.018	4.54343	-3.46214	0.67580	0.09686
5963.010	4.21015	-3.23197	0.66804	0.25113
5967.013	5.55130	-3.56870	1.26803	0.30850
5971.017	6.18313	-3.28901	0.19494	0.52586
5975.019	1.93871	-3.70863	0.30292	0.65273
5979.020	3.28664	-3.33804	-0.35216	0.78559
5983.018	1.77635	-3.32235	-0.16422	0.83785
5987.008	1.11951	-2.94993	0.08969	0.78739
5991.013	1.05223	-2.98718	0.40415	0.39302
5995.039	0.88193	-2.06393	0.60305	-1.77935
5999.018	1.79515	-1.50291	0.67853	-2.51711
6003.012	1.19839	-3.32312	0.72387	-2.47458
6007.016	1.58959	-3.94412	0.51086	-2.71407
6011.012	3.09406	-1.06428	0.53019	-2.63770
6015.015	1.90487	-3.11989	0.72580	-2.68027
6019.011	3.01089	-2.97105	0.63044	-2.60775
6023.012	3.43130	-2.32158	0.55508	-2.12093
6027.022	3.95246	-3.03817	0.59071	-1.92593
6031.012	4.71506	-4.66415	0.96599	-1.91091
6035.015	4.90405	-3.34104	1.03600	-1.66274
6039.008	4.55939	-4.82988	1.13275	-1.46266
6043.017	3.02720	-2.77848	1.19529	-1.50955
6047.012	2.51621	-4.54673	1.19815	-1.67429
6051.016	2.99737	-2.80373	1.08309	-1.50328
6055.006	2.95997	-1.34245	0.87391	-1.38166
6059.012	2.21353	-1.27023	0.65300	-1.41970
6062.885	2.88099	1.10066	0.14255	-1.31352
6066.888	2.84452	-0.88506	0.39397	-1.31354
6070.908	2.91168	-0.23968	0.70049	-1.33028
6074.895	1.83742	-0.77140	0.27433	-1.30516
6078.884	2.77711	-1.98696	0.33293	-1.28305
6082.887	2.45106	-0.13394	0.29163	-1.34209
6086.886	2.35506	-1.90560	-0.01832	-1.32144
6090.892	1.51737	-1.10879	0.00705	-1.42225
6094.888	1.81815	-1.01829	0.10597	-1.49198
6098.890	1.97775	-3.14189	0.16846	-1.37304
6102.881	0.60848	-2.05686	0.25418	-0.08685
6106.885	1.22236	-1.20078	0.35511	-0.55058
6110.894	1.61548	-4.20256	0.30776	0.34989
6114.889	0.43137	-2.04428	0.34876	0.03325
6118.881	1.47074	-2.59726	0.54741	0.36069
6122.891	0.19797	-4.80854	0.58225	0.23143
6126.885	0.88639	-3.67730	0.65737	0.28249
6130.888	0.41492	-3.25282	0.65322	0.16253
6134.889	0.62684	-2.87423	0.74590	0.15972
6138.888	0.59560	-3.16463	0.77786	0.18230
6142.884	0.83917	-2.70995	0.79965	0.13768
6146.890	1.08495	-2.76503	0.84089	0.03322
6150.887	1.53200	-3.28611	0.91217	-0.14960
6154.891	2.10188	-3.27157	0.93031	-0.14224
6158.884	2.17033	-3.00214	0.98080	-0.25827
6162.890	2.64084	-3.01269	1.02352	-0.51634
6166.881	2.71020	-3.10051	1.00881	-0.62498
6170.902	2.73420	-3.01956	1.07274	-0.98145
6174.890	2.64834	-2.98200	1.17562	-1.15116
6178.885	2.57526	-2.94078	1.13409	-1.25213
6182.889	2.21192	-2.93621	1.26872	-1.55715
6186.888	2.60505	-3.20719	1.35499	-1.75053
6190.889	2.79273	-3.00739	1.18554	-1.53488
6194.903	2.61741	-3.71705	1.03674	-1.67001
6198.891	3.45163	-6.11126	1.18822	-1.73953
6202.887	7.97164	-9.22156	0.87763	-1.87115
6206.886	4.80630	-5.41038	0.63466	-1.94420
6210.930	7.70363	-8.83184	0.86892	-2.07654
6214.882	7.39530	-9.15842	0.89614	-1.92684
6218.890	6.81982	-5.71579	0.79677	-1.78801
6222.885	7.04359	-5.86890	0.88528	-1.73773
6226.886	7.00255	-5.90432	0.88654	0.22605
6230.882	6.54553	-6.06337	0.93673	0.43057
6234.894	6.46402	-9.18149	0.96187	0.21722
6238.883	6.88878	-6.27191	1.19004	-0.37976
6242.888	7.07847	-9.43751	0.92924	-1.33130
6246.879	6.91960	-7.61626	1.00864	-1.37204
6250.888	6.71375	-8.16596	1.18401	-1.22208
6254.883	6.55087	-8.02385	1.33517	-1.27855
6258.887	6.46828	-7.97261	1.39780	-1.33073
6262.886	6.54014	-8.03441	1.38572	-1.65840
6266.885	6.60524	-7.74552	1.34103	-1.82472
6270.901	3.46323	-3.68981	1.34857	-1.72599
6274.891	3.31492	-3.90190	-2.63896	-4.12825
6278.891	6.22292	-3.87166	1.23116	-2.03973
6282.882	5.12447	-4.03509	1.27785	-1.59677
6286.887	5.01699	-4.11132	1.22841	-1.79284
6290.883	3.80075	-3.85347	1.10326	-1.66186
6294.886	2.67764	-3.18468	0.86322	-1.72148
6298.878	2.89267	-2.47616	0.54376	-1.99206
6302.888	-0.61739	-1.74826	-1.98150	-1.63824
6306.883	-0.61225	-1.68069	-2.54080	-1.59882
6310.886	-1.19296	-2.33184	-2.81865	-1.59831
6314.881	-3.12195	-3.36464	-4.47975	-1.93029
6318.886	2.39500	-3.30152	-5.07823	-1.90463
6322.886	-3.38155	-1.25875	-5.25559	-1.64134
6326.879	-3.47987	-2.67347	-5.16214	-1.63597
6330.883	-3.38048	-1.15473	-5.25827	-1.54356
6334.881	-3.47999	-1.92072	-5.91165	-1.94189
6338.887	-3.52202	-0.61420	-5.26804	-1.25337
6342.882	-3.56383	-0.30798	-5.24545	-1.04529
6346.888	-2.94643	-0.94514	-5.15096	-0.90489
6350.878	-1.28125	-2.11635	-5.18168	-0.70787
6354.906	-3.46219	-0.01005	-5.16226	-0.61077
