time (ms)	lx (deg)	ly (deg)	rx (deg)	ry (deg)
0.000	3.60974	-3.43549	0.77925	0.41963
4.018	3.46971	-3.24276	-1.27634	1.70646
8.001	3.37022	-3.48508	-1.75044	-1.39095
11.995	2.99274	-3.50984	-3.93297	0.59473
15.995	1.45440	-3.21883	-4.21158	1.21174
20.000	-0.12903	-3.34748	-5.81444	0.46327
23.998	0.64898	-2.51003	-6.27859	-1.07033
28.032	-0.65436	-0.09430	-0.63761	0.01575
31.996	-0.23961	0.01513	-0.66054	0.10302
35.995	-0.65367	-0.05375	-1.00841	0.17255
39.991	-0.66092	0.03394	-1.17654	0.39578
43.997	-0.70079	2.35440	-1.18914	0.49137
47.996	-0.71528	1.24912	-1.91407	1.13381
51.997	-1.50919	-0.05194	-1.37434	1.25097
55.996	-0.38268	0.65038	-1.48972	0.91280
59.988	-0.46061	1.73552	-1.87460	1.05491
63.997	3.74936	0.67903	-1.57019	3.03970
67.993	3.45811	0.14267	-1.10390	1.40108
71.996	3.35860	0.18171	-1.03367	1.27432
75.994	4.17336	-0.02193	-1.16709	1.76960
79.993	3.44844	-2.67118	-2.10005	1.82338
84.000	3.29080	-3.42216	-1.55641	1.62827
87.992	3.20048	-3.68563	-2.67098	2.05791
91.996	-2.36319	-2.92906	-1.26979	1.63905
95.992	2.84229	-3.50905	-1.67234	2.26779
99.994	3.00579	-3.16367	-1.92654	1.62001
103.991	2.72209	-2.96261	-2.09747	2.24183
107.996	2.54177	-2.97101	-2.96035	1.79368
111.991	2.12335	-2.97747	-2.92381	1.55895
115.990	1.85549	-2.53942	-3.47235	1.41584
119.987	1.48515	-2.65524	-4.37502	0.26922
123.995	0.88830	-2.75689	-5.03757	-0.90512
128.006	0.83575	-2.56920	-5.58058	-0.60167
131.990	-0.07128	-1.20220	-6.03729	0.31099
135.990	-1.78245	-2.09522	-6.96345	-0.26400
139.993	-1.06411	-0.45860	-2.98143	0.90701
143.994	-1.84314	0.16153	-3.35521	0.98591
147.996	-1.54383	0.07743	0.19437	1.48174
151.992	-4.60150	-2.16903	-0.07344	1.71284
155.989	-1.59494	-2.08887	0.03666	1.80013
159.989	0.79243	-1.67469	0.18611	2.06945
163.991	-0.79379	-0.70449	-0.01980	1.44728
167.996	-0.63563	-0.69105	-1.25210	1.58484
171.998	-0.89381	-0.74716	-0.68732	1.27739
175.993	-0.49329	-0.31808	-1.54959	1.40388
179.992	-0.26165	0.17399	-1.86392	1.54284
183.990	-1.06937	-1.04819	-1.69200	1.53132
187.991	-0.20127	0.33218	-1.57689	1.66747
191.994	-0.22668	-1.72248	-1.91283	1.31358
195.995	0.60682	-2.07765	-1.80003	1.35842
199.993	-2.08039	1.88274	-1.57252	1.28152
203.991	2.82509	-2.02654	-2.06272	1.13668
208.000	1.40122	0.47712	-0.89294	0.82399
211.998	2.32617	-1.35368	-0.73414	1.20290
215.994	1.45713	0.92672	-0.64218	1.43470
219.992	2.70943	-1.28918	-1.44294	1.56173
223.989	2.17760	-1.18545	-1.31669	1.65833
227.989	5.39025	-0.41762	-1.43133	1.69123
231.995	5.43206	-1.48775	-0.84096	2.21451
235.991	5.58815	-1.25411	-0.65521	2.26085
239.992	5.95984	-2.58522	-0.89823	1.86300
243.990	8.19489	-3.03501	-0.80364	2.53195
247.995	8.21125	-3.32953	-0.85508	2.12570
252.032	2.03514	-3.35806	-0.73109	1.89941
255.990	8.48056	-3.48985	-2.11162	-0.11393
259.984	3.24170	3.88245	-4.19805	-3.15029
263.992	1.52335	1.75127	-2.98940	-0.36126
267.989	2.71285	-0.53223	-2.02775	0.40232
271.994	0.96231	-0.46122	-0.86376	1.55080
276.019	0.97144	1.23317	-1.05897	0.35739
279.994	2.93448	1.58371	-0.06453	-0.01280
283.987	0.07845	1.18667	0.83724	0.20168
287.988	-0.17553	-3.54023	-1.35779	0.60163
291.996	2.78290	-0.21201	-1.97287	3.51259
295.992	4.89708	-3.42945	-1.01705	0.96212
299.991	7.32924	-3.71600	-4.86731	0.54202
303.988	2.90683	-1.42662	-2.51500	0.79642
307.987	0.78483	0.00899	0.88709	-0.95053
311.983	1.32071	1.06537	-0.68250	0.61304
315.984	-1.34093	-3.16165	-0.93502	1.33259
319.994	-0.91053	-1.09774	-0.99482	2.25103
323.987	3.46909	-3.22676	-0.84051	2.39170
327.986	3.78976	-2.97815	-0.43899	2.01914
331.997	2.87915	-4.08917	-0.53582	1.98640
335.995	1.85370	-4.02094	-0.79712	2.09700
339.984	1.33986	-2.15327	-0.78503	0.61717
343.989	0.44405	-2.04140	-0.85731	0.24277
347.992	0.26989	-2.02573	-3.62039	0.03477
351.987	0.33404	-1.37121	-1.87044	-0.08861
355.986	-0.33196	-1.76782	-0.77387	0.29461
359.986	-0.30456	-1.37209	-0.28840	1.27396
363.992	-0.47790	2.70759	-0.27332	1.32833
367.990	-0.40246	-1.42872	-0.37246	1.07438
371.987	0.52441	1.20056	-1.73204	0.59400
375.993	1.01963	0.23675	-0.44847	0.30822
379.986	1.08765	-0.18574	1.42747	0.31161
383.983	3.12556	-0.91204	0.31364	0.51617
387.986	0.29478	-0.21454	2.13066	0.10727
391.987	0.60081	-0.98790	-0.30178	-0.05695
395.987	-0.68092	-3.54418	1.06659	0.86481
399.987	0.17251	-2.50076	1.77281	0.26047
403.988	2.36339	-3.41581	0.44524	0.26287
407.990	1.77045	-1.25408	0.45698	0.37704
412.014	0.11925	-3.50216	-0.90158	0.88164
415.995	1.44195	-3.54519	-0.12657	2.12608
419.987	1.60605	-2.01064	-0.57558	0.45163
423.998	1.80293	-3.44830	-0.78034	1.51694
427.988	2.08510	-3.38507	-1.07711	2.50177
431.990	2.34768	-3.52390	-1.03990	2.79412
435.983	2.33093	-3.40431	-1.12975	2.56837
439.991	2.56300	-2.23573	-1.22040	1.89182
443.988	2.67021	-3.53673	-0.86657	3.24201
447.986	3.53468	-3.77296	-1.29772	3.00991
451.984	4.02186	-0.95841	-4.73372	0.22459
455.989	4.19395	-1.34049	-5.14360	1.60765
459.995	3.95086	-0.83814	-4.89750	1.76121
463.983	4.02922	-0.86146	-4.20908	1.96039
467.985	4.88993	-1.24160	-3.76055	2.40795
472.009	5.04632	-0.81966	-2.68900	2.05228
475.983	0.49530	-0.68329	-0.78211	3.14872
480.015	4.32474	-2.36259	-0.87967	2.25453
483.992	0.22723	-0.20831	-1.11497	1.97723
487.982	0.68094	-0.71564	-0.68769	1.51268
491.989	0.44130	-2.51674	1.39425	0.34771
495.986	0.52992	-2.49496	-1.09899	2.30178
499.992	1.09929	-4.27194	-0.85605	2.33839
503.985	1.43203	-3.84943	-1.80871	1.56098
507.989	1.91595	-1.99163	-1.36543	1.89585
511.986	0.47696	-0.87079	-0.49852	0.87874
515.991	0.89009	-0.61872	-1.52357	2.50467
519.989	1.33768	-1.08245	-1.71451	2.54080
523.984	1.31218	-3.54085	-1.17319	2.30214
527.987	0.76848	-3.03576	-1.56583	2.89553
531.984	0.66819	-0.09507	-1.39217	3.03643
535.989	0.59210	-0.52907	-1.08927	2.57012
539.984	0.39318	-0.64981	-1.29521	3.80607
543.992	0.57181	0.27280	-1.26299	3.22493
548.012	0.43616	0.22898	-1.41075	2.70632
551.988	0.23778	-0.14072	-1.22724	3.04934
555.984	0.24959	-0.17079	-1.10973	2.70896
559.986	0.24748	0.06158	-1.38133	2.60231
563.987	4.24623	-0.48879	-1.47533	3.41763
567.983	4.04414	-0.68137	-1.19338	3.68778
571.983	3.70228	0.26037	-0.89235	2.87038
575.983	5.16819	-0.35867	-0.79769	2.86126
579.999	4.45920	-0.61581	-1.13295	4.04846
583.994	4.24502	0.86620	-0.53505	2.65453
587.988	3.94347	-1.96287	-1.07480	2.74127
591.984	4.86234	-3.09840	-2.43687	3.66342
595.986	3.86862	-1.45067	-4.10518	2.65269
599.983	2.13205	-1.72341	0.05832	2.22174
603.989	3.95194	-0.99901	-0.80230	2.39443
607.983	1.67360	-0.67610	-1.23868	3.59738
611.984	1.36767	-0.80486	-1.39939	2.93549
616.023	-2.13130	-1.39220	-1.23325	2.18350
619.987	3.74204	-0.84199	-1.09758	2.53637
623.985	3.83863	-1.06508	-5.52863	0.96706
627.990	-0.78836	0.97720	-3.62047	3.00474
631.985	-2.81880	1.90372	-6.04691	3.29608
635.988	-4.55655	1.88414	-5.73691	4.01432
639.982	-6.97343	2.86906	-6.06701	2.69732
643.985	-7.96836	2.74233	-8.87171	3.27582
647.988	-7.17543	2.90822	-6.26147	3.26824
651.986	-7.26398	2.07248	-6.00504	5.20917
655.984	-7.45396	1.87176	-6.36726	3.54011
659.983	-7.43293	2.39030	-6.29210	3.41677
663.986	-7.55432	2.37552	-6.95880	3.53170
667.991	-7.37548	2.93330	-7.21691	3.04310
671.984	-7.46599	2.10522	-7.53325	3.46716
675.985	-7.08475	2.61890	-6.36368	3.54545
679.983	-7.08397	2.47752	-6.53644	3.34391
683.985	-7.22492	2.85420	-6.40900	3.63546
687.984	-6.97436	2.72408	-6.42101	3.44397
691.982	-7.14961	2.72184	-6.40373	3.47941
696.004	-7.16725	2.25339	-6.63805	3.61131
699.981	-7.07718	2.36130	-6.48524	3.61622
703.984	-7.08832	2.62302	-6.61535	3.38395
707.990	-6.94919	2.68317	-6.50783	3.54366
711.986	-6.84752	1.95518	-6.77465	3.65630
715.982	-7.05051	2.30451	-6.66288	3.67693
719.980	-6.68981	2.32198	-6.97832	3.45850
723.980	-6.76975	1.96338	-7.41126	3.74370
727.980	-6.67698	1.99154	-7.23086	4.07134
731.980	-6.91826	1.91749	-7.57334	3.76917
735.984	-6.54933	1.92178	-7.82328	3.78049
739.982	-6.58736	1.99600	-7.83683	3.81728
743.979	-6.21046	2.07721	-8.06414	3.77717
747.980	-6.31870	1.93343	-8.15917	3.88584
752.001	-6.17121	1.88502	-7.93605	3.55183
755.988	-6.98255	2.08432	-7.91414	3.31698
759.985	-6.11854	2.07821	-8.21432	3.40484
763.979	-6.46980	2.08499	-8.46677	3.83003
767.980	-6.02011	1.96730	-8.39639	3.63348
771.982	-6.33613	2.38298	-8.41920	3.31792
775.861	-6.10762	2.63760	-8.58405	2.92409
779.854	-6.24470	2.26126	-8.19168	4.49400
783.858	-6.07444	2.15690	-9.67982	3.34374
787.851	-6.11878	4.99234	-8.31107	5.46569
791.860	-8.85298	4.66134	-8.02733	5.78788
795.857	-12.26237	9.33461	NaN	NaN
799.863	NaN	NaN	NaN	NaN
803.853	NaN	NaN	NaN	NaN
807.857	NaN	NaN	-23.27729	9.88927
811.856	NaN	NaN	NaN	NaN
815.854	NaN	NaN	NaN	NaN
819.859	NaN	NaN	NaN	NaN
823.859	NaN	NaN	NaN	NaN
828.004	NaN	NaN	NaN	NaN
832.284	NaN	NaN	NaN	NaN
836.001	NaN	NaN	NaN	NaN
839.861	NaN	NaN	NaN	NaN
843.870	NaN	NaN	NaN	NaN
847.862	NaN	NaN	NaN	NaN
851.954	NaN	NaN	NaN	NaN
855.856	NaN	NaN	NaN	NaN
860.022	NaN	NaN	NaN	NaN
864.208	NaN	NaN	NaN	NaN
868.200	NaN	NaN	NaN	NaN
872.152	NaN	NaN	NaN	NaN
876.440	NaN	NaN	NaN	NaN
880.509	NaN	NaN	NaN	NaN
885.552	NaN	NaN	NaN	NaN
889.889	NaN	NaN	NaN	NaN
892.531	NaN	NaN	15.92675	14.17125
895.869	-0.48076	13.70597	NaN	NaN
899.858	-0.96318	11.69662	-1.67191	13.59635
903.853	-0.69422	9.52276	-5.53648	7.48321
907.855	1.80129	8.76877	-4.72894	5.27262
911.851	1.94684	8.11720	-0.82548	6.17530
915.856	-0.90150	7.74959	-0.77077	7.59381
919.854	-1.50063	2.67907	-2.84942	7.21186
923.859	-0.60913	-0.10143	-5.95871	8.98308
927.852	-1.11574	1.43794	-9.48673	10.06747
931.856	-1.94012	2.84124	-6.46208	5.33412
935.853	-3.05570	1.12809	-6.55320	4.95702
939.850	-4.73737	1.86115	-6.15799	4.24526
943.846	-7.56747	-0.33118	-3.50450	4.33545
947.850	-4.04957	-0.71490	-3.57634	1.99342
951.852	-4.22123	0.31197	-4.05804	2.27293
955.875	-3.78472	1.30062	-4.45900	2.23650
959.862	-5.13703	-0.63504	-4.50197	2.55507
963.858	-3.50739	1.35727	-4.84265	2.56483
967.852	-3.74034	1.59126	-4.56267	2.66165
971.859	-3.63574	1.67010	-4.52168	2.90307
975.855	-3.00668	1.67411	-6.54063	2.37259
979.850	-2.92866	2.47690	-5.31081	2.80642
983.848	-3.88213	0.69358	-4.54254	3.45620
987.856	-3.53713	1.37961	-4.63191	3.69412
991.853	-3.41174	-0.47632	-4.21804	3.21467
995.851	-3.44730	-0.52395	-4.71486	4.20463
999.847	-3.45712	0.05206	-4.75876	5.17696
1003.855	-3.62338	-0.89474	-2.60173	4.05522
1007.859	-4.26533	0.78185	-3.26671	2.69381
1011.850	-4.73821	0.69475	-2.11487	2.26541
1015.856	-3.17309	2.33893	2.67231	2.07412
1019.852	-3.33258	1.25950	-8.27401	3.09240
1023.880	-4.81542	-0.56236	-3.83218	4.09931
1027.862	-2.64626	1.29242	-3.16005	4.24074
1031.851	5.11770	0.19689	-0.62198	2.74104
1035.854	4.41507	2.41469	2.24319	3.93410
1039.851	4.06937	0.35682	5.74487	4.06266
1043.851	3.88176	2.60829	5.99203	4.04026
1047.856	9.12711	1.40501	6.22159	4.38712
1051.853	8.89114	1.30542	8.00338	4.60488
1055.850	10.30757	-0.40434	8.87522	4.85738
1059.851	9.99077	1.96859	8.63384	4.31334
1063.853	10.95727	1.76431	9.04449	4.36521
1067.852	9.88511	1.64941	9.56171	4.35774
1071.855	9.60625	2.71292	9.16438	4.00999
1075.851	10.11214	1.41811	12.85251	3.73106
1079.851	10.14874	1.48930	8.51190	3.38616
1083.855	10.15228	1.24761	8.65916	3.92327
1087.858	11.40932	1.43887	9.35138	3.81787
1091.857	10.03643	1.67716	8.58175	3.93217
1095.850	9.97796	1.69252	9.31172	3.79775
1099.853	10.04415	1.08641	8.15854	3.63838
1103.850	10.07832	1.31947	8.39346	3.99648
1107.851	9.97257	1.82106	7.84774	4.06301
1111.847	10.24449	1.61315	8.63182	3.97481
1115.852	12.96357	0.22308	8.37247	4.11763
1119.850	5.85323	-0.02205	7.95565	4.25743
1123.852	10.27112	3.87752	8.41274	4.41378
1127.845	9.92220	1.22048	7.93170	5.34267
1131.856	6.13883	0.29794	7.99406	4.43698
1135.851	10.56147	0.92335	9.44085	4.56836
1139.850	9.71987	2.11159	8.75652	4.52099
1143.853	9.59059	2.16124	8.07158	2.60388
1147.849	11.25132	1.16702	8.48612	3.59241
1151.852	13.66156	1.18420	8.24181	2.76611
1155.847	6.26297	-3.54685	8.02333	2.71063
1159.878	11.32397	2.72580	8.16656	3.23181
1163.853	15.33837	-2.52506	8.02073	3.50967
1167.848	12.07593	1.06921	8.04453	3.49297
1171.855	9.48956	1.16591	7.91081	3.51667
1175.850	6.34422	1.11668	7.79230	4.57890
1179.855	8.37699	2.52001	8.06767	5.08306
1183.849	6.59187	0.40011	7.93591	3.58292
1187.846	3.52746	2.51198	7.84372	4.84893
1191.843	11.96422	0.98234	7.86880	5.19701
1195.848	6.63859	1.64353	8.24891	3.72281
1199.848	9.23137	1.81824	7.89396	4.82029
1203.846	10.16512	1.65215	7.95399	4.74551
1207.853	9.57585	2.20041	9.22700	4.25487
1211.849	9.43110	2.64565	7.79074	4.59092
1215.854	9.19839	2.14377	8.21349	3.80508
1219.845	9.86100	1.05224	9.02883	3.72465
1223.852	5.26475	2.17737	8.14694	4.36997
1227.846	10.16420	1.98852	8.38731	3.23799
1231.853	8.53564	1.10768	9.13506	3.76036
1235.849	5.05151	2.10167	8.72794	4.25428
1239.868	10.30221	2.02772	7.95122	4.10568
1243.842	10.79155	1.48073	8.57835	3.46167
1247.851	11.80053	2.18433	8.27977	3.87299
1251.848	9.60113	2.23745	8.80582	3.41210
1255.855	10.82912	0.71930	8.64015	3.56439
1259.844	10.12654	2.26633	8.68553	3.81639
1263.845	14.82145	-0.04641	8.44433	3.88697
1267.851	10.30418	-5.93124	8.52103	3.88566
1271.848	10.06641	-4.84060	8.54598	3.98341
1275.846	8.98269	-6.31156	8.39627	4.82982
1279.844	9.35781	0.71080	8.34689	4.71050
1283.845	5.78887	2.41810	8.39564	4.44344
1287.846	11.19406	2.49938	8.56491	4.82898
1291.845	12.89098	1.88640	12.41514	4.08722
1295.851	10.73277	-1.96828	15.34204	3.90459
1299.850	18.96562	-0.50855	19.25409	1.56640
1303.846	19.67492	-0.35188	18.74399	1.45782
1307.846	NaN	NaN	18.23931	1.45363
1311.848	23.33741	-4.30129	15.25709	1.63710
1315.846	21.41131	-2.53681	17.46753	1.43723
1319.853	21.57729	-2.53526	15.22682	2.47856
1323.847	21.62041	-3.59265	17.73484	1.54450
1327.845	20.71194	-2.78023	15.54944	2.60750
1331.849	20.43318	-3.15455	15.10737	2.11599
1335.853	19.37104	-1.94655	15.25732	2.45624
1339.848	18.06768	-1.35132	17.10181	2.92498
1343.847	18.20512	-3.26537	15.70114	2.54813
1347.850	18.76679	-3.20839	16.44001	2.84468
1351.847	19.14039	-3.29909	15.07884	3.09154
1355.849	18.52166	-3.19032	14.98762	3.33203
1359.843	20.16197	-3.24776	15.34723	3.20972
1363.851	20.07333	-2.89832	14.64615	3.63807
1367.848	18.04621	-0.47609	14.79609	3.70673
1371.848	17.88821	-0.58706	14.65284	2.50940
1375.847	20.37547	-1.94219	14.65228	2.59960
1379.849	18.56206	-2.00019	14.66192	2.72216
1383.864	18.60663	-2.10589	15.06086	2.69284
1387.854	17.91682	-1.70830	14.72329	2.61125
1391.846	17.98312	-3.00247	15.06274	3.26143
1395.843	20.78200	-2.85995	14.89770	3.51070
1399.850	19.56167	-1.43812	14.87037	3.25485
1403.845	18.46836	-0.40105	15.57956	3.71885
1407.847	18.00928	-0.96545	15.80445	3.98573
1411.846	18.73050	-1.28208	15.48047	2.30135
1415.845	18.39221	-1.60299	16.26952	2.60719
1419.846	18.35421	-1.47666	15.35787	2.85510
1423.853	20.08491	-3.11818	15.35443	3.47216
1427.842	18.48276	-1.52325	14.56051	3.74271
1431.845	18.24291	-1.15153	16.80553	3.96824
1435.855	18.05514	-1.08568	15.45133	3.08287
1439.848	18.59129	-0.71454	15.81183	2.87621
1443.844	18.46807	-0.70033	15.47881	3.07031
1447.842	20.16249	-1.13048	15.83475	4.00778
1451.849	19.99396	-0.94042	14.88241	3.98314
1455.845	19.56969	-0.82626	15.12159	3.75041
1459.846	19.57452	-1.04090	15.27249	3.43002
1463.854	19.42653	-1.05427	15.07609	3.60170
1467.843	18.95894	-1.41819	14.58780	3.38678
1471.841	18.57138	-1.17548	14.98901	3.65091
1475.846	19.14260	-1.10397	15.49059	4.46986
1479.844	18.50934	-1.53573	14.68449	3.80997
1483.843	19.00415	-1.63211	14.60465	3.51703
1487.840	18.95648	-1.70136	14.63804	3.63753
1491.848	18.96777	-1.68565	14.63562	3.63796
1495.845	18.48271	-1.43302	14.46345	3.86288
1499.845	19.35938	-1.83594	14.33567	4.35894
1503.852	20.49572	-1.19631	14.30093	4.54319
1507.845	19.01435	-0.53361	14.37054	4.45844
1511.848	17.65059	0.14925	14.56590	4.69778
1515.842	20.31028	-1.09838	14.44094	3.49390
1519.852	18.47104	-0.18968	13.97910	4.53419
1523.848	18.72605	-0.36514	14.53544	3.47497
1527.844	18.68588	-1.00390	14.40628	3.72158
1531.842	19.07611	-1.56422	14.32616	3.70798
1535.841	19.00483	-1.36079	14.47215	4.05653
1539.847	18.84214	-1.85554	14.55625	4.29502
1543.843	18.66049	-0.98345	14.49837	3.81672
1547.846	18.66893	-1.42431	14.79296	4.16318
1551.840	18.81704	-1.23737	14.61552	4.07962
1555.847	18.68893	-1.72994	14.26254	4.15362
1559.842	18.76940	-1.76914	14.32355	4.46344
1563.844	18.94391	-1.44566	14.36395	4.28661
1568.102	18.63230	-1.24588	14.33558	4.53570
1571.845	18.98582	-1.62743	13.95369	4.57392
1575.848	19.05902	-1.21006	14.30151	4.22422
1579.878	18.97958	-1.70852	14.54223	4.20820
1583.845	18.87308	-1.37547	14.09103	4.32686
1587.848	18.86110	-1.27329	16.13793	4.22393
1591.845	18.93596	-1.55331	14.08402	4.42248
1595.845	18.83023	-1.02490	14.08918	4.19941
1599.848	19.07431	-1.74258	14.31018	3.79373
1603.842	17.49577	-1.44963	14.28897	3.87373
1607.840	19.11429	-1.80561	14.18897	3.99274
1611.841	18.98926	-1.38670	14.72192	3.79960
1615.846	18.87843	-1.34408	14.00300	3.80262
1619.844	18.94136	-1.83686	14.23160	3.76182
1623.842	18.78174	-1.38163	14.39690	3.82110
1627.713	18.22216	-1.60862	14.66849	3.77379
1631.714	18.90149	-1.57089	14.25389	3.88874
1635.719	19.08728	-1.61358	14.40910	3.84626
1639.718	19.38758	-1.47017	14.42607	3.88205
1643.728	18.96729	-1.35767	14.13811	4.29245
1647.717	18.87846	-0.85826	14.19361	4.35040
1651.716	18.90525	-1.41940	14.11552	4.35491
1655.716	19.01595	-1.48321	14.06457	4.12423
1659.716	19.01803	-1.38696	13.17207	4.25353
1663.717	19.62619	-1.50491	14.16763	4.36084
1667.716	19.46168	-1.65789	14.23594	4.38290
1671.718	19.88782	-1.43694	14.21649	4.48729
1675.719	18.88414	-3.06813	14.10665	4.41570
1679.749	18.90682	-0.83863	14.12291	4.60623
1683.717	18.16670	-0.55839	14.47448	4.63110
1687.717	14.46456	0.03838	12.18410	4.64694
1691.714	13.84546	-0.69237	11.37624	3.88082
1695.713	17.23417	-0.03484	13.89713	4.68184
1699.717	9.12261	1.38085	7.32014	4.93327
1703.715	12.47513	-0.50047	7.02394	4.92400
1707.718	11.17386	0.48309	6.86804	4.91025
1711.713	10.67068	0.40445	6.96286	5.01214
1715.713	9.68722	1.34685	7.16617	5.03451
1719.720	10.66038	0.61141	7.11520	5.05863
1723.714	10.33596	1.40345	7.11867	5.08286
1727.709	11.00639	0.45332	7.10330	5.05922
1731.715	10.96083	0.85811	7.03883	5.02740
1735.711	11.36384	0.64410	8.70364	5.07966
1739.713	10.91473	0.85095	8.96019	5.04283
1743.721	7.54862	0.79968	8.84840	5.05959
1747.717	7.44818	1.05960	8.66367	5.06770
1751.712	7.25995	1.17571	8.69096	5.11208
1755.709	6.98732	1.16009	8.50020	5.18916
1759.717	6.70269	1.15444	8.22538	5.23783
1763.715	6.64528	1.06230	8.55013	5.25675
1767.718	10.43354	1.71357	8.64133	5.35530
1771.753	6.39280	1.34124	8.47070	5.40683
1775.723	5.55307	2.18609	8.59395	5.21816
1779.714	5.39822	1.40838	8.61302	5.09719
1783.713	9.91813	1.43867	8.53159	4.92518
1787.713	9.60287	2.73236	9.44455	5.26858
1791.716	9.89853	1.48137	9.45225	5.16710
1795.712	9.52862	1.76221	9.88690	5.05739
1799.712	9.82768	0.12186	9.93427	4.92221
1803.717	9.95401	1.20772	9.56798	5.17088
1807.716	10.20805	0.23255	9.62278	5.14596
1811.710	12.33288	0.87755	10.17529	5.00619
1815.716	14.99359	-2.41482	9.11404	4.93923
1819.713	10.46263	1.15330	8.33161	5.08195
1823.711	10.03655	0.77716	8.35814	5.17655
1827.707	10.52986	1.27080	7.16713	4.94198
1831.735	9.75868	2.03783	8.76297	4.75489
1835.717	11.44368	0.30224	8.14750	4.76786
1839.730	10.95024	0.27207	8.62777	4.26064
1843.721	7.75083	1.05565	8.96392	4.28176
1847.713	6.47806	2.88568	8.71482	4.79929
1851.708	11.07482	2.97519	7.90190	5.07261
1855.713	10.93088	2.22252	7.67933	5.21521
1859.712	10.00521	2.38994	7.32949	5.22506
1863.711	4.05488	0.14867	8.00097	6.05557
1867.708	11.23504	2.24022	11.84705	7.90385
1871.714	17.59789	1.22565	10.81195	10.49600
1875.711	18.56565	3.55681	4.21029	10.65138
1879.742	11.42709	8.92330	20.10771	13.65164
1883.719	NaN	NaN	NaN	NaN
1887.716	NaN	NaN	NaN	NaN
1891.712	NaN	NaN	NaN	NaN
1895.713	NaN	NaN	NaN	NaN
1899.712	NaN	NaN	NaN	NaN
1903.713	NaN	NaN	NaN	NaN
1908.197	2.97906	14.11754	NaN	NaN
1911.739	NaN	NaN	-7.46272	14.80226
1915.718	NaN	NaN	NaN	NaN
1919.710	NaN	NaN	-7.46238	14.90238
1923.713	NaN	NaN	-7.46394	15.03572
1927.718	NaN	NaN	-7.47170	15.03510
1931.713	NaN	NaN	-7.48156	15.03315
1935.710	NaN	NaN	NaN	NaN
1939.714	NaN	NaN	NaN	NaN
1943.710	NaN	NaN	NaN	NaN
1947.709	NaN	NaN	NaN	NaN
1951.704	NaN	NaN	NaN	NaN
1955.714	NaN	NaN	NaN	NaN
1960.831	NaN	NaN	NaN	NaN
1971.717	NaN	NaN	-7.51081	15.02880
1975.708	NaN	NaN	NaN	NaN
1979.712	NaN	NaN	NaN	NaN
1983.710	NaN	NaN	NaN	NaN
1987.712	NaN	NaN	NaN	NaN
1991.713	NaN	NaN	NaN	NaN
1995.731	NaN	NaN	NaN	NaN
1999.974	NaN	NaN	NaN	NaN
2004.180	NaN	NaN	NaN	NaN
2008.088	NaN	NaN	NaN	NaN
2012.257	NaN	NaN	19.75074	8.81441
2016.028	21.80964	-3.88665	18.82547	7.48689
2020.107	NaN	NaN	1.96947	7.20505
2023.981	22.50107	2.80948	16.66057	2.65207
2027.943	NaN	NaN	16.62819	5.79532
2031.839	22.42426	-5.21964	16.89900	2.88387
2035.900	22.65200	-5.71265	16.83327	2.66179
2039.983	3.25337	4.25267	13.92720	1.85709
2045.067	22.94925	-4.20615	14.59617	2.16497
2049.285	9.51628	2.62367	2.86279	-2.07612
2053.371	7.69946	-1.33917	12.07652	2.90200
2057.352	7.31059	1.42217	9.48253	2.71327
2061.222	NaN	NaN	9.52292	1.12623
2065.144	NaN	NaN	9.66407	2.62627
2068.947	14.14569	-4.60141	10.21378	2.11714
2072.821	14.23349	-5.90342	12.22191	3.12154
2076.741	14.22309	-4.18915	13.24525	1.85026
2080.552	14.55121	-6.15041	12.74513	0.43538
2084.340	13.95018	-5.93859	12.05492	0.99477
2088.062	15.75260	-3.49772	10.61507	0.18787
2091.712	14.24657	-3.03975	10.47972	0.02900
2095.761	16.30243	-3.61756	10.19688	0.24488
2099.713	13.94366	-3.36447	10.28794	0.03286
2103.726	13.40955	-4.25741	9.73501	0.51332
2107.717	13.02573	-3.29917	9.04819	1.28546
2112.355	15.59409	-4.74455	8.73368	0.79369
2116.022	13.85080	-4.67403	9.64598	0.51368
2119.722	12.68649	-5.01370	9.60820	0.52944
2123.713	13.99641	-4.31109	9.88107	0.70123
2127.709	14.53507	-2.94295	9.69709	-0.00931
2131.713	15.40936	-2.88565	10.15418	-0.33911
2135.724	15.97301	-3.40310	10.41253	-0.71857
2139.723	16.01821	-4.06540	9.80065	-0.23294
2143.716	15.54559	-3.92556	9.62608	-0.11943
2147.712	12.72251	-0.70842	9.94098	-1.03045
2151.713	15.53133	-4.17934	10.01551	-0.96439
2155.713	13.33767	-4.11832	9.97024	-1.51710
2159.713	15.80661	-4.98116	10.18829	-0.87206
2163.710	15.95576	-4.77922	9.76608	-0.73211
2167.710	17.44049	-5.68858	10.13239	-0.25369
2171.711	14.18617	-2.68497	9.53950	-0.11831
2175.718	12.95600	-5.03078	9.61884	0.29615
2180.315	13.42136	-2.44361	12.63560	-1.63044
2184.018	16.26136	-3.85079	10.75850	-0.55256
2187.707	13.10535	-2.90757	10.40185	-1.90280
2191.721	12.77646	-3.28399	10.88807	-1.76430
2195.714	13.36882	-3.91689	4.30112	-2.18370
2199.710	12.60545	-2.46572	7.86130	0.00793
2203.711	12.57165	-1.94985	9.24433	-2.59866
2207.712	9.74909	-4.45407	11.31999	-0.36843
2211.960	13.81457	-4.33594	10.55474	0.67056
2215.722	13.17929	-3.68838	9.54505	0.28889
2219.723	13.52088	-4.47967	11.01964	0.45278
2223.724	16.30369	-4.52013	10.36387	0.22796
2227.721	12.85216	-4.66834	10.48605	0.47194
2231.709	13.22914	-5.64106	10.13676	0.59072
2235.712	13.19381	-3.96435	9.75027	0.58711
2239.711	13.33751	-3.11965	9.65961	0.62359
2243.711	12.90619	-2.69772	9.89328	0.64359
2248.217	13.51494	-2.53603	9.98846	0.53774
2251.926	13.43047	-2.45603	9.87066	0.55272
2255.719	13.15640	-3.52742	10.09354	0.47629
2259.714	12.97922	-2.86483	9.79510	0.30880
2263.711	13.41937	-2.65482	9.88432	0.12005
2267.882	12.85024	-1.85404	9.81147	0.47920
2271.976	13.56950	-3.29899	9.65071	-3.57488
2275.720	14.05890	-3.48713	11.52564	-0.89073
2279.710	14.98961	-3.59598	10.46815	-0.95913
2283.711	19.53699	-7.46437	9.98834	-0.27913
2287.727	5.92815	-5.62439	10.22632	-1.13180
2291.721	18.57930	-5.54747	10.89920	-0.19989
2295.719	20.82024	-8.54292	10.40468	-0.23453
2299.722	13.75654	-4.04251	10.97480	-1.13296
2303.716	13.80046	-3.87686	10.78099	-1.07077
2307.745	16.34718	-4.48062	9.70027	0.24523
2311.709	13.73943	-3.78605	10.77543	-0.75621
2316.202	9.55922	-3.57262	10.53610	0.20323
2319.771	9.92969	-0.03275	8.41002	0.83656
2323.721	6.62471	0.21526	4.65424	2.03137
2327.709	4.14542	-3.00742	4.05132	1.71750
2331.707	7.02986	-1.48244	3.66520	1.18066
2335.848	3.22121	1.43651	0.69647	1.64010
2339.707	3.07132	-1.90524	-1.72788	0.82056
2343.715	2.61778	-0.01365	-5.02418	1.55197
2347.714	6.33378	1.79297	0.98613	1.81714
2351.709	5.48295	1.40487	1.59881	1.40561
2355.784	4.26494	2.47459	0.82300	2.02413
2359.714	3.35743	-1.24871	0.90396	2.16698
2363.709	2.28692	-1.58252	1.82906	1.00312
2367.707	1.00243	-2.09991	1.92404	0.66292
2371.709	2.55329	-2.30089	0.52555	1.19572
2375.881	2.21068	-1.86829	0.88064	0.59825
2524.619	NaN	NaN	NaN	NaN
2592.127	3.10322	-0.99720	-0.22433	0.48497
2595.828	-1.98688	1.24795	-6.30119	0.65215
2599.823	-2.49986	0.51849	-2.63945	1.03540
2603.825	-3.82707	-0.78584	-5.51479	0.55383
2607.699	-3.50101	-1.13463	-7.52898	2.19016
2611.695	-7.18860	-1.64465	-9.67107	0.22144
2615.699	-6.52635	0.12749	-9.33024	0.68708
2619.695	-9.70753	-1.05846	NaN	NaN
2623.694	-9.30481	-0.84816	-11.71637	1.40007
2627.695	-8.54508	-1.05137	-10.76781	1.82569
2631.700	-9.76635	-0.84425	-10.31994	1.52891
2635.700	-9.32659	-1.31317	-9.22886	1.18973
2639.696	-9.35650	-1.20726	-9.85349	0.50291
2643.697	-9.46464	-1.45223	-10.89578	0.25465
2647.701	-9.49477	-1.76419	-9.09185	1.76618
2651.696	-9.47485	-1.42370	-9.25818	1.96485
2655.695	-9.51437	-1.49353	-10.70994	1.52502
2659.699	-9.54824	-1.06106	-11.53498	0.50040
2663.735	-9.51993	-0.97550	-11.77358	-1.49369
2667.704	-9.69494	0.91613	-10.93729	-1.61558
2671.694	-7.81985	-0.89888	-11.91362	-2.08130
2675.701	-8.40448	-1.45592	-10.70136	1.10317
2679.695	-8.68536	-1.39423	-10.18387	1.52345
2683.692	-9.17655	-1.34830	-10.29478	1.26127
2687.695	-8.82129	-0.84020	-10.75284	1.72669
2691.694	-9.29749	-1.38967	-11.01553	0.87119
2695.693	-9.26423	-0.91936	-11.54254	0.53444
2699.698	-8.68477	-1.20450	-10.74669	0.78926
2703.695	-8.85516	-0.45528	-10.75059	1.40376
2707.696	-8.76263	0.15548	-10.53627	1.70394
2711.698	-8.01338	-0.97851	-9.54481	1.81569
2715.699	-8.61916	-1.38716	-9.89646	1.81134
2719.699	-7.53671	-0.47322	-9.70765	1.01931
2723.699	-8.98249	-0.66387	-11.03796	1.47699
2727.695	-8.39647	-0.06706	-10.65995	0.82940
2731.722	-8.12863	-0.27108	-10.07110	0.52256
2735.704	-9.08326	-0.13007	-11.01070	1.11598
2739.694	-8.62717	-0.16109	-10.96535	-0.73090
2743.698	-8.24789	0.07560	-8.95661	0.27901
2747.694	-8.53246	-0.10211	-6.26100	-0.16545
2751.696	-8.89785	-0.11895	-9.43262	0.64839
2755.694	-8.61805	-0.47077	-9.67401	0.88589
2759.699	-8.89264	-1.74789	-9.92430	0.69725
2763.693	-7.77921	-0.91361	-10.18065	0.31284
2767.699	-8.67587	13.78181	-10.98009	0.10370
2771.712	-8.28979	13.65976	-8.21371	0.11579
2775.692	-8.14628	14.86244	-7.86544	-0.25002
2779.698	-11.02438	13.99419	-9.87912	2.10121
2783.693	-9.95991	13.94010	-10.10939	1.55612
2787.692	-8.84530	-1.09096	-8.03859	0.49174
2791.696	-6.99956	-0.20399	-10.29774	1.50451
2795.691	-8.43190	-0.04840	-10.70869	0.82046
2799.718	-8.00491	0.22764	-9.91377	-0.06984
2803.707	-8.36856	-1.13323	-10.58678	0.57702
2807.693	-8.71957	-1.55250	-10.59013	0.14375
2811.692	-9.21568	-1.76309	-8.29105	-0.85390
2815.691	-7.77127	-1.70334	-11.15620	1.36602
2819.697	-10.71305	-2.36530	-10.18695	1.86332
2823.693	-8.42287	-0.79628	-9.63937	1.34278
2827.691	-10.12248	-1.12021	-9.90388	2.32632
2831.724	-7.97135	0.03376	-8.49044	1.27093
2835.703	-10.61159	-2.04946	-10.49459	1.94575
2839.691	-8.11875	0.23299	-9.83705	1.35774
2843.708	-8.59946	-0.76572	-10.18096	1.39341
2847.692	-9.34225	0.71243	-10.84032	1.49668
2851.691	-8.26495	0.19132	-11.70292	-1.37949
2855.690	-8.49668	0.00627	-10.88570	1.43442
2859.696	-8.55127	-0.46943	-7.67155	-2.51305
2863.690	-8.25248	-0.21375	-11.50151	-0.47199
2867.697	-7.46587	-0.62739	-4.04972	-3.33547
2871.693	-8.53457	-0.19062	-11.09054	0.05904
2875.687	-8.71290	-0.68735	-11.11074	0.17090
2879.696	-6.81764	-0.30763	-4.33628	-3.38485
2883.696	-8.52826	-0.98263	-11.28815	-0.35397
2887.697	-8.50663	-0.50119	-11.33480	-0.85442
2891.690	-6.78094	-0.59951	-5.43219	-0.77721
2895.695	-8.58476	-0.97409	-12.26422	-0.42622
2899.694	-8.44025	-0.87867	-12.89659	-1.39178
2903.690	-8.13407	-0.38428	-11.52369	-0.75697
2907.692	-8.14499	-0.47336	-7.84143	-1.31477
2911.690	-8.49008	-0.57741	-12.32149	-1.64571
2915.696	-8.05287	-0.58770	-11.30966	-0.86697
2919.691	-8.28741	0.12573	-12.25294	-2.18966
2923.696	-8.86003	7.25515	-10.43515	-0.83531
2927.701	-9.27160	-0.51579	-7.89571	-0.00554
2931.695	-8.99039	7.12272	-12.53098	0.03493
2935.720	-11.80668	-0.65880	-13.90218	-0.20899
2939.701	-11.80181	-0.28322	-12.93250	-0.60659
2943.692	-11.86638	-1.81775	-14.91281	-0.18357
2947.691	-8.95750	2.21200	-16.15438	-0.96551
2951.689	-12.15251	-1.91488	-16.19631	-1.99252
2955.696	-12.59583	-2.50751	-16.89930	-2.89318
2959.692	-13.02474	-3.03463	-16.85575	-2.98635
2963.690	-12.92140	-3.18771	-15.88397	-3.11556
2967.702	-12.85565	-2.73592	-17.22038	-3.30320
2971.725	-12.95711	-3.91319	-15.27755	-3.14168
2975.690	-13.09080	-3.90461	-14.55088	-3.34219
2979.688	-12.94235	-4.05309	-14.46324	-3.51321
2983.693	-13.04252	-4.10787	-16.49629	-3.43920
2987.690	-13.07869	-7.08099	-16.06236	-3.32879
2991.688	-13.09609	-5.24396	-15.93336	-3.28214
2995.693	-12.97446	-4.10400	-15.79363	-3.47615
2999.690	-13.08366	-4.02198	-15.05998	-3.61889
3003.693	-12.93688	-4.08163	-12.98871	-5.84791
3007.697	-12.98784	-4.26017	-16.81044	-3.45289
3011.691	-12.97606	-4.40186	-14.78542	-3.34978
3015.691	-12.95442	-4.26445	-14.92143	-2.53892
3019.693	-12.98770	-4.36428	-15.42311	-2.02102
3023.687	-13.05675	-4.09251	-15.58709	-2.05929
3027.693	-13.07083	-1.64075	-16.13846	-2.02624
3031.690	-12.91654	-1.33822	-15.75456	-1.67890
3035.688	-12.95211	-1.17961	-16.32805	-1.99237
3039.686	-12.95303	-1.73783	-11.02244	-3.01180
3043.692	-12.87098	-3.01830	-16.51931	-2.29852
3047.689	-12.90534	-2.74580	-17.11186	-2.37187
3051.694	-12.92319	-2.59417	-16.45756	-2.25523
3055.687	-13.00502	-2.78069	-16.98934	-3.00754
3059.693	-12.79678	-2.68581	-15.85168	-1.78879
3063.688	-10.33444	-2.06270	-16.00686	-1.82943
3067.686	-10.76745	-2.56293	-15.86932	-1.62507
3071.696	-12.51700	-2.53053	-15.85154	-2.39660
3075.685	-11.41213	-2.57919	-15.46761	-2.45941
3079.698	-12.45520	-1.96849	-15.36315	-2.13405
3083.690	-12.47681	-2.26165	-14.75985	-2.61184
3087.693	-12.50165	-2.85147	-15.55229	-2.32508
3091.692	-13.07893	-2.62349	-15.42359	-2.92600
3095.689	-11.23210	-2.23564	-15.46327	-3.00243
3099.688	-11.12651	-2.44584	-15.55112	-2.88387
3103.691	-10.71930	-1.78447	-15.60613	-2.79467
3107.687	-10.86560	-1.88414	-15.64862	-2.87947
3111.689	-9.90469	-2.56078	-15.45740	-2.75635
3115.686	-10.44617	-2.40693	-15.18992	-2.91221
3119.692	-10.60399	-2.18398	-15.01253	-2.32459
3123.686	-10.85248	-2.42904	-15.24718	-2.03324
3127.690	-11.90994	-2.81723	-15.26492	-2.11011
3131.691	-12.15275	-2.20157	-15.04050	-2.38586
3135.696	-11.43441	-1.64947	-13.31441	-3.03073
3139.718	-12.00122	-2.31481	-15.64312	-2.46670
3143.694	-11.77287	-2.43104	-15.36449	-2.01580
3147.691	-11.92028	-2.27679	-15.44073	-2.10324
3151.694	-12.06627	-2.36910	-15.55160	-2.31875
3155.688	-12.04025	-2.71935	-16.49549	-2.79446
3159.686	-12.30616	-2.34103	-15.53992	-3.39570
3163.686	-12.78566	-2.41039	-15.58955	-4.05108
3167.691	-12.70782	-2.48009	-15.61426	-3.40755
3171.688	-12.52010	-2.28745	-15.60742	-2.74984
3175.692	-12.49280	0.00007	-15.54087	-2.16043
3179.686	-12.46237	0.45809	-15.73187	-1.29245
3183.691	-12.64664	-0.76383	-15.79836	-1.04224
3187.688	-12.49337	-1.80731	-15.18271	-2.51652
3191.685	-12.83647	-2.00796	-15.45255	-2.45179
3195.723	-13.48298	-2.17377	-15.28090	-1.91746
3199.687	-12.72719	-3.72190	-15.87021	-3.07297
3203.686	-12.37683	-2.02397	-15.56038	-0.82357
3207.688	-12.39620	-0.72852	-15.94903	-2.01146
3211.689	-12.14767	0.07582	-14.79584	-2.14747
3215.692	-12.30457	-0.91136	-15.43270	-2.81382
3219.684	-12.66497	-2.31380	-15.05841	-3.45622
3223.690	-12.51910	-0.82482	-15.27714	-3.39834
3227.686	-12.17520	-1.64327	-14.66745	-1.79691
3231.685	-12.20157	-0.51091	-14.72536	-1.66127
3235.680	-12.57975	-0.79514	-8.60790	-0.33571
3239.690	-9.40409	1.59440	-8.57983	-1.29465
3243.686	-9.14360	0.28483	-8.59075	-2.26600
3247.686	-8.31236	0.33948	-4.49746	3.18350
3251.683	-4.19055	1.09053	-7.38478	2.20289
3255.688	-4.47486	1.87772	-4.14297	3.54791
3259.691	-3.07258	1.50729	-8.66996	3.65067
3263.684	-2.75871	2.62124	-5.85531	3.75820
3267.681	-3.84718	3.47019	-4.58062	3.32441
3271.687	-3.87954	3.56194	-5.19660	3.46826
3275.681	-4.52340	3.18284	-7.20060	4.00194
3279.680	-5.39660	3.40803	-6.21799	4.58747
3283.686	-3.83317	2.99303	-5.71686	5.75520
3287.686	-1.68659	2.95897	-4.31166	6.76265
3291.684	-3.89496	8.76651	-5.87138	3.02802
3295.688	-0.69069	5.44677	-4.15910	2.96742
3299.690	-1.85306	5.54358	-5.35628	3.23686
3303.686	-4.70298	6.09634	-9.54578	2.97418
3307.680	-3.69575	3.49681	-4.95677	2.72440
3311.688	-3.63376	3.32387	-5.48755	3.06368
3315.684	-3.47151	3.80178	-6.11147	5.67286
3319.683	-3.51500	3.63566	-7.27614	5.76774
3323.680	-3.83136	3.48493	-5.55676	4.76805
3327.687	-3.99005	3.21524	-6.35454	4.58740
3331.688	-3.70183	3.56198	-7.21677	3.61175
3335.683	-0.97353	3.21613	-6.04178	2.55100
3339.692	-1.10016	3.27853	-5.75500	3.22482
3343.713	-3.61421	4.45700	-6.50854	4.57657
3347.694	-1.59529	3.68237	-7.36391	4.70923
3351.685	-4.58257	4.98696	-6.13647	3.15704
3355.685	-3.93231	5.92971	-5.81167	4.40155
3359.680	-3.81066	2.85049	-5.70595	4.57682
3363.690	-1.50006	3.37687	-7.58885	4.52552
3367.682	-1.83276	3.60672	-6.66712	4.01456
3371.682	-6.40268	4.55576	-4.97342	1.69756
3375.686	-2.84744	3.28853	-5.93824	2.77056
3379.685	-5.49178	2.58391	-5.81639	2.89395
3383.687	-5.05671	3.65614	-5.87747	4.11903
3387.691	-4.00025	3.71659	-6.49323	4.11565
3391.687	-4.77190	3.15790	-6.21024	3.56997
3395.688	-3.85582	4.15469	-5.44043	3.14818
3399.688	-3.24350	3.43913	-6.39530	5.40977
3403.685	-3.94268	3.81948	-6.98707	5.52617
3407.704	-3.01279	3.47467	-6.13314	4.67865
3411.709	-3.02195	2.41306	-5.82537	3.81427
3415.685	-3.92097	2.31358	-5.80545	2.95715
3419.686	-4.63592	2.33385	-5.72853	3.40853
3423.688	-4.24594	3.04304	-5.87850	2.62951
3427.678	-4.28723	3.36499	-6.75754	2.41231
3431.683	-3.94515	3.09372	-5.93389	2.29222
3435.688	-3.91931	3.03955	-6.34618	1.39433
3439.682	-3.97447	3.15559	-7.01370	1.44257
3443.681	-3.84169	3.01933	-7.42393	2.02085
3447.681	-4.18410	3.37344	-5.67735	3.67981
3451.685	-4.29006	2.84485	-8.27190	2.87231
3455.684	-4.70200	2.94900	-8.70391	3.27857
3459.555	-4.45029	2.77912	-7.63155	2.76765
3463.559	-4.40542	2.95456	-8.66251	2.38300
3467.557	-4.51694	2.98593	-7.74825	1.83413
3471.560	-4.38289	2.81183	-7.52944	2.25898
3475.553	-4.46838	2.96632	-8.01983	2.79918
3479.596	-4.67572	2.89798	-7.77982	3.29749
3483.568	-4.83274	2.97163	-7.81483	2.46239
3487.556	-4.44563	3.23613	-7.68852	2.41352
3491.555	0.39132	3.59935	-7.34799	2.34852
3495.560	-3.96024	5.95583	-7.04829	2.25619
3499.555	3.14075	2.86870	-6.51084	2.38064
3503.560	-1.59276	5.71348	-5.86587	2.14562
3507.554	3.59540	3.75589	-5.40255	2.15741
3511.563	-1.50666	5.11029	-8.12768	1.58683
3515.561	-4.89631	5.09696	-8.30901	2.06308
3519.556	-3.86272	1.88347	-8.33192	2.34209
3523.563	-4.88027	2.44876	-7.89498	2.46152
3527.557	-4.97145	2.75407	-7.24615	2.84587
3531.555	-4.51364	2.49775	-7.76698	2.26694
3535.554	-4.41245	2.43671	-6.99201	2.17918
3539.558	-4.47550	2.34198	-4.85024	1.70666
3543.556	-4.83696	2.10700	-7.56093	-0.81124
3547.616	-4.79218	2.03362	-6.99411	-0.11730
3551.565	-5.56296	1.95721	-4.59070	2.69958
3555.560	-4.97812	1.26475	-4.06006	-4.34730
3559.562	-10.13621	0.50306	-4.13021	-1.13531
3563.554	-5.12656	1.93843	0.93274	-0.24498
3567.572	-4.86771	1.74911	-3.77048	-0.73331
3571.564	-5.88451	2.51971	-2.09690	-2.76430
3575.557	-0.44721	-0.43191	0.27103	-1.01808
3579.563	-4.49955	1.87358	-1.59412	1.18065
3583.560	-5.83400	1.23877	-3.59372	-1.38584
3587.552	-6.01142	1.43355	-1.71399	-1.81131
3591.559	-3.60165	1.11666	-0.31622	1.08710
3595.558	-3.86608	1.45992	2.12843	0.15843
3599.559	-0.43031	-0.47614	-5.28628	3.45879
3603.551	-3.55533	1.40526	-0.94048	4.05711
3607.559	-2.89059	0.79034	-2.96614	6.14923
3611.557	-3.09750	1.27527	-5.92159	6.81484
3615.575	-2.69854	0.61128	-0.79957	3.08779
3619.558	-3.19603	1.46566	0.58347	3.97956
3623.558	-5.90504	1.60885	-3.40277	4.34938
3627.554	1.73777	-3.54654	-3.65747	6.59589
3631.553	-2.80261	1.26730	0.91458	3.25576
3635.559	-4.50187	1.70545	-3.54650	8.21285
3639.596	-4.79955	1.98873	-5.47943	1.62796
3643.558	-5.03871	-6.86062	-5.50655	3.18201
3647.558	-2.79444	1.80352	-3.10718	2.24070
3651.554	2.09700	2.64990	-2.98779	2.55313
3655.552	-3.52959	-9.83791	-4.42022	2.72926
3659.551	1.57448	1.59812	-5.18203	1.66658
3663.556	5.03669	2.25160	-2.43793	0.71986
3667.553	10.87211	-12.36409	-1.75592	1.74025
3671.552	-19.99372	-11.96620	-0.86074	1.69465
3675.554	4.58871	-10.48725	-1.36166	0.33415
3679.558	4.47948	-11.77515	-0.03261	0.16080
3683.562	-19.99372	-11.91007	-2.28712	-0.88835
3687.553	-19.99372	-11.95051	-4.25425	-0.99886
3691.552	-19.99372	-11.97583	-3.32521	-2.35418
3695.552	-19.99372	-11.99326	0.00499	-0.26956
3699.555	-19.99372	-12.00615	-2.10270	-0.64619
3703.553	-19.99372	-12.01605	0.46190	0.20505
3707.558	-19.99372	-12.02393	-1.58465	-1.09696
3711.557	-19.99372	-12.04538	0.26269	1.12586
3715.552	-19.99372	-12.04678	4.61188	0.48028
3719.555	-19.99372	-12.05259	4.48591	1.24599
3723.561	5.64656	-1.97441	6.29945	1.22844
3727.552	4.82695	-2.68342	6.26216	0.56427
3731.551	1.87374	-2.10171	6.76613	1.16492
3735.555	0.14161	-1.17867	4.32989	1.21977
3739.552	5.44436	-2.00148	1.25810	2.98724
3743.552	NaN	NaN	3.67524	2.80114
3747.549	NaN	NaN	-3.48620	-0.84726
3751.579	NaN	NaN	-3.95387	-0.89076
3755.559	NaN	NaN	-3.79714	-1.14712
3759.554	2.21177	-2.61097	-2.55767	-1.67507
3763.554	7.97320	-4.01305	-4.01055	-2.91450
3767.555	4.66578	-1.86473	-3.89799	-4.19601
3771.554	1.93093	-5.77655	-0.08086	-0.49796
3775.552	2.40042	-2.40490	3.55790	3.17090
3779.555	4.48091	-3.23773	-0.80287	-1.00470
3783.553	2.03960	-2.02522	5.74890	12.25036
3787.550	4.56410	-3.86731	7.79866	11.96758
3791.555	2.53835	-4.57516	7.82942	9.68992
3795.552	3.26139	-2.53459	14.22790	11.63629
3799.550	4.21471	-4.37291	7.67952	10.27810
3803.553	2.70545	-4.07945	3.43899	11.96646
3807.555	4.59186	-5.27048	6.77908	11.67425
3811.553	2.85955	-3.35184	4.25354	12.07686
3815.550	4.29502	-2.67569	13.10382	12.11441
3819.573	4.02739	-2.90381	10.07266	14.10361
3823.560	2.93869	-2.70301	NaN	NaN
3827.553	5.01292	-2.69845	8.50549	14.72986
3831.561	2.87091	-1.78721	14.09460	11.51299
3835.553	4.42076	0.84448	NaN	NaN
3839.549	5.03782	-3.07569	8.25316	14.89586
3843.554	4.03542	-3.05603	8.68279	12.44676
3847.556	3.26386	-2.46161	3.60727	1.83246
3851.556	5.04023	-2.84414	8.55637	12.63272
3855.549	5.41718	-3.45901	3.25961	0.59991
3859.553	8.40919	-2.67511	3.32014	0.23483
3863.550	8.73637	-2.55636	3.22703	0.15610
3867.551	5.27351	-11.92419	2.76901	1.36718
3871.549	2.34902	-3.54351	3.77587	-2.16877
3875.551	5.78566	-13.53468	3.40484	0.24582
3879.551	12.83069	-6.49163	2.99096	2.77335
3883.550	8.42350	-2.59448	3.14993	2.61360
3887.602	8.85761	-2.76603	3.17779	2.66325
3891.585	10.88381	-4.11998	3.09913	1.77395
3895.559	-19.99372	-12.08631	3.10584	1.72775
3899.547	5.84635	-4.82364	3.11252	1.14998
3903.546	8.54527	-4.62355	3.10740	0.48197
3907.553	8.38940	-4.32860	2.89208	1.09082
3911.550	6.38998	-4.15031	2.75844	0.01603
3915.548	9.72438	-3.90955	2.56265	-0.09915
3919.546	3.86546	-6.66414	2.78800	0.25306
3923.552	5.05119	-7.52982	2.76953	0.19387
3927.555	8.32390	-4.38648	-1.67397	-4.32261
3931.554	9.23290	-5.03407	-0.05696	-1.65581
3935.549	4.19200	-3.94237	2.46461	0.35466
3939.552	3.73290	-4.80795	2.28891	0.42703
3943.550	4.76510	-0.51011	2.03157	0.63062
3947.549	9.44781	-1.92960	2.46761	0.49969
3951.546	4.49062	-3.32865	2.40493	0.60849
3955.546	3.75197	-3.62359	2.55059	0.75001
3959.555	3.91472	-2.03287	3.34019	-0.01047
3963.549	4.40123	-3.25734	3.12430	0.68513
3967.549	5.02558	-3.71025	2.74598	0.73703
3971.553	5.77423	-5.26271	2.73841	0.93199
3975.554	6.12308	-3.33477	2.75903	0.40283
3979.549	10.11536	-8.36652	2.77507	-0.00278
3983.547	10.04198	-5.53821	2.72647	-0.52818
3987.553	6.90481	-2.97988	2.65047	2.34586
3991.553	3.68604	-2.47471	2.55289	1.99912
3995.547	6.99690	-3.13124	3.25419	0.90280
3999.545	4.02883	-1.63661	3.26441	1.05329
4003.552	5.90792	-1.99555	2.97606	0.15433
4007.550	6.80514	-2.54334	2.88222	-0.31012
4011.554	3.77822	-1.48693	3.30980	1.67278
4015.549	3.80399	-0.14869	3.33285	1.61286
4019.550	4.31810	1.46031	2.89490	0.54577
4023.551	7.37636	-2.23354	4.26501	-0.97719
4027.551	8.31846	-3.75548	3.52991	0.03948
4031.546	6.72132	1.38397	3.38095	1.91051
4035.547	3.75286	1.62553	3.76492	0.87658
4039.552	3.77300	1.64474	3.51760	0.37659
4043.579	4.46929	1.01001	8.41417	-3.85788
4047.546	8.48741	-5.02897	3.77547	0.50635
4051.547	4.03317	-0.30360	3.62781	2.02455
4055.555	4.17253	-3.46652	1.86910	2.48008
4059.547	3.36193	-1.41306	7.22883	-0.87955
4063.547	3.14454	-1.97309	-1.22055	2.75957
4067.543	-0.46602	0.61087	-1.70608	2.54498
4071.550	1.93913	1.55314	-3.75316	0.39792
4075.546	1.40777	0.60621	-3.90706	2.72552
4079.599	-6.35491	-2.79557	-4.03680	2.02224
4083.551	-4.13930	1.04226	-4.23969	1.82823
4087.543	-4.44351	1.56536	-4.59985	1.54646
4091.570	-6.16854	-1.51593	-7.39979	1.73756
4095.551	3.76228	-3.76978	-6.89429	2.38847
4099.552	2.57025	-3.04838	-4.70064	2.04004
4103.547	1.04523	-3.02834	-5.14786	2.53676
4107.547	-12.00699	-9.59548	-7.48612	2.60326
4111.544	-4.50486	-0.66736	-3.83473	0.90186
4115.549	1.43302	-3.87401	-6.44780	1.35603
4119.546	3.72746	-3.37497	-6.63803	1.43632
4123.546	1.60303	-2.72313	-4.36543	1.90332
4127.540	-4.20550	-0.94494	-5.78725	1.36383
4131.555	-6.80365	-0.45725	-7.59846	1.72493
4135.550	2.67353	-3.22406	-6.11290	2.23855
4139.551	0.87155	-3.26318	-4.76835	2.37961
4143.550	0.16980	-2.44106	-5.56352	2.49947
4147.546	-8.19370	-1.71782	-10.30785	-1.54213
4151.545	-7.17741	-1.45519	-7.13676	1.12925
4155.543	2.89371	-3.58909	-4.75122	5.30926
4159.558	-7.84211	-4.72626	-5.38631	0.24279
4163.546	-2.03749	-3.41727	-5.94597	2.06115
4167.544	0.13938	-3.56224	-7.14155	2.84018
4171.542	0.92478	-4.69365	-6.44415	2.76545
4175.549	-11.74551	-7.11182	-6.22755	2.02336
4179.551	-7.80533	-1.57000	-6.13113	1.30961
4183.552	0.36916	-4.12682	-6.85530	4.79655
4187.548	-1.55184	-1.51015	-3.61587	2.25496
4191.545	-1.95748	-3.85077	-5.67126	1.90053
4195.545	0.77491	-3.65887	-4.16297	1.25982
4199.541	0.66119	-6.86906	-5.51691	4.59806
4203.547	0.89848	-3.76573	-6.65191	1.32464
4207.549	-1.38582	-3.70573	-7.08637	2.17901
4211.543	-12.96477	-4.42308	-6.89708	1.66239
4215.549	-0.63312	-3.70198	-5.02620	1.90139
4219.549	-2.74375	-1.64099	-7.13358	1.32462
4223.544	-12.68760	-4.71877	-7.66336	1.00570
4227.573	-9.45725	-2.03594	-6.09719	2.14326
4231.549	1.05629	-3.68528	-5.96215	1.41718
4235.549	-12.24014	-1.57665	-7.30805	2.93045
4239.546	0.85468	1.29996	-5.50419	3.10888
4243.543	0.23966	-1.65237	-3.95960	5.44657
4247.543	-12.65292	2.53776	-4.06362	5.64969
4251.550	0.18057	5.74665	-12.26242	3.35030
4255.546	0.10203	8.30428	-5.96112	-1.20667
4259.545	-15.39144	3.19005	NaN	NaN
4263.550	NaN	NaN	NaN	NaN
4267.576	7.96904	8.87981	NaN	NaN
4271.548	NaN	NaN	NaN	NaN
4275.542	NaN	NaN	NaN	NaN
4279.547	NaN	NaN	NaN	NaN
4283.542	NaN	NaN	NaN	NaN
4287.543	NaN	NaN	NaN	NaN
4291.580	NaN	NaN	NaN	NaN
4296.079	NaN	NaN	NaN	NaN
4300.003	NaN	NaN	NaN	NaN
4303.554	NaN	NaN	NaN	NaN
4307.556	NaN	NaN	NaN	NaN
4311.420	NaN	NaN	NaN	NaN
4315.418	NaN	NaN	NaN	NaN
4319.420	NaN	NaN	NaN	NaN
4323.422	NaN	NaN	NaN	NaN
4327.419	NaN	NaN	NaN	NaN
4331.421	NaN	NaN	NaN	NaN
4335.479	NaN	NaN	NaN	NaN
4339.466	NaN	NaN	NaN	NaN
4343.599	NaN	NaN	NaN	NaN
4347.783	NaN	NaN	NaN	NaN
4351.836	NaN	NaN	NaN	NaN
4355.910	NaN	NaN	NaN	NaN
4359.420	-3.78840	3.87927	-20.70682	5.87538
4363.460	-3.58000	-2.87971	0.52858	-1.94210
4367.417	-7.50776	0.94865	-0.72960	3.17457
4371.418	-12.29346	2.37476	0.24666	3.07548
4375.416	-5.97533	-1.25303	0.28811	-0.97776
4379.420	-2.36646	-3.01037	-5.01403	3.75885
4383.414	1.37957	7.79412	-4.02641	-12.23303
4387.417	-2.84982	2.53905	-10.87381	-9.25997
4391.420	1.99515	4.66935	-4.61704	3.86152
4395.416	-0.42529	3.14078	-4.45831	2.67206
4399.422	-9.81597	0.48482	-5.95488	5.75502
4403.416	1.13419	-0.01694	-5.71718	-0.70422
4407.413	0.31570	2.22307	-5.68902	0.84527
4411.421	-0.95442	1.08694	-5.49069	-1.25301
4415.416	2.73199	-1.34316	-4.80450	0.87890
4419.416	-7.15555	-0.65579	-6.11461	1.99094
4423.414	0.53463	0.21948	-3.99593	5.15123
4427.420	-1.95549	0.98078	-5.17307	2.49277
4431.424	-11.77796	-0.40368	-3.61325	1.79155
4435.424	-6.48247	-1.49283	-4.32123	1.10251
4439.415	-3.08194	-1.70134	-5.58931	0.58512
4443.419	-2.61157	-0.89148	-5.61369	2.22056
4447.417	-7.21471	3.34685	-5.92655	1.17053
4451.417	-1.78857	3.67493	-6.77240	0.23301
4455.412	-8.21784	5.41672	-6.72482	0.82683
4459.421	NaN	NaN	-7.09404	-0.48626
4463.416	NaN	NaN	-4.67720	0.16113
4467.413	NaN	NaN	NaN	NaN
4471.421	NaN	NaN	-3.72790	-0.70558
4475.614	NaN	NaN	-4.53181	1.33469
4479.420	-0.07664	5.11976	-5.52942	0.79701
4483.423	-5.18609	7.00570	-5.15576	-0.21323
4487.416	-7.21662	5.77352	-2.87762	0.26076
4491.414	-0.71848	-2.34161	-4.55191	-0.27287
4495.412	-4.83930	-1.93314	-2.93676	1.72834
4499.418	2.01367	-5.55787	-5.36983	1.46031
4503.418	-0.99581	-3.10004	-3.80663	-0.29969
4507.413	-3.48378	-1.87334	-2.84034	-0.67645
4511.412	0.71861	-3.30303	-5.68797	-0.37597
4515.422	-10.70045	-6.83328	-6.26775	0.98894
4519.418	1.53123	-5.91800	-5.20945	0.21923
4523.413	-0.12823	-1.93243	-6.67995	1.82739
4527.418	-2.69302	1.44134	-5.85846	6.56887
4531.415	0.86982	-1.76477	-6.21215	5.39265
4535.416	4.35516	-1.23088	-4.29246	4.10755
4539.412	0.51528	-5.34767	-4.41980	-2.41072
4543.419	-0.16325	6.17075	NaN	NaN
4547.414	NaN	NaN	NaN	NaN
4551.411	NaN	NaN	NaN	NaN
4555.411	NaN	NaN	NaN	NaN
4559.421	NaN	NaN	NaN	NaN
4563.419	NaN	NaN	NaN	NaN
4568.218	NaN	NaN	NaN	NaN
4572.164	NaN	NaN	NaN	NaN
4576.279	NaN	NaN	NaN	NaN
4581.951	NaN	NaN	NaN	NaN
4586.145	NaN	NaN	NaN	NaN
4591.417	NaN	NaN	NaN	NaN
4595.438	NaN	NaN	NaN	NaN
4599.428	NaN	NaN	NaN	NaN
4603.417	NaN	NaN	NaN	NaN
4607.417	NaN	NaN	NaN	NaN
4611.418	NaN	NaN	NaN	NaN
4615.415	NaN	NaN	NaN	NaN
4619.413	NaN	NaN	NaN	NaN
4623.418	NaN	NaN	NaN	NaN
4627.417	NaN	NaN	NaN	NaN
4631.415	NaN	NaN	NaN	NaN
4635.686	NaN	NaN	NaN	NaN
4639.424	NaN	NaN	NaN	NaN
4643.424	NaN	NaN	NaN	NaN
4647.415	2.90534	13.94374	NaN	NaN
4651.484	NaN	NaN	NaN	NaN
4659.417	NaN	NaN	NaN	NaN
4663.432	NaN	NaN	NaN	NaN
4667.643	NaN	NaN	NaN	NaN
4671.754	NaN	NaN	NaN	NaN
4675.950	NaN	NaN	NaN	NaN
4680.148	NaN	NaN	NaN	NaN
4684.277	NaN	NaN	NaN	NaN
4687.837	NaN	NaN	NaN	NaN
4692.015	NaN	NaN	NaN	NaN
4696.239	NaN	NaN	NaN	NaN
4700.552	NaN	NaN	NaN	NaN
4705.232	NaN	NaN	NaN	NaN
4709.188	NaN	NaN	NaN	NaN
4713.297	NaN	NaN	NaN	NaN
4717.421	NaN	NaN	NaN	NaN
4720.437	NaN	NaN	NaN	NaN
4723.517	NaN	NaN	NaN	NaN
4727.428	NaN	NaN	NaN	NaN
4731.422	NaN	NaN	NaN	NaN
4735.530	NaN	NaN	NaN	NaN
4739.639	NaN	NaN	NaN	NaN
4743.809	NaN	NaN	NaN	NaN
4747.879	NaN	NaN	NaN	NaN
4751.908	NaN	NaN	NaN	NaN
4755.950	NaN	NaN	NaN	NaN
4760.011	NaN	NaN	NaN	NaN
4764.046	NaN	NaN	NaN	NaN
4768.145	NaN	NaN	NaN	NaN
4773.081	NaN	NaN	NaN	NaN
4777.179	NaN	NaN	NaN	NaN
4781.152	NaN	NaN	NaN	NaN
4785.246	NaN	NaN	NaN	NaN
4789.338	NaN	NaN	NaN	NaN
4793.480	NaN	NaN	NaN	NaN
4797.576	NaN	NaN	NaN	NaN
4801.813	NaN	NaN	NaN	NaN
4805.759	NaN	NaN	NaN	NaN
4808.785	NaN	NaN	NaN	NaN
4812.696	NaN	NaN	NaN	NaN
4816.789	NaN	NaN	6.46966	-0.31130
4822.075	NaN	NaN	NaN	NaN
4825.088	NaN	NaN	NaN	NaN
4831.439	NaN	NaN	6.60064	3.49650
4835.411	NaN	NaN	6.33302	3.05808
4839.623	NaN	NaN	6.97653	-0.47151
4843.419	NaN	NaN	7.16764	-1.18485
4847.409	8.76520	-2.08583	3.81884	0.22540
4851.419	2.47982	-2.29834	6.81757	-1.37272
4855.418	4.73978	2.99322	6.41817	-0.42072
4859.413	5.45627	1.15052	6.18372	-0.79786
4863.412	7.59507	0.55010	5.12282	-0.46437
4867.407	5.77101	0.91176	4.47812	-0.36003
4871.416	7.41419	-1.74139	5.96586	2.72243
4875.411	8.27394	-2.07156	5.89350	-0.31861
4879.410	5.76902	-4.81347	6.53955	-0.17232
4883.414	9.25918	-2.33465	4.83489	-0.78601
4887.412	6.91530	0.42177	6.63756	-0.78505
4891.413	5.57562	-2.42284	8.19457	-0.71557
4895.414	5.71271	-4.54254	5.33512	-0.26985
4899.407	7.78991	-3.02786	6.82508	-0.43167
4903.409	11.40923	-3.74525	6.74560	-1.30702
4907.730	17.72772	-10.61040	8.67498	-0.15373
4911.416	-19.99372	-11.98960	10.29635	-0.20043
4915.413	5.72903	-5.81435	9.09166	-0.99355
4919.410	4.87803	0.86366	5.08778	0.05109
4923.406	8.95627	-0.41995	0.80101	-2.76126
4927.409	-19.99372	-12.03381	7.99883	-0.96587
4931.414	-19.99372	-12.04875	NaN	NaN
4935.412	-19.99372	-12.05637	NaN	NaN
4939.406	-19.99372	-12.06099	NaN	NaN
4943.412	-19.99372	-12.06414	NaN	NaN
4947.426	-19.99372	-12.06639	NaN	NaN
4951.413	NaN	NaN	8.48767	0.39910
4955.418	8.89155	-3.17932	8.84518	-1.01487
4959.412	12.50065	-3.97150	5.30611	-1.04729
4963.409	8.19171	-3.78976	6.41594	-3.35175
4967.404	NaN	NaN	0.82255	0.43672
4971.410	NaN	NaN	1.11990	-0.27594
4975.415	NaN	NaN	-3.25327	0.33517
4979.418	NaN	NaN	-4.28128	4.49818
4983.405	NaN	NaN	-5.35497	0.09998
4987.411	NaN	NaN	-3.70509	0.49948
4991.406	NaN	NaN	-3.45133	2.96427
4995.406	NaN	NaN	NaN	NaN
4999.411	NaN	NaN	-7.73716	2.10431
5003.410	NaN	NaN	-6.18524	4.64911
5007.403	NaN	NaN	-6.51674	1.59173
5011.411	NaN	NaN	-7.07153	4.78637
5015.410	NaN	NaN	-6.20477	2.45391
5019.439	NaN	NaN	-3.50445	2.07964
5023.410	NaN	NaN	-3.43437	2.02455
5027.404	NaN	NaN	-6.20568	2.00358
5031.406	1.58745	1.29777	-5.92213	2.77740
5035.401	1.96449	-2.33869	-3.33797	2.04231
5039.409	-0.29103	0.11428	-6.93812	2.24972
5043.405	-3.03591	-0.59205	-3.51268	2.63665
5047.407	2.53902	-7.30281	-0.89967	2.00488
5051.405	2.15428	-1.23952	-3.39550	2.54182
5055.409	1.47900	-1.98881	-3.29008	1.92989
5059.407	0.22641	-2.35984	-2.33522	-0.78843
5063.408	NaN	NaN	-3.57053	1.51253
5067.405	NaN	NaN	-5.05841	1.69141
5071.406	-3.21364	-0.85787	-5.52741	2.61747
5075.403	1.87609	-2.54893	-4.18561	1.18822
5079.408	-2.77805	0.16054	-1.97386	1.26466
5083.405	-0.64732	-1.55607	-4.47136	2.40422
5087.402	NaN	NaN	-3.18329	0.94300
5091.408	NaN	NaN	2.53308	-1.04015
5095.403	NaN	NaN	-7.41104	3.12043
5099.409	NaN	NaN	-3.96730	1.79294
5103.407	NaN	NaN	0.21976	2.38169
5107.404	NaN	NaN	-3.55127	3.33001
5111.429	NaN	NaN	-4.01376	2.57302
5115.427	5.04735	-3.50497	-2.98633	0.47456
5119.407	NaN	NaN	-3.82408	3.07987
5123.403	5.33261	-3.69549	-3.56289	1.85797
5127.402	NaN	NaN	-3.99825	2.94258
5131.411	5.72438	-3.77364	-3.64486	3.79072
5135.406	NaN	NaN	-3.91126	2.64776
5139.409	NaN	NaN	-5.23708	2.90238
5143.407	NaN	NaN	-4.71733	2.62301
5147.402	NaN	NaN	-3.89911	2.63834
5151.409	NaN	NaN	-4.09125	2.58692
5155.403	NaN	NaN	-6.50910	1.94704
5159.404	NaN	NaN	-6.61565	2.49530
5163.399	NaN	NaN	-5.02657	4.66805
5167.282	NaN	NaN	-4.17374	2.36607
5171.278	NaN	NaN	-3.08226	2.29756
5175.278	NaN	NaN	-2.76983	0.89511
5179.280	NaN	NaN	-3.96797	2.93853
5183.282	NaN	NaN	-5.15955	1.60160
5187.281	NaN	NaN	-4.38341	2.17515
5191.283	NaN	NaN	-6.69182	1.52404
5195.280	2.22089	-1.89797	-4.86645	1.41735
5199.278	3.28078	-0.26376	-6.55285	2.20801
5203.282	NaN	NaN	-5.98098	3.05165
5207.281	NaN	NaN	-5.21868	1.20729
5211.281	NaN	NaN	-5.67330	0.59242
5215.282	2.32570	-0.35947	-6.24254	0.22797
5219.340	2.62264	-1.11325	-5.95795	1.08888
5223.284	2.93856	-0.13165	-5.81715	1.98168
5227.283	2.62321	-1.64760	-6.17791	2.21176
5231.284	3.02707	-1.90215	-6.40778	2.96676
5235.277	2.99542	-1.84551	-6.37623	3.02995
5239.279	2.87126	-1.38822	-6.50763	2.45259
5243.273	1.34636	-1.86038	-6.37484	1.98638
5247.280	2.38348	-1.78999	-5.67592	0.00722
5251.283	0.54756	14.02399	-6.70200	2.81436
5255.279	2.49562	-6.07875	-5.04014	3.03226
5259.276	3.03469	5.73273	-7.15147	2.99817
5263.274	2.91369	9.32906	-6.56718	2.92759
5267.279	1.54644	8.94193	-6.11991	2.76810
5271.282	2.63333	11.32948	-5.81083	2.80177
5275.274	0.82818	9.21276	-5.26895	1.75253
5279.279	1.05046	6.56441	-6.08640	3.02893
5283.279	2.73434	9.83316	-5.38422	2.87489
5287.277	0.78627	12.83715	-6.73860	0.96808
5291.272	0.77541	9.51033	-6.19066	3.46058
5295.283	3.10168	8.22992	-5.97182	3.45992
5299.274	3.42977	7.23384	-6.46098	2.59755
5303.274	3.78017	11.08975	-5.98344	2.22599
5307.279	2.96369	11.35991	-5.64830	2.16990
5311.282	3.23118	11.70902	-4.72566	2.45963
5315.276	3.62311	11.37637	-7.16139	1.59954
5319.280	3.82168	-3.41664	-6.16380	1.55560
5323.278	6.08880	-3.57209	-6.52093	1.36792
5327.275	6.00791	-4.31889	-5.91734	1.45155
5331.281	3.04100	-2.72656	-5.88871	1.87602
5335.277	2.96455	-2.30118	-6.23822	2.66929
5339.275	0.87446	0.90651	-7.87988	2.03398
5343.274	0.73920	0.85038	-5.98346	2.53800
5347.278	-0.83483	7.19491	-4.24181	2.25295
5351.276	5.96382	-4.33882	-3.81489	-0.11269
5355.282	3.97274	-3.09940	-6.94535	1.86014
5359.294	5.64661	-4.18557	-6.97832	3.01688
5363.278	3.78556	-3.61639	-7.57644	1.22706
5367.280	0.74218	-2.78359	-5.97637	2.46633
5371.280	2.75257	-0.86250	-6.64586	3.23014
5375.275	5.20169	-4.34563	-6.78280	2.46797
5379.274	2.91022	-3.74504	-6.02215	1.63841
5383.274	2.87022	-2.69652	-7.00807	2.67946
5387.276	3.62477	-2.05477	-3.46347	2.02696
5391.277	5.52669	-3.11342	-3.68433	0.56371
5395.285	5.59396	-3.87947	-7.04958	0.95605
5399.273	5.66258	-3.71662	-7.48629	1.84138
5403.279	2.63712	3.69879	-7.57491	1.29128
5407.274	3.43017	-3.87269	-7.54152	2.45495
5411.297	5.43868	1.20918	-5.35451	2.39237
5415.270	2.30420	-2.71461	-7.00059	2.06653
5419.276	2.42185	-2.36278	-6.64604	2.13449
5423.274	2.47888	-2.05636	-7.39117	2.14387
5427.273	3.28026	-5.02419	-7.67591	2.30972
5431.269	5.52738	1.96612	-5.67838	2.68080
5435.281	2.12828	-1.99105	-5.69706	2.00832
5439.277	2.44036	-2.39291	-7.72047	2.20988
5443.273	1.51464	-5.19174	-7.17925	2.61089
5447.269	4.89387	-4.17139	-5.38484	2.73174
5451.277	2.11162	-5.57893	-6.29631	2.65310
5455.277	1.11437	-5.23487	-7.61258	2.43888
5459.277	0.23748	1.76814	-6.49754	2.32820
5463.270	5.02103	-8.46135	-6.08141	2.77508
5467.275	1.42010	-8.12085	-6.91792	1.97694
5471.274	5.90035	-5.99873	-5.44490	1.40258
5475.271	2.19980	-1.93381	-6.87929	2.90268
5479.273	3.07246	-4.15814	-5.66732	2.78955
5483.278	2.51779	-5.14492	-3.05212	2.75386
5487.272	2.75480	-4.21046	-5.24811	2.85171
5491.273	1.63011	-6.23900	-6.09057	2.25594
5495.269	1.89441	-8.58748	-6.51902	2.92290
5499.275	2.06984	-8.43057	-5.65172	2.97701
5503.272	-0.47425	-5.68025	-5.79985	2.07969
5507.270	-0.09870	-4.58677	-3.08787	1.52520
5511.276	1.21524	-2.75454	-3.06090	2.25026
5515.272	2.37543	-4.06628	-5.97983	4.05353
5519.280	4.94652	-5.47825	-3.60932	1.36066
5523.271	5.02925	-4.71836	-2.82137	1.87830
5527.277	5.73126	-6.08003	-3.29364	1.99600
5531.271	NaN	NaN	NaN	NaN
5535.272	1.70539	-9.37794	-3.54848	1.85049
5539.275	2.39084	-11.63160	-3.01626	1.79238
5543.275	-19.99372	-11.97295	-2.76304	4.32050
5547.300	-2.92540	-12.08048	-3.43133	0.94512
5551.273	-4.10577	-7.72159	-3.07605	1.59908
5555.275	-2.53043	-6.82892	-3.85602	1.59521
5559.270	-19.99372	-11.90797	-3.73060	1.67884
5563.275	4.30968	-4.43150	NaN	NaN
5567.288	4.66758	-3.82718	NaN	NaN
5571.278	3.86388	-1.42628	NaN	NaN
5575.278	4.54918	-6.95772	NaN	NaN
5579.277	-19.99372	-11.92284	NaN	NaN
5583.296	-19.99372	-11.99936	NaN	NaN
5588.044	-19.99372	-12.00519	NaN	NaN
5591.819	NaN	NaN	NaN	NaN
5595.580	NaN	NaN	NaN	NaN
5599.320	NaN	NaN	NaN	NaN
5603.294	NaN	NaN	NaN	NaN
5607.319	NaN	NaN	NaN	NaN
5611.273	6.89150	-7.42736	-1.67628	-1.80434
5615.271	7.89264	-7.78204	-4.97748	-0.52822
5619.290	7.77198	-7.15556	-6.14624	1.45156
5623.291	NaN	NaN	-5.55005	1.64150
5627.270	-4.14233	-14.24325	-5.82282	2.55988
5631.272	6.44765	-4.85376	2.69282	7.22245
5635.270	-3.57871	-4.86735	0.88423	6.95042
5639.271	-2.98453	-5.05808	2.63948	6.32468
5643.274	3.36975	-7.58631	-3.74706	-0.94640
5647.280	3.28442	-5.30415	-2.92505	-0.94223
5651.270	2.04351	-5.97886	-0.94118	5.27667
5655.272	0.04212	-5.99139	1.63613	4.97215
5659.268	-3.31393	-3.99577	-5.52271	-3.81466
5663.274	-3.78716	-5.16271	-4.65355	-5.66584
5667.270	-0.29158	-4.96567	2.73283	1.18505
5671.270	1.45775	-6.25605	-2.65290	-3.01026
5675.275	3.01361	-9.58967	-5.90843	-1.46400
5679.270	-2.63004	-1.47699	-4.98450	-1.33641
5683.265	2.26824	-4.56620	-4.24120	-1.12536
5687.277	-1.29735	-4.51853	-0.66121	-3.58706
5691.270	1.55519	-6.08640	-4.39266	-2.02973
5695.269	-2.98421	-3.81788	-3.39718	0.49719
5699.271	-2.81402	-4.83649	0.43931	-3.07673
5703.273	-1.11710	-3.56771	-4.37441	-1.36690
5707.267	-1.33163	-1.85233	-2.09831	-2.55481
5711.272	2.71562	-6.10692	-2.47972	-1.34631
5715.268	-1.10492	-4.46050	-4.36960	0.22904
5719.269	-2.75561	-1.70186	-3.87495	-1.64581
5723.267	4.19299	-6.99034	-7.43332	-2.86872
5727.280	0.01474	-5.01131	-4.74274	-2.03908
5731.270	-3.33641	-1.81656	-6.91383	-1.42429
5735.266	-1.15746	-2.11275	-2.46939	0.77666
5739.271	3.29013	-9.28028	-3.93888	1.08425
5743.271	-2.21568	-3.26897	-5.93787	1.88131
5747.269	5.21838	-7.73312	-0.00705	-3.79388
5751.266	3.66988	-5.83909	-7.06107	-6.70016
5755.272	4.02949	-7.17882	-5.78782	-5.74171
5759.268	-2.93247	-4.17331	-6.62170	-4.06988
5763.268	3.11794	-7.53429	-4.65067	-0.84985
5767.267	3.34212	-5.29570	-4.49746	-0.97352
5771.275	0.66970	-4.31236	-5.80916	-1.31757
5775.269	-1.20857	-3.84965	-5.89657	-1.42900
5779.265	4.87611	-7.18837	-4.26733	-1.05034
5783.271	3.07402	-4.52896	-3.95528	-1.53768
5787.267	-2.94250	-4.48763	-4.09535	-1.43581
5791.270	4.19674	-7.59715	-1.75017	-1.36035
5795.269	1.14317	-6.42927	-1.42985	0.00196
5799.266	5.25084	-6.93457	-1.14558	-0.36588
5803.271	1.93489	-4.97761	-1.16322	6.11912
5807.269	1.12241	-5.85417	-3.87364	-1.45874
5811.272	0.87664	-3.62772	-1.18004	4.47441
5815.292	-1.10810	-2.68164	-4.96295	7.52379
5819.279	1.25411	-5.01850	-2.22332	5.52967
5823.270	4.50912	-6.94189	-5.32223	-0.44159
5827.267	-0.77613	-3.71135	-5.01662	-0.18018
5831.305	-1.75366	-4.15369	-1.29603	-1.52434
5835.279	2.94413	-5.18099	-5.11342	4.25167
5839.265	0.85895	-2.70468	-1.34162	6.09333
5843.269	-2.69411	-5.05787	-1.07751	-0.53954
5847.268	4.39249	-6.08817	-1.15992	0.09828
5851.266	0.82250	-3.32808	-2.61184	0.10552
5855.274	0.10103	-3.78413	-2.73113	0.26387
5859.296	5.00915	-3.45420	-3.60526	0.57365
5863.275	4.20254	-6.50742	-6.01724	0.08207
5867.265	-3.77206	-3.63998	-3.50358	0.69769
5871.263	0.00035	-2.04479	-2.87309	1.29560
5875.268	4.27684	-2.77237	-2.53489	0.80124
5879.267	1.36977	-4.19124	-3.20419	0.50024
5883.265	NaN	NaN	NaN	NaN
5887.262	-0.06155	-2.93336	-6.25269	1.14621
5891.270	0.02447	-4.20971	-8.01102	1.23305
5895.270	-1.89997	-1.25744	-8.92413	1.58672
5899.272	-0.43021	-2.30854	-6.23599	3.09421
5903.266	-0.22326	-4.33560	-5.59297	2.70755
5907.264	NaN	NaN	-3.17257	7.22446
5911.263	NaN	NaN	NaN	NaN
5915.268	NaN	NaN	NaN	NaN
5919.271	NaN	NaN	NaN	NaN
5923.265	NaN	NaN	NaN	NaN
5927.979	NaN	NaN	NaN	NaN
5931.803	NaN	NaN	NaN	NaN
5935.609	NaN	NaN	NaN	NaN
5939.327	NaN	NaN	NaN	NaN
5943.286	NaN	NaN	NaN	NaN
5947.268	NaN	NaN	NaN	NaN
5951.293	NaN	NaN	NaN	NaN
5955.277	NaN	NaN	NaN	NaN
5959.274	NaN	NaN	NaN	NaN
5963.280	NaN	NaN	NaN	NaN
5967.278	NaN	NaN	NaN	NaN
5971.275	NaN	NaN	NaN	NaN
5975.265	NaN	NaN	NaN	NaN
5979.276	NaN	NaN	NaN	NaN
5983.270	NaN	NaN	NaN	NaN
5987.266	NaN	NaN	NaN	NaN
5991.270	NaN	NaN	NaN	NaN
5996.910	NaN	NaN	NaN	NaN
6000.560	NaN	NaN	NaN	NaN
6004.239	NaN	NaN	NaN	NaN
6007.875	NaN	NaN	NaN	NaN
6011.441	NaN	NaN	NaN	NaN
6015.284	NaN	NaN	NaN	NaN
6019.277	NaN	NaN	NaN	NaN
6024.908	NaN	NaN	NaN	NaN
6027.916	NaN	NaN	NaN	NaN
6035.149	NaN	NaN	NaN	NaN
6039.167	NaN	NaN	NaN	NaN
6043.146	NaN	NaN	NaN	NaN
6047.149	NaN	NaN	NaN	NaN
6051.145	NaN	NaN	NaN	NaN
6055.143	NaN	NaN	NaN	NaN
6059.139	NaN	NaN	NaN	NaN
6063.485	NaN	NaN	NaN	NaN
6067.167	NaN	NaN	NaN	NaN
6071.151	NaN	NaN	NaN	NaN
6075.150	NaN	NaN	NaN	NaN
6079.297	NaN	NaN	NaN	NaN
6083.466	NaN	NaN	NaN	NaN
6087.572	NaN	NaN	NaN	NaN
6091.628	NaN	NaN	NaN	NaN
6095.709	NaN	NaN	NaN	NaN
6099.544	NaN	NaN	NaN	NaN
6103.184	NaN	NaN	NaN	NaN
6107.159	NaN	NaN	NaN	NaN
6111.144	NaN	NaN	NaN	NaN
6115.136	NaN	NaN	NaN	NaN
6119.152	NaN	NaN	NaN	NaN
6123.145	NaN	NaN	NaN	NaN
6127.151	NaN	NaN	NaN	NaN
6131.989	NaN	NaN	NaN	NaN
6135.767	NaN	NaN	NaN	NaN
6139.387	NaN	NaN	NaN	NaN
6143.154	NaN	NaN	NaN	NaN
6147.153	NaN	NaN	NaN	NaN
6151.145	NaN	NaN	NaN	NaN
6155.150	NaN	NaN	NaN	NaN
6159.148	NaN	NaN	NaN	NaN
6163.139	NaN	NaN	NaN	NaN
6168.884	NaN	NaN	NaN	NaN
6172.844	NaN	NaN	NaN	NaN
6179.147	NaN	NaN	NaN	NaN
6183.150	NaN	NaN	NaN	NaN
6187.145	NaN	NaN	NaN	NaN
6191.152	NaN	NaN	NaN	NaN
6195.141	NaN	NaN	NaN	NaN
6199.671	NaN	NaN	NaN	NaN
6203.445	NaN	NaN	NaN	NaN
6207.188	NaN	NaN	NaN	NaN
6211.145	NaN	NaN	NaN	NaN
6215.139	NaN	NaN	NaN	NaN
6219.146	NaN	NaN	NaN	NaN
6223.137	NaN	NaN	NaN	NaN
6227.186	NaN	NaN	NaN	NaN
6231.152	NaN	NaN	NaN	NaN
6236.406	NaN	NaN	NaN	NaN
6247.140	NaN	NaN	NaN	NaN
6251.133	NaN	NaN	NaN	NaN
6255.149	NaN	NaN	NaN	NaN
6259.151	NaN	NaN	NaN	NaN
6263.147	NaN	NaN	NaN	NaN
6267.866	NaN	NaN	NaN	NaN
6271.884	NaN	NaN	-7.55532	14.88749
6275.726	NaN	NaN	NaN	NaN
6279.529	NaN	NaN	NaN	NaN
6283.305	NaN	NaN	NaN	NaN
6287.140	NaN	NaN	-7.55849	14.88966
6291.142	NaN	NaN	NaN	NaN
6295.144	NaN	NaN	NaN	NaN
6299.134	NaN	NaN	NaN	NaN
6303.142	NaN	NaN	NaN	NaN
6307.145	NaN	NaN	NaN	NaN
6311.135	NaN	NaN	NaN	NaN
6456.166	NaN	NaN	NaN	NaN
6522.741	NaN	NaN	NaN	NaN
6526.403	NaN	NaN	NaN	NaN
6530.387	NaN	NaN	NaN	NaN
6534.378	NaN	NaN	NaN	NaN
6538.384	NaN	NaN	NaN	NaN
6542.383	NaN	NaN	NaN	NaN
6546.382	NaN	NaN	NaN	NaN
6550.377	NaN	NaN	NaN	NaN
6554.414	NaN	NaN	NaN	NaN
6558.385	NaN	NaN	NaN	NaN
6562.381	NaN	NaN	NaN	NaN
6566.376	NaN	NaN	NaN	NaN
6570.383	NaN	NaN	NaN	NaN
6574.381	NaN	NaN	NaN	NaN
6578.381	NaN	NaN	NaN	NaN
6582.385	NaN	NaN	NaN	NaN
6586.383	NaN	NaN	NaN	NaN
6590.382	NaN	NaN	NaN	NaN
6594.381	NaN	NaN	NaN	NaN
6598.386	NaN	NaN	NaN	NaN
6602.377	NaN	NaN	NaN	NaN
6606.382	NaN	NaN	NaN	NaN
6610.380	NaN	NaN	NaN	NaN
6614.380	NaN	NaN	NaN	NaN
6618.383	-5.23285	13.18594	NaN	NaN
6622.385	-0.75213	14.10772	-10.37993	10.28059
6626.387	-12.20676	13.76102	-3.93176	13.32044
6630.381	7.38827	2.81712	-6.01893	13.21740
6634.389	6.84323	10.91834	-5.82304	4.20921
6638.390	10.99530	-2.88479	-3.32014	9.58768
6642.391	9.94026	-3.26730	-2.46597	13.34655
