time (ms)	lx (deg)	ly (deg)	rx (deg)	ry (deg)
0.000	-13.80606	-4.59276	-16.75391	-4.29455
4.002	-14.52930	-3.86279	-16.29255	-4.30661
8.002	-14.24613	-1.80775	-16.20654	-4.80846
12.003	-13.77251	-4.31248	-16.03962	-5.02665
15.998	-14.21139	-2.12026	-16.03318	-4.22651
20.000	-14.29909	-3.77855	-16.08869	-4.06071
24.005	-16.44916	-5.16601	-17.20765	-4.15251
28.000	-14.95570	-5.16044	-15.99099	-4.14352
31.998	-18.20091	-4.51843	-14.87274	-4.40726
35.998	-17.27251	-3.31256	-15.97503	-3.93961
39.997	-15.83505	-4.39036	-14.77275	-4.12403
44.030	-16.48458	-4.53479	-15.87740	-3.67818
48.009	-15.51142	-4.65326	-15.70588	-3.60678
51.998	-17.04589	-4.50893	-15.69339	-3.46740
55.998	-18.18881	-3.92077	-15.55374	-3.33650
60.010	-17.28287	-4.04129	-15.66075	-3.58446
64.006	-17.57624	-3.75214	-15.50158	-3.80428
68.001	-17.85053	-2.74084	-14.36625	-5.96845
72.004	-17.39350	-2.05380	-15.25422	-5.73783
76.001	-17.42511	-3.57944	-15.24616	-5.98499
79.997	-13.88441	-4.42973	-15.54552	-5.97321
83.995	-13.58540	-4.05051	-15.40673	-5.49393
88.000	-15.04570	-4.76173	-15.44504	-4.29766
92.004	-13.81333	-4.51546	-15.36966	-4.93097
96.002	-13.88095	-5.06129	-15.45645	-4.15872
99.998	-13.58407	-5.17504	-15.53101	-3.84240
104.009	-14.49774	-5.39737	-15.43083	-2.90402
108.002	-14.22365	-5.76052	-13.52257	-3.90042
112.012	-13.93541	-5.83158	-15.38943	-2.93681
116.000	-13.81570	-5.52301	-15.55126	-2.70389
119.995	-13.77556	-5.76808	-14.40593	-4.14305
124.003	-13.85438	-5.41504	-13.29283	-3.60218
128.000	-14.27991	-5.66594	-15.31782	-4.62291
132.000	-13.67583	-5.80668	-15.27215	-4.59743
136.003	-13.90247	-6.19983	-14.96890	-5.28187
140.000	-15.03323	-6.17222	-13.87798	-4.84816
144.003	-14.02029	-6.28951	-15.53900	-4.06739
147.999	-14.25599	-6.12690	-15.48298	-3.97665
152.003	-13.62453	-6.01936	-14.30368	-3.72290
155.999	-14.50767	-5.64486	-15.65720	-4.17860
159.999	-13.52116	-2.04079	-14.41462	-3.68581
163.996	-12.93217	-2.41211	-3.64901	0.62185
168.001	-10.95617	-2.52403	-4.40475	1.00403
172.002	-8.16810	-2.39686	-7.44818	-1.89908
176.001	-1.62272	-0.34163	-3.86445	1.10517
180.046	-1.18934	-0.72369	-3.44523	2.28391
184.003	1.06986	-0.83356	-0.26892	0.32716
188.000	2.99722	0.09770	-0.43897	0.96952
192.000	3.17750	-0.40012	-0.31267	1.02210
196.002	3.21107	-0.62742	6.35834	0.39763
200.001	1.89255	-0.33130	1.86013	1.15924
203.996	2.45000	-0.03739	-0.39507	1.24283
207.997	1.05746	0.88232	0.19899	0.49061
211.998	-1.23372	-1.35034	-0.07624	1.29228
216.000	0.59838	0.26160	-0.04162	1.29688
219.992	2.79728	0.08059	-0.11523	0.60505
224.001	0.88083	0.74452	0.88907	0.86749
228.002	2.52106	1.26766	0.18827	1.06488
231.999	2.61266	0.76243	0.42668	-0.75237
235.992	2.69099	0.58386	-0.46066	0.18323
239.996	0.56146	0.97246	-0.22450	0.22918
243.995	2.01300	0.74981	-0.63131	-0.20410
248.019	-0.91274	-1.29806	-4.69127	1.21917
251.993	-0.39576	4.72075	-0.38760	0.91413
256.004	3.80797	0.37369	-0.85756	1.25680
259.996	2.77329	0.92851	-0.17280	1.21069
264.000	1.55226	1.62157	-0.91346	-0.17790
268.000	2.88735	2.67758	-0.44529	1.48126
272.010	4.26832	0.67213	2.09162	0.70754
275.995	2.73974	0.78937	-0.83282	-0.93750
280.000	3.88041	0.48269	-0.61637	1.46634
283.995	-0.73389	2.60216	-0.81014	-0.87799
287.997	-0.75819	2.55836	0.00985	-0.49796
291.996	2.87235	1.13785	-0.17362	1.20485
295.995	0.79647	0.70042	-0.00427	1.54144
299.995	-3.56240	-2.15616	-0.65657	2.07510
303.994	-0.17174	0.90078	-0.01134	1.54825
307.993	1.03096	3.24319	0.53414	1.91855
312.001	2.38140	2.45458	-3.70371	1.74432
316.031	5.35842	-1.98511	-0.55781	1.55681
320.013	1.87493	1.26610	-1.10941	1.03839
323.997	1.92024	-2.15798	-0.58930	2.08798
327.995	-1.41777	2.96202	-1.32533	2.20741
331.996	2.11576	2.08957	-1.02647	1.41087
335.997	3.74555	2.09102	0.07932	2.30793
339.994	NaN	NaN	0.26356	2.72456
343.996	NaN	NaN	NaN	NaN
347.995	-7.04887	2.38192	NaN	NaN
352.000	NaN	NaN	NaN	NaN
355.999	NaN	NaN	NaN	NaN
359.999	-20.18132	6.54197	NaN	NaN
363.997	-20.06654	-12.07199	NaN	NaN
367.995	-20.05563	-12.07281	NaN	NaN
372.000	-20.04742	-12.07342	NaN	NaN
375.998	-20.04096	-12.07390	NaN	NaN
379.998	-20.03570	-12.07430	-7.45645	14.94960
384.008	-20.03452	-12.07438	NaN	NaN
387.995	-20.03316	-12.07448	NaN	NaN
392.039	-20.02874	-12.07481	NaN	NaN
396.000	-20.02738	-12.07492	NaN	NaN
399.999	-20.02595	-12.07502	NaN	NaN
403.995	NaN	NaN	NaN	NaN
407.990	NaN	NaN	NaN	NaN
413.368	NaN	NaN	NaN	NaN
424.001	NaN	NaN	NaN	NaN
427.994	NaN	NaN	NaN	NaN
431.998	NaN	NaN	NaN	NaN
436.000	NaN	NaN	NaN	NaN
439.994	NaN	NaN	NaN	NaN
443.993	NaN	NaN	NaN	NaN
447.997	NaN	NaN	NaN	NaN
452.391	NaN	NaN	NaN	NaN
456.002	NaN	NaN	NaN	NaN
459.996	NaN	NaN	NaN	NaN
463.996	NaN	NaN	NaN	NaN
467.998	NaN	NaN	NaN	NaN
471.996	NaN	NaN	NaN	NaN
475.997	NaN	NaN	NaN	NaN
480.002	NaN	NaN	NaN	NaN
485.634	NaN	NaN	NaN	NaN
488.144	NaN	NaN	NaN	NaN
496.000	NaN	NaN	NaN	NaN
499.989	NaN	NaN	NaN	NaN
503.995	NaN	NaN	NaN	NaN
507.995	NaN	NaN	NaN	NaN
511.995	NaN	NaN	NaN	NaN
515.868	NaN	NaN	NaN	NaN
519.867	NaN	NaN	NaN	NaN
523.871	NaN	NaN	NaN	NaN
527.868	NaN	NaN	NaN	NaN
531.863	NaN	NaN	NaN	NaN
535.862	NaN	NaN	NaN	NaN
539.864	NaN	NaN	NaN	NaN
543.864	NaN	NaN	NaN	NaN
547.865	NaN	NaN	NaN	NaN
551.862	NaN	NaN	NaN	NaN
555.865	NaN	NaN	NaN	NaN
559.862	NaN	NaN	NaN	NaN
563.861	NaN	NaN	NaN	NaN
567.870	NaN	NaN	NaN	NaN
571.866	NaN	NaN	NaN	NaN
575.864	NaN	NaN	NaN	NaN
579.862	NaN	NaN	NaN	NaN
583.860	NaN	NaN	NaN	NaN
587.877	NaN	NaN	NaN	NaN
591.869	NaN	NaN	NaN	NaN
595.897	NaN	NaN	NaN	NaN
599.863	NaN	NaN	NaN	NaN
603.862	NaN	NaN	NaN	NaN
607.865	NaN	NaN	NaN	NaN
611.859	NaN	NaN	NaN	NaN
615.862	NaN	NaN	NaN	NaN
619.862	NaN	NaN	NaN	NaN
623.860	NaN	NaN	NaN	NaN
627.858	NaN	NaN	NaN	NaN
631.876	NaN	NaN	NaN	NaN
635.867	NaN	NaN	NaN	NaN
639.867	NaN	NaN	NaN	NaN
643.865	NaN	NaN	NaN	NaN
647.868	NaN	NaN	NaN	NaN
651.866	NaN	NaN	NaN	NaN
655.893	NaN	NaN	NaN	NaN
659.870	NaN	NaN	NaN	NaN
663.862	NaN	NaN	NaN	NaN
667.862	NaN	NaN	NaN	NaN
671.860	NaN	NaN	NaN	NaN
675.867	NaN	NaN	NaN	NaN
679.861	NaN	NaN	NaN	NaN
683.859	NaN	NaN	NaN	NaN
687.860	NaN	NaN	NaN	NaN
691.869	NaN	NaN	NaN	NaN
695.865	NaN	NaN	NaN	NaN
699.862	NaN	NaN	NaN	NaN
703.867	NaN	NaN	NaN	NaN
707.863	NaN	NaN	NaN	NaN
711.863	NaN	NaN	NaN	NaN
715.860	NaN	NaN	NaN	NaN
719.861	NaN	NaN	NaN	NaN
723.884	NaN	NaN	NaN	NaN
727.862	NaN	NaN	NaN	NaN
731.867	NaN	NaN	NaN	NaN
735.861	NaN	NaN	NaN	NaN
739.865	NaN	NaN	NaN	NaN
743.864	NaN	NaN	NaN	NaN
747.864	NaN	NaN	NaN	NaN
751.860	NaN	NaN	NaN	NaN
755.865	NaN	NaN	NaN	NaN
759.867	NaN	NaN	NaN	NaN
763.859	NaN	NaN	NaN	NaN
767.865	NaN	NaN	NaN	NaN
771.864	NaN	NaN	NaN	NaN
775.870	NaN	NaN	NaN	NaN
779.865	NaN	NaN	NaN	NaN
783.865	NaN	NaN	NaN	NaN
912.907	NaN	NaN	NaN	NaN
962.569	NaN	NaN	NaN	NaN
1030.264	4.58153	0.54645	1.49066	2.90923
1034.060	4.16332	-0.26660	1.38136	3.10954
1038.001	4.21528	0.38404	1.63849	2.59016
1041.983	3.57201	-0.22517	1.28514	3.06128
1045.986	3.50524	2.09090	1.42628	1.78711
1049.986	3.90452	-0.08600	1.13655	3.34634
1053.988	3.16077	-0.57491	1.94206	2.20829
1057.979	3.82610	1.02343	1.91541	2.40636
1061.995	4.28459	0.20805	1.65597	2.82701
1065.984	3.86506	0.59498	1.82641	1.87863
1069.984	3.32199	-0.38860	2.49600	2.37004
1073.998	3.29716	0.18663	1.74144	1.87544
1077.992	4.05191	-0.14624	1.93522	3.33321
1081.981	6.55459	1.31034	1.85698	2.10416
1086.006	6.60215	-0.33755	1.95775	2.02638
1089.982	4.22703	1.17198	2.08399	1.95961
1093.984	3.76604	-0.65462	2.06748	1.34615
1097.981	6.39229	-0.11653	2.17120	2.03231
1101.987	6.36766	1.93004	2.34929	0.81838
1105.993	4.01870	-0.58520	-1.71392	1.84681
1109.989	2.55534	1.12708	2.43325	1.66873
1113.979	4.47304	-0.09847	2.28209	1.27759
1117.989	5.60760	-1.62503	2.19353	1.63971
1121.982	6.72903	-2.18583	3.83485	1.53673
1125.986	6.49688	-2.09526	10.84619	1.91971
1129.985	6.18922	4.20098	5.24752	0.70767
1133.986	4.16932	0.11224	2.61206	0.92337
1137.976	3.60630	-1.10599	2.12166	-0.38621
1141.995	4.24984	0.64683	1.19951	-0.22767
1145.988	3.83421	0.55077	2.38640	0.89308
1149.982	4.95413	0.73889	2.50677	1.40111
1153.975	2.44913	-1.10690	5.15054	0.43859
1157.987	3.42349	0.34183	1.90192	1.58132
1161.983	3.48986	-2.25735	3.45494	1.73838
1166.001	3.34193	-0.41499	2.92973	0.14858
1169.982	3.44199	4.13733	2.85975	1.24960
1173.987	3.38852	-0.04696	2.63039	1.64139
1177.984	3.33020	-0.65486	2.95200	0.46209
1181.983	4.34470	-1.18711	2.71104	1.65004
1185.980	3.82282	-1.80303	1.73366	2.70902
1189.985	4.14374	1.28653	2.42297	-0.02624
1194.003	3.05390	-1.51672	2.69549	0.94589
1197.983	2.71463	-2.10179	2.97376	0.51973
1201.981	3.08458	-1.44744	3.16332	-0.01513
1205.986	3.12702	-1.23163	3.01210	1.49694
1209.979	3.88945	0.44783	0.17454	-2.19394
1213.987	3.31064	-1.62214	0.22577	-2.52473
1217.984	2.82110	-0.04386	2.76104	-0.14282
1221.981	4.20642	-1.28645	3.46901	0.26490
1225.984	4.00978	0.93421	3.75289	0.53305
1229.989	6.55449	0.62502	14.69871	-5.07156
1233.981	7.00074	-2.04180	10.19103	0.08924
1237.991	13.56779	-6.08099	10.65251	0.09253
1241.984	11.06093	-2.77121	10.91172	0.09194
1245.980	11.44194	-3.57641	10.55363	0.33413
1249.982	13.05124	-3.54165	10.50909	0.16001
1253.982	12.95522	-3.14536	10.74151	-0.41183
1257.986	11.93805	-3.20432	10.29008	-0.87202
1261.986	11.91564	-3.49351	10.39775	-1.45230
1265.982	12.68101	-4.09486	10.91715	0.60901
1269.987	11.63930	-2.58870	10.39657	0.06184
1273.979	12.24711	-3.65700	10.55735	-0.30169
1277.988	12.21295	-3.73835	10.43452	-0.62914
1281.982	10.83366	-2.97725	10.44914	-1.09602
1285.980	11.87128	-3.34360	10.45281	0.72566
1289.979	12.66410	-3.94010	10.56812	0.22075
1293.984	11.69774	-3.72192	10.49980	-0.81997
1297.982	10.53910	-3.16213	10.28272	-0.92313
1301.984	11.93227	-3.70461	10.47842	-0.93237
1305.995	11.61628	-3.52323	10.68171	0.22470
1310.033	10.90006	-2.92996	11.43994	-0.98077
1313.978	11.34423	-3.60229	10.46916	-0.82581
1317.983	12.46306	-3.44876	10.25252	-0.64429
1321.983	11.50865	-2.13092	11.74237	-1.18130
1325.979	10.44072	-3.11067	14.16513	-2.83002
1329.983	11.73635	-3.59318	10.48480	-0.34271
1333.980	11.57689	-3.62373	10.08479	-0.38865
1337.983	11.69916	-3.18229	10.02362	0.58726
1341.977	11.23124	-3.00529	10.25857	-0.02501
1345.982	12.12345	-2.92275	10.12431	0.34628
1349.995	11.89209	-3.44197	9.70217	0.27406
1353.991	11.60997	-3.44626	10.12897	0.30763
1357.984	11.99780	-4.09897	10.04403	0.65910
1361.978	11.67784	-3.39794	10.11950	0.81792
1365.979	12.23443	-3.58853	9.86818	0.09709
1369.976	11.68465	-3.91983	10.45488	-0.51660
1374.002	12.09667	-4.99953	10.24021	-1.83821
1377.983	11.92172	-3.99829	10.26259	-1.77159
1381.983	11.82235	-3.36689	10.27861	-0.51019
1385.986	11.79080	-3.63838	10.35729	-0.28624
1389.979	12.55968	-6.15150	9.96855	0.62531
1393.985	11.10749	-3.22822	10.07423	0.97759
1397.982	12.01599	-3.18566	10.48941	-1.63084
1401.982	11.96375	-2.76334	10.43438	-1.60549
1405.982	10.90301	-2.73238	10.17319	-0.34983
1409.977	11.84363	-4.26736	9.97698	0.58761
1413.983	11.80019	-3.50807	9.72660	0.47361
1417.979	12.10369	-2.96181	9.97563	-1.02690
1421.979	12.50997	-3.69293	10.12368	-0.48703
1425.976	11.67415	-2.66455	9.88374	0.16057
1429.983	11.59387	-4.04693	10.18680	0.88257
1433.985	11.69148	-3.04533	10.32015	-1.38310
1437.984	11.87277	-2.71230	10.67816	-0.30011
1442.020	11.37565	-2.53610	10.20067	1.52256
1445.986	16.68926	-4.24585	14.64673	3.83324
1449.985	19.63161	-5.37441	15.52299	3.08754
1453.977	19.81385	-3.92326	15.32452	11.53088
1457.980	NaN	NaN	NaN	NaN
1461.977	NaN	NaN	NaN	NaN
1465.979	NaN	NaN	4.13078	12.02811
1469.977	NaN	NaN	NaN	NaN
1473.980	NaN	NaN	NaN	NaN
1477.996	NaN	NaN	NaN	NaN
1481.974	NaN	NaN	NaN	NaN
1485.977	NaN	NaN	NaN	NaN
1489.978	NaN	NaN	NaN	NaN
1493.979	NaN	NaN	NaN	NaN
1497.991	NaN	NaN	NaN	NaN
1501.979	NaN	NaN	NaN	NaN
1505.996	NaN	NaN	NaN	NaN
1510.812	NaN	NaN	NaN	NaN
1514.935	NaN	NaN	NaN	NaN
1518.835	NaN	NaN	NaN	NaN
1522.973	NaN	NaN	NaN	NaN
1526.890	NaN	NaN	NaN	NaN
1530.769	NaN	NaN	NaN	NaN
1534.628	NaN	NaN	NaN	NaN
1538.786	NaN	NaN	NaN	NaN
1543.026	NaN	NaN	NaN	NaN
1547.063	NaN	NaN	NaN	NaN
1551.221	NaN	NaN	NaN	NaN
1555.278	NaN	NaN	NaN	NaN
1558.051	NaN	NaN	-20.01055	1.92529
1561.987	-13.09499	8.76899	-19.31269	1.95453
1565.979	-12.72454	7.45635	-17.79109	0.94585
1569.988	-14.63486	7.33860	-18.58656	-0.70955
1573.979	-14.44238	4.98509	-17.68473	-0.92064
1577.904	-14.64071	3.90220	-16.29669	0.19033
1581.980	-14.12838	3.61702	-5.43524	3.58915
1585.974	-4.35620	-2.28027	-9.31143	1.67286
1589.979	-10.18255	4.33011	-8.97620	1.74730
1593.970	-3.46199	0.77143	-5.65543	-5.16953
1597.981	-1.51340	-2.75564	-6.18860	1.68642
1601.979	-4.62715	1.91288	-9.33840	2.56776
1605.978	-5.10593	1.29861	-9.43001	1.03526
1609.974	-6.00791	0.85057	-8.72738	1.31425
1613.976	-6.44924	0.89298	-9.11351	1.37228
1617.977	-10.86751	-0.81832	-9.06695	3.45588
1621.974	-6.68817	0.84711	-9.01951	1.25058
1625.974	-7.56666	0.34446	-9.14382	1.73641
1629.973	-7.75414	0.40298	-9.08476	1.12338
1633.999	-7.64596	-0.59017	-8.73892	1.55821
1637.987	-10.96241	0.72895	-8.89884	1.21892
1641.979	-7.33508	0.80030	-9.03629	2.35833
1645.991	-8.18157	-0.96511	-8.91803	1.58579
1649.979	-8.03144	0.57137	-8.20688	1.68118
1653.973	-7.57220	0.69450	-9.06637	2.31350
1657.978	-7.80950	-0.42164	-8.91030	1.64202
1661.973	-7.85132	0.50590	-9.71464	1.14729
1665.979	-7.85977	0.71266	-8.97351	2.32351
1669.970	-7.72327	0.52528	-8.72728	1.92259
1673.979	-8.33571	-0.25708	-8.80614	1.15472
1677.977	-7.81451	-0.07733	-8.79717	1.94747
1681.975	-7.10651	0.28423	-8.53930	2.29894
1685.976	-7.74698	0.13870	-8.80774	2.63949
1689.979	-7.94095	-0.11715	-8.90776	2.33567
1693.976	-7.68710	-0.17553	-8.91141	1.79259
1697.975	-5.94514	3.45583	-8.74307	1.76754
1701.973	-7.57932	1.00939	-8.98332	1.81756
1705.867	-7.43454	0.39540	-9.16690	1.40578
1709.848	-7.02365	0.83970	-8.38831	1.33859
1713.872	-7.27069	-0.70190	-9.11895	1.88065
1717.852	-7.54108	-0.32120	-9.48012	1.81246
1721.844	-6.93775	0.36576	-7.00208	2.21733
1725.853	-7.23577	0.84272	-9.47683	1.72356
1729.883	-7.32585	1.45589	-9.20954	1.98126
1733.848	-7.60968	0.94784	-5.63454	2.04475
1737.845	-7.25689	0.50482	-10.54639	1.93063
1741.851	-7.14687	0.75106	-6.91231	2.18529
1745.848	-7.99559	0.57162	-9.91199	2.06548
1749.847	-7.39601	0.45213	-8.40167	2.01496
1753.841	-7.41255	-1.48353	-9.43506	2.07970
1757.853	-7.19681	1.36133	-9.64190	2.39176
1761.849	-7.76530	0.59059	-5.37898	2.12965
1765.845	-8.18286	1.19552	-6.91862	1.78271
1769.851	-7.34192	0.83315	-9.46061	1.35649
1773.864	-7.41558	0.27443	-8.45278	2.52979
1777.853	-7.11704	1.67033	-8.04438	2.16919
1781.849	-8.99336	-0.59708	-8.23530	1.40771
1785.854	-8.36885	0.66447	-8.62389	2.64368
1789.849	-7.50466	0.95112	-8.71640	2.10805
1793.846	-7.09888	0.51585	-8.71269	1.76842
1797.840	-7.47319	1.75410	-8.63495	2.45316
1801.845	-7.34990	-0.31765	-8.86834	1.49854
1805.850	-8.53804	1.17505	-8.70257	3.03321
1809.846	-6.21151	-0.65913	-8.72372	0.21482
1813.858	-7.54135	1.57408	-8.72406	2.16668
1817.853	-7.85419	0.05977	-8.88036	0.85287
1821.846	-7.68150	0.49749	-8.72672	2.53746
1825.848	-7.92666	0.88738	-8.88862	1.89203
1829.847	-7.84969	-0.44574	-8.75584	2.95482
1833.848	-7.82708	0.33659	-8.73574	0.69104
1837.843	-7.69785	0.12923	-8.44892	1.37663
1841.849	-7.64703	-0.24153	-8.80871	0.88292
1845.849	-5.23418	0.06528	-8.74799	3.65253
1849.849	-7.51847	0.34718	-8.65356	0.23328
1853.848	-7.73828	0.18859	-8.79109	2.29178
1857.846	-7.92753	-0.31385	-8.76804	1.28764
1861.850	-7.81203	0.55292	-8.82233	0.95371
1865.846	-7.73843	-2.50936	-8.82078	2.16310
1869.846	-7.79183	-0.22059	-8.89787	1.97072
1873.842	-7.66950	0.79537	-8.86289	1.38783
1877.848	-7.91611	0.97761	-9.12280	1.01549
1881.865	-8.32276	0.67689	-9.28149	1.05610
1885.848	-8.90972	0.89718	-10.64448	-0.08731
1889.851	-9.40651	0.31178	-10.94150	-1.29338
1893.847	-10.88513	-0.19097	-11.13965	-0.96632
1897.857	-9.89427	-1.91860	-11.46971	0.14884
1901.842	-10.05830	-2.52483	-11.75058	-0.03506
1905.848	-9.72250	-1.68948	-12.34631	-0.56766
1909.849	-9.90766	-1.27192	-11.85977	-1.24667
1913.842	-10.24382	-0.85875	-11.43884	-0.65543
1917.863	-10.40250	-2.68390	-12.31436	0.10597
1921.849	-10.49102	-2.31545	-11.51182	-1.24091
1925.845	-10.23937	-1.24282	-10.55548	-2.94328
1929.846	-10.14542	-2.81440	-11.99963	-0.73345
1933.848	-10.93713	-0.50285	-11.72098	-1.06655
1937.845	-10.60759	-2.86687	-11.98935	-0.07000
1941.851	-10.58658	-0.76506	-12.42325	0.06171
1945.855	-10.67028	-1.51754	-11.43567	-1.53656
1949.848	-10.69364	-0.63271	-12.34226	-0.17917
1953.848	-10.74935	-0.61448	-10.81164	-3.08612
1957.844	-10.73265	-0.45827	-11.24929	-0.44970
1961.846	-10.82653	-0.28287	-11.25937	-1.72199
1965.841	-8.96571	-2.28545	-12.11560	-0.22369
1969.844	-9.48132	-1.39572	-12.05366	0.08092
1973.845	-8.58995	-1.35311	-12.38640	-1.53895
1977.844	-8.90768	-0.90781	-12.55152	-0.02227
1981.849	-8.67291	-2.99932	-12.58077	-1.15732
1985.842	-9.30617	-1.27793	-12.31919	-1.64594
1989.847	-11.42284	-1.69594	-12.28972	0.69497
1993.844	-8.08596	-0.21620	-13.03260	-1.50556
1997.844	-8.32692	-2.97471	-12.28415	-1.98945
2001.837	-8.88440	-1.97653	-12.13095	-0.21364
2005.857	-9.39941	-1.21532	-12.62270	0.22442
2009.845	-10.30514	-1.93884	-12.14091	0.31297
2013.842	-9.15420	-0.59767	-12.17703	-0.69204
2017.841	-11.16163	-1.74703	-11.91163	-1.10277
2021.853	-10.85906	-0.15611	-12.13441	-0.30919
2025.840	-10.04478	-0.25329	-12.20352	-0.51671
2029.841	-10.27352	-0.18619	-11.47314	-0.24822
2033.843	-10.85997	-1.51078	-11.72572	-0.71735
2037.846	-10.57812	-0.84291	-12.05874	-0.67840
2041.837	-10.52833	-1.50882	-12.15467	-0.97157
2045.842	-10.66716	-1.16037	-12.00303	-0.97720
2049.842	-10.68950	-1.47884	-11.37228	-0.46911
2053.846	-11.01527	-1.41816	-11.46237	-0.34177
2057.840	-10.49183	-0.28194	-11.82121	-0.47478
2061.843	-10.81389	-1.45135	-12.11733	-0.33134
2065.850	-10.56577	-1.11428	-11.23086	-0.46849
2069.846	-10.11370	-0.76442	-12.06024	-0.31586
2073.847	-10.81607	-1.39233	-12.45655	-0.42471
2077.842	-10.78786	-1.08097	-12.53263	-0.00148
2081.841	-10.87735	-1.22283	-11.47901	-0.64197
2085.840	-10.53219	-1.20332	-12.02632	-1.40720
2089.847	-10.73548	-1.57981	-11.52355	-0.36334
2093.841	-11.07917	-1.54772	-12.25943	-0.40444
2097.845	-10.97748	-1.64747	-12.46616	-0.26158
2101.837	-11.35079	-1.37523	-12.34813	-0.02092
2105.850	-11.52071	-0.63160	-12.22919	-0.08354
2109.844	-11.18095	-1.77226	-12.03674	-1.25910
2113.837	-11.45059	-2.05433	-11.58470	-0.64752
2117.847	-10.48444	-1.44388	-12.12165	-0.05909
2121.841	-10.19846	-0.59034	-10.53766	-0.31815
2125.843	-8.23364	-0.99206	-11.31603	-0.92188
2129.847	-11.34893	-3.69337	-9.85683	-0.45056
2133.844	-7.94523	-2.69018	-8.98857	0.69957
2137.844	-10.10901	-2.62958	-6.91985	0.72195
2141.843	-7.95112	-2.26272	-4.58903	0.60416
2145.840	0.82372	-4.51124	-3.88339	-0.98477
2149.848	-2.96624	-3.30120	-3.22069	-2.31730
2153.846	-2.95379	-2.53834	-3.31165	-1.28393
2157.870	0.84352	-2.60286	-2.70374	0.05354
2161.840	1.17736	-3.07568	-2.07819	-1.17728
2165.839	1.32185	-2.91695	-2.39998	0.22019
2169.839	1.09316	-4.38853	-2.83363	-1.78352
2173.839	0.63352	-5.08329	-2.77002	0.30044
2177.838	0.64461	-4.71731	-2.42393	-2.05950
2181.839	-0.80210	-5.62465	-2.95933	0.09063
2185.833	-1.03106	-3.51138	-2.53835	-1.83844
2189.845	0.03971	-2.62043	-2.51948	-0.30778
2193.850	1.64062	-4.15665	-3.16394	-1.82086
2197.857	1.55112	-5.12143	-3.20761	-2.08128
2201.843	3.00482	-2.86632	-2.75034	-0.89845
2205.841	2.95765	-5.51992	-3.29592	-1.28539
2209.839	4.52113	-5.87176	-2.58313	-2.15484
2213.834	-1.15597	-4.18293	-2.60158	-1.76546
2217.845	-0.89587	-2.94790	-2.17056	-1.89885
2221.841	-1.23005	-2.32655	-2.45029	-1.52393
2225.838	-1.54467	-1.92712	-3.41780	-1.08248
2229.842	-1.25079	-1.87566	-3.36950	-1.99854
2233.844	-1.06406	-2.59831	-2.31277	-1.56185
2237.839	-0.81801	-5.03013	-2.62160	-1.61811
2241.842	-0.02177	-5.05774	-2.10131	-1.81085
2245.834	1.29511	-4.50957	-2.27221	-2.14986
2249.843	4.38812	-5.29815	-2.78736	0.04882
2253.840	-1.41435	-4.05927	-3.43012	-1.45185
2257.867	-1.71008	-4.19507	-2.79736	-1.82397
2261.841	-2.01238	-3.53725	-2.61102	-0.65193
2265.838	-1.40604	-1.74876	-2.53808	-1.73465
2269.836	-2.42153	-4.36814	-3.36525	-1.57084
2273.843	1.30045	-4.43660	-2.53761	-0.93132
2277.838	0.90279	-4.37485	-3.89748	-2.03410
2281.839	-3.19702	-4.61428	-3.38046	-1.39350
2285.833	-2.07504	-4.41828	-2.64777	-1.56406
2289.837	-2.37176	-4.98696	-2.69049	-0.49019
2293.837	-2.36217	-4.08789	-2.57682	-1.74816
2297.837	-0.50597	-3.78223	-2.77956	-0.56712
2301.832	-0.00159	-3.68056	-3.18239	0.05637
2305.841	0.51972	-5.46147	-3.55342	-1.93484
2309.843	-0.30156	-4.91621	-3.12700	-0.74621
2313.837	-0.54642	-4.27271	-2.81741	-1.19159
2317.853	0.08542	-2.20201	-2.78914	-0.19173
2321.841	-2.43474	-3.76407	-2.57942	-1.33028
2325.843	1.45165	-3.64746	-1.21268	-2.52049
2329.836	0.24545	-3.56759	-2.90084	0.23802
2333.837	-2.34800	-4.48965	-3.06627	0.32850
2337.841	-1.73457	-2.06737	-4.07752	-0.65319
2341.841	-2.21110	-3.52401	-3.76495	-1.24769
2345.837	-1.95611	-5.56573	-2.74306	-0.98568
2349.874	-0.51905	-7.35474	-3.33475	-2.05548
2353.843	1.73792	-8.44965	-2.81244	-1.52347
2357.842	0.14623	-3.63219	-2.52515	-1.82973
2361.835	0.17477	-3.66421	-2.79793	-2.87402
2365.840	-0.45289	-4.33434	-2.70933	-2.59063
2369.840	-1.92632	-4.09757	-1.63244	-1.82922
2373.834	-1.95247	-6.02254	-1.20341	2.02426
2377.840	-2.13975	-6.83550	-2.25246	-0.39273
2381.852	-2.35177	-6.77449	-1.87027	-0.76577
2385.838	-2.26212	-7.71268	-2.16815	-1.66862
2389.841	2.71161	-7.60823	-6.93858	-1.11797
2393.853	-3.20845	-7.08037	-5.61264	-1.31509
2397.854	-3.55560	-4.80177	-5.26994	-1.56804
2401.835	-3.31880	-5.83952	-3.02682	-2.03656
2405.837	-3.70947	-6.30770	-4.07019	-1.39213
2409.834	-3.56465	-5.41587	-4.75990	-1.39440
2413.835	2.17621	-5.11664	-3.87717	-1.16847
2417.841	-3.62652	-4.88529	-1.82460	-1.28669
2421.836	1.50594	-3.43773	-1.93519	0.26832
2425.839	1.54200	1.65695	-0.57694	2.06367
2429.831	11.56174	-3.28775	1.10244	1.03923
2433.835	9.70721	-4.69759	0.82642	1.14001
2437.840	6.77915	-4.84143	1.33088	2.16630
2441.844	6.54391	-2.75278	1.25136	1.98180
2445.842	6.59334	-2.44941	-1.94149	0.73785
2449.835	6.93636	-4.90450	0.53791	1.44543
2453.839	9.94811	-5.21055	0.15571	1.31376
2457.834	6.63098	-2.72757	0.68223	1.37725
2461.834	11.30586	-2.08377	0.94765	1.22771
2465.835	10.85109	-4.13810	0.75804	1.47549
2469.836	9.98716	-3.04529	-3.72907	-0.80469
2473.837	5.96439	-1.37832	0.88498	1.32702
2477.834	9.95110	-5.78049	0.71824	1.66415
2481.845	5.44244	-6.47038	-0.03733	0.35464
2485.839	6.06394	-2.56818	0.90867	1.76103
2489.835	4.67895	-6.58312	1.12618	-0.27289
2493.829	4.71380	-2.54989	0.82379	1.87311
2497.834	4.27417	-3.40029	0.67759	1.24804
2501.837	3.84703	-0.22996	0.58012	2.40099
2505.834	1.03570	-2.12438	0.64995	1.02053
2509.835	2.86435	0.07458	0.55927	2.26627
2513.836	2.45314	1.00631	0.52897	0.70920
2517.833	3.91012	0.50439	0.38576	2.28322
2521.845	4.58878	-1.13437	0.31312	1.25509
2525.837	4.49509	-2.64284	0.46832	2.13582
2529.840	1.93132	0.01679	0.50838	0.58178
2533.839	4.99856	-2.35544	0.43959	2.11672
2537.837	3.91062	-2.07207	0.38725	1.80800
2541.834	4.83676	-2.17908	0.60890	2.03179
2545.829	4.16238	-1.37991	1.06813	2.08428
2549.839	1.64751	0.09978	4.41687	0.69965
2553.836	1.51692	-2.81442	0.70417	1.66346
2557.871	1.78193	-0.51228	0.45381	2.01149
2561.707	1.27135	-0.53520	0.41045	2.01443
2565.709	1.37359	-0.38259	-0.22475	2.02936
2569.712	1.36963	-0.17086	0.45656	2.24140
2573.706	1.36318	-0.45348	0.24291	2.37410
2577.714	1.09043	0.27304	0.17094	2.32904
2581.710	1.36831	-0.61174	0.21591	1.98226
2585.713	1.33309	-0.19514	0.40857	-0.07542
2589.702	2.29406	1.02931	0.24624	2.29893
2593.707	1.27100	1.35176	0.28754	2.14380
2597.708	2.28147	-0.49077	1.10142	2.02980
2601.729	2.65060	-0.00680	0.29098	2.23025
2605.727	1.10651	-0.26183	0.66938	1.30596
2609.710	3.26742	-0.00563	0.37052	2.32240
2613.715	5.65791	-2.93049	0.44011	2.44445
2617.709	4.27777	-0.11451	0.37576	1.98131
2621.709	4.11582	-2.70682	0.40569	2.31904
2625.706	4.71311	-1.06983	0.06209	2.54898
2629.738	4.54910	1.40849	0.34965	2.56751
2633.711	4.94957	-3.04352	0.44944	1.49782
2637.721	3.75697	0.06529	0.68833	2.32712
2641.707	1.53366	-1.48718	0.73384	1.11341
2645.707	2.51584	-0.63977	0.56473	2.30013
2649.700	1.31339	-0.76096	0.78201	2.31861
2653.712	1.99064	-2.58807	-0.18539	1.74188
2657.706	1.40681	0.48306	-0.63178	1.52327
2661.711	3.00309	-2.33279	0.54406	1.66510
2665.718	1.14546	0.96645	0.70434	1.68307
2669.706	3.65895	-1.72801	0.84932	1.71553
2673.707	2.43620	-0.44881	0.78049	1.54403
2677.707	3.05484	-0.84277	0.91564	1.94042
2681.710	2.41455	-0.37359	0.88530	1.59397
2685.702	0.86198	-1.11322	1.44329	1.64704
2689.706	2.45626	-0.68344	0.73943	1.86841
2693.709	3.24224	-0.69798	0.74144	1.64095
2697.708	1.97780	-0.04594	-1.46115	1.70710
2701.713	0.73094	-0.81242	-7.46358	1.65021
2705.722	2.84393	1.24309	-1.89439	2.79920
2709.711	3.34037	2.07883	NaN	NaN
2713.711	5.53068	2.13860	NaN	NaN
2717.707	NaN	NaN	NaN	NaN
2721.708	NaN	NaN	NaN	NaN
2725.703	NaN	NaN	NaN	NaN
2729.711	NaN	NaN	NaN	NaN
2734.780	NaN	NaN	NaN	NaN
2738.780	NaN	NaN	NaN	NaN
2742.646	NaN	NaN	NaN	NaN
2746.422	NaN	NaN	NaN	NaN
2749.998	NaN	NaN	NaN	NaN
2753.718	NaN	NaN	NaN	NaN
2757.704	NaN	NaN	NaN	NaN
2761.709	NaN	NaN	NaN	NaN
2765.707	NaN	NaN	NaN	NaN
2769.721	NaN	NaN	NaN	NaN
2773.731	NaN	NaN	NaN	NaN
2777.715	NaN	NaN	NaN	NaN
2781.713	NaN	NaN	NaN	NaN
2785.858	NaN	NaN	NaN	NaN
2789.974	NaN	NaN	NaN	NaN
2793.901	NaN	NaN	NaN	NaN
2797.940	NaN	NaN	NaN	NaN
2802.847	NaN	NaN	NaN	NaN
2807.098	NaN	NaN	NaN	NaN
2811.249	NaN	NaN	NaN	NaN
2815.327	NaN	NaN	7.78272	11.10132
2817.904	14.16788	12.41495	18.31338	11.89221
2821.721	NaN	NaN	18.98726	14.02046
2825.701	21.02023	-0.64344	18.77792	14.16198
2829.703	13.32047	-2.53846	NaN	NaN
2833.706	17.90891	-6.77488	14.33173	13.29931
2837.707	23.43432	-6.52482	14.09829	7.81073
2841.703	14.02664	-6.92431	14.42204	9.60857
2845.708	13.15179	-2.50854	13.97085	4.57525
2849.707	21.19598	-7.71074	13.20656	4.76479
2853.704	10.13717	-2.00356	16.07127	4.09464
2857.702	20.27023	-7.71780	14.42490	4.27322
2861.713	16.63886	-5.18283	13.72828	0.15326
2865.706	13.15146	-3.23164	13.91427	3.71426
2869.728	15.10910	-4.94172	4.15732	-2.51490
2873.707	14.92658	-2.91459	11.03289	0.08756
2877.699	12.82783	-3.18882	10.97260	0.86046
2881.707	9.70123	-7.06162	10.24026	0.67591
2885.707	14.92669	-6.10705	10.22327	-1.06104
2889.701	12.73335	-2.16113	10.00350	0.47659
2893.702	11.98173	-3.16566	10.41405	0.89552
2897.717	7.67396	-6.74974	11.35523	0.47151
2901.716	12.41525	-6.17926	10.01142	0.67066
2905.735	12.24550	-3.17586	10.59668	0.48867
2909.712	12.01476	-3.18388	10.15420	0.71713
2913.703	12.33257	-3.88730	9.99457	0.93678
2917.703	11.98263	-3.50708	10.45404	1.08654
2921.710	12.63362	-3.72102	10.25343	0.65175
2925.706	12.03211	-3.96525	10.20495	0.78900
2929.702	12.09733	-4.19116	9.99351	0.75010
2933.708	12.19410	-2.98689	10.47945	0.52956
2937.703	11.90502	-2.66110	10.27840	-0.01746
2941.729	7.77061	-5.92183	10.57920	0.11048
2945.707	11.93976	-4.21373	10.51475	1.19171
2949.707	12.12419	-3.33776	10.67370	0.55208
2953.703	12.13268	-2.36495	9.97365	0.34808
2957.701	11.29851	-4.03381	10.56668	-0.75539
2961.701	12.04569	-3.70412	10.56311	-0.68791
2965.702	11.62385	-3.46869	10.35179	0.91946
2969.703	11.96684	-2.50329	10.68791	0.11318
2973.705	11.42039	-3.11380	10.74697	-0.35174
2977.700	12.03339	-3.64230	10.68353	-0.48450
2981.706	11.34537	-2.80972	10.67509	-0.08903
2985.707	4.86712	-5.31226	10.66769	0.78346
2989.704	11.94026	-3.17499	10.54836	-0.16849
2993.698	12.03247	-3.76947	10.62042	-0.28688
2997.700	11.92239	-2.80432	10.63487	-0.47530
3001.703	12.42818	-3.36313	10.83656	-0.29800
3005.717	11.96593	-2.50704	10.48898	0.42321
3009.703	12.45871	-3.61869	10.76918	0.57160
3013.710	11.90785	-4.20634	10.80453	0.58183
3017.698	12.10431	-2.68379	10.60733	0.37677
3021.703	11.96382	-3.03857	10.69644	0.19063
3025.708	12.67731	-3.43014	10.47804	0.02099
3029.705	12.10196	-3.51477	10.68746	-0.15825
3033.699	12.64652	-3.41809	10.76836	-0.78583
3037.704	12.04894	-2.79670	10.53432	0.14866
3041.708	12.04835	-3.23942	10.81734	0.70854
3045.708	11.98916	-3.03664	10.62641	0.93019
3049.700	12.36947	-3.39741	10.87481	0.96965
3053.702	11.87717	-3.36621	10.61600	0.50966
3057.702	12.39134	-2.93641	10.50760	0.31478
3061.703	12.23263	-2.99723	10.58104	-0.10565
3065.696	12.00578	-2.80867	10.68782	-0.52024
3069.706	12.14489	-3.14356	10.58256	0.42169
3073.703	12.24054	-3.08570	10.59749	0.01114
3077.705	12.21843	-3.12020	10.60924	-0.08756
3081.702	12.35737	-3.27652	10.56697	-0.38996
3085.698	11.91301	-3.47414	10.58265	-0.61298
3089.701	12.18495	-3.45277	10.68353	-0.52894
3093.706	12.23469	-1.06074	10.75069	-0.78080
3097.700	12.01449	-1.26148	10.61255	-0.52935
3101.704	12.19311	-2.17890	10.73248	-0.20449
3105.716	11.83453	-2.91478	10.63571	-0.55635
3109.708	11.65865	-2.22421	10.69302	-0.61650
3113.700	11.62106	-2.32284	10.72242	-0.75602
3117.700	11.98607	-1.82645	10.62545	-0.79560
3121.700	11.92227	-2.40270	10.54903	-0.94115
3125.702	15.34995	-3.96123	10.65379	-0.77802
3129.704	12.51733	-11.54244	10.68813	-0.22604
3133.704	12.68642	-11.26187	10.44566	0.24726
3137.702	12.41667	-11.00471	10.36372	0.61329
3141.703	13.56162	-10.92233	10.62787	1.04399
3145.704	13.65184	-9.82579	10.58505	-0.80882
3149.703	13.25251	-9.09503	10.53646	-0.70783
3153.707	13.38181	-11.33446	10.53866	-0.15413
3157.701	13.49432	-10.95022	10.54524	0.81547
3161.703	13.87283	-10.69119	10.10747	0.82940
3165.704	13.79573	-9.96136	10.40368	0.10226
3169.715	13.54642	-8.48425	10.62358	0.96529
3173.700	13.47923	-11.21715	10.70244	0.60286
3177.702	17.11016	-3.70642	10.45274	0.81357
3181.700	13.64900	-3.20988	10.64158	0.28324
3185.698	13.36918	-3.04714	10.61442	0.26624
3189.699	13.13670	-3.79634	10.86615	0.67946
3193.708	13.15692	-2.94666	10.35534	0.75920
3197.703	12.98195	-2.26204	10.73485	0.33879
3201.697	12.76359	-4.01883	10.75497	0.31053
3205.736	12.86961	-4.08859	10.77754	0.40892
3209.705	12.83746	-2.83691	10.62375	0.31183
3213.703	12.68354	-2.05181	10.54653	0.27688
3217.697	12.33174	-2.64469	10.81619	0.00679
3221.699	12.40484	-3.39928	10.78561	0.11124
3225.701	12.41743	-2.88330	11.52562	0.15069
3229.696	12.55394	-2.68515	10.81499	0.20100
3233.706	10.00788	-7.28073	10.87941	0.50561
3237.697	10.20286	-7.23709	10.96519	0.10283
3241.701	11.08115	-7.05536	10.92509	-0.25723
3245.693	10.60392	-6.61449	11.06927	-0.35092
3249.702	10.98937	-6.25260	10.99900	-1.77451
3253.698	10.94796	-10.35797	10.84171	-2.75585
3257.697	10.89142	-9.91107	10.83814	-1.02079
3261.700	3.98067	-3.56351	10.92543	-1.21634
3265.698	6.12715	-3.83475	10.69640	0.27108
3269.700	14.83300	-3.46281	10.82193	-0.52142
3273.695	16.32801	-4.05796	10.81140	-0.56837
3277.701	12.46782	-3.34932	10.97901	-0.71389
3281.702	12.40219	-3.38091	10.67727	-0.65364
3285.697	12.31168	-3.66418	10.75507	-0.82243
3289.699	12.37023	-3.40079	10.76391	-0.58042
3293.692	12.18590	-2.99350	10.61143	-0.19654
3297.702	12.57392	-1.54671	10.59951	-0.17952
3301.696	16.58225	-5.56642	10.73205	0.33108
3305.697	12.62360	-2.31127	10.95545	0.12169
3309.696	12.66925	-3.04651	11.06296	0.04307
3313.698	12.53693	-2.91384	10.67555	0.28863
3317.703	13.06214	-3.30389	10.87359	0.28991
3321.697	12.78212	-3.57436	11.08875	0.13127
3325.696	12.24780	-3.68342	11.50017	-0.40280
3329.699	12.47394	-3.77295	17.84946	-0.56874
3333.694	12.56410	-4.07525	17.96729	-0.43012
3337.702	12.75738	-3.62308	18.17199	-0.84208
3341.697	12.32963	-1.97984	16.34718	-0.69599
3345.699	12.61214	-2.23932	19.03396	-2.45955
3349.698	12.87598	-2.15846	12.55301	-1.11518
3353.698	12.68012	-2.89014	16.32346	-1.19120
3357.700	12.34486	-3.34976	16.32814	-1.54836
3361.702	12.19925	-3.55182	16.93669	0.75406
3365.695	12.34306	-4.00813	17.71523	0.83909
3369.699	12.65933	-2.52644	17.75649	0.14355
3373.696	12.34593	-2.23208	18.38653	-0.18221
3377.696	12.60675	-2.45094	11.35294	-0.00073
3381.780	12.88348	-2.79292	11.14952	-0.41492
3385.709	12.76921	-3.54284	10.78293	0.09942
3389.694	11.92412	-3.71779	11.45751	-0.45512
3393.694	12.68930	-3.76250	11.55121	-0.04628
3397.693	13.40561	-2.32978	11.63321	0.08428
3401.704	13.47817	-2.06225	14.72798	0.05669
3405.702	17.00831	-2.03273	15.24226	0.35581
3409.694	15.19093	-4.46014	17.54721	-0.02718
3413.571	19.94420	-2.35957	17.02243	1.90653
3417.568	19.30345	-3.06174	16.94548	1.19666
3421.570	18.90740	-3.35354	16.52255	1.28999
3425.571	19.21825	-4.35813	16.51630	0.56735
3429.570	19.77641	-6.12584	16.69272	0.39332
3433.564	20.28443	-6.76735	16.87162	0.20098
3437.574	23.30671	-6.96283	16.85212	-0.10476
3441.568	20.89869	-3.56051	17.04832	-0.16492
3445.580	20.66520	-3.42098	16.43875	0.91539
3449.580	20.05844	-3.66353	16.60907	1.32702
3453.570	20.32309	-3.77736	16.55614	1.35988
3457.588	20.48344	-3.39742	16.81560	1.31132
3461.574	20.59495	-4.33377	16.83818	1.16774
3465.573	20.77842	-5.64141	17.04850	1.12184
3469.568	20.85744	-5.14877	16.99633	0.87686
3473.568	20.69309	-5.14856	17.02306	0.96266
3477.569	20.42537	-4.83865	17.12620	1.15396
3481.567	20.58255	-5.09209	19.07387	-0.49446
3485.570	20.44377	-4.94326	19.49382	-0.43384
3489.576	20.30901	-4.63253	19.35394	-0.71981
3493.567	19.30833	-4.09253	19.41935	-0.58833
3497.568	18.65755	-3.96431	19.62892	-0.31372
3501.567	19.79880	-4.02201	19.72228	-0.71062
3505.572	19.63255	-3.07123	17.85933	-0.41345
3509.571	20.16376	-2.76550	17.67705	-0.14854
3513.571	19.93814	-4.53574	19.70845	-0.44756
3517.567	19.44595	-4.45860	17.98238	-0.50344
3521.573	19.09306	-4.24594	17.85719	0.06762
3525.568	18.20991	-3.29196	17.19857	0.78948
3529.576	20.87224	-4.24450	17.14227	-0.12647
3533.574	19.71375	-3.65842	17.45515	-0.35751
3537.570	19.65311	-4.95198	17.44614	0.51796
3541.568	20.21026	-4.66829	17.10011	0.95034
3545.568	19.76705	-5.25283	17.10492	1.02537
3549.567	21.60669	-5.59942	17.19125	0.43776
3553.571	NaN	NaN	16.88234	0.60159
3557.599	20.06045	-5.37205	17.16729	0.53549
3561.569	19.77197	-4.86661	16.94804	0.80159
3565.565	19.65912	-4.36964	17.09735	0.81529
3569.585	19.75858	-4.20287	17.09195	1.00825
3573.576	19.94402	-4.05407	16.42537	1.56136
3577.567	20.10426	-3.97922	19.04443	0.61217
3581.569	20.17601	-3.92877	18.46686	0.81675
3585.568	19.99780	-4.30981	17.18919	-0.13773
3589.567	20.02019	-4.27948	17.27149	-0.26367
3593.564	20.13856	-4.06622	17.11582	0.02282
3597.570	NaN	NaN	16.98805	0.48550
3601.571	20.32926	-4.10330	16.96375	0.57894
3605.564	20.47368	-4.01815	16.79779	0.79576
3609.576	20.13301	-3.90565	16.89530	0.67225
3613.570	19.34674	-3.17859	17.23020	0.74411
3617.569	19.79676	-2.93378	17.05194	0.72074
3621.568	20.37342	-4.10844	17.26083	0.84065
3625.566	19.88613	-2.90637	16.91767	0.94872
3629.563	20.60530	-3.92792	17.40611	0.95318
3633.581	19.65551	-3.71670	16.39964	1.12742
3637.573	18.47253	-4.11202	16.14806	1.40893
3641.566	19.06363	-3.78967	15.07658	1.90261
3645.567	14.18008	-1.21174	12.47711	2.85287
3649.565	10.94433	-0.79074	10.04054	3.27297
3653.568	7.38378	-2.65861	8.28799	3.17449
3657.575	4.83471	-0.83205	4.86497	2.75123
3661.565	4.77000	-2.32252	3.93902	2.45956
3665.570	2.62548	-1.06568	2.48983	2.68152
3669.560	0.20177	-0.61705	-0.11414	6.49777
3673.568	2.09844	-0.95408	2.40709	1.68573
3677.567	0.29173	1.13713	-0.24746	2.85206
3681.567	0.43852	2.75478	1.73108	2.61212
3685.575	0.33794	2.47151	1.10358	2.73190
3689.562	0.24324	2.69727	1.04821	2.55089
3693.564	0.02353	0.85045	0.77796	2.64258
3697.585	1.03947	1.98976	0.61163	2.59338
3701.569	0.30411	0.40056	1.26339	2.36948
3705.566	1.77080	1.84931	0.90498	0.84662
3709.568	0.16514	0.66888	-1.80794	0.50956
3713.560	0.32054	-1.51679	-4.24268	0.25626
3717.564	0.13776	0.01876	1.23183	2.74089
3721.566	0.44177	0.46212	0.94085	2.47826
3725.564	5.20558	0.22603	2.46402	2.63002
3729.561	7.42310	-2.20548	0.88845	2.88600
3733.565	5.14690	-2.01821	1.89347	0.69308
3737.571	3.98089	-0.68427	0.49520	0.38902
3741.567	2.92322	-1.86383	0.53664	2.47926
3745.565	1.27934	0.11023	0.05361	2.60699
3749.570	2.89356	0.10399	-0.58731	2.70995
3753.567	1.01777	-0.18942	0.06068	2.78461
3757.566	1.19696	-0.09751	0.14888	2.76331
3761.567	2.57048	0.79075	0.36608	2.33924
3765.559	1.68141	1.60965	1.42479	2.72008
3769.561	1.74925	0.91621	0.05251	2.72172
3773.563	1.71972	2.24899	-0.18511	3.16902
3777.567	1.43813	2.62781	0.58627	2.69158
3781.565	1.04885	2.37819	0.15940	2.55061
3785.569	1.50564	2.09911	-0.11652	2.44555
3789.562	6.05329	-3.09463	0.06850	2.41448
3793.565	4.84184	-0.90789	-0.09617	2.23690
3797.561	3.48783	-1.44725	0.24517	2.31223
3801.567	2.51648	-1.41921	0.24564	2.10023
3805.566	1.07723	-1.39344	1.40901	2.71790
3809.562	-0.46875	-1.44395	0.18492	3.29304
3813.566	1.22022	-1.23046	0.29131	2.06936
3817.563	1.28065	-0.65861	0.37536	2.11852
3821.582	1.11708	-0.96859	0.83478	1.95454
3825.572	1.34242	0.46057	0.58970	1.77024
3829.561	-0.94100	-1.16401	0.27642	1.96559
3833.566	4.51808	0.93077	0.38467	2.24576
3837.559	4.35144	0.37795	0.56932	1.99895
3841.562	2.86306	-0.37577	0.44130	2.24311
3845.563	3.07082	-0.27736	0.66819	2.06063
3849.566	2.33408	-0.36373	0.43162	2.11580
3853.561	-1.68833	0.89605	0.26862	2.48641
3857.556	1.74471	1.70959	0.40231	2.24623
3861.570	1.94027	0.80018	0.47634	2.37166
3865.568	1.69106	1.15853	0.47187	2.45681
3869.561	2.60760	-0.07598	0.52327	2.54426
3873.555	5.70957	-1.29581	0.37184	2.46071
3877.567	4.88244	-1.45195	0.28414	2.10405
3881.586	4.10090	-0.84014	-0.56352	2.60101
3885.565	2.72647	-0.35600	0.40800	1.68730
3889.562	1.79063	-0.83566	0.38812	1.59926
3893.563	1.25505	0.21000	0.19271	1.73656
3897.567	1.50110	0.03582	1.78000	0.33793
3901.564	1.73018	0.99605	-0.08346	1.61737
3905.563	1.56623	0.12676	1.05379	0.82974
3909.571	1.02501	-0.29486	0.34268	1.68907
3913.560	4.41798	-0.82134	0.83096	1.30380
3917.560	3.11942	-1.92784	0.12116	1.55445
3921.554	2.47477	-1.93358	0.30081	1.46559
3925.559	0.93663	-1.13993	-0.13675	1.60314
3929.561	1.83878	-0.10767	-0.05864	1.58063
3933.560	0.55652	-1.87952	-0.05378	1.54447
3937.556	2.81154	-1.00523	-1.31121	1.21433
3941.564	4.63321	-2.00269	-2.16005	1.18608
3945.582	4.73251	-1.21251	-2.93869	1.25618
3949.565	4.62458	-1.37918	0.30741	1.60737
3953.590	3.93280	-1.77672	0.46356	1.52317
3957.605	0.64086	-1.14674	0.37300	1.56093
3961.565	2.89968	-0.87899	-0.07867	1.49662
3965.558	2.95119	-0.63914	0.48386	1.50340
3969.563	2.35856	-0.89600	0.55094	1.56270
3973.559	0.41440	-0.25221	-0.16963	1.56304
3977.563	2.06912	-0.54969	0.32541	1.48140
3981.554	0.84699	-1.69056	0.18742	1.64828
3985.558	0.72615	-1.43462	0.48254	1.61414
3989.565	1.84213	-0.80904	-0.36114	1.82258
3993.566	1.48191	-0.93140	0.01921	1.78369
3997.556	0.31975	-1.22314	-0.16350	1.85451
4001.557	0.39569	-0.66872	-0.20904	2.12434
4005.560	1.11268	-0.72331	-0.50513	2.97659
4009.566	0.54940	-1.04661	-0.23686	2.37107
4013.558	-0.13506	-1.11183	0.01541	2.32967
4017.557	0.49962	-0.62662	-0.33178	3.39877
4021.557	0.50068	-1.20789	-0.09644	2.46086
4025.596	0.37288	-0.32484	-0.04432	2.55203
4029.570	0.44217	-1.07126	-0.13215	2.34211
4033.558	0.53897	-0.28297	-0.16109	2.37463
4037.558	0.54555	-0.09171	-0.04348	2.10996
4041.557	0.96958	-0.14112	0.32943	2.23788
4045.563	0.77883	0.19860	-0.93758	2.41808
4049.558	0.54791	0.97407	-3.65272	3.05226
4053.563	3.00299	2.00265	-10.88317	12.12023
4057.556	3.48961	4.20812	5.39625	12.90154
4061.565	3.95868	4.55920	NaN	NaN
4065.559	-7.94165	9.11100	5.53267	14.72581
4069.569	NaN	NaN	-22.27786	7.33032
4073.569	NaN	NaN	-19.99600	-12.07725
4077.560	NaN	NaN	-19.99523	-12.07731
4081.560	NaN	NaN	-19.99484	-12.07734
4085.557	NaN	NaN	-19.99462	-12.07736
4089.579	NaN	NaN	-19.99445	-12.07737
4096.199	NaN	NaN	-19.99434	-12.07738
4100.334	NaN	NaN	-19.99425	-12.07738
4105.573	NaN	NaN	-19.99418	-12.07739
4109.562	NaN	NaN	-19.99416	-12.07739
4113.565	NaN	NaN	-19.99412	-12.07739
4117.562	NaN	NaN	NaN	NaN
4121.556	NaN	NaN	NaN	NaN
4125.558	NaN	NaN	NaN	NaN
4129.560	NaN	NaN	NaN	NaN
4133.556	NaN	NaN	NaN	NaN
4137.559	NaN	NaN	NaN	NaN
4141.561	NaN	NaN	NaN	NaN
4145.556	NaN	NaN	NaN	NaN
4149.554	NaN	NaN	NaN	NaN
4153.580	NaN	NaN	NaN	NaN
4157.563	NaN	NaN	NaN	NaN
4161.601	NaN	NaN	NaN	NaN
4166.090	NaN	NaN	NaN	NaN
4169.860	NaN	NaN	NaN	NaN
4175.471	NaN	NaN	NaN	NaN
4178.889	NaN	NaN	NaN	NaN
4185.561	NaN	NaN	NaN	NaN
4189.675	NaN	NaN	NaN	NaN
4193.612	NaN	NaN	NaN	NaN
4197.806	NaN	NaN	NaN	NaN
4201.902	NaN	NaN	NaN	NaN
4206.060	NaN	NaN	NaN	NaN
4210.066	NaN	NaN	NaN	NaN
4213.570	NaN	NaN	NaN	NaN
4217.560	-21.90300	7.03115	-20.53223	-2.99996
4221.555	-19.99534	-12.07730	-13.98699	-8.38263
4225.558	-17.38184	0.94349	-19.43043	-4.10514
4229.558	-19.89962	7.46956	-22.45485	0.52674
4233.572	-19.94696	1.86269	-21.89721	0.24762
4237.564	-20.01585	2.06901	-21.87473	-1.35757
4241.556	-19.90239	2.39086	-20.53908	-1.76193
4245.550	-18.72509	1.59533	-20.63380	0.05088
4249.559	-19.25013	2.05134	-18.38984	-0.03702
4253.555	-15.14763	2.35681	-17.67880	-1.49629
4257.560	-18.46369	-0.07257	-18.08065	-1.82143
4261.561	-17.32366	-0.57225	-17.67110	-1.29877
4265.554	-15.26222	-1.71115	-17.48656	-1.57770
4269.433	-15.47044	-0.61426	-17.50196	-1.98559
4273.429	-15.85056	-0.45166	-17.79896	-1.64530
4277.430	-14.29009	-0.60124	-17.82859	-1.55688
4281.429	-13.58470	-0.53154	-17.46023	-1.60950
4285.440	-13.79206	-2.64133	-16.85882	-1.91211
4289.425	-13.56861	-0.61664	-17.12407	-2.28594
4293.435	-12.97403	-0.52319	-16.84705	-2.10223
4297.429	-13.30569	-0.60900	-16.65027	-2.04575
4301.451	-13.66072	-3.28456	-16.77646	-2.32007
4305.430	-13.60332	-2.78173	-16.52150	-2.39684
4309.439	-13.76778	-2.72681	-16.18901	-2.34374
4313.433	-14.16224	-2.84599	-16.20982	-2.38263
4317.434	-13.77066	-2.73600	-15.83689	-2.33375
4321.439	-13.96538	-0.68820	-16.27556	-2.38469
4325.440	-13.70263	-2.39539	-16.14854	-2.09939
4329.431	-13.86146	-1.12500	-15.96562	-1.92154
4333.432	-13.91498	-2.19353	-15.99812	-1.84710
4337.430	-13.27224	-1.47665	-16.17835	-1.77092
4341.427	-13.90840	-2.67111	-16.05447	-1.33997
4345.462	-13.92131	-2.42297	-16.15717	-1.83110
4349.431	-13.69743	-1.59535	-14.51328	-1.29323
4353.429	-13.66430	-1.14902	-15.43231	-1.72634
4357.426	-13.50743	-1.57541	-16.26147	-1.71629
4361.432	-13.65584	-0.02364	-14.79259	-1.29274
4365.428	-13.60078	-0.60994	-15.86659	-1.50632
4369.471	-13.58048	-1.04712	-14.18627	-1.12345
4373.442	-13.61593	-1.22631	-14.50395	-1.17255
4377.428	-12.03945	-1.00930	-15.47667	-1.42349
4381.428	-14.50060	0.38855	-15.84139	-1.44576
4385.430	-12.82757	2.66441	-14.41492	-1.14288
4389.426	-11.59237	-1.26267	-15.00931	-1.19447
4393.424	-12.94624	-0.50838	-15.48799	-1.69714
4397.426	-13.24776	-0.62156	-15.93671	-1.33128
4401.426	-13.32510	-0.03833	-15.84509	-0.66025
4405.427	-13.03852	-0.43836	-16.01199	-1.02580
4409.428	-13.27675	0.06332	-16.21494	-0.87903
4413.431	-13.79487	-0.47484	-16.32686	-0.97289
4417.432	-13.01091	-0.64368	-16.39123	-1.35415
4421.425	-13.62945	-0.64293	-16.43569	-1.18289
4425.431	-13.31283	-0.29968	-16.24446	-1.14229
4429.429	-13.27391	-0.35075	-16.36165	-1.32557
4433.429	-13.65242	-0.63111	-16.36692	-1.41463
4437.473	-14.03680	-1.03486	-16.47625	-1.44977
4441.439	-13.44369	-1.02598	-16.48036	-1.38270
4445.434	-13.65828	-1.12018	-16.56440	-1.54993
4449.435	-13.88995	-1.05059	-16.56171	-1.66402
4453.436	-13.72495	-1.35516	-16.66004	-1.87732
4457.427	-13.65298	-1.27659	-16.65309	-1.82754
4461.430	-13.85531	-1.70570	-16.74733	-1.87960
4465.423	-14.07036	-1.68106	-16.60803	-1.83639
4469.431	-14.09707	-2.14137	-16.69637	-1.82808
4473.428	-14.01816	-2.60515	-16.67537	-1.89883
4477.423	-13.80137	-1.97469	-16.73791	-1.87182
4481.426	-13.93639	-1.80784	-16.67769	-1.87800
4485.426	-13.93810	-2.24369	-16.74897	-1.91376
4489.431	-13.87150	-2.54743	-16.61026	-2.10044
4493.428	-13.80982	-0.36987	-16.62566	-1.90491
4497.431	-13.55271	-0.83510	-11.59701	-1.10075
4501.425	-12.59261	-2.61975	-13.41979	-1.68049
4505.458	-9.54344	-1.52088	-9.80024	-2.73307
4509.435	-4.34477	-10.11395	-7.06320	-4.24594
4513.429	-8.80917	-2.56356	-5.11420	-5.67553
4517.428	-7.14985	-4.22989	-6.51574	-5.41760
4521.429	-5.16792	-3.82534	-6.74915	-5.71811
4525.421	-3.87460	-9.36735	-3.75146	-8.62127
4529.427	-2.00507	-8.77047	-4.66196	-9.03703
4533.433	1.52791	-7.79774	-4.80231	-9.34735
4537.425	0.52175	-9.88560	-5.52291	-12.20708
4541.430	1.18827	-10.98239	-4.76889	-13.63411
4545.427	5.10231	-10.76972	-1.04759	-13.07172
4549.464	1.72394	-10.80551	-1.48513	-14.36154
4553.418	5.18975	-14.22599	-19.99372	-12.15582
4557.429	0.81620	-10.45763	-19.99372	-12.13674
4561.425	-2.90690	-10.66233	-19.99372	-12.12500
4565.428	5.54732	-14.42552	-19.99372	-12.11698
4569.419	-2.12171	-12.28380	-19.99372	-12.11114
4573.442	0.53024	-10.59819	-19.99372	-12.10663
4577.435	1.54691	-12.26923	-19.99372	-12.10305
4581.424	5.34897	-13.33045	-19.99372	-12.13509
4585.422	5.50737	-12.54666	-2.81194	-14.69383
4589.428	5.44254	-10.59725	-19.99372	-12.08504
4593.427	4.36407	-8.85420	-1.25681	-14.32519
4597.427	4.99989	-12.31910	-19.99372	-12.09102
4601.422	5.18761	-14.31034	-0.92594	-14.07024
4605.424	3.58880	-9.48455	-1.97825	-13.91657
4609.425	-0.75471	-12.06114	-1.71967	-12.92505
4613.421	0.03467	-11.79917	-2.11507	-13.04270
4617.433	1.59584	-12.29985	-2.71067	-12.94755
4621.424	0.65342	-11.87668	-3.30757	-13.42176
4625.426	0.66255	-12.45184	-3.26309	-13.44428
4629.421	-0.52518	-11.87916	-1.91687	-14.28352
4633.434	-1.24689	-11.84025	-2.29453	-14.13700
4637.424	-5.67551	-14.56478	-2.19469	-13.04175
4641.432	-4.68383	-14.46985	-2.55203	-12.49620
4645.422	-3.71683	-12.55068	0.13707	-13.10705
4649.423	-2.09393	-12.30877	-0.77124	-12.92931
4653.427	-2.59804	-12.42450	-1.80268	-12.96917
4657.422	-1.60318	-11.98962	-5.47186	-12.69241
4661.427	-1.28688	-11.69550	-2.47777	-12.69069
4665.426	-1.21670	-12.45950	-19.99372	-12.02945
4669.426	-1.70365	-13.47711	-19.99372	-11.99172
4673.418	-3.46414	-13.16367	-19.99372	-11.99775
4677.428	4.83417	-13.98278	-19.99372	-11.99534
4681.423	1.70588	-13.14494	-2.27736	-13.88676
4685.420	-0.39504	-11.15350	-19.99372	-12.04904
4689.428	-0.46956	-11.49522	-19.99372	-12.03488
4693.423	-1.13581	-10.96727	-5.55128	-13.47464
4697.423	-0.06743	-10.91551	-4.64352	-14.33751
4701.433	-1.28224	-10.94667	-1.94669	-14.67365
4705.426	-0.85376	-12.09742	-1.97436	-14.33141
4709.434	-1.56149	-12.80754	-5.71414	-14.76743
4713.429	1.33465	-13.83107	-4.44390	-14.75686
4717.423	2.43035	-14.15648	-19.99372	-12.21323
4721.427	0.44286	-11.42241	-19.99372	-12.20564
4725.421	-1.46750	-10.80677	-19.99372	-12.16381
4729.443	-0.87081	-11.59216	-19.99372	-12.15888
4733.460	-1.22672	-10.64289	-19.99372	-12.15366
4737.422	-1.05044	-10.62010	-19.99372	-12.10734
4741.423	-1.16555	-11.41510	-1.26120	-14.76843
4745.424	-0.93381	-12.18919	-19.99372	-12.10301
4749.422	-1.31927	-11.72734	-2.94193	-12.18468
4753.424	-0.94160	-11.94120	-1.65260	-12.97398
4757.426	-0.37055	-12.00233	-3.88767	-12.71477
4761.421	-19.99372	-11.58274	-19.99372	-12.06746
4765.425	-19.99372	-11.70672	-19.99372	-12.06749
4769.419	3.61125	-14.06678	-19.99372	-12.06758
4773.426	0.68553	-13.87128	-19.99372	-12.06771
4777.438	-2.53758	-13.17510	-19.99372	-12.06791
4781.425	-2.49065	-12.88816	-3.04170	-12.96827
4785.427	-19.99372	-12.04448	-3.60813	-12.89379
4789.415	2.50241	-12.87120	-5.79280	-13.35784
4793.419	-0.06110	-10.21103	-5.32274	-14.40919
4797.422	-0.68310	-12.80694	-3.99252	-13.53296
4801.424	-2.16853	-12.89889	-19.99372	-12.22485
4805.416	-2.60916	-13.17060	-3.23237	-12.90030
4809.419	0.42212	-11.94766	-2.56421	-12.93818
4813.422	-0.09805	-10.19554	-2.01518	-13.41404
4817.418	0.50039	-11.89260	-19.99372	-12.24927
4821.430	-19.99372	-12.05161	-19.99372	-12.24265
4825.425	1.06681	-12.69537	-19.99372	-12.19241
4829.419	1.70308	-11.82249	-19.99372	-12.16678
4833.426	3.31289	-12.61272	-19.99372	-12.13609
4837.422	0.11761	-13.42559	-19.99372	-12.12719
4841.421	6.80612	-13.36177	-19.99372	-12.09852
4845.424	2.45834	-12.43768	-19.99372	-12.09792
4849.420	1.34904	-13.79058	-19.99372	-12.11027
4853.422	-19.99372	-12.04891	-19.99372	-12.10928
4857.420	-19.99372	-12.05498	NaN	NaN
4861.419	-19.99372	-12.08680	NaN	NaN
4865.421	-19.99372	-12.08718	NaN	NaN
4869.439	-19.99372	-12.10254	NaN	NaN
4873.426	-19.99372	-12.12388	NaN	NaN
4877.420	-19.99372	-12.12948	NaN	NaN
4881.432	-19.99372	-12.10022	NaN	NaN
4885.427	-19.99372	-12.06925	NaN	NaN
4889.419	-19.99372	-12.09727	NaN	NaN
4893.419	NaN	NaN	NaN	NaN
4897.420	NaN	NaN	NaN	NaN
4901.421	NaN	NaN	NaN	NaN
4905.425	1.53255	-12.87357	NaN	NaN
4909.423	1.89714	-13.46730	NaN	NaN
4913.436	-19.99372	-12.13370	NaN	NaN
4917.425	-19.99372	-12.13312	NaN	NaN
4921.421	-19.99372	-12.13227	NaN	NaN
4925.419	3.09277	-13.38211	NaN	NaN
4929.424	-19.99372	-12.16990	NaN	NaN
4933.421	-19.99372	-12.16780	NaN	NaN
4937.461	3.18541	-13.26776	NaN	NaN
4941.418	-19.99372	-12.21624	NaN	NaN
4945.423	3.48088	-13.20732	NaN	NaN
4949.427	3.70964	-13.22835	NaN	NaN
4953.416	3.84965	-14.30015	NaN	NaN
4957.422	3.56690	-13.40916	NaN	NaN
4961.419	0.16677	-13.59788	NaN	NaN
4965.418	-19.99372	-12.40243	NaN	NaN
4969.416	-19.99372	-12.33436	NaN	NaN
4973.417	-19.99372	-12.32609	NaN	NaN
4977.418	-19.99372	-12.31669	NaN	NaN
4981.419	-19.99372	-12.25565	-3.34519	-13.03155
4985.417	-19.99372	-12.24804	-19.99372	-12.11388
4989.417	-19.99372	-12.19752	-3.31531	-14.07452
4993.424	-19.99372	-12.15223	-2.65694	-13.21341
4997.417	-19.99372	-12.14067	-2.89831	-14.29869
5001.417	-19.99372	-12.10473	-19.99372	-12.19373
5005.418	NaN	NaN	-19.99372	-12.19121
5009.437	NaN	NaN	-19.99372	-12.18806
5013.428	NaN	NaN	-19.99372	-12.18436
5017.417	NaN	NaN	-19.99372	-12.18019
5021.421	0.59937	-14.42910	-19.99372	-12.17564
5025.415	-19.99372	-12.08196	-19.99372	-12.13230
5029.423	-19.99372	-12.08191	-19.99372	-12.12975
5033.425	0.53483	-13.44945	-19.99372	-12.11754
5037.421	-19.99372	-12.11477	-19.99372	-12.08178
5041.415	-19.99372	-12.11435	NaN	NaN
5045.416	-19.99372	-12.11377	NaN	NaN
5049.429	-19.99372	-12.11299	NaN	NaN
5053.419	3.94535	-14.90750	NaN	NaN
5057.415	-19.99372	-12.11602	NaN	NaN
5061.422	2.72370	-14.50695	NaN	NaN
5065.417	-19.99372	-12.11868	NaN	NaN
5069.423	-19.99372	-12.11719	NaN	NaN
5073.427	-19.99372	-12.11556	NaN	NaN
5077.422	-19.99372	-12.08584	NaN	NaN
5081.415	-19.99372	-12.08564	NaN	NaN
5085.415	4.08034	-14.78096	NaN	NaN
5089.422	3.84592	-12.86962	NaN	NaN
5093.417	-0.67811	-12.71307	NaN	NaN
5097.420	-1.47975	-13.46310	NaN	NaN
5101.414	-19.99372	-12.10939	NaN	NaN
5105.420	-0.44428	-12.92567	NaN	NaN
5109.418	-19.99372	-12.12435	NaN	NaN
5113.412	-0.23237	-13.81168	NaN	NaN
5117.469	-0.69724	-14.76779	NaN	NaN
5121.305	-19.99372	-12.16448	NaN	NaN
5125.293	0.00151	-14.46350	NaN	NaN
5129.290	3.79084	-14.32381	NaN	NaN
5133.297	2.16743	-13.23183	NaN	NaN
5137.294	3.11138	-12.94518	NaN	NaN
5141.323	-19.99372	-12.18775	-0.55386	-15.14281
5145.295	2.42530	-13.37124	1.43758	-13.61578
5149.291	1.47702	-10.62893	0.57277	-12.82641
5153.298	1.82735	-12.64392	-1.21038	-9.57801
5157.289	1.87614	-10.13296	-3.38256	-9.36478
5161.289	0.41457	-9.71622	-3.21263	-8.58950
5165.302	0.01593	-7.07172	-1.84478	-7.59077
5169.284	1.55164	-7.37072	-1.95584	-3.42801
5173.287	1.69882	-3.13000	-1.26525	-4.57127
5177.291	-0.71995	-3.60835	-2.11068	-1.22742
5181.289	0.00221	-3.43272	-1.64533	-1.07028
5185.304	0.35509	-2.19778	-5.05836	-1.47012
5189.297	-0.00375	-2.49641	-1.97822	-1.29973
5193.283	0.74054	-2.95381	-1.82770	-3.22365
5197.291	0.96571	-2.90938	-1.67603	-3.23738
5201.292	-1.12410	-2.28990	-0.13235	-3.07629
5205.292	0.42566	-2.95214	-1.43957	-1.51819
5209.296	0.01931	-2.17693	-1.15875	-1.66600
5213.292	-0.91818	-2.27770	-1.76324	-1.56506
5217.287	-0.62012	-2.21868	-1.30878	-3.16974
5221.293	-0.72114	-1.34279	-1.68344	-2.24102
5225.291	-1.64541	-2.03040	-2.01531	-2.66461
5229.287	-1.92381	-1.70421	-2.07747	-1.85072
5233.292	-1.21891	-1.35223	-3.78741	-2.30342
5237.290	-0.72556	-2.01395	-3.18999	-1.84146
5241.292	-1.47846	-2.05376	-2.33844	-1.76355
5245.293	-1.64367	-1.74437	-4.07626	-2.85119
5249.294	-2.40035	-1.97384	-2.54239	-1.67638
5253.288	-1.53741	-2.61664	-5.21021	-1.62536
5257.295	-0.76461	-3.17757	-3.77113	-2.09682
5261.292	0.33861	-3.70296	-2.50697	-1.83945
5265.291	0.39958	-4.13007	-2.43620	-2.10922
5269.291	0.73583	-3.45695	-0.65640	-2.29994
5273.288	0.80263	-3.05645	-1.30412	-2.57403
5277.285	0.97030	-2.93299	-1.57600	-2.66495
5281.292	1.24898	-3.09710	-3.59622	-3.18325
5285.291	1.33922	-2.64926	-3.10319	-3.69257
5289.295	1.55901	-3.02456	-1.16123	-3.45423
5293.291	1.83087	-3.07295	-0.75806	-3.03763
5297.292	2.08570	-2.92818	-0.67662	-2.53303
5301.291	2.80533	-2.80535	-2.45629	-3.00193
5305.292	2.31056	-2.82092	-3.29597	-0.93067
5309.293	5.38594	-3.05946	-3.65309	-2.85024
5313.283	-1.92837	-3.10229	-3.02420	-0.68549
5317.291	0.31096	-2.99684	-3.24689	-2.89842
5321.303	-0.53932	-2.78558	-3.79485	-3.06007
5325.292	-1.12916	-2.97814	-3.29357	-2.58840
5329.292	-1.19986	-3.05065	-3.43066	-2.69509
5333.286	-1.81493	-3.34478	-2.78505	-1.44165
5337.292	-0.95291	-3.04865	-2.29205	-2.08714
5341.287	-0.74841	-2.55030	-3.90054	-1.16180
5345.285	-1.39455	-3.03672	-3.84797	-1.14893
5349.281	-0.48431	-2.66831	-3.67311	-1.19953
5353.288	-2.05249	-3.00400	-2.60674	-1.84231
