time (ms)	lx (deg)	ly (deg)	rx (deg)	ry (deg)
0.000	-4.22873	-9.88848	-4.56005	-1.03624
3.996	-4.08179	-9.24947	-4.38437	-1.29338
7.989	-3.79104	-9.67658	-4.71454	0.30751
12.002	-4.20839	-9.59480	-4.59761	0.68771
15.997	-3.34841	-9.87619	-5.32080	-0.78546
19.997	-2.44720	-10.18693	-5.28583	-0.97614
23.992	-3.61550	-11.34173	-5.81818	-0.97980
27.991	-3.30571	-9.70613	-4.87475	-0.87742
31.995	-2.47749	-10.22465	-4.55677	-0.97877
35.995	-1.77600	-11.26031	-2.69002	-1.07987
39.992	-2.62974	-11.12759	-4.56873	-1.01678
43.996	-2.52305	-11.41199	-2.49877	-1.37852
48.023	-1.90710	-13.00545	-2.52438	-1.43873
51.998	-1.71590	-10.77142	-2.78443	-1.39586
56.001	-2.69651	-11.29989	-4.59541	-1.39332
59.990	-2.85569	-11.36001	-3.64516	-1.17406
63.993	-2.64980	-11.44844	-4.52834	-1.45653
67.996	-2.87789	-11.39739	-4.18546	-1.56240
71.993	-2.67459	-12.47732	-4.61082	-1.31239
75.994	-3.01559	-11.32348	-4.94553	-1.46317
79.990	-4.64315	-2.62608	-5.01556	-1.18510
83.869	-4.49526	-2.80849	-5.29359	-0.80742
87.866	-4.72773	-2.92478	-6.61180	-0.65817
91.869	-4.85608	-2.91907	-6.05901	-0.56622
95.866	-5.41224	-3.47531	-4.94039	-0.08279
99.872	-5.34166	-3.18810	-5.25522	0.55956
103.870	-4.09584	-2.60284	-4.29836	-0.36378
107.882	-3.19593	-1.18337	-4.91656	-1.76229
111.884	-4.89786	-1.72554	-3.99973	-2.13772
115.871	-5.28598	-1.92019	-5.51263	-0.63824
119.867	-5.21065	-1.66932	-7.57903	-0.51989
123.864	-5.07712	-2.60589	-5.69971	-0.19037
127.866	-5.12393	-2.27292	-4.77764	0.71851
131.867	-5.17380	-2.29049	-5.57857	0.06324
135.865	-5.12792	-2.33117	-4.22007	-0.20688
139.870	-5.25758	-2.11700	-4.70636	-0.90765
143.872	-5.00726	-2.44076	-6.79777	0.12707
147.868	-5.15212	-2.64596	-4.71018	-3.50577
151.864	-5.19490	-2.54517	-4.67024	-3.51053
155.869	-5.31364	-2.07602	-5.25003	0.05575
159.867	-5.38983	-2.06318	-4.98428	-0.09979
163.865	-5.32860	-2.30116	-4.71550	-0.83301
167.864	-5.43489	-2.61466	-5.99728	-2.97343
171.869	-5.51619	-2.24411	-4.76041	-3.24415
175.867	-5.50169	-2.23505	-3.89799	-1.87187
179.867	-5.43912	-0.88891	-5.40823	-2.09613
183.870	-5.43211	-1.40152	-4.22007	-1.20890
187.867	-5.49379	-0.95194	-3.68265	1.60935
191.867	-4.83568	-0.27487	-0.73868	1.99469
195.867	-3.29023	-0.75457	-0.66139	1.60816
199.868	0.81590	-2.09478	-0.52647	2.07592
203.865	-0.23788	-0.13068	-0.39115	1.88009
207.869	-0.91840	-0.24369	-0.78905	1.65126
211.870	-2.62179	-0.83961	-1.47270	1.19361
215.866	-0.32444	-1.50261	-0.65064	0.13872
219.868	-0.79230	-2.74543	-0.50619	-0.85283
223.872	-0.70307	-0.04465	1.33158	0.05359
227.868	-0.49316	-0.32036	0.57687	0.52447
231.864	-0.48907	0.23872	0.04879	-0.04719
235.868	-0.07721	-0.44496	0.74139	0.82077
239.865	0.08780	0.49737	0.65218	0.63766
243.864	4.57919	3.96116	0.22529	0.64619
247.863	-0.81416	0.61451	0.40172	0.66452
251.864	-1.52476	0.66912	0.37107	0.67203
255.867	-0.31622	0.94824	0.24165	0.68711
259.863	1.76252	0.63422	0.10585	1.03018
263.861	0.22792	-0.53799	0.33407	0.86333
267.870	-0.94095	-1.11094	-0.05735	1.33793
271.865	-1.16880	-0.60319	-0.50374	0.96906
275.863	-0.45448	-0.74563	-0.26428	0.95692
279.863	-2.00663	0.20875	-0.82176	1.16477
283.865	-2.14882	0.73304	-0.78397	1.45884
287.861	-1.99295	0.80214	-0.32915	1.14369
291.867	-0.68072	0.46439	-0.44795	1.42794
295.863	-0.60940	0.71364	-1.42414	1.14256
299.865	-1.64848	0.15825	-1.25322	0.94833
303.867	-0.89840	-0.90425	0.11806	1.13779
307.870	-1.49525	-0.80739	0.24547	0.96107
311.862	-2.06208	-0.20569	-0.51317	1.29203
315.867	-1.71925	-0.08144	-0.20569	0.89365
319.863	-2.30737	0.04926	-1.20675	1.06013
323.866	-1.37389	-0.42951	-0.81563	0.59155
327.861	0.74489	-0.08433	-0.65615	0.70519
331.860	-1.45093	0.24369	-0.70846	0.80356
335.864	-1.73547	0.39591	-1.26041	0.76403
339.864	-1.63348	0.03112	-0.38358	0.86399
343.865	-0.81057	0.36243	-1.32198	0.51497
347.864	-0.82858	0.40246	-1.33386	0.70524
351.870	-0.67923	0.65102	-1.08386	0.75541
355.861	1.09666	0.33016	-1.26349	0.93526
359.894	-2.01974	0.38303	-0.97794	0.70354
363.871	-0.85907	-0.05461	-1.50209	0.46677
367.862	-1.06639	0.07993	-0.92805	0.83668
371.866	0.16650	0.00410	-1.46715	1.25591
375.863	-1.61495	0.00618	-1.26421	1.29974
379.862	-1.71749	-0.08467	-1.77484	1.14172
383.863	-1.79051	0.64318	-1.29970	1.86104
387.860	-1.02092	-0.38512	-1.04461	3.05238
391.869	1.02208	-0.24157	-1.08115	0.32211
395.865	-1.21382	-0.38256	-1.12072	-0.12298
399.865	-1.94974	0.17700	-0.95963	0.57767
403.864	-1.49468	0.09477	-0.94254	1.29012
407.865	-0.89046	-0.40427	-0.94090	3.45511
411.860	-1.97485	-0.16197	-1.17277	0.01647
415.866	-1.64144	0.03266	-1.01536	0.99843
419.862	-1.59874	-0.04449	-0.88622	1.96394
423.865	-0.84106	-0.20876	-0.79372	0.62375
427.866	-1.42223	0.28404	-1.13184	0.54301
431.867	-1.77375	0.02603	-1.05597	1.49155
435.865	-0.91885	-0.01918	-1.03843	3.62287
439.861	0.08924	-0.60893	-0.82610	1.15047
443.866	-1.40594	-0.13087	-1.06681	1.44822
447.863	0.10592	0.05392	-0.97365	2.53833
451.860	0.81069	-0.00045	-0.55898	0.93619
455.859	0.02402	2.01377	-0.46751	1.01815
459.899	0.51766	-0.30203	-0.44323	1.72875
463.861	0.81689	0.13482	-0.87900	2.46345
467.864	-0.66191	-0.35941	-0.32317	2.45371
471.860	-0.99779	-0.01570	-0.64359	0.42123
475.869	-0.43217	0.22406	-0.15742	1.01100
479.860	-0.32476	-0.43527	-0.10505	1.72294
483.861	-0.76910	-0.45715	-0.69940	1.97282
487.866	-0.60856	-0.03648	-0.46867	2.50237
491.860	0.80970	1.45116	-0.04318	2.62353
495.858	1.37362	-3.72688	-0.44296	2.61197
499.855	0.98291	-0.15332	-0.54227	2.47348
503.864	-0.10021	0.47821	-0.51461	2.76016
507.862	0.56322	-0.25479	-0.38167	2.12100
511.860	-0.50984	0.21491	-0.77399	1.36883
515.867	1.15473	-0.26444	-0.49446	2.39013
519.860	-0.08622	-2.18375	-0.66588	2.90023
523.862	-0.20179	-0.21954	-0.61307	2.62405
527.854	0.24408	1.05298	-0.66025	2.61815
531.861	1.01528	-0.54491	-0.68585	2.65515
535.859	0.18531	-0.40044	-0.68958	2.28363
539.862	0.13593	0.16778	-0.91024	1.63425
543.857	-0.49885	0.89792	-0.93582	1.61649
547.862	-0.35811	0.24918	-0.93061	1.50022
551.860	-0.87103	-0.16140	-0.34923	1.32266
555.856	-0.08450	0.76794	-0.78496	0.99273
559.868	-0.08324	0.34776	-0.93353	0.85920
563.860	-0.51158	0.37098	-1.08051	0.53926
567.857	0.63650	-0.50976	-0.90870	1.15469
571.857	-0.68652	0.04892	-0.78278	0.71707
575.862	-0.32575	0.32179	0.31910	1.06204
579.860	-0.65819	1.31311	-0.74161	1.05533
583.858	0.29965	0.07191	-0.76355	1.07508
587.857	-0.72603	0.25540	-0.84491	1.12197
591.863	-0.53612	0.82636	-0.70101	1.48313
595.858	-0.47195	1.41440	-0.00901	1.67634
599.862	-0.43450	0.41091	-0.41616	1.97423
603.862	-1.01484	0.55975	0.01204	1.51038
607.859	-0.88210	0.89218	-0.35122	1.71735
611.862	-0.98514	1.09746	-0.22241	1.00956
615.856	-0.21097	0.50681	-0.52791	1.05610
619.858	-0.38144	-0.15652	-0.73682	2.12182
623.863	-1.40651	-0.17804	-0.55962	1.52161
627.859	0.23321	0.96209	-0.90046	1.90797
631.860	-0.49043	0.63082	-0.71975	1.32623
635.854	0.25197	0.17921	-0.66891	0.52029
639.867	-1.05151	0.43865	-1.02575	1.50763
643.877	-0.31059	0.46036	-0.61699	1.70489
647.859	-0.30595	0.77432	-0.57687	0.71809
651.856	0.09009	-0.89889	-0.65699	1.30444
655.861	-0.21964	-1.69863	-0.68600	1.91658
659.858	4.32533	-1.28581	-0.67119	1.12097
663.857	0.39660	-1.33368	-0.58769	-0.38692
667.861	0.87967	-1.35613	-0.51118	1.97832
671.866	0.34246	-2.23240	-0.43594	1.65983
675.866	1.02662	-4.59135	-0.75960	1.42468
679.859	1.08222	-1.66542	-0.74240	-0.58833
683.860	1.39168	-2.93094	-0.77528	1.66395
687.862	-1.02377	-1.28110	-1.03225	1.56513
691.857	3.07550	-4.24962	-0.79317	1.21423
695.855	0.37834	-3.67882	-1.21504	1.22542
699.859	1.17862	-4.36703	-0.71655	0.95144
703.857	1.12623	0.08459	-1.35385	0.96043
707.858	1.63043	-0.04305	-0.82709	0.65880
711.860	0.86714	-0.79761	-1.13650	0.96267
715.856	0.23306	-0.07877	-1.14025	1.28711
719.857	1.43724	-0.00785	-1.48000	0.91541
723.865	0.24031	0.32900	-1.06991	1.46513
727.860	-0.40465	1.16762	-1.21435	2.05435
731.861	0.16382	-0.20026	-0.96698	1.11866
735.862	-0.72714	0.16717	-0.76067	1.30389
739.867	0.63417	-0.22246	-1.02561	0.31223
743.860	1.41645	-1.04388	-1.02114	0.15004
747.856	1.09462	-0.45008	-0.74243	0.92167
751.854	-2.75363	0.04440	-0.95363	0.80460
755.851	-0.84632	-0.24590	-1.45490	0.27501
759.853	-1.31196	-0.38324	-0.65154	1.92439
763.856	-1.29849	-0.79753	-0.74015	1.42876
767.862	3.11952	-1.00383	-1.31327	0.35343
771.855	-1.88229	0.46474	-0.63737	1.49107
775.853	0.08234	-0.13776	-0.74245	1.41455
779.855	-0.99464	0.15091	-1.20375	1.38727
783.857	-1.01248	0.60456	-0.72325	1.75652
787.851	-1.61369	0.22922	-1.22908	1.79316
791.852	-0.94770	0.17437	-0.81722	1.51425
795.856	-1.04096	0.60729	-0.76923	1.54538
799.858	-0.60771	-0.24045	-0.77568	1.61129
803.856	-1.60930	0.36526	-0.94083	1.84843
807.857	2.76270	-2.06343	-0.90044	1.67082
811.859	-0.72789	0.50583	-1.62110	1.49635
815.859	-0.42539	0.04540	-1.02531	1.69551
819.856	-1.67139	0.38574	-0.97368	1.74988
823.853	-2.44829	-0.29506	-0.83860	1.85037
827.856	-2.32758	0.38844	-0.79627	2.15370
831.857	-0.59193	0.03866	-0.87061	1.89359
835.855	3.14800	-0.07801	-0.81759	1.95395
839.852	-0.65163	0.09268	-1.13806	1.87249
843.852	-0.54558	0.05949	-0.87024	1.97869
847.861	-0.91140	-0.40232	-0.89443	2.00206
851.861	-0.52768	-0.29688	-0.80444	2.00865
855.851	-1.90180	-0.03450	-0.61938	1.95967
859.853	-1.62577	0.12357	-0.65292	2.12999
863.858	-1.04223	0.19426	-1.09366	2.09049
867.853	-1.33949	0.53275	-1.47729	1.96174
871.860	-1.26644	0.48038	-1.27973	0.78000
875.854	-0.59193	0.44787	-0.65213	-0.55182
879.857	-0.74868	0.23473	-0.51265	0.17719
883.855	-1.40561	0.48363	-0.60434	0.55200
887.853	-1.29221	-0.89802	-1.09698	1.57453
891.857	-1.31781	-0.07550	-0.71268	2.04629
895.860	2.08297	-2.86993	-1.22650	2.76521
899.856	-1.06247	0.75859	-1.42990	1.95024
903.909	-1.33557	0.75248	-1.55951	0.27289
907.856	-0.59801	0.37564	-1.61275	0.00954
911.856	-1.52387	-1.13970	-1.08974	0.14919
915.854	-0.92579	1.74839	-1.23302	0.52520
919.850	-0.93267	-0.80595	-1.25113	0.39669
923.856	-0.90681	0.10865	-1.57830	0.61305
927.856	-1.13399	-0.52445	-1.72748	0.99806
931.862	-1.31808	0.05105	-1.83553	0.52858
935.729	-1.52491	0.03607	-1.79145	0.94752
939.734	-1.52570	-0.09024	-1.62723	0.99287
943.854	-1.18334	0.00507	-1.45284	0.86781
947.730	-1.07269	-0.01242	-1.11013	1.00135
951.729	1.06513	-0.01424	-1.78168	-0.73963
955.732	-1.43873	-0.02141	-2.14414	0.99843
959.727	-5.11923	-0.11538	-2.48334	-1.04160
963.724	-5.00780	-0.38948	-4.59364	-2.44689
967.722	-4.95524	-1.04512	-4.85152	-1.33755
971.730	-5.61868	0.24514	-5.29432	-4.42063
975.727	-3.94253	-0.44235	-5.84335	-2.54893
979.733	-5.71507	-4.79193	NaN	NaN
983.730	-4.42641	-4.52578	NaN	NaN
987.728	-4.87453	-3.92301	NaN	NaN
991.728	NaN	NaN	NaN	NaN
995.938	NaN	NaN	NaN	NaN
1000.114	NaN	NaN	NaN	NaN
1004.197	NaN	NaN	NaN	NaN
1008.308	NaN	NaN	NaN	NaN
1013.335	NaN	NaN	NaN	NaN
1017.631	NaN	NaN	NaN	NaN
1021.730	NaN	NaN	NaN	NaN
1025.835	NaN	NaN	NaN	NaN
1029.969	NaN	NaN	NaN	NaN
1034.150	NaN	NaN	NaN	NaN
1038.238	NaN	NaN	NaN	NaN
1042.339	NaN	NaN	NaN	NaN
1046.521	NaN	NaN	NaN	NaN
1050.750	NaN	NaN	NaN	NaN
1055.000	NaN	NaN	NaN	NaN
1059.117	NaN	NaN	NaN	NaN
1063.225	NaN	NaN	NaN	NaN
1067.547	NaN	NaN	NaN	NaN
1071.762	NaN	NaN	NaN	NaN
1076.017	NaN	NaN	NaN	NaN
1081.081	NaN	NaN	NaN	NaN
1085.653	NaN	NaN	NaN	NaN
1089.768	NaN	NaN	NaN	NaN
1093.941	NaN	NaN	NaN	NaN
1098.118	-3.95407	-1.90968	NaN	NaN
1102.329	NaN	NaN	NaN	NaN
1106.540	-4.27417	-3.05904	NaN	NaN
1110.829	-5.94445	-2.01882	NaN	NaN
1115.086	-4.41154	-3.17653	NaN	NaN
1117.748	-6.37964	-3.23579	NaN	NaN
1120.381	-4.32696	-3.68231	NaN	NaN
1123.731	-6.05265	-3.06751	NaN	NaN
1127.728	-6.30110	-3.39530	-7.70007	-2.23539
1131.721	-6.41263	-3.72745	NaN	NaN
1135.728	-6.20271	-3.40391	NaN	NaN
1139.722	-6.39253	-3.56095	-6.49840	-2.14392
1143.723	-6.24565	-3.28060	-7.36013	-2.78238
1147.756	-6.54641	-3.58881	-7.31777	-3.29995
1151.724	-6.54511	-3.61326	-7.31171	-4.87138
1155.727	-6.63734	-3.44497	-7.40689	-2.42995
1159.724	-6.66283	-4.17215	-7.39430	-2.27648
1163.726	-6.38805	-3.28132	-7.16913	-2.48218
1167.723	-6.08566	-3.21897	-7.39645	-3.62184
1171.726	-6.65348	-3.33703	-7.16410	-4.06695
1175.726	-6.47218	-3.17485	-7.19898	-3.77408
1179.723	-6.50425	-3.22448	-7.18025	-2.44417
1183.725	-6.04804	-2.25600	-7.43537	-2.28835
1187.731	-6.43611	-3.25817	-7.26381	-2.37096
1191.726	-6.68876	-3.37953	-7.42749	-2.78587
1195.722	-6.38751	-3.37950	-7.56215	-3.03134
1199.726	-6.46640	-3.22300	-7.27863	-3.25655
1203.722	-6.44946	-3.29271	-6.41569	-3.21180
1207.724	-6.54423	-3.25420	-6.22606	-3.83202
1211.727	-6.41677	-3.19366	-6.13490	-3.85506
1215.745	-6.45797	-3.43346	-7.25162	-3.59232
1219.725	-6.51052	-3.45290	-7.45094	-3.49491
1223.722	-6.19871	-3.09185	-7.45433	-2.89269
1227.731	-6.35993	-3.21356	-7.28517	-2.94950
1231.730	-6.59094	-3.19481	-6.99250	-2.96651
1235.725	-6.53252	-3.14316	-7.19886	-2.78419
1239.727	-6.59571	-3.00487	-7.18867	-2.60751
1243.723	-6.48171	-2.97677	-6.97971	-2.30966
1247.725	-6.29992	-3.21750	-7.14893	-2.66743
1251.722	-6.34500	-3.11489	-7.18127	-3.31041
1255.725	-6.45767	-3.86034	-7.16400	-3.30658
1259.723	-6.19520	-2.98638	-7.39176	-2.79010
1263.725	-6.34351	-0.31555	-7.67867	-2.51163
1267.722	-7.54769	0.22456	-9.95170	-2.25343
1271.731	-10.22063	-2.72417	-11.59734	-1.65841
1275.722	-10.62955	-3.06905	-12.56136	-2.82373
1279.724	-11.20734	-3.82588	-12.16256	-3.09731
1283.752	-11.83372	-4.28993	-14.03332	-4.12762
1287.727	-12.41791	-5.30827	-13.98781	-3.76343
1291.724	-12.62095	-6.08333	-14.41119	-3.61381
1295.721	-14.89620	-4.42857	-14.41045	-2.30693
1299.727	-12.69630	-2.61041	-14.02312	-2.14346
1303.725	-12.99310	-2.77827	-14.10763	-1.78254
1307.723	-13.11479	-3.07276	-14.16562	-2.56709
1311.725	-12.09111	-5.11912	-14.05075	-3.20207
1315.723	-12.84357	-5.23905	-14.18561	-4.61387
1319.777	-12.77117	-4.81181	-14.22839	-3.81736
1323.726	-9.93521	-5.34400	-14.50297	-2.14688
1327.722	-12.70019	-2.84406	-14.10599	-2.92309
1331.721	-12.37745	-4.81831	-14.11925	-3.63696
1335.719	-11.20880	-5.85015	-14.07767	-2.78078
1339.718	-12.37172	-2.37936	-13.89372	-1.87401
1343.726	-12.10506	-2.71394	-14.05016	-3.15572
1347.720	-12.68900	-3.22203	-14.04799	-4.48564
1351.724	-11.87582	-5.40600	-13.94841	-2.52432
1355.728	-12.94233	-3.64997	-14.00714	-2.56656
1359.753	-11.92664	-3.51493	-13.94539	-3.77934
1363.726	-11.95194	-3.16802	-13.84684	-2.79348
1367.722	-12.00946	-4.92244	-13.90235	-2.48370
1371.720	-11.98206	-2.82298	-14.01830	-3.51299
1375.716	-12.19062	-3.04196	-13.47052	-3.24325
1379.741	-12.75025	-3.21481	-13.95236	-2.72412
1383.728	-12.99823	-2.93129	-14.19154	-2.25191
1387.722	-12.52279	-4.06171	-13.81808	-2.15509
1391.715	-12.51447	-3.08286	-14.04794	-2.42595
1395.722	-12.01373	-2.51792	-14.08860	-3.22751
1399.719	-12.49221	-2.47721	-13.93368	-3.08657
1403.722	-12.12108	-2.41160	-14.04253	-3.18539
1407.715	-12.79487	-2.38592	-13.85770	-3.14632
1411.722	-12.65415	-2.55798	-14.01914	-3.53851
1415.722	-12.77301	-3.18828	-14.07319	-3.31794
1419.723	-12.09092	-2.47784	-13.98798	-2.95126
1423.722	-12.14824	-2.93493	-14.01048	-3.06804
1427.716	-12.42181	-5.40586	-13.82426	-2.82978
1431.719	-12.22419	-2.93951	-13.97381	-2.33324
1435.726	-12.21395	-2.89738	-13.97194	-2.04554
1439.723	-12.42756	-2.92143	-14.51798	-1.82701
1443.715	-11.96593	-3.01801	-13.89451	-2.34853
1447.717	-12.32002	-2.97159	-13.95156	-2.79450
1451.718	-12.32194	-3.23471	-14.05168	-3.36527
1455.717	-11.54044	-3.04761	-14.10758	-2.35757
1459.715	-11.99918	-2.65392	-14.14292	-2.17169
1463.723	-11.86921	-2.81882	-14.17262	-2.07180
1467.718	-12.08084	-3.05700	-14.21661	-3.85581
1471.722	-12.13688	-2.86599	-14.15724	-3.71130
1475.716	-12.39402	-2.86659	-13.80666	-2.30914
1479.727	-12.12416	-2.14492	-13.84745	-2.21023
1483.728	-11.95667	-2.44180	-14.15386	-3.44734
1487.723	-11.89461	-3.99883	-14.01917	-2.52691
1491.717	-11.51576	-3.84178	-14.15174	-3.24252
1495.722	-11.95890	-2.60793	-14.18538	-2.47576
1499.718	-11.76899	-1.87424	-13.98482	-2.11995
1503.716	-11.87505	-2.22302	-14.11054	-3.66146
1507.716	-11.98928	-2.65203	-14.02309	-3.17157
1511.715	-12.09859	-4.70679	-13.79424	-2.65821
1515.722	-11.67777	-4.48775	-14.03040	-2.13619
1519.725	-11.80457	-1.02041	-13.82466	-3.17679
1523.720	-12.04032	-2.28119	-13.87251	-3.41502
1527.717	-12.00616	-3.31033	-13.78249	-2.68984
1531.720	-12.03845	-2.93829	-13.85250	-1.79430
1535.717	-12.25981	-4.80882	-13.99786	-3.57376
1539.721	-11.75810	-1.72774	-13.90268	-3.36475
1543.718	-12.14772	-4.43084	-13.59337	-3.19569
1547.718	-12.13026	-2.32537	-12.10255	0.34968
1551.718	-11.35179	-2.43061	-10.34179	-2.45851
1555.715	-10.08005	-1.36715	-8.48301	0.15380
1559.717	-6.55290	-1.55666	0.10324	2.31679
1563.719	-2.65968	-5.19763	-3.70507	1.43442
1567.720	-2.93408	-4.89514	-1.90872	-1.39674
1571.717	-0.05450	-4.80539	0.23502	-1.02508
1575.719	0.20033	-1.92842	0.72456	0.32679
1579.714	4.54871	-2.16311	3.02484	0.87464
1583.719	3.78113	-4.63665	3.21797	-1.20762
1587.717	6.85637	-4.64393	5.60701	-0.53290
1591.719	8.24310	-9.94547	5.73984	-0.11912
1595.715	6.31328	-7.15032	7.49829	0.74869
1599.720	8.65674	-10.01216	8.06020	0.67010
1603.722	4.15186	-9.75080	8.61894	0.76740
1607.720	9.83674	-10.46488	10.55476	-0.58014
1611.721	15.82759	-12.71350	9.57090	-0.07424
1615.720	9.65688	-12.34991	9.07949	-0.16489
1619.715	10.41686	-12.97811	8.92723	-0.45332
1623.718	10.35553	-14.17104	9.10039	-0.31367
1627.717	5.77583	-13.09744	8.89686	-0.20546
1631.715	5.46551	-13.93997	9.15062	0.64558
1635.715	-19.99372	-12.26102	9.35870	0.57724
1639.718	-19.99372	-12.22659	8.99007	1.21611
1643.723	-19.99372	-12.20272	9.14530	1.19121
1647.725	-19.99372	-12.18452	9.22310	0.95856
1651.715	-19.99372	-12.17880	9.17106	1.09799
1655.719	-19.99372	-12.14310	9.74203	-0.24160
1659.719	-19.99372	-12.16954	8.92217	0.21792
1663.722	-19.99372	-12.12719	8.85821	0.08608
1667.717	-19.99372	-12.11701	8.93886	-1.06565
1671.741	-19.99372	-12.09203	8.93348	0.36117
1675.720	NaN	NaN	8.97770	-0.01819
1679.717	NaN	NaN	9.03154	1.06042
1683.715	NaN	NaN	8.89889	0.62134
1687.718	NaN	NaN	8.90432	0.42004
1691.718	NaN	NaN	8.74762	-0.25144
1695.714	NaN	NaN	8.95261	-0.34745
1699.719	NaN	NaN	9.09316	-0.49740
1703.717	NaN	NaN	9.43115	0.43314
1707.716	NaN	NaN	9.25311	0.59120
1711.714	NaN	NaN	9.27977	0.63017
1715.716	NaN	NaN	9.44870	-0.09418
1719.714	NaN	NaN	9.04904	-0.34935
1723.719	1.67231	-13.20432	9.12328	-0.58926
1727.719	1.80633	-13.87476	9.19394	-0.52480
1731.719	4.36518	-14.70537	8.94595	0.88207
1735.730	-19.99372	-12.12866	9.10862	0.74111
1739.714	-19.99372	-12.12774	9.04369	0.07644
1743.715	-19.99372	-12.12656	8.80696	0.34567
1747.712	3.31877	-12.06772	8.98884	-0.15804
1751.717	2.85821	-11.39169	9.01995	-0.07110
1755.714	1.38292	-12.42037	8.87607	-0.17373
1760.094	1.05900	-13.19537	8.90979	0.12888
1763.723	-4.72302	-12.21015	8.91013	0.48886
1767.715	-4.07127	-13.28942	8.90141	0.16208
1771.717	-19.99372	-12.03870	9.03115	-0.20067
1775.718	-0.21415	-11.33693	8.75432	-0.26021
1779.713	0.63315	-10.11066	9.00777	0.06052
1783.716	0.64149	-12.52962	8.56025	1.13595
1787.588	12.58259	-4.18396	9.00208	0.94782
1791.592	12.58888	-4.42513	8.88637	0.03034
1795.588	12.43447	-3.90955	9.15033	0.03356
1799.716	12.51418	-3.97670	8.79555	-0.57319
1803.594	12.30303	-4.15592	9.25717	-0.76459
1807.589	10.83773	-3.19121	9.35242	-0.77318
1811.587	12.12333	-3.82666	9.51727	0.96186
1815.596	12.05326	-4.27264	9.21911	0.49114
1819.587	11.35265	-3.96422	8.92648	0.95952
1823.590	10.97992	-3.47385	9.62951	0.37784
1827.587	11.23592	-3.71178	9.48683	1.19813
1831.590	11.29400	-3.82257	9.35711	0.68673
1835.593	3.83129	-10.39604	9.68083	0.87405
1839.587	10.62778	-3.97525	10.01207	1.18030
1843.589	11.68729	-5.00567	11.85319	0.90159
1847.586	12.78897	-3.20050	14.08706	-0.82871
1851.592	10.64458	-11.62113	13.89566	-0.93365
1855.587	14.61722	-5.76647	14.28035	-1.41839
1859.598	16.30679	-5.71575	14.26268	-2.64186
1863.596	16.97057	-5.70919	14.31976	-2.11784
1867.587	17.42215	-5.91562	15.37360	-2.84846
1871.589	17.47175	-5.82600	14.47324	-2.13612
1875.587	18.10592	-5.94481	14.86057	-2.09929
1879.589	16.55605	-5.95754	14.54995	-1.76944
1883.620	15.25113	-6.10342	14.15892	-1.44195
1887.589	18.01790	-6.14207	14.73406	-3.12577
1891.585	15.94231	-4.82239	15.00836	-2.95144
1895.585	18.80252	-6.93032	14.94043	-2.32732
1899.593	18.65231	-6.32192	14.17686	-1.53150
1903.584	16.02465	-5.90845	14.72120	-2.05004
1907.585	16.52554	-6.28351	14.02064	-1.17052
1911.585	18.49439	-6.73647	14.72875	-3.37479
1915.588	16.16802	-6.07510	14.77178	-2.79146
1919.590	16.35712	-6.46717	14.32721	-2.82043
1923.589	18.98351	-7.33564	14.45737	-1.52557
1927.586	16.44697	-5.83076	14.83708	-1.93528
1931.587	16.74044	-6.21493	14.24081	-1.52900
1935.585	18.90491	-6.75146	14.84679	-1.97394
1939.588	18.37867	-7.10426	14.36017	-2.49989
1943.592	16.48520	-5.92966	14.50383	-2.72097
1947.589	18.84094	-6.77512	14.13601	-1.58701
1951.586	16.22137	-5.73938	14.22615	-2.00595
1955.593	16.00686	-5.52864	14.27506	-1.59217
1959.589	18.81737	-5.71888	13.76359	-2.16806
1963.588	17.78238	-5.64124	14.27851	-2.88594
1967.585	17.41377	-5.59379	13.98629	-2.32394
1971.584	18.54725	-7.11090	14.01858	-1.75833
1975.586	17.08054	-5.51753	14.10644	-1.14628
1979.584	19.28804	-7.80423	14.00225	-1.23500
1983.592	18.47115	-6.78625	14.05967	-1.84179
1987.590	17.19753	-6.68875	14.02970	-1.68073
1991.586	18.05485	-6.24580	13.92129	-1.60163
1995.583	17.00899	-6.43781	13.96926	-1.07817
1999.773	NaN	NaN	NaN	NaN
2007.592	19.15018	-6.70225	13.92328	-2.55899
2011.585	18.11042	-5.64119	13.76490	-2.29938
2015.587	18.30398	-6.13877	13.89508	-1.59779
2019.589	17.74961	-6.75414	13.65287	-0.69866
2023.590	17.93513	-6.62874	13.84502	-0.43744
2027.584	17.52284	-6.62849	14.06133	-1.24464
2031.590	17.75292	-6.79303	13.78366	-1.92072
2035.587	17.41896	-6.67837	13.78892	-2.14900
2039.584	17.62231	-6.31787	13.87847	-1.51580
2043.590	18.99267	-6.41232	13.85620	-0.52408
2047.586	17.51469	-5.72133	14.45930	-0.84623
2051.583	17.86481	-6.35602	14.05061	-1.74158
2055.588	19.64327	-6.55635	13.93672	-2.24016
2059.586	18.97561	-7.95425	13.83084	-1.41223
2063.587	17.69095	-7.31732	13.96351	-0.90218
2067.585	19.52808	-7.01353	14.03253	-0.82618
2071.592	22.02857	-6.95504	13.99492	-0.42679
2075.584	20.30403	-9.82857	13.93793	-0.26105
2079.586	21.13898	-9.54252	13.82386	-2.14251
2083.590	22.15665	-9.85368	13.77029	-2.54687
2087.584	22.22467	-14.17651	13.60934	-1.75842
2091.586	-19.99372	-12.01504	13.55595	-0.98492
2095.583	22.14786	-9.78733	13.45651	-1.42503
2099.583	15.24695	-11.12044	13.54094	-0.78947
2103.645	16.36514	-11.57064	13.71746	-0.68618
2107.612	19.98493	-13.43794	13.70886	-0.52771
2111.590	19.86479	-13.31496	13.79566	-0.76292
2115.583	-19.99372	-11.96716	14.10200	-0.86564
2119.583	-19.99372	-11.99695	13.83510	-0.78069
2123.582	-19.99372	-12.01417	13.54499	-0.63178
2127.583	-19.99372	-12.03238	13.52337	-0.67484
2131.585	18.57321	-6.51934	13.75968	-0.19680
2135.585	18.21047	-7.17049	13.48000	1.26655
2139.581	19.98292	-8.31668	11.37307	0.17089
2143.585	10.75627	-3.99551	11.20717	0.37701
2147.582	15.47293	-10.18176	7.65249	2.22686
2151.588	7.64608	-0.60699	5.53193	2.81201
2155.581	6.06993	0.30820	4.80928	3.36737
2159.585	5.93652	0.41475	4.82708	3.66305
2163.580	5.72581	0.41557	4.47592	3.85818
2167.585	5.27122	0.57761	4.64036	3.89276
2171.583	5.38654	0.58539	4.82281	3.87870
2175.586	5.41158	0.40897	5.84208	3.98642
2179.584	4.66982	-4.48168	5.24816	3.72857
2183.583	5.80462	-4.49803	4.75876	3.17746
2187.581	5.81535	-4.55209	3.96718	3.46913
2191.590	5.53621	-4.59811	4.12406	2.98464
2195.582	5.64191	-4.55421	3.85928	2.64191
2199.583	5.62758	-4.69885	3.69919	3.34239
2203.581	5.54216	-4.70008	3.62128	3.05637
2207.586	5.61773	-4.64395	3.81377	2.98316
2211.582	6.00516	-6.02538	3.48978	2.95037
2215.580	5.85136	-4.66158	3.51223	3.06895
2219.583	5.80732	-4.59215	3.85091	2.84007
2223.586	5.65494	-4.53702	3.53990	2.89826
2227.582	5.46128	-4.56260	3.54507	2.80107
2231.590	5.48582	-4.67379	3.53552	2.87554
2235.584	5.73247	-4.78741	3.86870	2.68327
2239.582	5.71129	-4.79959	3.76337	2.79302
2243.585	5.84419	-4.82184	4.23905	2.65694
2247.581	5.54363	-4.82609	4.21750	2.53704
2251.583	3.71402	-4.97615	4.37061	2.60219
2255.581	3.01408	-5.22823	4.33784	2.36013
2259.581	3.52309	-5.19254	4.31119	2.25376
2263.582	3.39154	-5.35010	4.36266	2.08269
2267.584	3.16663	-5.38612	4.32247	2.05588
2271.580	3.03917	-5.46106	6.08144	2.10663
2275.589	2.86987	-5.57581	4.55428	2.10206
2279.584	2.93507	-5.62586	4.52688	2.02045
2283.583	2.94891	-5.69519	4.65259	2.10454
2287.582	2.78201	-5.74177	4.58022	2.18525
2291.584	5.60708	-6.52804	4.58700	2.46043
2295.608	4.07764	-5.87945	4.52259	2.45467
2299.582	3.03380	-6.20529	4.46549	2.71483
2303.580	2.62229	-7.62372	4.66618	2.63121
2307.576	3.18150	-6.56165	4.53813	2.70655
2311.583	2.35286	-6.06112	4.60791	2.74563
2315.584	2.92859	-6.05328	4.14268	3.01502
2319.581	3.51191	-6.04289	4.20894	3.00898
2323.578	3.25164	-6.11442	4.08651	2.95252
2327.578	2.97772	-6.04261	4.35440	2.57064
2331.582	3.20021	-10.51224	4.33147	2.35159
2335.577	2.70183	-9.86841	4.44879	2.20392
2339.582	2.44033	-9.65625	4.13461	2.36594
2343.578	2.11973	-9.48767	4.33347	2.59730
2347.580	1.59174	-9.39307	4.27069	2.96384
2351.576	1.28527	-9.24742	4.19015	3.02324
2355.589	1.24129	-9.13485	4.05572	3.13472
2359.589	1.00429	-8.89704	4.19509	3.00930
2363.582	1.26368	-8.84154	4.25800	3.32178
2367.581	1.25810	-8.60466	4.16556	3.60693
2371.578	1.07512	-8.40196	4.39400	3.73180
2375.579	1.03310	-8.15541	4.57305	3.75972
2379.577	4.27661	-8.28533	4.80083	3.60432
2383.578	4.58306	-7.82340	4.13411	1.31474
2387.582	0.93358	-7.70134	4.36279	1.38173
2391.579	0.89964	-7.54053	4.31457	2.00443
2395.581	0.81486	-6.84747	4.48685	1.95019
2399.582	-2.01863	-10.89409	4.54752	1.93781
2403.587	-1.87403	-10.61648	4.68062	2.45781
2407.577	-2.32944	-10.26810	4.91614	3.04903
2411.580	-1.74184	-9.34778	4.52737	3.56372
2415.577	0.90098	-9.29740	4.82163	3.74233
2419.579	2.17646	-8.42514	5.07658	3.35876
2423.576	4.32590	-0.96661	7.02005	4.19114
2427.583	8.16367	-0.90592	7.88824	3.77710
2431.580	10.02100	-1.54185	9.70661	2.66939
2435.576	11.66375	-2.15598	10.24012	2.20470
2439.586	13.44986	-2.64091	10.98492	1.89435
2443.584	13.43822	-3.17345	10.54740	1.78889
2447.583	13.67724	-3.21099	10.68633	1.82145
2451.580	13.51438	-3.14773	10.66682	1.77014
2455.580	13.45543	-3.27607	10.66507	1.89529
2459.577	13.62807	-2.94307	10.68921	2.01380
2463.580	13.83432	-2.89332	10.46011	2.04432
2467.582	14.04699	-2.93596	10.66035	2.12693
2471.579	14.12576	-2.75199	10.30223	2.39337
2475.576	14.18888	-2.38860	10.26122	2.70331
2479.582	14.28016	-2.37821	10.41085	2.80755
2483.584	14.15255	-2.01474	10.17120	3.31714
2487.581	14.29368	-2.26587	9.97498	3.10309
2491.577	15.56498	-2.28956	10.24483	2.77632
2495.578	16.27917	-2.58323	10.22998	2.76081
2499.580	14.61936	-1.88389	10.37434	2.60355
2503.597	14.36236	-2.54013	10.20918	2.16355
2507.635	14.27245	-2.24516	10.26859	1.55816
2511.583	14.36048	-1.96537	10.33452	1.79219
2515.578	13.80107	-1.93203	10.50407	1.67214
2519.576	13.85314	-1.97131	10.67811	1.38604
2523.586	14.91726	-2.01555	10.95689	1.27166
2527.577	13.77268	-2.06995	11.22699	1.33685
2531.578	14.62823	-2.15109	11.04061	1.65688
2535.576	14.26779	-2.10595	11.33616	1.46807
2539.578	14.82706	-2.17532	11.16043	1.59394
2543.576	13.59471	-2.03869	11.43219	1.43498
2547.578	14.97018	-2.43407	10.76156	1.68124
2551.580	13.69821	-2.01349	11.18131	1.73317
2555.577	15.15538	-2.27497	11.27374	1.92307
2559.577	15.30383	-2.33403	11.18692	1.96558
2563.579	14.43459	-2.09801	11.17737	1.96605
2567.583	16.35964	-2.18299	11.12240	2.00529
2571.572	15.34949	-2.07740	10.99628	2.11593
2575.581	15.40664	-1.87055	11.03212	1.91163
2579.576	14.79206	-1.84933	10.87508	2.08255
2583.576	13.57422	-1.44325	10.74388	1.96601
2587.573	13.24670	-1.86771	10.50311	2.23288
2591.578	13.18456	-1.35136	10.46909	2.49278
2595.575	13.12703	-1.69589	10.51148	2.96602
2599.577	12.92415	-1.62812	10.36449	2.58044
2603.573	13.47632	-1.74813	10.35294	2.83077
2607.584	14.84508	-1.96788	10.27936	2.95798
2611.574	13.22813	-1.69676	10.28522	2.74777
2615.574	14.60258	-2.45532	10.14275	2.69396
2619.577	16.13647	-1.87030	10.13390	2.55102
2623.576	15.15281	-1.70420	10.09934	2.28589
2627.573	15.03765	-1.91494	10.14646	2.34719
2631.579	15.56957	-1.93991	10.32366	2.07366
2635.576	15.53647	-2.33661	10.27869	2.18195
2639.575	15.26524	-1.99193	10.22043	2.22850
2643.602	15.20771	-2.02042	10.20024	2.10304
2647.459	15.21608	-2.00985	10.39436	2.02002
2651.450	15.23736	-2.12729	10.30389	2.05447
2655.452	15.02392	-2.06179	10.23502	2.06266
2659.458	14.79593	-2.00740	10.24567	2.03075
2663.449	14.60720	-2.02416	10.29603	2.10653
2667.451	14.92153	-1.96556	10.43875	2.00485
2671.448	14.32588	-2.01730	10.41422	2.02361
2675.452	13.95390	-1.72393	10.36091	2.17520
2679.452	11.21386	-1.22706	10.17824	2.10570
2683.447	11.06267	-1.01492	10.33896	2.15609
2687.454	12.45381	-0.09259	10.29781	2.19893
2691.451	13.26396	0.08368	10.47748	2.31702
2695.457	13.98643	-0.61265	10.55286	2.30267
2699.447	14.40654	-0.94121	10.49296	2.25840
2703.451	13.02321	-0.98411	10.60701	2.29897
2707.449	13.40518	-0.82825	10.99944	2.93124
2711.450	13.42878	-0.85112	10.73088	2.26696
2715.452	14.08748	-0.98933	10.65091	2.42420
2719.452	12.16932	-1.45784	10.55059	2.63452
2723.447	13.62418	-1.60080	10.44036	2.25183
2727.473	12.80426	-1.57224	10.61322	2.21670
2731.447	12.97380	-1.46821	11.01718	1.83089
2735.463	12.82059	-1.43463	10.83137	0.80736
2739.455	13.07107	-1.46405	10.61982	1.46739
2743.446	12.72209	-1.33148	11.06112	1.53271
2747.445	13.31565	-1.65868	11.03712	1.70450
2751.450	12.66141	-1.62441	11.01460	1.86450
2755.447	13.78000	-1.70234	10.51568	1.97046
2759.449	14.39417	-1.71456	10.56968	2.07136
2763.444	13.49690	-1.56597	10.80836	2.10381
2767.449	14.14294	-1.62161	10.68219	2.19891
2771.446	12.59869	-1.66852	10.61083	2.44638
2775.446	12.44661	-1.70107	10.55095	2.34237
2779.458	12.52050	-1.69700	10.50577	2.40917
2783.452	12.49947	-1.77152	10.55927	2.49822
2787.449	14.95450	-3.33857	10.64110	2.10287
2791.446	12.86353	-2.32249	10.66699	1.97670
2795.449	14.56592	-2.39915	10.60469	1.23570
2799.448	14.06560	-2.36123	10.67140	1.28102
2803.446	13.24687	-2.27798	10.76769	1.34637
2807.450	13.30576	-2.26985	10.87462	1.68244
2811.449	13.24614	-2.19646	10.92172	1.43890
2815.447	13.24936	-2.15348	10.99996	1.70444
2819.456	13.29311	-1.97654	11.05639	1.47107
2823.447	13.32823	-2.09618	11.01570	1.52683
2827.448	13.53636	-1.87715	10.98045	1.53771
2831.444	13.77820	-1.91611	10.93268	1.66868
2835.449	13.54891	-1.56857	10.83508	1.71383
2839.448	13.83692	-1.60043	10.71305	1.80429
2843.444	14.48920	-1.73510	10.51391	1.98281
2847.455	13.76792	-1.93278	10.97743	2.13331
2851.452	13.83800	-2.21789	10.40152	2.16904
2855.446	14.53237	-2.12178	11.22420	2.27342
2859.450	14.78394	-2.19644	11.19848	2.25805
2863.470	14.62405	-2.12772	10.89358	2.14727
2867.448	14.20047	-2.09551	10.80687	2.17848
2871.443	14.64817	-2.28372	10.90403	2.26599
2875.444	14.51760	-2.24575	10.98121	2.34865
2879.450	14.56011	-1.86059	10.88120	2.32495
2883.447	14.52784	-2.19850	10.88161	2.15235
2887.447	14.50837	-2.07300	11.14373	1.93046
2891.444	14.95721	-2.09130	11.16206	1.66341
2895.449	15.69914	-2.07253	11.22969	1.73566
2899.445	15.20935	-2.07216	11.17326	1.70066
2903.448	15.66045	-1.99784	11.13346	1.61904
2907.445	16.00161	-2.13209	11.16036	1.47606
2911.449	14.95392	-2.15916	11.04039	1.43537
2915.449	16.18286	-2.53951	11.19659	1.51222
2919.453	15.10108	-2.18881	11.22561	1.48371
2923.448	14.83434	-2.28172	11.26233	1.47412
2927.451	14.74453	-2.17106	11.26712	1.45462
2931.447	14.71721	-2.26294	11.00472	1.57373
2935.469	14.21570	-2.18706	11.20436	1.51627
2939.441	14.54216	-2.31238	11.11012	1.55163
2943.447	13.88923	-2.17496	11.06734	1.48598
2947.451	14.56069	-2.25377	10.99628	1.53597
2951.442	11.36458	-1.88094	10.99936	1.56940
2955.446	12.00315	-2.04442	11.03953	1.57199
2959.444	14.81583	-2.09502	10.95873	1.63660
2963.441	14.72963	-1.95952	11.14182	1.78064
2967.441	15.38945	-2.58353	10.95488	1.87753
2971.447	14.97509	-2.67641	11.13743	1.80982
2975.444	15.08796	-2.42944	10.89233	1.87597
2979.444	15.63019	-3.01663	10.84812	1.84644
2983.463	15.68341	-2.99192	11.16070	1.82288
2987.447	12.22902	-2.72147	11.07883	1.85971
2991.452	12.65867	-2.80646	11.32512	1.53660
2995.443	13.75935	-2.90761	11.28634	1.21072
2999.445	14.53921	-2.88313	11.39754	1.13504
3003.439	13.47730	-2.37451	11.50284	1.26201
3007.445	13.61101	-2.50516	11.53944	1.13632
3011.443	13.29097	-1.86206	11.57231	1.54435
3015.442	12.37503	-2.26362	11.50108	1.19255
3019.443	14.99466	-2.86899	11.41399	1.32490
3023.444	14.45628	-2.55441	11.59913	1.36105
3027.446	14.02255	-3.06105	11.46859	1.35789
3031.440	14.18713	-2.98815	11.53658	1.40039
3035.443	13.66897	-4.06545	10.88692	1.82031
3039.445	9.07269	-2.30937	9.46020	2.99191
3043.439	9.72518	-1.40250	6.94423	2.06870
3047.445	8.63609	0.53843	6.84632	1.59951
3051.453	7.70385	0.68205	5.22382	2.10916
3055.445	4.58750	0.93561	4.69246	2.56554
3059.439	3.09755	1.82935	3.02027	3.25072
3063.440	4.25531	2.70928	3.33876	3.22448
3067.446	4.39826	-0.11256	4.53731	3.14085
3071.448	3.95829	-0.80996	4.22291	3.33230
3075.446	3.16639	-0.96313	4.46889	3.16633
3079.447	2.49501	-0.06504	3.60610	2.98502
3083.445	-1.28229	-0.14314	3.55243	3.20365
3087.441	4.70192	-0.34211	3.98763	3.18330
3091.441	2.63551	-0.04813	3.11621	3.32512
3095.441	2.92542	0.37537	3.38662	3.36616
3099.441	0.16911	0.72965	3.22960	3.37317
3103.444	3.99297	0.44490	3.67521	3.31690
3107.438	4.39782	1.37810	3.30366	3.24885
3111.462	0.81253	1.89546	3.45645	3.34164
3115.448	-0.73216	2.06857	3.37064	3.26022
3119.472	2.81169	1.95376	3.58467	3.29476
3123.450	1.30389	3.03297	3.79052	3.30213
3127.441	-1.39626	2.93762	3.71849	3.21772
3131.467	0.83203	8.00109	4.01203	3.19541
3135.443	0.75201	8.26373	4.38780	3.06179
3139.439	1.63050	8.25880	3.73907	3.09192
3143.438	1.55397	4.20990	4.04515	2.62858
3147.445	1.72019	8.46948	4.06048	3.16779
3151.445	0.29195	8.76368	3.96306	4.01528
3155.442	1.09971	9.08677	3.77147	4.27963
3159.443	-0.28049	10.58175	4.36200	4.71343
3163.440	1.38753	10.58359	3.96523	3.44584
3167.442	-5.69993	11.03471	4.12690	3.86695
3171.440	-0.63660	12.88103	3.80555	3.82921
3175.441	-0.46329	12.50586	4.09441	3.36298
3179.440	-5.02679	12.86091	4.10115	3.76179
3183.439	NaN	NaN	4.19872	4.24839
3187.436	NaN	NaN	0.23899	3.98186
3191.441	10.61634	-0.25994	-3.64504	3.15873
3195.444	NaN	NaN	4.20333	4.68792
3199.447	10.90789	12.87003	NaN	NaN
3203.440	3.98711	2.55344	NaN	NaN
3207.444	6.59738	0.38421	NaN	NaN
3211.439	NaN	NaN	NaN	NaN
3215.444	NaN	NaN	NaN	NaN
3219.441	NaN	NaN	NaN	NaN
3223.438	NaN	NaN	NaN	NaN
3227.441	NaN	NaN	NaN	NaN
3231.442	NaN	NaN	NaN	NaN
3235.451	NaN	NaN	NaN	NaN
3239.447	NaN	NaN	NaN	NaN
3243.441	NaN	NaN	NaN	NaN
3247.516	NaN	NaN	NaN	NaN
3251.436	NaN	NaN	NaN	NaN
3256.646	2.99497	14.11319	NaN	NaN
3259.442	2.99547	14.11099	NaN	NaN
3263.437	NaN	NaN	NaN	NaN
3267.438	NaN	NaN	NaN	NaN
3271.440	NaN	NaN	NaN	NaN
3279.443	NaN	NaN	NaN	NaN
3283.444	NaN	NaN	NaN	NaN
3288.309	NaN	NaN	NaN	NaN
3299.440	NaN	NaN	NaN	NaN
3303.439	NaN	NaN	NaN	NaN
3307.436	NaN	NaN	NaN	NaN
3311.441	NaN	NaN	NaN	NaN
3315.438	NaN	NaN	NaN	NaN
3319.444	NaN	NaN	NaN	NaN
3323.498	NaN	NaN	NaN	NaN
3327.444	NaN	NaN	NaN	NaN
3331.443	NaN	NaN	NaN	NaN
3335.440	NaN	NaN	NaN	NaN
3339.443	NaN	NaN	NaN	NaN
3343.444	NaN	NaN	NaN	NaN
3347.477	NaN	NaN	NaN	NaN
3351.439	NaN	NaN	NaN	NaN
3355.438	NaN	NaN	NaN	NaN
3359.447	NaN	NaN	NaN	NaN
3363.444	NaN	NaN	NaN	NaN
3367.442	NaN	NaN	NaN	NaN
3371.442	NaN	NaN	NaN	NaN
3375.440	NaN	NaN	NaN	NaN
3379.440	NaN	NaN	NaN	NaN
3383.438	NaN	NaN	NaN	NaN
3387.439	NaN	NaN	NaN	NaN
3391.466	NaN	NaN	NaN	NaN
3395.444	NaN	NaN	NaN	NaN
3399.438	NaN	NaN	NaN	NaN
3403.446	NaN	NaN	NaN	NaN
3407.441	NaN	NaN	NaN	NaN
3411.438	NaN	NaN	NaN	NaN
3415.439	NaN	NaN	NaN	NaN
3419.438	NaN	NaN	NaN	NaN
3423.438	NaN	NaN	NaN	NaN
3427.440	NaN	NaN	NaN	NaN
3431.437	NaN	NaN	NaN	NaN
3435.438	NaN	NaN	NaN	NaN
3439.438	NaN	NaN	NaN	NaN
3443.443	NaN	NaN	NaN	NaN
3447.438	NaN	NaN	NaN	NaN
3451.438	NaN	NaN	NaN	NaN
3455.439	NaN	NaN	NaN	NaN
3459.463	NaN	NaN	NaN	NaN
3463.444	NaN	NaN	NaN	NaN
3467.437	NaN	NaN	NaN	NaN
3471.438	NaN	NaN	NaN	NaN
3475.438	NaN	NaN	NaN	NaN
3479.439	NaN	NaN	NaN	NaN
3483.440	NaN	NaN	NaN	NaN
3487.447	NaN	NaN	NaN	NaN
3491.444	NaN	NaN	NaN	NaN
3495.438	NaN	NaN	NaN	NaN
3499.313	NaN	NaN	NaN	NaN
3503.311	NaN	NaN	NaN	NaN
3507.315	NaN	NaN	NaN	NaN
3511.311	NaN	NaN	NaN	NaN
3515.311	NaN	NaN	NaN	NaN
3519.309	NaN	NaN	NaN	NaN
3523.312	NaN	NaN	NaN	NaN
3527.345	NaN	NaN	NaN	NaN
3531.327	NaN	NaN	NaN	NaN
3535.316	NaN	NaN	NaN	NaN
3539.314	NaN	NaN	NaN	NaN
3543.311	NaN	NaN	NaN	NaN
3547.313	NaN	NaN	NaN	NaN
3551.312	NaN	NaN	NaN	NaN
3555.344	NaN	NaN	NaN	NaN
3559.314	NaN	NaN	NaN	NaN
3563.309	NaN	NaN	NaN	NaN
3567.308	NaN	NaN	NaN	NaN
3571.307	NaN	NaN	NaN	NaN
3575.315	NaN	NaN	NaN	NaN
3579.310	NaN	NaN	NaN	NaN
3583.310	NaN	NaN	NaN	NaN
3587.309	NaN	NaN	NaN	NaN
3591.311	NaN	NaN	NaN	NaN
3595.347	NaN	NaN	NaN	NaN
3599.316	NaN	NaN	NaN	NaN
3603.310	NaN	NaN	NaN	NaN
3607.309	NaN	NaN	NaN	NaN
3611.311	NaN	NaN	NaN	NaN
3615.314	NaN	NaN	NaN	NaN
3619.310	NaN	NaN	NaN	NaN
3623.308	NaN	NaN	NaN	NaN
3627.313	NaN	NaN	NaN	NaN
3631.310	NaN	NaN	NaN	NaN
3635.311	NaN	NaN	NaN	NaN
3639.310	NaN	NaN	NaN	NaN
3643.308	NaN	NaN	NaN	NaN
3647.308	NaN	NaN	NaN	NaN
3651.309	NaN	NaN	NaN	NaN
3655.309	NaN	NaN	NaN	NaN
3659.313	NaN	NaN	NaN	NaN
3663.342	NaN	NaN	NaN	NaN
3667.316	NaN	NaN	NaN	NaN
3671.309	NaN	NaN	NaN	NaN
3675.313	NaN	NaN	NaN	NaN
3804.346	NaN	NaN	NaN	NaN
3871.723	NaN	NaN	NaN	NaN
3875.435	NaN	NaN	NaN	NaN
3879.429	NaN	NaN	NaN	NaN
3883.428	NaN	NaN	NaN	NaN
3887.422	NaN	NaN	NaN	NaN
3891.424	NaN	NaN	NaN	NaN
3899.430	NaN	NaN	-7.17211	14.94528
3903.439	NaN	NaN	NaN	NaN
3907.457	NaN	NaN	NaN	NaN
3911.433	NaN	NaN	-7.16842	14.94664
3915.428	NaN	NaN	NaN	NaN
3919.428	NaN	NaN	NaN	NaN
3923.442	NaN	NaN	NaN	NaN
3927.429	NaN	NaN	-7.14643	14.94910
3931.429	NaN	NaN	NaN	NaN
3935.426	NaN	NaN	NaN	NaN
3939.428	NaN	NaN	NaN	NaN
3943.434	NaN	NaN	NaN	NaN
3947.427	NaN	NaN	NaN	NaN
3951.439	NaN	NaN	NaN	NaN
3955.634	NaN	NaN	NaN	NaN
3959.852	NaN	NaN	NaN	NaN
3963.957	NaN	NaN	NaN	NaN
3968.100	NaN	NaN	NaN	NaN
3972.212	NaN	NaN	NaN	NaN
3976.286	NaN	NaN	NaN	NaN
3980.490	NaN	NaN	NaN	NaN
3984.627	NaN	NaN	NaN	NaN
3988.882	NaN	NaN	NaN	NaN
3993.118	NaN	NaN	NaN	NaN
3997.268	NaN	NaN	NaN	NaN
4001.342	NaN	NaN	NaN	NaN
4005.487	NaN	NaN	NaN	NaN
4010.416	NaN	NaN	NaN	NaN
4014.594	NaN	NaN	NaN	NaN
4018.688	NaN	NaN	NaN	NaN
4022.744	NaN	NaN	NaN	NaN
4026.956	NaN	NaN	NaN	NaN
4031.172	NaN	NaN	NaN	NaN
4035.324	NaN	NaN	NaN	NaN
4039.524	NaN	NaN	NaN	NaN
4043.667	NaN	NaN	NaN	NaN
4047.918	NaN	NaN	NaN	NaN
4052.133	NaN	NaN	NaN	NaN
4056.447	NaN	NaN	NaN	NaN
4060.667	NaN	NaN	NaN	NaN
4064.818	NaN	NaN	NaN	NaN
4068.929	NaN	NaN	NaN	NaN
4073.056	3.09470	14.00514	NaN	NaN
4078.208	3.09386	14.00529	NaN	NaN
4082.457	3.09394	14.00534	NaN	NaN
4086.631	3.09414	14.00536	NaN	NaN
4090.932	NaN	NaN	NaN	NaN
4095.115	3.09458	14.00538	NaN	NaN
4099.332	NaN	NaN	NaN	NaN
4103.480	NaN	NaN	NaN	NaN
4107.671	NaN	NaN	NaN	NaN
4111.978	NaN	NaN	NaN	NaN
4116.179	NaN	NaN	NaN	NaN
4120.374	NaN	NaN	NaN	NaN
4124.493	NaN	NaN	NaN	NaN
4128.583	NaN	NaN	NaN	NaN
4132.670	3.10611	14.00273	NaN	NaN
4136.910	3.11334	13.99976	NaN	NaN
4141.087	3.12616	13.99448	NaN	NaN
4146.159	3.13214	13.99153	NaN	NaN
4150.356	3.13610	13.98975	NaN	NaN
4154.575	NaN	NaN	NaN	NaN
4158.783	NaN	NaN	NaN	NaN
4162.902	NaN	NaN	NaN	NaN
4167.034	3.13971	13.98838	NaN	NaN
4171.262	3.14444	13.98638	NaN	NaN
4175.501	NaN	NaN	NaN	NaN
4179.694	NaN	NaN	NaN	NaN
4183.962	NaN	NaN	NaN	NaN
4188.189	NaN	NaN	NaN	NaN
4192.366	NaN	NaN	NaN	NaN
4196.558	NaN	NaN	NaN	NaN
4200.771	NaN	NaN	NaN	NaN
4205.030	NaN	NaN	NaN	NaN
4209.195	NaN	NaN	NaN	NaN
4214.291	NaN	NaN	NaN	NaN
4218.602	NaN	NaN	NaN	NaN
4222.760	NaN	NaN	NaN	NaN
4226.981	NaN	NaN	NaN	NaN
4231.134	NaN	NaN	NaN	NaN
4235.435	NaN	NaN	NaN	NaN
4239.633	NaN	NaN	NaN	NaN
4243.886	NaN	NaN	NaN	NaN
4248.029	NaN	NaN	NaN	NaN
4252.142	NaN	NaN	NaN	NaN
4256.264	NaN	NaN	NaN	NaN
4260.434	NaN	NaN	NaN	NaN
4264.561	NaN	NaN	NaN	NaN
4268.652	NaN	NaN	NaN	NaN
4272.718	NaN	NaN	NaN	NaN
4276.956	NaN	NaN	NaN	NaN
4282.052	NaN	NaN	NaN	NaN
4286.326	NaN	NaN	NaN	NaN
4290.573	NaN	NaN	NaN	NaN
4294.754	NaN	NaN	NaN	NaN
4299.002	NaN	NaN	NaN	NaN
4303.184	NaN	NaN	NaN	NaN
4307.388	NaN	NaN	NaN	NaN
4311.592	NaN	NaN	NaN	NaN
4315.814	NaN	NaN	NaN	NaN
4320.016	NaN	NaN	NaN	NaN
4324.232	NaN	NaN	NaN	NaN
4328.464	NaN	NaN	NaN	NaN
4332.624	NaN	NaN	NaN	NaN
4336.800	NaN	NaN	NaN	NaN
4468.325	NaN	NaN	NaN	NaN
4518.019	NaN	NaN	NaN	NaN
4585.827	NaN	NaN	NaN	NaN
4589.559	NaN	NaN	NaN	NaN
4593.535	NaN	NaN	NaN	NaN
4597.537	NaN	NaN	NaN	NaN
4601.540	NaN	NaN	NaN	NaN
4605.540	NaN	NaN	NaN	NaN
4609.616	NaN	NaN	NaN	NaN
4613.548	NaN	NaN	NaN	NaN
4617.536	NaN	NaN	NaN	NaN
4621.538	NaN	NaN	NaN	NaN
4625.536	NaN	NaN	NaN	NaN
4629.539	NaN	NaN	NaN	NaN
4633.531	NaN	NaN	NaN	NaN
4637.536	NaN	NaN	NaN	NaN
4641.537	NaN	NaN	NaN	NaN
4645.538	NaN	NaN	NaN	NaN
4649.560	12.07296	-1.92353	11.56574	-0.80780
4653.542	11.96254	-1.99821	11.15812	-0.90981
4657.542	12.10466	-1.95867	11.34015	-1.05445
4661.539	12.10490	-1.87474	11.30634	-1.29824
4665.544	12.18917	-2.18735	11.16220	-1.23329
4669.541	12.67216	-2.51492	11.11143	-1.15847
4673.594	13.02839	-2.71077	11.07606	-1.18883
4677.543	12.33368	-2.70954	11.23576	-1.20742
4681.540	12.10670	-2.51744	11.15305	-1.28170
4685.543	12.32385	-2.46183	11.07171	-0.96221
4689.547	12.41836	-2.57214	11.27732	-1.29014
4693.540	12.47957	-2.65433	11.08388	-1.41228
4697.540	12.57633	-2.93669	11.09413	-1.42139
4701.536	12.40676	-2.82610	11.16707	-0.87206
4705.541	12.81535	-2.95709	11.12400	-0.86434
4709.539	12.72291	-3.08183	11.23079	-1.43814
4713.545	12.47752	-3.01483	11.16581	-1.59267
4717.539	12.55531	-3.04846	11.19516	-1.52311
4721.543	12.43921	-3.10904	11.21317	-0.79766
4725.542	12.48658	-3.13854	11.23977	-1.45712
4729.543	12.57342	-3.21152	11.25447	-1.27721
4733.550	12.44896	-3.19173	11.29930	-0.73138
4737.541	12.67754	-3.19919	11.33767	-1.21340
4741.539	12.23561	-3.37279	11.18418	-1.22786
4745.542	12.40567	-3.31087	11.28853	-1.26491
4749.539	12.44015	-3.51325	11.32085	-1.31905
4753.542	12.29706	-3.60773	11.47102	-1.45340
4757.536	12.39963	-3.47467	11.22121	-1.37146
4761.543	12.62417	-3.77809	11.20412	-1.57568
4765.540	12.59096	-3.73746	11.17799	-1.70238
4769.545	12.60557	-3.72075	11.33139	-1.60351
4773.536	12.42207	-3.76541	11.00879	-1.45700
4777.541	12.87603	-3.79133	11.13869	-1.59048
4781.538	12.26261	-3.74923	11.49931	-1.71049
4785.542	12.90449	-3.68203	11.97337	-1.91835
4789.537	12.93196	-3.71286	11.17319	-1.63599
4793.540	12.45490	-3.67092	11.54785	-1.45216
4797.540	12.78691	-3.63277	11.03781	-1.12138
4801.537	12.95951	-3.76178	11.10127	-0.55433
4805.536	12.53398	-3.51391	11.12476	-0.90514
4809.415	12.82734	-3.78687	11.19003	-0.47400
4813.412	12.71502	-3.74378	11.16203	-0.34945
4817.416	12.92621	-3.76144	11.20729	-0.54799
4821.417	13.16303	-4.00215	11.25710	-0.54083
4825.415	13.04351	-4.12025	11.12290	-1.34917
4829.412	12.97830	-3.99656	11.07446	-1.00225
4833.410	12.83097	-4.10886	11.07498	-1.46901
4837.417	12.83682	-4.03538	11.12407	-1.29672
4841.414	12.83508	-3.95421	11.40684	-1.04968
4845.411	12.71958	-4.06190	11.55395	-0.52721
4849.413	12.75606	-4.02990	11.35516	-0.71467
4853.411	12.62469	-3.91358	11.36055	-0.73090
4857.478	12.82578	-3.92708	11.64608	-1.34049
4861.423	12.81141	-3.90487	11.72677	-1.64186
4865.477	12.67865	-3.88780	11.75676	-1.99525
4869.418	12.69056	-3.89382	11.68655	-0.83650
4873.410	12.65066	-3.84179	11.74899	0.36293
4877.410	13.30491	-3.84518	11.99849	0.07156
4881.411	13.05145	-8.24426	14.47448	0.17227
4885.412	8.14244	-4.15729	15.55621	0.85800
4889.413	23.42514	-7.44153	15.79593	6.35692
4893.412	NaN	NaN	15.82047	11.04384
4897.414	15.07577	-1.85471	NaN	NaN
4901.411	NaN	NaN	NaN	NaN
4905.417	NaN	NaN	NaN	NaN
4909.411	NaN	NaN	NaN	NaN
4913.410	NaN	NaN	NaN	NaN
4917.407	NaN	NaN	NaN	NaN
4921.417	NaN	NaN	NaN	NaN
4925.761	NaN	NaN	NaN	NaN
4931.003	NaN	NaN	NaN	NaN
4934.863	NaN	NaN	NaN	NaN
4939.080	NaN	NaN	NaN	NaN
4943.285	NaN	NaN	NaN	NaN
4947.579	NaN	NaN	NaN	NaN
4951.942	NaN	NaN	NaN	NaN
4956.217	NaN	NaN	NaN	NaN
4960.455	NaN	NaN	NaN	NaN
4962.318	NaN	NaN	NaN	NaN
4965.423	NaN	NaN	NaN	NaN
4969.408	NaN	NaN	NaN	NaN
4973.410	NaN	NaN	NaN	NaN
4977.415	NaN	NaN	NaN	NaN
4981.681	NaN	NaN	NaN	NaN
4985.418	NaN	NaN	NaN	NaN
4989.415	NaN	NaN	NaN	NaN
4993.662	NaN	NaN	NaN	NaN
4998.875	NaN	NaN	NaN	NaN
5003.306	NaN	NaN	NaN	NaN
5007.131	NaN	NaN	NaN	NaN
5010.826	NaN	NaN	NaN	NaN
5014.589	NaN	NaN	NaN	NaN
5018.806	NaN	NaN	NaN	NaN
5022.492	NaN	NaN	NaN	NaN
5026.672	NaN	NaN	NaN	NaN
5029.415	2.91391	14.16445	NaN	NaN
5033.411	2.91517	14.16187	NaN	NaN
5037.411	2.91997	14.15887	NaN	NaN
5041.408	NaN	NaN	NaN	NaN
5045.412	NaN	NaN	NaN	NaN
5049.412	NaN	NaN	NaN	NaN
5053.415	NaN	NaN	NaN	NaN
5057.429	NaN	NaN	NaN	NaN
5061.621	NaN	NaN	NaN	NaN
5066.652	NaN	NaN	NaN	NaN
5070.607	NaN	NaN	NaN	NaN
5074.776	NaN	NaN	NaN	NaN
5078.966	NaN	NaN	NaN	NaN
5083.256	-19.99640	13.93699	-12.87098	11.91567
5087.304	-19.92286	11.73110	NaN	NaN
5091.288	-17.12287	9.68651	-21.16057	10.77299
5095.392	-16.97433	6.85200	-19.96279	2.28418
5099.363	-16.80919	4.86605	-20.21114	4.57717
5103.289	-15.74447	4.78340	-20.16267	2.34572
5107.429	-14.42076	4.03581	-20.07510	2.22012
5111.658	-13.98889	1.99679	-18.67201	0.94813
5115.980	-13.86783	1.63050	-18.09825	0.87797
5120.227	-13.29001	1.28715	-15.93031	-0.62604
5124.457	-13.21237	1.33551	-5.00480	3.47854
5128.677	-12.40671	1.46239	-8.14310	2.67129
5133.779	-9.79556	1.55769	-11.48904	1.43718
5138.065	-9.76365	1.45484	-10.89027	2.66902
5142.394	-9.76734	1.15222	-11.07573	2.57264
5146.664	-9.77589	1.16920	-11.11731	2.37959
5150.853	-9.61783	1.09756	-10.70258	2.51457
5155.076	-9.30046	-0.54892	-9.20954	2.71757
5159.334	-8.49032	1.01968	-9.39489	2.63348
5163.532	NaN	NaN	-9.92418	2.53359
5167.697	-8.90679	1.20793	-9.72638	2.51586
5171.896	-9.00745	0.63428	-9.88526	2.52052
5176.108	-9.32468	0.24251	-10.02690	2.22884
5180.301	-9.20591	0.44370	-10.28186	2.29042
5184.521	-8.88159	0.23608	-9.71710	2.36560
5188.700	-8.41267	0.24385	-9.84539	2.05747
5192.927	-8.56517	0.16977	-9.85816	2.03633
5197.086	-8.70049	-0.06052	-9.70663	1.29377
5202.301	-9.00302	0.06246	-9.94173	1.56776
5206.495	-9.10869	0.30429	-10.05033	1.75927
5210.729	-8.50501	0.82265	-9.95437	1.40089
5215.064	-8.23381	0.28301	-9.97572	1.84698
5219.349	-8.61555	0.09366	-9.86300	2.12320
5223.516	-8.45626	0.31670	-9.75150	1.93496
5227.753	-8.74447	0.15168	-9.76298	1.78393
5232.007	-8.68992	0.32969	-9.44351	1.54873
5236.244	-8.93982	0.40991	-9.38187	1.09927
5240.483	-9.14455	0.44998	-9.71765	1.32797
5244.712	-8.87917	-0.05097	-9.73017	1.38559
5248.896	-8.75262	0.42613	-9.63204	1.21058
5253.150	-8.84641	0.24568	NaN	NaN
5257.333	-8.90938	0.41419	NaN	NaN
5261.814	-6.45392	2.45475	NaN	NaN
5266.125	NaN	NaN	NaN	NaN
5271.186	NaN	NaN	-10.38200	1.81367
5275.474	NaN	NaN	-9.65249	2.16914
5279.732	NaN	NaN	-9.64837	1.95577
5283.981	-9.19113	1.44158	-9.94736	1.96682
5288.272	-8.94174	1.43213	-9.53122	2.25181
5292.539	-9.17624	1.55259	-9.62350	2.15347
5296.893	-9.19827	1.76432	-11.04718	2.41354
5301.160	-11.14815	2.63985	-12.57895	2.36049
5305.464	-15.54520	6.31304	-8.44033	2.28397
5309.663	-15.82428	8.46063	-10.02451	6.55128
5313.839	NaN	NaN	NaN	NaN
5318.065	NaN	NaN	NaN	NaN
5322.160	NaN	NaN	NaN	NaN
5326.233	NaN	NaN	NaN	NaN
5330.238	NaN	NaN	NaN	NaN
5334.279	NaN	NaN	NaN	NaN
5338.950	NaN	NaN	NaN	NaN
5342.644	NaN	NaN	NaN	NaN
5346.818	2.90534	14.17148	NaN	NaN
5349.406	NaN	NaN	NaN	NaN
5353.403	NaN	NaN	NaN	NaN
5357.406	NaN	NaN	NaN	NaN
5361.406	NaN	NaN	NaN	NaN
5365.407	NaN	NaN	NaN	NaN
5369.587	NaN	NaN	NaN	NaN
5373.837	NaN	NaN	NaN	NaN
5377.993	NaN	NaN	NaN	NaN
5382.146	NaN	NaN	NaN	NaN
5386.094	NaN	NaN	NaN	NaN
5390.157	NaN	NaN	NaN	NaN
5394.330	NaN	NaN	NaN	NaN
5398.384	NaN	NaN	NaN	NaN
5402.593	NaN	NaN	NaN	NaN
5407.725	NaN	NaN	NaN	NaN
5411.968	NaN	NaN	NaN	NaN
5416.238	-17.23849	13.54528	-11.66996	5.64133
5420.254	-16.99086	12.15485	-20.51214	4.07596
5424.447	-14.55044	8.87826	-17.37028	3.55311
5428.604	-14.79985	6.76938	-17.60880	0.08960
5432.704	-14.40563	4.95706	-8.13001	0.90408
5436.847	-14.12621	4.33183	-9.71170	0.82585
5441.059	-11.24793	1.79016	-17.56108	0.29599
5445.291	-12.52338	1.61459	-4.96780	1.14755
5449.642	-11.95997	1.06608	-10.48048	0.52931
5453.831	-12.15303	1.44217	-5.58302	1.25830
5458.138	-6.68012	1.01658	-6.83575	0.47067
5462.426	-1.49932	-1.93529	-9.76806	0.39897
5466.793	-3.76979	1.59247	-8.85860	0.43536
5471.058	-9.59283	0.81139	-9.34609	0.75066
5476.319	-5.15918	0.88249	-9.59727	1.16476
5480.659	-7.78611	1.71644	-9.25192	0.28852
5485.081	-7.05122	1.87521	-9.41791	0.71026
5489.196	NaN	NaN	-9.09539	0.47122
5491.933	-7.57020	0.86328	-9.56467	0.89436
5494.521	-7.61348	-0.40656	-9.23519	1.64823
5497.409	-8.03774	-0.75826	-9.13937	1.21549
5501.403	-7.24569	0.55975	-9.44078	1.47112
5505.400	-7.15315	0.71182	-8.35993	0.78122
5509.405	-7.88056	0.24821	-9.17118	1.21540
5513.402	-7.94272	-0.86439	-8.88705	0.94004
5517.402	-7.22725	-0.85077	-7.84774	0.44781
5521.398	-7.99793	0.17983	-8.55622	0.03681
5525.409	-7.84786	0.19021	-8.45915	-0.01037
5529.403	-0.53590	-10.56898	-7.90708	0.00647
5533.402	-7.00934	-0.02077	-8.37162	1.11493
5537.398	-7.77181	-0.97273	-7.70836	0.38113
5541.404	-7.25860	-0.48453	-8.11722	0.44289
5545.399	-7.65654	1.22984	-8.03947	0.57586
5549.403	-7.44762	0.13860	-8.02117	0.23425
5553.400	-7.56257	0.37671	-8.34609	0.36333
5557.404	-7.48868	0.12612	-7.96074	0.38993
5561.400	-7.51530	0.13141	-8.20082	0.50101
5565.406	-7.48856	0.14989	-8.09401	0.84168
5569.399	-7.61243	-0.36016	-8.70893	0.67581
5573.402	-7.53971	-0.22939	-8.41111	0.38111
5577.400	-7.70862	-0.27505	-8.28473	0.60602
5581.401	-7.59227	-0.64376	-8.31241	0.76496
5585.397	-7.87586	-0.51379	-8.38134	0.79290
5589.403	-7.66322	-0.37224	-9.10727	0.57275
5593.400	-7.65110	-0.59506	-8.63047	0.74078
5597.401	-7.82211	-0.29236	-8.88256	0.94430
5601.405	-7.86288	-0.35638	-8.89136	1.01803
5605.400	-8.05854	-0.09042	-8.89288	0.43277
5609.410	-7.68296	-0.05162	-8.89114	1.02900
5613.401	-7.79088	-0.03284	-8.66942	0.96979
5617.400	-8.05248	-5.50196	-8.93207	0.94194
5621.400	-7.51713	-5.54273	-8.81930	1.20144
5625.401	-7.51437	-0.08366	-9.13627	1.14107
5629.397	-7.68740	-0.22328	-9.00934	2.03993
5633.403	-7.59619	-0.37296	-8.94062	2.14818
5637.400	-7.80229	-0.61927	-8.85700	2.53762
5641.401	-7.82479	-0.16548	-8.99707	1.96119
5645.402	-7.73801	-0.55880	-9.05921	1.97977
5649.403	-7.66994	-0.83282	-8.93418	1.61493
5653.401	-7.64142	-0.87382	-9.07152	1.92598
5657.397	-7.53810	-0.75833	-9.19694	2.06919
5661.402	-7.52018	-0.13909	-9.01104	1.71895
5665.275	-7.39459	0.05084	-9.23879	1.43947
5669.276	-7.47741	-0.07781	-9.27571	1.07313
5673.271	-8.22487	-0.08140	-9.80238	1.01003
5677.276	-8.36797	0.16334	-9.38163	0.71590
5681.277	-8.26388	0.43139	-9.30583	0.42454
5685.277	-7.33086	1.24655	-9.23560	0.96245
5689.275	-7.53803	-1.00001	-9.22733	1.08676
5693.303	-4.52718	2.41484	-9.15880	1.62888
5697.276	-8.30945	0.73446	-9.18501	1.54179
5701.275	-8.36120	0.47534	-9.24066	1.85386
5705.270	-8.60730	-0.18498	-9.25287	1.71406
5709.269	-7.66268	-2.49875	-9.25253	1.80982
5713.270	-8.74261	0.68680	-9.17483	1.85365
5717.271	-8.78222	0.82428	-9.15081	1.65740
5721.271	-9.28485	0.84495	-9.19012	1.73035
5725.271	-9.10702	0.83514	-9.16129	1.55511
5729.275	-9.09023	0.84397	-9.11941	1.25153
5733.273	-8.80253	0.78632	-9.35824	1.56313
5737.300	-7.07202	1.18753	-9.75459	1.01735
5741.277	-8.78452	-2.37788	-9.52048	0.88125
5745.280	-6.60252	2.01277	-9.52316	0.74959
5749.275	-7.97795	-6.95787	-9.29435	0.47718
5753.275	-6.66528	0.98967	-9.43378	0.64337
5757.270	-8.60431	0.99317	-9.43291	0.40610
5761.271	-8.94467	0.71313	-9.36812	0.40238
5765.271	-8.67912	-0.28942	-9.67770	0.56558
5769.274	-8.69016	-1.57317	-9.67939	0.81055
5773.269	-8.83074	0.21296	-9.55912	1.11409
5777.269	-8.92801	0.83669	-9.83224	1.29394
5781.279	-9.01651	-0.19317	-9.66750	0.95975
5785.274	-9.11907	0.33782	-9.56318	1.63222
5789.270	-9.07530	1.07246	-9.61954	2.03302
5793.275	-9.12592	0.70820	-9.92172	2.11209
5797.272	-9.24223	0.13681	-9.95273	2.12475
5801.276	-9.21459	-0.00495	-9.61177	1.14602
5805.272	-9.18647	-0.12076	-10.01715	2.22729
5809.267	-9.15555	0.19251	-9.83028	1.99452
5813.274	-9.19590	0.33919	-9.67770	2.22768
5817.271	-6.97536	1.64970	-9.91929	2.35900
5821.279	-4.98477	1.88455	-9.94703	2.33004
5825.273	-7.53203	-2.67902	-9.92382	2.47097
5829.269	-7.30043	-2.78622	-10.10867	2.34207
5833.270	-6.98717	0.71632	-10.21897	2.40227
5837.270	-6.91227	1.50717	-10.19325	2.39834
5841.270	-6.02111	1.36741	-10.07954	2.25894
5845.272	-8.84629	1.19767	-9.98494	2.33691
5849.267	-8.39450	1.26754	-9.73344	0.65740
5853.269	-9.18850	1.05432	-9.90643	0.21140
5857.271	-8.92515	1.10670	-9.66397	0.50124
5861.285	-7.01279	0.29179	-9.75406	0.70241
5865.278	-8.54787	0.95635	-9.40124	0.95241
5869.270	-8.57932	0.19647	-9.61691	0.89501
5873.272	-8.90306	-0.09707	-9.40641	1.04364
5877.272	-8.83585	-0.19147	-9.58241	1.42709
5881.278	-9.04396	0.54029	-10.40464	1.29247
5885.269	-8.51659	0.18997	-9.52799	1.86266
5889.271	-9.13669	0.47389	-9.66137	2.13938
5893.273	-9.30546	0.31123	-9.50955	1.38498
5897.273	-7.89206	0.77524	-9.57167	1.96282
5901.270	-8.65953	0.89612	-9.59076	1.42020
5905.277	-8.72580	0.06668	-9.45394	0.82753
5909.270	-8.79870	-0.19523	-9.95384	0.71811
5913.270	-9.13192	0.13322	-9.05703	1.01943
5917.300	-8.72857	0.36139	-8.46437	0.87768
5921.270	-8.79797	0.63590	-9.83884	0.82250
5925.271	-8.46908	0.71170	-9.36015	1.22651
5929.268	-8.80483	0.91573	-9.18634	1.21609
5933.267	-8.27849	0.80218	-9.29072	1.42820
5937.269	-8.62348	0.82426	-9.36817	1.83433
5941.267	-8.44914	0.36763	-9.91259	1.98121
5945.272	-9.00600	0.53624	-9.56817	1.57949
5949.271	-8.33688	1.02277	-8.75279	0.83539
5953.265	-8.55370	0.24966	-9.80889	0.66843
5957.272	-5.75092	0.49657	-8.43452	0.35860
5961.269	-9.06259	0.55420	-10.14747	0.13612
5965.269	-8.79271	0.71951	-9.42851	0.55529
5969.267	-9.25811	0.60993	-10.05442	0.90258
5973.266	-8.26184	0.59978	-8.91931	0.50910
5977.267	-8.87527	0.04309	-9.97493	1.64150
5981.265	-6.46005	-0.12946	-8.41905	0.83684
5985.264	-9.57985	0.76329	-9.91165	0.99249
5989.274	-8.60657	0.53157	-9.04548	1.03708
5993.266	-7.28007	0.67508	-10.20099	1.29333
5997.265	-7.16136	1.82067	-8.73533	1.22938
6001.268	-7.95117	0.84326	-9.50276	0.97928
6005.264	-9.49400	2.74000	-10.24531	1.19592
6009.266	-9.69631	0.57900	-9.07530	1.10476
6013.269	-9.40129	-0.12223	-9.88415	1.15602
6017.266	-7.22495	0.20801	-9.95793	1.25741
6021.273	-9.41190	-0.96579	-9.92348	1.15924
6025.264	-9.24890	0.87260	-9.68510	1.06347
6029.277	-8.57694	1.21062	-10.16807	1.26574
6033.269	-9.18765	0.56261	-9.31083	1.33752
6037.270	-9.34341	0.25902	-9.13981	1.23008
6041.263	-9.44368	-0.10249	-9.08808	1.16678
6045.265	-9.60065	0.14301	-10.21402	1.25226
6049.269	-9.39013	-0.06377	-9.15897	1.29131
6053.267	-9.09147	-0.34624	-9.04117	1.20775
6057.265	-9.34019	-0.22293	-9.42890	1.16006
6061.267	-9.33111	0.11905	-9.31112	1.13972
6065.269	-9.62521	0.07614	-9.14639	1.03749
6069.269	-9.48497	0.24323	-9.35657	1.29044
6073.270	-8.65220	-0.19334	-9.75919	0.99065
6077.267	-9.48519	-0.40506	-9.12515	1.04455
6081.266	-9.12914	-0.23911	-9.37829	1.07237
6085.265	-9.17084	-0.12016	-9.26290	1.11781
6089.264	-9.38989	-0.25487	-9.22973	1.03468
6093.269	-7.91358	-0.20569	-8.25114	0.52583
6097.267	-7.49925	-0.09483	-9.25947	0.33852
6101.268	-8.45995	-0.01900	-8.94203	0.26346
6105.267	-8.61589	0.08240	-8.78646	0.12716
6109.264	-8.42432	0.12971	-8.53964	0.04499
6113.280	-8.56918	0.22734	-8.92508	0.15026
6117.266	-8.60007	0.29506	-8.18052	-0.00140
6121.270	-8.63423	0.36239	-9.11576	0.12552
6125.266	-8.18750	0.47739	-8.93237	0.19974
6129.266	-8.12719	0.68780	-9.23681	0.28135
6133.263	-8.21390	0.78451	-9.36663	0.46183
6137.267	-7.99058	1.23995	-9.18925	1.30765
6141.266	-7.63167	2.29253	-9.47162	1.21715
6145.264	-7.19483	1.85374	-9.62758	1.52596
6149.259	-6.26076	1.25520	-9.50988	1.78121
6153.274	-8.29611	1.22777	-9.47558	1.35851
6157.268	-8.09725	1.11575	-9.47432	-0.19667
6161.304	-7.97335	1.39899	-9.48572	0.31480
6165.266	-8.05317	1.63288	-9.51312	0.56694
6169.270	-8.13741	1.47962	-9.55533	1.03351
6173.268	-8.51943	1.40568	-9.56776	1.21416
6177.262	-8.99586	1.51050	-9.52292	1.43849
6181.269	-9.28717	1.56205	-9.67690	1.73141
6185.265	-8.70505	1.59750	-9.40450	1.76221
6189.265	-8.64007	1.57976	-9.50660	1.94329
6193.263	-8.63379	1.48836	-9.42462	0.53186
6197.272	-8.59036	1.53617	-9.41815	-0.33572
6201.267	-8.43639	1.54518	-9.52212	0.04245
6205.263	-8.73967	1.50007	-9.50192	0.41668
6209.265	-9.05604	0.82626	-9.27948	1.17983
