time (ms)	lx (deg)	ly (deg)	rx (deg)	ry (deg)
0.000	1.13791	-0.48848	0.27609	0.24667
4.009	1.94853	-0.62760	0.32255	0.04088
8.006	1.45495	-0.80316	0.35062	-0.09517
12.004	1.17220	-1.14488	0.18938	-0.00045
16.006	1.84644	-0.68525	0.33424	-0.14325
20.003	1.45505	-1.13060	0.04956	0.01165
23.999	2.51192	-1.44028	1.24967	-0.08499
28.003	2.40808	-1.93177	0.52788	-0.15632
32.011	1.72153	-2.18026	-0.01459	2.56912
35.999	5.13254	-2.21299	-0.30106	0.33521
40.021	0.97636	-2.27141	3.23244	-0.14027
44.001	3.54168	-0.25982	1.34812	0.12145
48.007	0.66945	-0.58725	0.16702	1.64145
52.002	0.86816	-1.01916	-1.01844	1.54026
56.003	0.11754	0.54306	-1.16324	3.03605
60.006	-0.33521	0.55756	-1.24181	2.16082
64.006	0.52870	-0.15123	-1.33728	2.84113
68.002	0.48453	-0.29065	-1.41697	2.16932
71.999	0.46850	-0.17565	-1.36238	2.23575
76.008	1.13196	0.60918	-0.98643	2.30491
80.007	0.16524	-0.25587	-1.43143	2.47986
83.999	1.01987	-0.18067	-0.97869	1.85281
88.005	5.55956	-0.55455	-1.60295	2.28062
92.001	0.38258	-0.29840	-1.25493	2.04497
96.003	1.26949	-0.26761	1.04965	2.00445
99.997	0.84612	-0.25631	0.96708	2.07609
104.005	0.32471	-0.36517	0.03939	2.35864
108.037	0.61503	-0.23973	-0.27456	2.42804
112.029	0.93115	-0.54053	-1.08879	2.07936
116.009	0.48845	0.11030	-1.03109	2.26767
120.021	0.33645	-0.12417	-1.39190	2.11978
124.006	-0.43058	-0.03948	-1.44240	1.99598
128.000	-0.02318	0.92307	-1.65240	2.24259
132.004	3.19444	0.35637	-1.10276	2.27439
135.997	0.27530	1.85834	-0.23708	2.21540
140.005	0.85759	2.32695	-0.77248	2.39930
144.002	0.13337	-0.28653	-0.97797	2.73786
148.002	0.55349	0.37957	-1.32309	2.48840
152.008	0.00695	0.64409	-0.95165	2.29459
156.002	0.26235	2.36650	-1.21864	2.36619
160.002	0.07758	1.57042	-1.52863	2.58281
164.000	0.49247	2.34506	-0.56746	2.02474
168.003	0.38643	-0.02033	-0.73250	1.96925
172.005	0.29232	0.76202	-1.04287	2.37611
176.052	0.58903	0.47399	-1.19656	2.67898
180.035	0.23492	0.94077	-1.53937	3.51304
184.007	0.48699	3.64449	-1.29325	2.38897
188.001	2.28256	0.81860	-1.31297	2.31559
192.007	0.28873	2.54027	-0.03566	2.38377
196.006	0.53324	0.91135	0.19258	2.59103
200.006	0.36025	1.50121	-0.99769	2.31726
204.007	0.36789	0.47052	-1.76433	1.85470
208.007	1.43915	0.45749	-1.55891	2.27923
212.003	0.36213	0.52864	0.76151	2.19326
216.008	0.44646	0.36549	-0.79444	2.20974
220.002	1.16108	0.40704	-1.54512	3.21946
224.008	1.50125	0.96360	-1.40889	2.51440
228.004	0.59305	0.57247	-1.48456	1.80543
232.005	0.51788	0.30960	-0.87957	2.29531
235.998	0.58818	0.44569	-1.32131	2.29261
240.008	0.43095	0.52732	-1.61654	1.85021
244.009	1.59055	0.41447	-1.63916	2.16748
248.005	0.35605	0.24769	0.54024	2.09957
251.998	1.37583	0.42603	-1.48662	1.80210
256.006	-0.08473	1.88368	-1.29147	1.87747
260.005	-0.48733	0.54140	0.73690	1.29913
264.006	0.38243	1.02273	-1.20122	1.12180
268.000	1.56027	0.59408	-1.54537	2.07322
272.007	-0.38574	1.32993	0.39675	1.22587
276.004	-0.49642	1.76918	-1.36806	1.59122
280.001	0.27882	1.11383	-1.51940	1.80299
284.007	-0.27175	1.05884	-1.66348	1.52761
288.004	0.32486	2.29068	-1.92394	1.60939
292.003	0.27706	1.99290	-1.34202	1.16216
295.999	-0.41127	1.94628	-1.36025	1.41058
300.007	0.52212	1.96787	-1.61176	2.02934
304.004	-0.25773	3.93657	-1.65684	1.01210
308.005	0.25793	1.90853	0.28046	1.22464
312.006	0.10672	1.92243	-1.00725	1.41128
316.006	0.25733	1.49219	-1.59832	1.36743
320.004	0.25634	2.58814	-1.48662	1.78111
324.005	0.07495	1.97840	-0.13863	1.30902
328.002	-0.18849	1.97377	0.13543	1.49183
332.002	0.22522	1.66543	-1.15228	1.60533
335.999	0.06534	1.16032	-2.25818	1.91330
340.007	-1.14481	0.98582	-1.77774	2.06410
344.002	3.83203	-1.54159	0.63761	1.66832
348.005	0.00784	0.41589	-0.18268	1.47297
351.998	-0.32900	0.99465	-1.22459	1.77095
356.007	-0.09195	1.00104	-2.06718	2.11302
360.005	-0.31980	3.30427	-1.10666	1.48438
364.004	-0.20524	1.57193	0.74352	1.61818
368.006	-0.09580	1.02758	-0.56791	1.94959
372.007	-0.44847	1.15733	-1.36261	1.85759
375.998	-0.28672	0.05457	-2.13579	1.97484
380.049	0.59625	-1.44261	0.43884	1.70370
384.003	-0.36303	0.39755	-0.68250	1.95106
388.004	0.69712	1.00892	-1.52771	2.03796
391.999	0.15300	-0.39273	-1.60407	1.93527
396.034	-0.12220	0.31153	0.56520	1.80210
400.001	1.10941	1.47464	-1.62009	1.58374
404.003	-0.11476	1.55691	-1.80390	2.37870
408.003	2.26554	0.55565	-1.57453	2.04568
412.005	-0.03360	1.60213	-0.59339	1.33741
416.002	0.24882	0.87447	-1.64836	1.80184
419.994	0.29878	1.66304	-1.21464	1.83032
424.003	2.14741	1.16038	-1.72758	1.83325
427.998	-0.03445	1.83520	0.43666	1.72908
432.001	-0.01174	1.82262	-0.84749	2.00786
436.005	-0.18789	1.80195	-1.34842	2.03142
440.000	0.23008	0.95652	-1.17910	1.84762
444.002	2.72773	0.65525	-0.93832	1.82379
448.067	0.46358	0.61177	1.21658	1.74199
452.011	-0.02144	1.42731	-1.07971	2.13032
456.000	-0.05636	1.08195	-1.14709	2.14489
460.004	-0.34469	1.25255	-1.99010	2.17272
464.001	0.18348	-0.70985	-1.25337	-0.40747
468.000	2.45369	-0.27366	-1.34284	1.93843
471.997	2.14719	0.03909	-1.30566	2.08703
476.005	0.27195	-0.08799	1.30757	1.76432
480.012	-0.11721	-0.03710	-0.84044	1.84071
483.992	0.07971	0.14365	-1.12454	2.03787
487.999	2.07184	-0.55587	-1.10321	1.96761
491.994	-0.94899	0.47084	-1.68555	1.68227
496.031	-1.25074	0.76200	-1.90083	2.05190
500.007	-0.00174	0.60389	-2.12268	1.88207
504.000	0.16630	0.69266	-1.82916	1.73837
508.000	-0.71223	-0.36229	-1.66254	1.69423
511.998	0.02072	-0.54281	-1.17614	1.75388
516.005	-0.74675	0.04895	-1.22427	1.81972
520.001	-1.40418	0.20765	-1.31141	2.04964
524.000	-0.62258	-0.01883	-1.67799	2.16965
527.994	-0.86952	-0.10045	-1.75763	2.20393
532.005	0.58119	0.93233	-1.51752	1.72830
536.004	-0.18370	0.82615	-0.41594	1.85052
540.000	-0.03335	1.29507	2.56790	1.79663
543.997	1.72919	0.62586	2.99245	1.90464
548.003	0.78898	1.24361	2.71189	1.58491
551.999	1.90096	-0.14114	0.50138	1.78896
555.996	0.87825	-0.16195	-0.69213	1.91211
560.002	2.45946	0.66415	5.42697	0.43016
564.000	2.45416	0.62476	4.22236	1.83619
568.002	1.98809	1.08162	3.79613	1.89496
571.995	2.24661	0.93355	2.49981	1.98954
576.003	2.21497	0.74038	2.27686	1.58037
580.005	1.95780	1.02765	1.75287	1.56147
584.003	2.49297	1.12319	1.48208	1.60743
587.999	1.55087	1.00309	1.32622	1.23619
591.998	2.10570	-0.43568	1.27899	1.74083
596.029	2.17323	-0.94013	3.40947	1.73479
599.997	2.22835	-0.17853	3.53280	1.94018
603.999	1.98415	0.03303	2.21811	2.10188
607.994	1.86295	-0.50289	1.74315	1.87214
612.001	2.98027	-0.99533	1.81193	1.83285
615.999	2.24019	-0.58344	1.49788	1.90738
620.027	4.99366	-3.83263	1.53250	2.02312
623.997	2.52778	-0.49711	1.35876	2.05920
627.992	2.21499	-0.32920	1.25391	1.96860
631.994	2.28014	-0.20636	1.43726	2.10537
636.015	2.15435	-0.04790	1.69659	2.19996
640.003	2.18243	0.14054	4.36866	2.15601
643.997	2.16830	3.28954	4.39074	2.16575
647.997	1.79227	0.45416	4.15994	2.18773
652.015	1.74342	0.59385	1.74814	2.13792
656.003	1.35370	0.68211	1.96328	2.17424
659.999	1.67742	0.50123	1.67018	2.24840
663.867	2.21011	0.08884	1.97418	2.25854
667.875	2.14047	-0.00330	1.70975	2.34081
671.871	2.36155	0.00564	1.74848	2.51009
675.872	2.40753	0.14780	1.36843	2.66527
679.875	2.48631	0.40853	0.73501	2.85223
683.873	2.31022	0.80942	0.87039	2.18298
687.866	1.84622	1.13097	0.97251	2.11985
691.875	1.27616	1.03944	1.42315	2.27575
695.870	2.17150	3.26560	2.04113	2.56378
699.873	2.47524	1.62428	1.95998	2.63223
703.867	2.10867	1.37061	1.07416	1.66873
707.879	2.28668	1.27813	1.30444	1.96575
711.871	3.17247	1.81172	4.10066	1.93306
715.871	2.67202	1.93209	3.17190	2.14280
719.871	3.46582	-0.33338	2.46684	2.14822
723.872	3.32098	1.63784	1.92530	1.88113
727.867	2.22510	1.32950	1.77310	2.27769
731.874	2.14352	1.56759	1.35370	2.37904
735.868	3.51824	2.32246	1.45465	2.58471
739.872	2.68336	1.28690	1.35521	2.38630
743.866	2.75497	1.19156	1.01156	2.17786
747.870	1.98992	1.14364	1.26542	2.33002
751.871	3.49104	2.51243	3.65705	2.37397
755.868	3.55540	3.85425	2.72172	2.37603
759.874	3.42196	2.78547	1.27581	2.04592
763.870	3.73043	1.38836	1.18182	2.40973
767.871	3.24090	1.16968	1.15543	2.60728
771.867	2.45000	1.15810	1.10040	2.35622
775.874	4.09268	1.34713	1.13102	2.08960
779.870	2.55183	2.44220	3.63082	2.05770
783.866	3.58200	3.64291	1.31570	2.30829
787.873	2.63281	0.90884	1.00861	2.34575
791.876	2.12714	0.85456	-0.42437	2.61341
795.871	1.37699	1.06838	-1.36648	2.57080
799.867	1.40668	0.35697	-4.89042	1.54652
803.873	-1.67672	1.03881	-3.94547	1.72939
807.906	-2.79431	-0.07570	-4.65804	1.88108
811.864	-3.23853	-0.73817	-4.88562	1.29744
815.872	-3.35184	0.49419	-4.69103	1.17609
819.868	-4.95758	0.05216	-5.13481	1.05245
823.869	-4.89993	0.22567	-4.24680	1.03737
827.865	-3.83045	-0.13465	-4.87525	1.21542
831.873	-4.33547	0.64490	-5.14005	2.17338
835.867	-5.00699	0.79548	-5.43162	1.15825
839.870	-4.46914	0.75956	-5.36294	1.40386
843.861	-4.35227	1.01381	-5.48420	1.95302
847.871	-3.55899	0.92114	-5.42055	2.01440
851.867	-3.71367	-0.55209	-5.28916	1.31619
855.888	-3.87500	0.74237	-5.54346	1.85351
859.867	-4.67976	0.43551	-5.39072	2.20923
863.862	-4.92339	0.47984	-3.69531	1.61007
867.870	-4.71326	1.16823	-5.44412	2.15544
871.868	-4.68038	0.92256	-5.17644	1.38989
875.864	-0.17072	-0.76235	-5.46809	1.53354
879.867	-4.60145	-0.30248	-5.44102	1.97602
883.868	-4.47841	0.08557	-4.64137	1.75976
887.863	-4.24858	0.31459	-5.20903	1.87329
891.871	-1.81771	0.29404	-3.83702	1.30260
895.866	-4.39113	1.77905	-5.38968	2.01994
899.867	-4.97738	0.42269	-3.93759	1.53151
903.864	-4.48468	1.56005	-5.55934	1.99674
907.870	-4.65644	0.47921	-4.54905	1.26078
911.868	-4.30667	-1.06421	-5.54479	1.78605
915.879	-4.37900	-0.34060	-5.43767	1.82947
919.865	-3.71219	1.31250	-5.42004	1.80706
923.885	-4.38921	0.30497	-5.23886	1.89920
927.869	-5.10470	-0.19095	-5.04747	1.65008
931.869	-4.49057	0.86906	-5.67244	1.87661
935.872	-4.13038	0.66108	-5.03290	1.80162
939.865	-3.66073	1.38059	-5.52082	1.85956
943.869	-3.80715	0.89074	-5.25744	1.80566
947.861	-4.22372	-0.21535	-5.26270	1.38650
951.870	-3.95673	0.05298	-5.40835	1.51268
955.863	-4.16043	-0.21864	-5.30259	1.66052
959.888	-4.48991	-0.38861	-5.28982	1.51802
963.863	-4.85869	-0.17161	-5.45265	1.58282
967.870	-3.68547	1.59332	-5.33025	1.46179
971.866	-4.10076	0.62549	-5.31568	1.43453
975.868	-3.62986	1.23452	-5.44697	1.46463
979.871	-3.66202	-0.00533	-5.41556	1.68367
983.865	-4.41045	-0.13156	-5.36818	1.52003
987.867	-3.29270	-0.64461	-4.60570	1.16017
992.054	-0.49505	-0.75343	-5.43430	1.38337
995.865	-3.94065	1.42508	-5.39581	1.42992
999.876	-4.07945	1.22601	-5.31049	1.36466
1003.865	-5.16374	-0.72014	-5.24868	0.85243
1007.866	-3.84589	0.30790	-5.20925	0.97202
1011.861	-3.80752	-0.68870	-5.22116	1.14920
1015.870	-4.42318	-0.09749	-5.40535	1.69831
1019.866	-4.03475	0.43117	-5.33842	1.64178
1023.868	-4.28893	0.45881	-5.40762	1.63838
1027.868	-3.68453	1.86978	-4.39703	0.98663
1031.877	-4.20795	0.03455	-5.16954	1.46002
1035.866	-4.51314	0.15138	-4.72416	0.70408
1039.860	-3.84693	-0.75764	-4.82180	0.80632
1043.869	-4.19102	-0.98923	-5.04661	0.63073
1047.865	-4.31454	-0.19476	-5.08197	1.01584
1051.866	-3.87324	-0.34213	-4.96640	0.72043
1055.859	-3.41657	-0.30217	-4.92058	0.65776
1059.890	-4.04041	-0.25573	-4.89621	0.85552
1063.870	-4.20716	-0.53491	-4.85014	0.89090
1067.864	-4.38391	-0.40957	-4.81641	0.95441
1071.866	-4.42222	-0.42409	-4.85926	0.91225
1075.861	-4.50296	-0.35949	-4.90422	0.86102
1079.864	-4.48493	-0.52453	-4.98655	0.90772
1083.869	-4.54410	-0.46256	-4.98736	0.91635
1087.860	-4.54634	-0.48027	-4.96445	0.97732
1091.867	-4.48147	-0.50511	-4.97980	0.97962
1095.865	-4.46569	-0.41627	-5.05718	1.00591
1099.864	-4.50532	0.19015	-2.77666	1.18285
1103.859	-4.33535	1.42326	-2.71248	1.49981
1107.868	-1.51174	1.26259	-1.96476	1.52746
1111.864	-0.55175	1.38098	-1.25317	1.77158
1115.865	-0.37283	1.66305	-0.78409	1.97553
1119.868	0.48795	1.66496	-0.72521	2.29021
1123.868	0.50130	1.60641	-0.75392	2.49664
1127.864	0.67925	1.70939	-0.69657	2.37181
1131.865	0.89257	1.89117	-0.62526	2.52587
1135.860	1.25426	1.74527	-0.59272	2.45674
1139.869	1.39845	1.84146	-0.41068	2.58966
1143.864	1.15243	1.96075	-0.57838	2.59230
1147.865	1.44307	2.02027	-0.49517	2.66117
1151.859	4.03033	1.93412	-0.45398	2.69825
1155.867	1.62249	2.11807	-0.37859	2.76621
1159.863	1.69173	2.15101	-0.36511	2.84224
1163.865	0.90039	2.67113	-0.29932	3.00864
1167.858	0.85071	2.40350	-0.21432	3.19713
1171.867	1.51670	1.65632	-0.25649	3.12166
1175.863	1.39071	1.60245	-0.19043	3.45444
1179.867	1.24238	1.52611	0.46669	3.28396
1183.866	1.14943	1.73238	0.94708	2.77962
1187.858	0.45870	2.01938	1.26505	2.96479
1191.867	0.70449	1.92901	0.01869	2.45513
1195.872	0.86689	2.19775	0.13647	2.37947
1199.868	1.16019	2.46428	0.20867	2.51452
1203.860	0.84411	2.23115	0.38010	2.86415
1207.872	0.92512	2.38810	0.27262	2.97516
1211.865	0.72675	2.25067	0.29639	2.74667
1215.864	0.47912	2.28905	0.41988	2.91755
1219.859	-0.23021	2.43368	0.29009	3.14392
1223.866	-0.21502	2.52134	0.23304	3.15226
1227.863	0.99732	0.42825	0.12133	3.43537
1231.865	1.02307	0.92451	0.05308	3.70787
1235.861	1.18542	1.37447	-0.05961	3.52777
1239.866	1.21745	0.67365	-0.15568	3.66436
1243.868	1.15548	0.73733	-0.15010	3.57934
1247.883	1.28405	0.48169	-0.22634	3.57000
1251.865	1.08197	0.48916	-0.38938	3.61125
1255.861	1.38783	0.60319	-0.49393	3.62261
1259.862	1.45728	1.15493	-0.61878	3.63738
1263.868	1.32977	2.07401	-0.64466	3.59796
1267.861	1.28797	1.83035	-0.59799	3.50537
1271.856	1.65153	0.92104	-1.04711	3.34599
1275.865	0.72766	2.11793	-1.00777	3.17761
1279.861	0.23475	0.85499	-0.55912	3.09729
1283.857	2.18186	0.82687	-0.34744	3.16784
1287.865	1.73048	0.73931	-0.35109	3.05161
1291.862	1.82971	1.02293	-0.41909	3.07969
1295.863	1.16592	0.97074	-0.34888	3.09961
1299.855	0.96929	0.99807	-0.33593	3.08727
1303.864	1.52436	1.05557	-0.31367	3.02241
1307.863	1.46286	1.03360	-0.45956	3.00224
1311.858	0.97866	1.06515	-0.59456	3.00564
1315.865	0.78655	1.47406	-0.83411	3.13471
1319.861	0.83781	1.55133	-0.85637	3.29717
1323.862	0.91103	1.37998	-0.90195	3.35480
1327.855	0.95338	1.69932	-0.84664	3.30310
1331.890	1.03295	2.01312	-0.92664	3.41089
1335.864	0.92589	1.84301	-0.94557	3.41755
1339.859	0.83905	2.06055	-0.98033	2.61407
1343.862	1.12941	1.40486	1.79400	2.94620
1347.852	1.26964	1.22135	1.89275	3.19902
1351.858	1.21576	1.40338	-0.26195	2.27856
1355.855	1.20958	1.66172	0.30352	2.74072
1359.859	1.05257	1.71881	0.25225	2.43410
1363.851	1.32981	1.81428	0.06691	2.46339
1367.859	1.24104	2.12658	-0.02519	2.88349
1371.856	1.08703	2.27488	0.15541	2.87942
1375.850	1.07101	2.25824	0.18655	3.01386
1379.855	1.14727	2.35804	0.06371	2.92674
1383.850	1.35886	1.83940	0.06641	3.07684
1387.860	1.36695	1.52986	0.15831	3.20960
1391.855	1.32902	1.72730	-2.69274	3.05011
1395.855	1.54963	1.89054	-4.11831	3.38343
1399.886	1.12931	2.70979	-4.69849	6.72736
1403.865	4.91780	4.35346	-3.82376	12.02891
1407.860	6.02131	9.78168	3.93520	14.44348
1411.862	6.35510	10.72016	17.89561	13.66531
1415.868	NaN	NaN	NaN	NaN
1419.859	NaN	NaN	NaN	NaN
1423.860	NaN	NaN	NaN	NaN
1427.855	NaN	NaN	NaN	NaN
1431.861	NaN	NaN	NaN	NaN
1435.873	NaN	NaN	NaN	NaN
1439.860	NaN	NaN	NaN	NaN
1443.864	NaN	NaN	NaN	NaN
1447.864	NaN	NaN	NaN	NaN
1451.862	NaN	NaN	NaN	NaN
1455.860	NaN	NaN	NaN	NaN
1459.863	NaN	NaN	NaN	NaN
1463.865	NaN	NaN	NaN	NaN
1468.297	NaN	NaN	NaN	NaN
1472.132	NaN	NaN	NaN	NaN
1476.322	NaN	NaN	NaN	NaN
1480.072	NaN	NaN	NaN	NaN
1484.030	NaN	NaN	NaN	NaN
1488.188	NaN	NaN	NaN	NaN
1492.424	NaN	NaN	NaN	NaN
1495.869	NaN	NaN	NaN	NaN
1499.863	NaN	NaN	NaN	NaN
1503.853	0.37531	13.73692	NaN	NaN
1507.861	1.31523	11.11397	-6.93897	15.02484
1511.857	2.18994	0.80025	-1.07880	5.91665
1515.734	2.45307	5.06025	-0.34590	3.90273
1519.728	2.38256	4.63041	-2.02540	11.19109
1523.736	2.11804	8.67225	-4.47454	7.00905
1527.733	2.29099	2.55104	-2.62370	3.63139
1531.733	1.89454	1.07021	-5.30242	2.63851
1535.743	-1.59804	2.80061	-6.86352	5.66033
1539.732	-1.76847	2.77543	-3.85046	3.04620
1543.727	-0.86106	3.05001	-4.16105	7.78004
1547.734	-1.16443	2.67656	-3.46365	8.19092
1551.732	-0.91793	1.95757	-2.78773	3.62722
1555.733	-0.42343	1.90632	-3.04660	3.41236
1559.737	-0.33034	1.46824	-2.69339	2.49591
1563.732	0.74732	1.10012	-2.37297	3.50234
1567.733	0.12756	0.98264	-1.94932	3.20531
1571.726	0.04832	0.81530	-1.60526	2.96690
1575.735	0.03023	0.62369	-2.54781	2.55328
1579.732	0.17740	0.57924	-2.21229	3.12236
1583.727	0.12684	0.51563	-2.10372	3.61739
1587.738	0.55865	0.32078	-1.99181	3.82517
1591.730	0.51609	0.23086	-1.65185	3.83855
1595.733	0.41693	0.14325	-1.64994	3.18808
1599.725	0.47681	0.28714	-1.57022	2.82280
1603.779	0.50828	0.06970	-1.50760	2.81118
1607.727	0.28960	-0.02423	-1.31997	3.65685
1611.730	0.34377	-0.01382	-1.19093	3.55992
1615.726	0.24425	-0.00455	-1.28281	3.63772
1619.722	0.49880	-0.11115	-1.17939	3.66300
1623.730	0.40805	-0.04575	-1.02962	3.63983
1627.725	0.22045	-0.01076	-1.11499	3.34864
1631.728	0.32032	0.22071	-1.14201	2.83784
1635.722	0.30769	0.18989	-1.17647	2.43024
1639.729	0.30106	0.28432	-1.19433	2.36215
1643.726	0.39906	0.51423	-1.24845	2.32229
1647.727	0.36218	0.64581	-1.32855	2.19254
1651.721	0.32717	0.88922	-1.21020	1.94731
1655.729	0.53818	0.78043	-1.14288	1.67417
1659.726	0.46284	0.90716	-1.18359	1.50683
1663.726	0.31871	0.70736	-1.34539	1.47012
1667.723	0.01817	0.73271	-1.33564	1.45928
1671.774	0.17119	0.71472	-1.79527	1.24357
1675.726	0.10317	0.56080	-1.37875	1.40399
1679.729	0.38008	0.31992	-1.22687	1.44628
1683.726	0.14831	0.32992	-1.47918	1.81221
1687.719	0.11170	0.33263	-0.72025	1.27708
1691.727	-0.01109	0.60190	-0.58736	1.64681
1695.725	0.05827	0.08491	-0.76761	1.97976
1699.725	0.00424	0.45105	-0.68891	1.86208
1703.719	0.09386	0.57216	-0.68851	1.92137
1707.727	0.18906	0.85385	-0.29610	2.23978
1711.729	0.14129	0.46027	-0.38814	1.97994
1715.724	0.02030	0.83060	-0.43827	1.95087
1719.720	0.08433	0.67711	-0.66461	2.04681
1723.726	-0.02732	1.06014	-0.60828	1.86861
1727.723	-0.00367	0.95576	-0.83917	2.04122
1731.724	-0.11734	0.85713	-0.90445	2.04972
1735.720	-0.12496	0.92841	-1.02444	2.00677
1739.730	-0.27639	0.98337	-1.09341	2.01462
1743.729	-0.11759	1.19425	-1.21529	2.07480
1747.728	0.00884	1.12480	-1.30853	1.99505
1751.727	-0.15461	1.20667	-1.25250	1.90959
1755.723	-0.30233	1.35018	-1.35152	1.94549
1759.724	-0.21539	1.20507	-1.33411	1.91603
1763.719	-0.13943	1.09596	-1.30712	1.86116
1767.727	0.03216	0.86893	-1.33621	1.85781
1771.724	-0.24780	0.93908	-1.11643	1.71477
1775.725	-0.27781	0.97324	-1.12948	1.69051
1779.729	-0.46760	1.01477	-1.03459	1.62910
1783.722	0.04485	0.68809	-1.21387	0.67897
1787.726	0.23018	0.91434	-0.85865	1.55215
1791.723	-0.01655	1.06479	-0.98596	1.51947
1795.733	-0.19889	1.47806	-0.98122	1.64628
1799.724	-0.03725	0.86998	-0.97807	1.74508
1803.719	0.30520	0.64609	-0.99519	2.04478
1807.752	0.55180	0.54560	-0.84937	2.00714
1811.730	0.22956	0.97796	-0.79873	2.25226
1815.719	0.30731	0.71032	-0.88657	2.68396
1819.726	0.77074	0.47295	-0.85719	2.75414
1823.723	0.33293	0.59563	-0.95470	2.81236
1827.724	0.82890	0.58693	-0.81774	3.04566
1831.720	0.37866	0.45470	-0.83349	2.90748
1835.731	0.24832	0.51712	-0.83200	2.95608
1839.727	0.47366	0.51226	-0.65042	2.77982
1843.726	0.38184	0.50772	-0.69176	2.51329
1847.719	0.39963	1.42110	-0.62322	1.51334
1851.726	0.10039	0.85974	-0.56327	-0.14419
1855.722	0.15312	0.98790	-0.55873	0.99630
1859.724	0.17938	1.38246	-0.59191	0.85746
1863.724	0.35221	0.70286	-0.60670	1.06560
1867.725	0.17400	0.63358	-0.69335	0.75303
1871.727	0.26892	0.59682	-0.69149	0.82296
1875.726	0.04306	0.62081	-0.68722	0.74203
1879.729	-0.03010	0.74036	-1.15518	1.47656
1883.719	-0.58253	1.23435	-1.84837	1.07501
1887.726	-0.47376	1.23581	-1.25426	3.90540
1891.755	-0.58540	0.77257	-1.84619	3.40627
1895.722	-0.39062	1.01282	-1.51382	2.73311
1899.717	-0.10232	0.57482	-1.64841	3.31806
1903.724	-0.55962	0.59591	-1.43396	2.96257
1907.724	-0.59193	0.66065	-1.51090	2.86280
1911.722	-0.41326	0.75600	-1.39016	2.72292
1915.716	-0.55235	2.06817	-1.51375	2.52747
1919.730	-0.23870	1.06232	-1.56662	2.32394
1923.720	-0.33997	1.04900	-1.49274	2.22096
1927.721	-0.02345	0.84968	-1.36481	2.02617
1931.727	0.19829	0.60068	-1.28757	2.51157
1935.720	0.17261	0.43182	-1.30588	2.69010
1939.722	0.24939	0.30479	-1.17562	3.15445
1943.721	-0.27860	0.49937	-1.16848	3.10558
1947.716	-0.02693	0.36428	-1.06513	3.16029
1951.723	-0.28414	1.61087	-0.96532	2.52323
1955.724	-0.15005	2.13117	-1.17537	2.51091
1959.723	0.16310	1.52028	-1.30489	2.29496
1963.715	0.05951	1.20083	-1.26731	2.39331
1967.722	-0.14364	0.90982	-1.24699	2.25986
1971.720	0.18035	0.56455	-1.05726	2.08079
1975.721	-0.58456	0.79319	-1.07676	2.64253
1979.724	-0.45199	0.70735	0.18494	2.20550
1983.720	-0.16442	0.51829	-1.35090	2.63998
1987.720	0.44931	-0.35264	-1.43749	2.88331
1991.715	1.16925	0.79347	-1.07629	2.58969
1995.721	0.97732	0.59056	2.44730	2.30648
1999.720	2.95718	1.90733	0.06175	2.84646
2003.720	1.09093	0.83713	1.96675	2.43428
2007.723	1.00702	0.92739	1.32731	2.01744
2011.725	3.51280	0.29438	0.89999	1.59863
2015.722	1.29876	-0.66774	1.36811	1.92176
2019.715	1.43166	-0.96572	1.24389	1.70338
2023.722	2.74284	0.05056	1.97019	1.68845
2027.753	2.97346	1.26859	1.64590	1.65113
2031.729	4.39730	-1.14252	1.76849	1.83314
2035.728	2.23135	-1.55519	1.57245	2.01745
2039.726	3.19840	-1.45125	1.63023	1.71818
2043.728	1.89431	-0.84668	1.75062	1.71541
2047.721	3.22030	-1.84299	1.64546	1.83723
2051.728	2.42874	-1.03057	1.22873	1.91085
2055.735	2.62417	-1.07720	1.54934	2.19377
2059.717	3.48823	-0.50277	1.80615	2.24484
2063.723	2.75633	1.04894	1.96419	2.08382
2067.720	3.06382	1.52776	1.50529	2.31180
2071.720	2.50618	-0.49277	1.45443	2.42196
2075.713	3.15411	-0.59434	1.61845	2.56138
2079.728	3.00591	1.46391	1.91464	2.44720
2083.724	2.76242	1.10853	1.52278	2.22540
2087.720	3.05610	-0.15223	2.09861	2.06234
2091.718	2.49159	0.89234	1.45805	2.10726
2095.714	3.03910	0.05104	1.87483	1.64480
2099.721	2.73306	-0.14009	2.24867	1.68232
2103.717	2.88463	-0.26649	2.69757	1.28212
2107.720	2.44883	0.22028	1.90671	1.52895
2111.729	2.82202	-0.17634	1.74085	1.38083
2115.720	3.17171	-2.40350	1.58949	1.41820
2119.722	2.70052	-2.34894	1.63628	1.37234
2123.715	2.57721	-2.20140	1.69557	1.10288
2127.724	2.47893	-2.27098	1.84515	0.75580
2131.717	2.42203	-1.35031	1.80861	0.74787
2135.717	3.18606	-0.32621	2.09923	0.77532
2139.718	3.71056	-0.84150	1.99858	0.84432
2143.720	2.78013	-0.18526	1.85442	0.92363
2147.720	2.71372	1.73557	1.84411	0.96438
2151.719	2.86014	-0.48571	1.55197	0.63503
2155.712	3.16693	-0.59857	1.59933	0.88797
2159.719	3.75123	-1.23088	1.70616	0.90647
2163.716	5.02226	-1.67785	1.81768	0.79708
2167.717	3.24368	-1.65021	1.77618	0.75990
2171.711	2.74888	-1.45678	1.93219	0.79678
2175.719	3.83915	-2.00524	1.88055	0.43477
2179.716	2.87901	-1.81377	2.53907	0.63755
2183.712	3.04046	-1.97291	2.55141	0.77349
2187.716	4.55408	-2.35279	3.43051	0.82286
2191.716	4.43564	-2.10448	3.62951	0.77830
2195.711	4.75940	-1.73858	1.84245	1.01389
2199.716	2.88324	0.42728	1.87669	0.98648
2203.716	2.89980	0.58621	2.28883	1.40637
2207.712	4.83982	0.11623	1.82311	1.67033
2211.725	3.47193	0.61416	2.07229	1.27129
2215.719	4.76211	0.57823	1.76274	1.92075
2219.718	4.06278	0.94099	1.71112	2.18541
2223.717	4.98889	1.71479	2.11336	2.06552
2227.711	3.28130	1.40199	1.80293	1.90369
2231.719	2.78117	1.43188	1.78605	1.70809
2235.720	1.79455	1.03065	1.75686	1.77749
2239.718	2.22726	0.75527	1.71722	2.08321
2243.718	3.46921	1.44565	1.75555	2.01235
2247.717	3.74597	1.63662	1.65731	2.04237
2251.716	2.36242	1.43471	1.63385	2.08819
2255.716	2.40248	0.57031	1.66621	2.08657
2259.720	5.41920	0.70567	1.71365	2.20639
2263.716	3.33337	-0.41879	1.74618	2.21801
2267.715	2.12340	-1.10377	1.77967	2.19860
2271.712	3.33322	0.27553	1.88613	1.81788
2275.718	3.62830	-0.77786	2.00358	1.29976
2279.714	3.33980	0.27736	2.41494	1.36697
2284.088	2.20039	0.16637	2.24007	0.95870
2287.722	2.89958	0.65537	2.04574	1.21121
2291.714	2.21147	-0.04529	2.01322	1.83571
2295.720	2.33244	0.78292	2.13140	1.73969
2299.711	2.88497	-0.01348	2.02678	1.99775
2303.719	3.69271	-0.11315	1.99002	2.33409
2307.716	3.95542	-0.17940	2.18761	2.26520
2311.712	3.81891	-0.50459	2.24314	1.00063
2315.719	3.78316	-0.23374	2.24706	1.21756
2319.715	3.73865	1.03642	2.27741	1.04424
2323.747	2.55195	0.17260	2.08039	1.11113
2327.717	2.86628	-0.16817	2.03876	1.75599
2331.714	3.61305	-0.11549	2.08198	1.72258
2335.726	3.91104	0.01611	2.06158	1.86560
2339.713	3.88769	-0.12198	1.91035	2.20885
2343.714	3.83043	0.51537	2.03181	1.99318
2347.710	4.15791	-0.91786	1.90386	2.17779
2351.715	4.72445	-1.88951	1.97622	2.43198
2355.718	3.19336	-1.90807	1.83846	2.42328
2359.713	2.78807	-1.98818	1.87195	2.62629
2363.713	2.83331	-1.75798	1.78533	2.46793
2367.711	3.47309	-1.80688	1.71191	2.26824
2371.587	2.82301	-0.36779	1.79428	2.00494
2375.588	2.64270	-0.41257	1.92647	2.02129
2379.591	-0.36099	-1.40230	2.08922	1.86112
2383.591	3.00299	1.30609	2.21041	1.59895
2387.582	3.36750	-0.02600	2.22857	1.41641
2391.590	2.76047	0.00978	2.25427	1.72826
2395.588	2.74462	0.70204	2.18394	1.49894
2399.590	6.44013	0.78077	4.67365	1.27522
2403.588	3.84140	-0.21159	4.59568	1.74767
2407.591	3.65767	0.31809	2.37634	2.57554
2411.586	3.12927	-0.25983	2.58692	1.83098
2415.588	3.46854	-0.42210	2.64852	2.17917
2419.591	3.45949	0.12900	2.67972	2.18387
2423.597	3.13214	-0.50052	2.62680	1.94516
2427.587	3.01059	-0.78896	2.70921	2.00780
2431.588	2.98124	-0.66396	2.66706	2.20900
2435.592	3.32407	-0.20444	3.96390	2.15069
2439.587	2.95255	-0.28419	4.43589	2.46324
2443.590	2.83499	-0.03437	2.74207	2.22463
2447.582	2.97537	-0.22999	2.64943	2.49770
2451.590	2.99549	-0.61916	2.43392	2.82423
2455.585	3.06434	-0.53137	2.33514	3.10331
2459.589	3.07733	-0.25734	2.19499	2.82414
2463.588	2.90869	-0.02509	2.25268	3.02919
2467.594	2.78238	0.22861	2.26750	3.17621
2471.587	2.58482	-0.31211	2.71332	3.30622
2475.587	2.88255	0.05199	2.16151	3.43679
2479.590	2.93616	0.05405	2.15665	3.45145
2483.587	2.76653	0.90345	2.04200	3.35089
2487.590	2.85279	0.47536	1.76304	3.37732
2491.600	2.79223	0.74296	1.77888	3.44966
2495.595	2.64071	1.20068	1.80960	3.50587
2499.591	2.75210	1.69016	1.81148	3.44381
2503.583	2.73989	1.46396	1.71089	3.45976
2507.597	2.90975	1.24885	1.43143	3.43747
2511.588	2.87532	2.02100	1.52263	3.57226
2515.588	2.69780	2.10985	1.49852	3.56158
2519.582	2.95114	2.16510	1.40589	3.59127
2523.589	2.72877	2.63839	1.50653	3.58950
2527.616	2.87363	2.19271	1.46120	3.59359
2531.586	3.21438	2.17222	1.57106	3.65528
2535.581	5.06277	2.28248	1.74228	3.63908
2539.588	2.20443	2.36721	1.79767	3.70556
2543.587	-1.63147	0.13721	1.85494	3.68355
2547.586	-0.42286	1.36092	1.86119	3.65967
2551.580	2.46959	2.12882	1.79140	3.68702
2555.588	2.13385	1.76673	1.85239	3.61198
2559.586	2.11239	1.92311	1.89139	3.56813
2563.588	2.20401	1.86649	1.89511	3.51424
2567.587	2.26376	1.73440	1.79966	3.41973
2571.586	2.20748	1.58218	1.04781	3.09241
2575.580	2.24879	1.61206	1.06478	2.96735
2579.586	2.36572	1.48262	1.74938	2.85527
2583.583	2.41028	1.41990	1.62150	3.04091
2587.580	2.34282	1.52212	1.45502	2.95677
2591.587	2.46602	1.45954	1.39964	2.78599
2595.585	2.32942	1.52035	1.41690	2.79772
2599.586	2.48029	1.72778	1.33869	2.88169
2603.580	2.47145	1.54641	1.09485	2.85799
2607.588	2.59160	1.51982	1.16957	2.75994
2611.584	2.62722	1.65484	0.97333	2.66902
2615.585	2.65557	1.50350	1.23667	2.76719
2619.589	2.54343	1.35711	1.42129	2.77067
2624.012	2.52552	1.46361	1.24888	2.91475
2627.592	2.53865	1.49699	1.30682	2.90849
2631.589	2.78386	1.38066	1.22913	3.09231
2635.589	3.16577	1.43461	1.37583	3.29776
2639.585	2.60272	1.32271	1.61741	3.43822
2643.587	2.20736	1.35295	1.65272	3.59422
2647.579	2.37496	1.34100	1.70683	3.57943
2651.586	2.12270	1.49321	1.75002	3.66363
2655.587	2.59626	1.72609	1.83424	3.95235
2659.586	2.49020	2.05796	1.83533	3.98846
2663.578	2.76485	1.58447	1.76834	4.06972
2667.587	2.18664	1.51844	1.94942	4.05667
2671.583	2.74670	1.32762	1.76948	4.53262
2675.589	2.26103	1.71299	1.98484	4.06015
2679.587	3.01541	1.82937	2.43580	4.14416
2683.586	2.86084	1.47621	4.13241	4.11416
2687.581	3.81405	2.20393	7.25475	4.05035
2691.875	6.39611	-2.46871	7.42385	3.88669
2695.588	9.03604	1.57488	8.43044	3.06185
2699.583	8.79070	1.43461	9.89916	2.66384
2703.585	10.92011	1.01039	9.94712	1.99560
2707.579	10.87431	0.63816	10.24706	1.84462
2711.587	10.93945	0.67839	9.47543	2.13974
2715.590	10.78348	0.65702	9.81344	2.15423
2719.584	10.80989	-1.20878	9.46841	2.07309
2723.579	10.96478	0.49485	9.59768	2.36272
2727.589	13.37329	-1.90180	9.52005	2.07385
2731.583	10.74276	0.35702	10.20892	1.87076
2735.579	10.66275	0.13832	9.48676	2.18813
2739.586	10.78055	0.05407	9.74369	1.91015
2743.607	11.36312	-0.72332	9.77640	1.77312
2747.581	10.98131	-0.04954	9.62309	1.68060
2751.585	13.73224	-0.65954	9.52434	0.62489
2755.581	9.97859	0.12070	9.43943	1.85976
2759.586	11.18917	-1.60036	9.79546	1.56427
2763.579	11.56357	-0.34647	9.58661	0.81486
2767.585	11.50410	-1.72110	9.11847	1.18620
2771.581	10.05854	-0.04069	9.35283	1.30150
2775.578	11.19203	-0.02162	9.59600	1.08276
2779.582	12.41414	-0.37081	9.70104	0.78760
2783.581	11.50017	3.09034	8.86207	0.93863
2787.581	11.64544	-0.80506	8.33212	1.03654
2791.585	10.94921	-0.32267	9.35592	1.43918
2795.580	9.04635	-0.34780	9.68561	1.36428
2799.587	11.69505	1.98731	9.33070	1.10433
2803.576	11.30073	-0.31870	9.08808	1.45538
2807.579	11.18324	-0.36987	8.93554	1.62400
2811.581	13.15934	-1.25367	9.08358	1.84606
2815.576	11.43309	-0.48903	9.08888	1.78732
2819.584	10.99991	1.02901	8.86728	2.27035
2823.581	10.90492	-1.47600	8.85010	2.41670
2827.584	12.60595	-1.69936	8.98864	2.26475
2831.581	11.36365	3.55244	8.98177	2.71119
2835.581	10.86967	0.04012	8.91187	2.36152
2839.576	13.51849	0.61032	8.81339	2.19924
2843.584	10.74860	0.20617	8.88361	2.22897
2847.579	12.04018	-1.20887	9.00479	2.02042
2851.582	10.66476	2.18118	9.33923	1.77136
2855.578	7.91772	2.65735	9.01002	1.83560
2859.584	10.66534	3.03850	8.74530	1.65669
2863.581	10.61056	3.46363	8.88625	1.68093
2867.581	13.76603	-0.67827	9.46032	1.50988
2871.586	11.27858	0.74529	8.78769	1.13014
2875.581	10.65045	2.56046	8.70830	1.10315
2879.578	10.57675	2.85939	8.94196	1.49105
2883.585	10.56773	2.36282	8.47546	1.63511
2887.579	10.55701	-0.84487	8.64973	1.16137
2891.581	10.42411	0.02446	8.54384	1.37430
2895.581	13.58320	-0.62636	8.96954	1.42696
2899.582	10.56603	2.80062	9.32975	1.34122
2903.581	10.65151	1.60040	9.19106	1.38254
2907.583	6.59706	2.74116	8.93346	1.46523
2911.578	10.58836	1.06400	8.77887	1.67863
2915.580	10.67737	1.39856	8.65038	1.61644
2919.575	10.52936	1.99557	8.71208	1.56775
2923.588	10.36326	0.31865	8.72352	1.70015
2927.579	13.56692	-2.12611	8.73691	1.63403
2931.583	14.00447	-0.15226	8.80318	1.72670
2935.583	11.35866	-2.78611	8.75902	1.80106
2939.578	13.21521	-3.52611	8.65278	1.92302
2943.581	13.76301	-3.46816	8.74314	2.11139
2947.575	11.31304	-1.69669	8.69045	2.14813
2951.582	13.91021	-2.57122	8.71552	2.30878
2955.579	9.59587	1.38918	8.75958	2.31238
2959.580	11.90866	-1.35649	8.83071	2.26408
2963.611	7.11794	-0.87146	8.96687	2.39713
2967.625	10.55730	-0.70929	8.77133	2.36745
2971.584	6.78458	0.50040	8.83755	2.45779
2975.578	10.72872	-1.21223	8.90650	2.51282
2979.592	11.50672	-1.30168	8.92958	2.54400
2983.578	9.71662	-2.25412	8.82950	2.64529
2987.574	10.58656	-1.48559	8.70323	2.66449
2991.581	11.73716	-2.13964	8.78474	2.76459
2995.582	11.81548	-2.58811	8.63461	2.75450
2999.575	12.17205	-4.25962	8.52409	2.67402
3003.580	15.69266	-3.01886	8.53972	2.74960
3007.581	12.38015	-2.59099	8.62622	2.64050
3011.578	11.75848	-1.53542	8.54598	2.64947
3015.572	10.25951	0.14806	8.58367	2.66897
3019.580	11.98287	-2.20714	8.57415	2.66003
3023.577	10.19906	1.76303	8.53372	2.62746
3027.599	10.30175	1.65300	8.53433	2.46806
3031.594	10.86129	1.13854	8.74391	2.29553
3035.579	11.57760	-1.71464	8.49161	2.38632
3039.579	12.06423	-1.32593	8.50008	2.34493
3043.573	10.33966	3.22739	8.52088	2.16478
3047.585	12.78970	-1.09082	8.43149	2.17610
3051.576	11.05158	2.06046	8.56284	2.12175
3055.624	11.61547	0.96352	8.56947	2.04370
3059.585	11.00448	0.51737	8.47437	2.09627
3063.577	10.68918	1.61277	8.37502	2.12322
3067.578	9.71049	3.00578	8.35289	2.12032
3071.572	13.09718	0.87389	8.31657	2.19607
3075.585	6.26029	2.08150	8.32512	2.20970
3079.578	10.27246	0.23113	8.69695	2.14898
3083.573	10.37422	0.11251	8.57787	2.15761
3087.579	10.45387	0.28811	8.67614	2.27130
3091.576	10.08573	0.65478	8.84547	2.29576
3095.577	10.33459	1.34331	8.88634	2.34847
3099.578	9.86156	-1.60071	8.87270	2.46811
3103.578	11.40565	-1.62712	8.78988	2.64819
3107.577	10.20517	1.23877	8.84031	2.63972
3111.577	13.14896	-1.98675	9.11329	2.36799
3115.579	12.81148	-1.31636	9.13821	2.19164
3119.578	12.81835	-1.70320	9.02958	2.01165
3123.572	11.57610	-0.92992	9.01704	2.11300
3127.579	13.06254	-1.88938	8.51008	1.95840
3131.581	15.16712	-1.70701	8.70199	1.64074
3135.577	10.21856	1.35551	8.51836	1.45915
3139.573	11.43684	0.54891	8.37767	1.68804
3143.579	10.23928	0.01382	8.54632	2.06753
3147.576	10.85801	-0.46604	9.36602	1.54994
3151.577	11.12278	-2.11222	8.29926	1.07911
3155.571	9.14547	0.58051	7.71959	1.18235
3159.579	9.60046	-1.77425	7.58942	1.17921
3163.576	9.06775	-0.60108	7.50642	1.10233
3167.578	9.46788	-0.51022	5.83395	0.57587
3171.578	8.39557	-0.91391	7.29470	0.29829
3175.570	7.99050	-0.26335	6.71735	0.53773
3179.582	7.22898	0.34263	5.35859	0.11371
3183.569	5.11312	-0.41513	6.30857	0.47887
3187.579	4.55283	-0.82243	6.49764	0.44460
3191.574	10.65208	-3.07779	5.20575	0.16303
3195.575	6.54972	-1.53196	8.58070	0.06831
3199.569	7.64571	-0.09401	6.02821	0.77420
3203.577	7.80489	-1.59726	5.57911	0.54017
3207.572	7.01590	-0.64886	5.44451	0.39732
3211.575	5.48715	-1.54212	5.56839	0.57247
3215.575	7.39662	-2.22953	5.61276	0.38756
3219.577	4.82917	-1.30888	5.48855	0.49279
3223.448	4.02329	-1.02041	5.63803	0.43371
3227.449	8.06115	-1.24507	5.68148	0.47670
3231.444	8.86318	-2.51334	5.48501	0.43548
3235.453	8.62605	-2.06238	5.38781	0.46445
3239.451	6.83748	-0.45322	5.57011	0.35497
3243.453	7.30537	-2.05462	5.50508	0.25360
3247.452	5.92778	-2.19243	5.44343	0.21966
3251.448	3.57323	-1.60048	5.50628	0.22855
3255.449	8.91221	-1.38452	5.59115	0.09447
3259.445	9.37366	-3.32752	5.51204	-0.05597
3263.453	6.49031	-0.47441	5.53257	0.04249
3267.446	6.84243	-1.39602	5.61718	-0.19428
3271.448	6.72604	-1.70071	5.52212	-0.40800
3275.443	3.47648	-0.89744	5.46777	-0.22154
3279.452	9.26674	-1.59508	5.63564	-0.43389
3283.449	8.57927	-1.62519	5.50449	-0.54157
3287.445	9.16963	-3.28500	5.56104	-0.42986
3291.451	6.99353	-0.64549	5.51673	-0.45849
3295.447	8.08569	-0.85233	5.52276	-0.63531
3299.449	3.58336	-0.87519	5.50036	-0.49520
3303.492	7.33071	-0.57975	5.65504	-0.60710
3307.453	7.58361	-0.37915	5.57208	-0.55294
3311.458	7.24647	0.00875	5.44623	-0.70455
3315.454	7.57071	-0.14425	5.40065	-0.68231
3319.448	6.86011	0.31685	5.56020	-0.60503
3323.455	8.66840	-1.57846	5.61259	-0.54649
3327.451	7.57537	-4.14264	5.47196	-0.48781
3331.452	7.00250	-3.53260	5.40088	-0.39302
3335.455	8.03815	-3.64768	5.49446	-0.63406
3339.454	7.77734	-0.43462	5.36201	-0.54108
3343.453	7.06850	-1.70224	5.49310	-0.45111
3347.449	4.17712	-1.28085	5.65137	-0.55845
3351.456	8.34553	-0.86843	5.45986	-0.57030
3355.451	7.89773	-1.87972	5.47466	-0.35209
3359.453	8.14609	-1.62724	5.67393	-0.54443
3363.447	7.99170	-0.52923	5.47923	-0.44790
3367.459	7.43574	-1.25337	5.22670	-0.52499
3371.456	6.96942	-0.36233	5.52025	-0.28318
3375.455	3.90412	-1.15121	5.55971	-0.49918
3379.456	3.48004	-0.49191	5.61532	-0.30094
3383.455	7.78070	-0.99392	5.46959	-0.22740
3387.449	7.37055	-1.06028	5.21936	-0.09587
3391.456	7.46641	-2.10350	5.34302	-0.15602
3395.451	7.78796	-0.40524	5.56927	0.00228
3399.452	7.39479	-0.72925	5.51469	0.06419
3403.447	9.68500	-2.80146	5.47063	0.09857
3407.493	7.64815	-2.34958	5.37047	0.32389
3411.451	7.90250	-0.70991	5.49782	0.24908
3415.451	7.58722	-1.75273	5.35938	0.39065
3419.445	7.93028	-0.91847	5.49573	0.29108
3423.453	7.69122	-0.66646	5.46883	0.27395
3427.458	7.18540	-0.59764	5.39323	0.25837
3431.445	7.31840	-0.69545	5.33696	-0.17796
3435.450	7.80180	-0.78572	5.27370	-0.14916
3439.452	7.22742	-0.68314	5.39974	-0.32524
3443.449	7.66346	-2.42455	5.23765	-0.33532
3447.445	6.64045	-0.39467	4.65343	0.33668
3451.453	8.07207	-1.89452	5.10886	-0.17748
3455.449	5.74586	-0.95308	2.17616	0.55024
3459.451	2.43149	-0.66486	1.30161	-0.02072
3463.444	5.53702	-1.01910	1.45390	0.15213
3467.452	2.70409	-0.77515	0.65062	0.34647
3471.452	5.89637	-1.74875	0.40127	0.68295
3475.449	-0.22964	-1.39303	-0.46842	0.55681
3479.452	0.11064	-1.74586	-0.25215	0.79775
3483.447	0.38628	-2.26236	-0.17928	0.98070
3487.449	0.01747	-2.62348	1.75297	0.44938
3491.447	1.88544	-2.16598	1.71412	0.37736
3495.465	0.36271	-1.90561	-0.47483	0.66894
3499.448	0.93110	-2.23179	-1.27981	0.51873
3503.453	0.80158	-2.36362	-0.56575	0.25422
3507.455	0.57694	-2.37407	0.34494	0.32947
3511.457	0.98933	-2.13359	0.03055	0.12400
3515.449	1.51080	-2.62723	0.28220	0.04642
3519.451	1.05237	-2.74803	1.08482	0.08176
3523.444	1.63871	-1.94310	-0.34216	-0.35121
3527.452	0.97556	-2.42266	0.28553	-0.17091
3531.449	0.90197	-1.88020	0.48274	0.08836
3535.450	0.92376	-2.04440	0.30617	0.12419
3539.444	1.33175	-2.69880	0.21763	0.25840
3543.452	2.89171	-2.07530	0.30307	0.30330
3547.454	3.78519	-1.56437	0.39881	0.27452
3551.451	4.53788	-1.70478	0.78625	-0.03884
3555.443	2.02934	-1.96094	0.63260	0.19779
3559.448	2.06191	-1.87591	1.23913	0.16839
3563.448	1.76019	-1.71345	1.42789	0.31777
3567.443	1.26706	-1.74789	1.94712	0.33286
3571.452	1.56112	-1.61685	2.07898	0.38242
3575.452	1.72999	-1.62979	2.11026	0.40811
3579.449	1.44078	-2.01320	2.16235	0.36906
3583.447	2.22996	-1.61570	0.19740	0.51729
3587.446	2.38601	-1.89336	0.19018	0.59827
3591.452	1.91132	-1.95150	0.11297	0.62031
3595.448	1.77553	-2.01717	0.11359	0.47801
3599.450	1.44612	-1.84834	0.07455	0.44802
3603.444	2.45156	-4.06248	0.39234	0.35349
3607.477	0.82312	-2.23784	0.10021	0.40188
3611.447	0.31059	-2.58272	0.92095	0.20001
3615.448	-1.63782	-3.49604	0.17772	0.07472
3619.450	1.39584	-0.81714	0.48852	0.09097
3623.445	0.35360	-1.93195	0.30620	0.17732
3627.447	5.35578	-1.82087	0.41219	-0.00330
3631.443	4.44395	-1.82283	0.30099	-0.02410
3635.454	3.15456	-0.19115	0.05331	-0.11547
3639.446	2.65607	-0.21528	0.10081	-0.21907
3643.447	0.48875	-2.51211	0.12203	-0.27776
3647.446	0.29483	-2.77355	0.00017	-0.26904
3651.441	0.75268	-3.15974	-0.16893	-0.22796
3655.450	0.68062	-2.12030	-0.06192	0.22849
3659.446	0.57404	-2.16136	0.03231	-0.02351
3663.446	0.87746	-2.12757	0.07894	-0.05909
3667.442	2.97604	-1.00763	-0.29808	0.00104
3671.449	2.46664	-0.92459	-0.03867	0.14731
3675.444	2.95814	-0.31968	0.06172	-0.04137
3679.445	2.81513	0.15569	-0.00092	-0.03814
3683.446	1.29447	-0.20629	0.07430	0.08640
3687.445	1.27599	-1.80680	-0.69404	0.11027
3691.443	1.80605	-2.04395	-0.02353	0.18386
3695.449	1.13161	-1.43016	0.06232	0.23942
3699.445	1.98425	-2.18912	-0.53163	0.23178
3703.447	2.51695	-2.44387	0.21192	0.37559
3707.443	1.91548	-2.59453	0.01360	0.55067
3711.453	4.09441	-2.47191	-0.21780	0.68918
3715.447	3.48922	-2.51060	-0.19718	0.76692
3719.451	1.99436	-1.31516	-0.48493	0.66275
3723.440	1.67553	1.73524	2.17021	0.71069
3727.448	1.94932	0.27047	0.81049	0.57498
3731.443	1.55338	-1.74854	0.05239	0.73780
3735.448	1.52377	-2.49654	0.87046	0.71188
3739.440	1.80568	-2.60267	0.48336	0.62444
3743.446	4.19104	-2.97773	0.81622	0.81551
3747.446	4.24334	-2.75689	2.10352	1.17808
3751.442	1.45837	-2.77918	1.88323	0.62966
3755.448	1.64526	-0.86676	1.17163	0.84118
3759.446	3.93838	-1.09935	0.57555	0.65066
3763.443	-0.09614	-1.59306	0.68183	0.49768
3767.441	1.62626	-1.22995	0.81602	0.45993
3771.449	1.77105	-2.85199	0.59066	0.41721
3775.443	1.74675	-3.07973	0.42569	0.53522
3779.451	2.56716	-2.64168	0.49118	0.45427
3783.444	1.17515	-2.12844	1.62376	0.36349
3787.443	2.60191	-0.98110	-0.07252	0.52125
3791.440	-2.00693	2.46818	-0.32332	0.40018
3795.448	-3.17106	-1.31424	-3.55090	0.39952
3799.447	-4.75216	-1.61246	-5.82614	0.26043
3803.441	-6.17955	-1.97868	-7.35698	0.06812
3807.447	-5.84650	-3.31140	-7.40901	0.01166
3811.446	-6.12389	-1.72714	-8.88474	-0.27890
3815.441	-8.76425	-1.53982	-7.81761	0.06155
3819.484	-7.88475	-1.75041	-9.09253	-0.28499
3823.444	-7.29072	-1.77059	-9.33985	-1.16492
3827.444	-8.28998	-0.99496	-8.83600	-1.56946
3831.438	-7.11125	-2.25374	-9.16569	-1.20807
3835.447	-8.15543	-1.35177	-7.72230	-1.00622
3839.441	-7.26901	-2.13555	-9.09856	-1.51948
3843.449	-7.81551	-1.48056	-9.22281	-1.67321
3847.443	-7.51988	-1.84751	-8.82301	-1.78590
3851.443	-7.48466	-1.45423	-9.07987	-1.02964
3855.438	-7.45255	-1.28440	-8.42923	-1.18728
3859.446	-7.55547	-3.16773	-8.93951	-0.95323
3863.443	-7.93566	-1.71324	-9.12268	-0.80032
3867.443	-7.25536	-1.78718	-8.68722	-0.46882
3871.448	-7.02810	-2.48035	-8.86662	-0.60929
3875.444	-6.54056	0.08542	-8.51394	-0.04738
3879.438	-6.40329	-1.75264	-8.35746	-1.35929
3883.445	-6.94357	-1.11687	-8.26911	-0.71499
3887.441	-7.02983	-2.47075	-8.72549	-1.09752
3891.443	-7.33462	-2.30775	-8.26855	-1.46702
3895.437	-8.01973	-2.91776	-8.00323	-2.01894
3899.445	-7.72422	-1.83711	-7.99734	-1.04587
3903.442	-7.06982	-1.91721	-8.16741	-0.96884
3907.443	-7.56705	-1.91077	-8.13736	-0.79302
3911.437	-6.49756	-2.20926	-8.18694	-0.42346
3915.446	-7.47243	1.28730	-8.01272	-0.54426
3919.445	-7.77678	-2.72067	-7.90311	-1.31062
3923.437	-7.17492	-2.06346	-7.73653	-0.58677
3927.450	-6.53549	-2.43974	-7.73782	-1.75920
3931.443	-6.57029	0.36673	-7.97415	-1.13262
3935.437	-6.77697	-2.74798	-7.94711	-1.47643
3939.446	-6.40744	-1.40480	-7.98848	-1.25149
3943.442	-6.79596	-1.87245	-7.78272	-1.47450
3947.443	-7.34997	-1.80585	-7.96685	-1.18083
3951.439	-6.68448	0.06604	-7.63264	-1.34386
3955.446	-7.43945	-0.69447	-7.81992	-1.14471
3959.441	-6.23898	-1.82888	-7.61248	-1.21379
3963.444	-7.54815	-0.50008	-7.98656	-0.87982
3967.436	-6.08779	-0.62892	-7.74449	-0.87753
3971.444	-5.78936	-0.56753	-7.94260	-0.83038
3975.441	-7.52618	-2.99361	-8.28682	-0.92304
3979.438	-4.66965	-1.67031	-8.19898	-0.68735
3983.444	-4.95073	-2.93271	-8.07635	-0.93482
3987.442	-7.71204	-0.51579	-8.02243	-0.91182
3991.437	-7.54854	-2.57329	-8.08392	-1.10994
3995.440	-7.48971	-1.23450	-8.07601	-1.21350
3999.442	-5.34867	-1.95104	-8.13011	-1.61529
4003.436	-6.96010	-1.71240	-8.16433	-0.79939
4007.445	-7.95146	-2.38036	-8.25520	-0.43740
4011.442	-7.53449	-1.18296	-8.19798	-0.66916
4015.443	-8.22851	-2.76426	-8.25909	-0.37661
4019.435	-7.15723	-1.34745	-8.14665	-1.33243
4023.445	-7.45784	-0.84976	-8.14876	-1.61646
4027.442	-6.14006	-2.08893	-8.20376	-0.74533
4031.437	-6.45731	-2.09772	-8.19776	-0.45761
4035.443	-6.95020	-1.51403	-8.21750	-0.52480
4039.454	-7.58132	-1.69165	-8.19501	-1.92397
4043.442	-7.33117	-1.07015	-8.26976	-0.68428
4047.434	-6.83110	-0.51323	-8.24074	-0.51850
4051.458	-7.07148	-1.38048	-8.27530	-1.83453
4055.441	-6.45441	0.01188	-7.95896	-0.65942
4059.440	-6.48798	-0.84574	-8.09917	-0.54562
4063.436	-9.31547	-1.74340	-7.68964	-1.06285
4067.444	-6.47306	-0.82101	-8.12921	-0.42229
4071.439	-6.73304	-1.76980	-8.10095	-0.70442
4075.440	-6.42540	-0.39414	-8.11396	-1.99097
4079.317	-8.35362	-2.74082	-8.09450	-0.03872
4083.312	-7.12625	-0.86723	-8.20170	-0.99509
4087.314	-7.77612	-1.29116	-8.20367	-1.31867
4091.309	-9.03711	-1.84548	-7.63906	-0.11391
4095.317	-7.59524	-1.33834	-7.71026	0.08710
4099.318	-7.42363	-1.85446	-7.67411	1.97080
4103.315	-6.34201	-0.85211	-6.22888	3.64577
4107.305	-5.55856	-0.19514	-5.53392	3.65623
4111.317	-4.08002	-0.10792	-4.39528	3.41762
4115.314	-2.92054	1.06998	-3.24157	3.59719
4119.314	-3.78558	2.07480	-3.23326	3.18567
4123.311	-3.22797	3.15640	-3.82348	3.09189
4127.318	-3.43506	3.94529	-3.48818	3.30551
4131.313	-3.61856	2.29393	-3.73613	3.81843
4135.316	-3.22069	2.22205	-3.58388	3.83898
4139.312	-3.34650	2.18400	-3.23517	3.19753
4143.314	-2.92186	2.18845	-2.70619	3.06461
4147.313	-3.21364	2.11294	-3.37452	2.93808
4151.310	-2.63794	3.71956	-0.12573	2.80221
4155.317	-2.78112	3.20804	-3.11388	3.49172
4159.313	-3.02113	2.99841	-3.72645	3.99773
4163.313	-2.98000	2.83487	-3.36513	3.84070
4167.308	-3.11858	2.68308	-3.60452	3.79679
4171.316	-3.29392	2.86434	-3.60875	4.02982
4175.313	-2.67449	3.28317	-3.53706	4.15174
4179.309	-2.69767	3.35950	-3.68772	4.20186
4183.315	-3.05662	3.13307	-3.49737	4.12228
4187.315	-3.41810	3.00546	-3.46155	3.12402
4191.308	-2.74462	2.58741	-3.58294	3.37900
4195.316	-2.70401	2.51850	-2.45683	3.68272
4199.314	-3.02809	2.64882	-2.00968	4.07486
4203.315	-3.09018	2.79602	-3.42191	3.51250
4207.307	-3.13301	2.71426	-3.33005	3.50935
4211.315	-3.12413	2.83526	-3.35137	3.17052
4215.313	-3.10012	3.07502	-3.29931	3.74935
4219.314	-3.20303	3.23337	-3.37282	3.60112
4223.312	-3.31210	3.12455	-3.45578	5.16191
4227.316	-3.30529	2.37949	-3.26950	3.96133
4231.314	-3.23752	2.50855	-3.25698	4.43272
4235.314	-3.29815	2.56524	-1.76552	3.79587
4239.309	-3.30366	2.37454	-4.72815	3.69921
4243.309	-3.23828	2.62110	-3.58596	3.58217
4247.314	-3.17388	2.81733	-3.77063	3.65592
4251.316	-3.45823	3.15437	-3.65603	4.24140
4255.340	-3.25325	3.44075	-3.62593	4.76784
4259.315	-3.50511	2.41995	-3.61577	3.90093
4263.311	-3.18531	2.27207	-3.39023	3.75807
4267.311	-3.11188	2.42534	-3.41256	3.53220
4271.306	-3.13880	2.56797	-3.48724	3.77962
4275.314	-3.15459	2.65254	-3.66024	3.59566
4279.311	-3.12670	2.86864	-3.57960	3.90042
4283.306	-3.03343	2.80456	-3.54999	3.83388
4287.314	-2.71483	2.77922	-3.44565	3.69134
4291.312	-2.85638	2.28054	-3.38805	3.93150
4295.312	-3.00274	2.63675	-3.49505	3.98994
4299.305	-2.94926	2.68164	-3.65477	3.55399
4303.316	-2.94285	2.74809	-3.69961	3.64443
4307.317	-2.97332	2.84288	-3.60660	3.89031
4311.306	-3.07355	2.37054	-3.41943	4.07832
4315.314	-2.77453	2.68750	-3.97479	3.67849
4319.311	-2.66332	2.75573	-3.37183	3.71175
4323.315	-2.37183	2.73826	-3.69850	3.99122
4327.310	-2.55158	2.25536	-3.97163	3.55221
4331.311	-3.10507	1.83707	-3.80829	3.28158
4335.313	-3.05986	2.66649	-3.79406	4.16315
4339.309	-2.90195	2.85661	-3.44372	4.10605
4343.312	-2.57432	2.56512	-3.58962	3.39615
4347.305	-2.98277	2.06398	-3.61414	3.47837
4351.313	-2.82345	2.61262	-3.41286	3.96330
4355.310	-3.08572	2.78724	-5.67909	3.98276
4359.310	-2.79085	2.18441	-3.57496	3.69801
4363.305	-2.82600	1.99228	-3.53508	4.32984
4367.312	-2.74670	2.37259	-3.42646	3.18027
4371.310	-3.00581	2.81792	-3.51958	3.49410
4375.306	-2.85420	2.84893	-3.56915	3.70567
4379.309	-2.93329	1.85293	-3.39233	3.09241
4383.304	-2.93589	2.69889	-3.55706	3.40789
4387.313	-2.96230	2.88792	-3.52942	4.51125
4391.312	-3.00099	2.95212	-3.35239	2.63224
4395.313	-2.90537	1.92276	-3.65037	3.25747
4399.306	-3.18128	1.88698	-3.38308	4.28070
4403.309	-2.95448	2.61514	-3.30191	2.61014
4407.304	-3.04157	2.73935	-3.34148	3.25241
4411.312	-3.60348	1.98195	-3.53436	4.49749
4415.309	-3.26886	2.01391	-3.40991	3.36551
4419.309	-3.02413	2.82721	-3.13924	4.88791
4423.305	0.83029	6.47045	-0.11458	5.42206
4427.312	0.51704	2.68749	3.87393	5.17321
4431.319	2.88690	5.73265	2.53476	5.46027
4435.326	3.58393	4.91134	4.09695	6.56688
4439.353	5.43954	2.96760	5.35519	5.93376
4443.313	NaN	NaN	6.22839	7.02517
4447.301	7.24586	4.55275	7.57135	6.68470
4451.312	7.97344	6.20875	9.08679	6.33058
4455.310	9.87162	6.43616	8.69384	6.57138
4459.309	11.03568	6.45652	10.03233	5.99699
4463.310	11.86945	6.55094	11.97094	5.83105
4467.302	13.63126	5.23657	9.27953	6.81209
4471.311	11.56017	5.99227	11.18260	6.63231
4475.307	12.39965	6.46191	8.78988	6.86288
4479.303	13.62678	3.27371	11.55590	6.64203
4483.311	13.80676	4.08160	8.93205	6.96104
4487.306	13.75706	4.78094	9.04744	6.84914
4491.307	11.54316	3.74658	10.42816	6.96132
4495.319	13.25945	3.76005	9.85558	6.37902
4499.308	11.26801	6.31965	11.33996	6.92139
4503.302	12.15113	4.90538	10.34734	7.04756
4507.311	11.55583	4.71749	10.62897	7.02875
4511.307	12.07322	4.06342	10.59737	6.92274
4515.315	12.75021	3.55769	10.12782	6.76975
4519.302	12.29825	4.85592	10.23714	6.78445
4523.310	12.26311	4.08833	9.82715	7.05259
4527.308	12.28728	2.68892	10.47117	7.07102
4531.311	12.25090	5.04007	10.26360	6.82208
4535.307	11.50070	4.71779	10.53154	6.75610
4539.307	11.88939	3.79274	10.02098	7.12675
4543.306	11.74006	4.78423	10.73047	7.03333
4547.305	11.74328	4.88607	10.70299	11.68596
4551.304	11.36734	4.10030	10.18149	7.09746
4555.310	11.62856	4.31288	9.32784	7.21961
4559.308	10.98214	2.27336	10.68120	6.95582
4563.303	11.65887	3.84161	10.47300	6.74005
4567.309	11.12562	5.36521	9.87333	7.17086
4571.307	11.22601	4.46365	9.76862	7.11375
4575.311	11.38614	4.28044	10.52909	6.47553
4579.312	10.83568	5.89078	10.31588	7.10775
4583.306	11.57046	4.53256	9.62852	7.27064
4587.306	11.12510	5.53998	10.73169	6.85135
4591.301	11.43781	5.85497	11.49421	6.65943
4595.310	11.24972	4.55159	7.59527	6.53057
4599.313	10.80568	5.69946	9.96046	6.55973
4603.306	11.33698	5.30290	9.92068	7.05036
4607.308	11.25230	4.81930	9.84315	6.92154
4611.301	11.37448	4.18431	10.01963	6.73496
4615.310	11.93664	5.62329	10.51611	6.70875
4619.307	12.02988	5.36259	9.90118	6.89616
4623.304	12.59373	4.32928	9.47413	6.84984
4627.338	11.77244	4.54156	9.93653	6.55074
4631.305	12.80593	3.27226	9.72884	6.68609
4635.306	10.51813	5.90008	9.80547	6.61712
4639.310	11.63235	5.59046	10.11271	6.73392
4643.308	11.92854	6.03650	10.37734	6.63979
4647.304	11.64020	5.11994	9.63484	6.71496
4651.305	11.12572	5.86598	9.56911	6.66685
4655.301	11.72063	4.16164	9.88692	6.61033
4659.307	11.78252	5.29541	9.59001	6.67538
4663.310	12.67357	4.56340	9.61998	6.60704
4667.308	12.77927	5.40656	10.08423	6.53498
4671.303	12.00495	5.90337	10.10105	6.60181
4675.305	10.65817	6.18728	9.59238	6.63603
4679.307	9.13707	3.33570	9.85746	6.73455
4683.305	9.80983	4.71502	10.16877	6.48185
4687.302	10.78776	4.24913	9.76674	6.66975
4691.306	12.32442	4.76620	9.74911	6.37201
4695.304	12.70324	4.84015	9.46143	6.79940
4699.303	12.39561	5.10179	9.33475	7.20740
4703.299	11.60063	5.36702	10.53096	6.79640
4707.307	11.48587	4.59548	10.24675	6.13949
4711.304	10.77066	4.82037	10.07889	6.72188
4715.306	8.46774	3.72411	10.18882	6.92969
4719.299	6.73196	4.55134	11.94389	6.52228
4723.311	11.17142	3.79701	11.44068	6.79570
4727.305	10.76432	4.75962	10.08026	6.80746
4731.307	11.29023	5.28421	11.72577	6.25541
4735.307	9.86370	5.63508	11.65282	6.48843
4739.303	7.22116	3.49988	12.03339	6.55451
4743.301	10.88575	4.49505	10.34520	6.77258
4747.307	10.90394	6.09975	9.87810	6.92392
4751.303	10.95667	6.11589	11.18157	6.58170
4755.305	10.96784	4.32262	10.04254	6.63856
4759.304	10.52492	2.87983	9.56178	6.97950
4763.306	11.15477	5.59893	9.08292	7.66596
4767.304	11.41180	5.66215	10.00543	6.95352
4771.304	11.45279	5.92289	9.15285	6.45952
4775.298	11.93275	6.16676	9.12592	7.37604
4779.304	11.57048	6.30528	9.66122	6.88636
4783.303	10.93914	4.62858	10.25718	6.83646
4787.298	11.01137	5.92065	8.98714	7.27105
4791.306	10.42639	5.63496	8.85981	7.33289
4795.303	10.91645	5.89115	10.84180	6.82570
4799.305	11.06076	4.07380	9.44139	7.35938
4803.307	11.92797	4.67496	9.00682	7.37798
4807.307	11.29648	5.91582	12.40025	6.47831
4811.299	12.16392	3.58590	10.59004	6.93691
4815.306	10.63305	3.25472	10.25012	7.15368
4819.303	10.56675	5.31002	9.00673	6.94143
4823.299	8.67054	4.13806	8.57372	7.06421
4827.304	8.20668	3.88881	5.78266	7.32186
4831.304	7.46241	3.38332	6.06684	6.86967
4835.304	4.73024	2.98086	3.94498	7.09913
4839.299	4.80660	4.32318	3.35929	6.26241
4843.307	4.69509	4.12522	2.84264	4.22439
4847.308	4.55924	4.62430	2.08334	3.50867
4851.336	2.78183	1.92624	1.73849	4.24347
4855.300	2.50521	1.13944	1.09549	4.10784
4859.306	2.04579	1.56483	0.98824	3.80460
4863.301	1.89441	0.12338	-0.17717	3.54617
4867.309	2.09990	0.19583	0.31374	3.24015
4871.297	2.04887	0.06914	0.73958	3.63202
4875.304	2.02190	-0.52383	0.96864	3.03761
4879.302	1.93261	-0.41985	0.02373	1.62885
4883.297	1.80181	-0.29573	0.30483	1.74933
4887.303	1.73723	1.64877	0.68660	2.24833
4891.301	1.63509	1.32681	0.66015	3.31973
4895.301	1.63152	1.14674	0.88232	3.25205
4899.295	1.78354	0.54198	0.93743	2.84246
4903.304	2.24004	1.03138	0.69836	2.10960
4907.300	2.11693	1.81646	1.06059	2.68652
4911.302	2.39971	1.07552	0.91220	3.50311
4915.295	2.40585	-0.17615	0.84719	2.64742
4919.303	1.87691	0.07928	1.09457	1.95541
4923.302	2.33048	1.27633	1.09639	2.55668
4927.301	2.22408	0.58642	1.13275	2.90578
4931.170	2.24319	-0.46478	1.21841	2.39099
4935.184	2.35930	1.42010	1.34137	2.35852
4939.170	2.21482	1.07000	1.26406	2.63172
4943.178	2.24121	0.10672	1.12675	2.67347
4947.173	2.31530	0.37037	1.12496	2.01206
4951.177	2.06047	1.19656	1.45078	2.35890
4955.171	2.24490	0.47725	1.26785	2.57112
4959.177	2.25434	0.93198	1.47042	2.68374
4963.175	2.07464	2.12762	1.52139	2.50197
4967.176	2.22686	1.18325	3.26055	2.39497
4971.173	2.00395	0.69408	1.33644	2.78363
4975.178	2.17103	0.73134	1.96015	2.57786
4979.180	1.79071	1.55047	1.60531	2.44527
4983.169	2.16082	1.97154	2.20637	2.50787
4987.177	2.09623	0.92861	2.57357	2.73446
4991.173	2.21427	0.73559	1.68945	2.91282
4995.176	2.16781	0.62091	1.95810	2.92274
4999.179	2.28038	0.90156	2.09296	2.87481
5003.179	2.26125	1.94807	2.06885	2.52130
5007.174	2.40850	1.33588	1.68868	2.54054
5011.175	2.39604	0.95160	2.57184	2.58854
5015.173	2.24250	1.09391	2.95040	2.51901
5019.182	1.92342	0.74402	2.74264	2.72336
5023.174	1.71375	0.80443	1.91318	3.08112
5027.178	1.90011	0.62501	2.59185	3.15978
5031.172	2.16297	0.55968	1.93479	3.06407
5035.175	2.25893	0.91058	2.37466	3.03373
5039.170	1.74003	1.47277	1.10800	2.65415
5043.177	1.84852	1.36489	1.72456	2.74383
5047.174	1.66482	1.14263	1.09041	2.79814
5051.176	1.51757	1.19421	1.76413	2.75207
5055.196	1.52550	1.12942	1.57639	2.55813
5059.198	1.76817	0.92332	1.85304	2.48657
5063.174	1.72850	0.98428	1.60233	2.60240
5067.168	1.70618	0.92191	1.75887	2.61414
5071.177	1.66326	1.18521	1.60712	2.58646
5075.171	1.86848	1.08639	1.17235	2.66138
5079.177	1.93660	1.17808	0.77943	2.68306
5083.172	1.95760	1.16776	1.29142	2.99790
5087.172	2.10781	0.74374	0.71851	2.99746
5091.168	1.79671	0.08859	1.58976	2.99761
5095.175	2.13547	0.34747	1.41554	3.21079
5099.172	2.33217	0.47369	1.22390	3.16519
5103.177	2.04572	0.60281	1.27906	2.37365
5107.166	2.08872	0.62747	1.39155	2.79537
5111.175	2.26834	0.55684	1.57295	2.88816
5115.171	2.39473	0.83985	1.46043	3.21573
5119.167	2.72902	0.74377	1.70479	3.30935
5123.175	2.39121	0.93711	1.44966	3.43012
5127.172	2.42327	-0.03059	1.77427	3.26205
5131.173	2.48787	0.16844	2.37211	3.14882
5135.167	2.38177	-0.06269	1.78545	2.26111
5139.175	2.43166	0.34114	2.00911	2.35070
5143.180	2.43746	0.62941	1.74062	2.81170
5147.169	2.44001	0.91823	2.00346	3.09495
5151.172	2.38779	1.10851	1.86935	2.97929
5155.167	2.26398	0.11600	1.56327	3.32739
5159.176	2.26343	0.45902	2.61905	3.30932
5163.170	2.14590	-0.02538	2.68182	2.93370
5167.172	2.06520	0.27785	2.13537	2.39223
5171.167	2.14835	0.55403	1.92599	2.66926
5175.174	2.00234	1.05245	1.57466	2.62351
5179.171	0.80756	3.05749	1.37188	2.84109
5183.176	0.87907	1.50164	0.85027	2.79509
5187.172	1.27572	0.55498	-0.89510	3.09418
5191.172	1.17483	0.37106	-2.02200	2.94375
5195.165	1.16190	0.54693	-2.03501	2.93270
5199.173	0.97765	0.44614	-1.27487	3.16377
5203.170	0.68918	0.44786	-1.39758	3.01809
5207.172	0.58449	0.47384	-1.01533	3.03732
5211.175	0.56788	0.58788	-0.91297	2.77858
5215.171	0.28478	0.48240	-0.32491	2.45743
5219.173	0.38229	0.63687	-0.56089	2.26245
5223.167	0.22931	0.68264	-0.89746	2.21112
5227.180	0.33154	0.67894	-1.02459	1.94232
5231.170	0.07679	0.70280	-0.85652	1.89710
5235.171	0.14521	0.53198	-0.87245	3.06987
5239.165	-0.18534	0.53004	-0.37159	3.30862
5243.169	-0.10888	0.60963	-0.60270	3.20012
5247.171	-0.17774	0.60224	-0.39767	2.47591
5251.165	-0.22976	0.81179	-0.21532	2.25713
5255.175	-0.41542	0.80434	-0.28262	2.43474
5259.172	-0.42666	2.43713	-0.24840	2.15026
5263.177	-0.43058	2.52163	-0.34935	1.95699
5267.165	-0.48406	2.26880	-0.23167	1.92909
5271.173	-0.40767	1.80433	-0.25897	1.94599
5275.172	-0.39608	1.55779	-0.04388	2.45049
5279.169	-0.40244	1.05753	0.09602	2.01798
5283.205	-0.50215	0.84468	-0.21122	2.57436
5287.164	-0.56483	0.33341	-0.12975	2.38245
5291.172	-0.32553	1.08894	-0.34650	2.40486
5295.169	-0.47463	2.70112	-0.45959	2.06267
5299.170	-0.52515	2.18222	-0.26652	1.95329
5303.163	-0.58990	2.04101	-0.27384	1.98776
5307.168	-0.44979	1.50120	-0.27421	2.35001
5311.173	-0.48994	0.91563	-0.42524	2.37128
5315.166	-0.43524	0.26247	-0.20470	2.54269
5319.172	-0.42847	0.10046	-0.45666	2.59850
5323.168	-0.22204	0.68207	-0.44472	2.65782
5327.169	-0.45239	2.54164	-0.42591	2.68425
5331.164	-0.43107	2.10461	-0.48138	2.54574
5335.168	-0.50381	2.27388	-0.44688	1.97717
5339.168	-0.47996	2.02541	-0.43544	2.67421
5343.169	-0.40457	1.08622	-0.46845	2.62647
5347.171	-0.39636	0.60164	-0.50294	2.73376
5351.168	-0.24922	0.43390	-0.49642	2.85654
5355.168	-0.34459	0.58867	-0.52969	2.77341
5359.166	-0.42802	2.75030	-0.54019	2.80333
5363.171	-0.34911	2.40637	-0.63881	2.80638
5367.168	-0.49934	2.36966	-0.63059	2.81712
5371.164	-0.49659	2.23188	-0.57275	2.72458
5375.171	-0.49562	2.13047	-0.49932	2.76678
5379.166	-0.43805	0.81443	-0.41383	2.83595
5383.171	-0.50949	1.76202	-0.37635	2.84546
5387.167	-0.44621	0.54526	-0.63357	3.11543
5391.169	0.10607	1.69707	-0.59235	3.04008
5395.163	-0.05356	2.17889	-0.68836	2.99961
5399.170	-0.07512	2.08871	-0.65694	2.80905
5403.167	-0.30662	1.88033	-0.68779	2.43259
5407.168	-0.44661	1.20701	-0.53505	2.36794
5411.168	-0.01452	0.90051	1.91685	2.40408
5415.188	0.23520	0.75882	1.99776	2.66510
5419.174	0.18144	0.69624	-0.40877	2.14968
5423.167	0.26944	1.07528	-0.57463	2.23265
5427.170	-0.44075	2.62271	-0.59794	2.44203
5431.169	-0.18241	2.34580	-0.51803	2.41798
5435.190	-0.26354	2.42180	-0.62188	2.72414
5439.166	-0.04224	2.38322	-0.50716	2.86397
5443.161	0.23115	2.15250	-0.38134	2.92911
5447.158	0.41579	1.45062	-0.34645	3.20908
5451.165	0.13990	2.38731	-0.35730	2.94401
5455.162	-0.42460	2.61364	-0.32379	2.98283
5459.163	-0.39415	2.61060	-0.48726	3.15839
5463.157	-0.51250	2.73909	-0.67330	3.10879
5467.169	-0.05753	2.49767	-0.53128	3.19300
5471.166	-0.36968	2.84102	1.71213	2.72035
5475.165	-0.35367	2.75660	-1.02399	3.09171
5479.186	-0.29607	2.10164	-0.43998	2.54177
5483.182	-0.34705	2.22205	0.09041	2.34576
5487.163	-0.12034	2.08315	-0.28456	2.75342
5491.237	-0.11642	1.82673	-0.31267	2.57074
5495.168	-0.28925	0.00288	-0.18040	2.87101
5499.170	0.01149	1.44199	-0.36263	2.12431
5503.166	-0.26108	1.04570	-0.41249	1.81691
5507.166	-0.40529	0.64300	-0.63742	2.16940
5511.162	-0.38561	0.66790	-0.37653	2.15413
5515.168	-0.07304	0.81515	-0.60687	2.44845
5519.171	-0.27063	1.06207	-0.58915	2.34525
5523.166	0.01794	0.81266	-0.57426	2.48510
5527.163	-0.63838	1.10573	-0.88813	2.44849
5531.168	-0.61183	1.06679	-0.91629	2.74648
5535.165	-0.64714	1.09674	-0.85759	2.71955
5539.166	-0.25872	1.36817	-1.16714	2.53088
5543.164	-0.58806	1.32885	-1.09644	3.28025
5547.182	-0.75861	2.02538	-1.36380	2.76640
5551.162	-0.76340	1.50029	-1.11718	2.78914
5555.167	-0.82895	2.65943	-1.01221	2.37638
5559.167	0.82630	4.55240	3.22173	3.14405
5563.160	1.67288	3.30153	3.93144	2.82024
5567.167	7.08209	-0.63789	4.72502	2.39125
5571.164	8.32356	-1.44337	5.67860	2.54239
5575.163	8.31715	1.36609	6.74618	1.69591
5579.168	8.77654	2.50479	8.25321	1.03594
5583.164	8.96019	-1.76768	8.95048	1.53090
5587.163	9.41267	0.23257	9.25606	1.08827
5591.160	12.85008	-1.99747	9.35544	0.87564
5595.167	14.41739	-0.79944	8.65742	1.63752
5599.164	10.80170	2.01658	8.53928	1.78502
5603.168	10.19918	-0.95836	8.48236	1.83388
5607.161	9.28983	-0.17448	8.67789	1.89717
5611.167	9.38127	0.11471	8.96201	1.92656
5615.208	10.31446	0.23981	8.57660	1.81079
5619.171	10.67845	-0.09286	8.45057	2.07052
5623.161	10.77074	-2.11031	8.63813	2.08469
5627.155	10.62181	-1.87256	8.63340	1.25982
5631.163	12.90546	-3.31819	8.12537	1.50026
5635.160	9.09318	-2.23827	8.20802	1.82819
5639.162	9.65756	-1.93455	8.33948	1.28022
5643.159	10.02560	-1.43754	8.43462	1.58564
5647.162	9.66564	-1.94082	8.30702	1.11890
5651.158	9.60092	-1.86180	8.32641	0.94507
5655.159	9.54286	-1.69463	8.23500	1.02625
5659.153	10.04066	-1.60501	8.24448	0.95033
5663.162	11.49183	-1.60331	8.33608	0.94999
5667.159	12.71342	-2.68941	8.25428	1.02141
5671.159	11.56398	-1.47740	8.30850	0.90763
5675.153	9.59310	-0.20851	8.41823	0.93119
5679.158	11.76219	-2.26683	8.38891	0.73065
5683.539	11.17479	-1.50025	8.40711	0.54504
5687.167	10.76575	-2.61880	8.37900	0.61789
5691.190	11.46168	-2.17352	8.36856	0.70699
5695.159	10.28729	-0.96653	8.37507	0.97474
5699.159	10.81590	-0.16544	8.30461	0.85552
5703.161	10.40516	-0.02610	8.29457	1.62467
5707.157	10.98980	-1.36480	8.43316	1.47003
5711.158	9.87018	0.23289	8.42561	1.90081
5715.152	9.68809	0.23865	8.46492	1.96438
5719.159	10.21543	-0.11086	8.36074	0.91812
5723.161	9.75136	-0.15328	8.19324	1.21181
5727.166	9.11097	-0.08933	8.05567	0.87937
5731.152	9.42153	-0.11725	7.74859	0.63506
5735.159	9.45486	-0.76641	8.33168	0.59088
5739.156	9.58617	-0.01139	8.29506	0.93187
5743.158	10.53878	-1.94686	8.40635	0.81585
5747.161	9.90727	-0.89095	8.06098	1.97393
5751.156	9.39593	-0.44257	8.35204	1.87860
5755.157	9.83154	-1.05801	8.29926	1.46523
5759.152	9.53209	-0.74568	8.14696	1.82156
5763.159	9.19957	-0.61707	8.20741	0.90828
5767.161	9.56750	-0.68043	8.17921	0.90795
5771.157	9.36148	0.22392	8.25049	0.40765
5775.152	10.27869	0.87565	8.28634	0.75739
5779.156	10.36046	0.03278	8.15005	0.78338
5783.156	9.88463	-0.73638	8.17053	0.70604
5787.027	10.31009	-0.15757	9.05742	0.71636
5791.038	11.98431	-0.99960	8.59007	1.05975
5795.031	9.47879	0.48374	9.10226	1.47188
5799.032	10.18486	0.93794	8.51202	0.87985
5803.026	11.48599	-0.68364	8.69076	0.91556
5807.034	9.31088	-0.36306	8.21162	1.97122
5811.031	9.33676	1.71329	8.01467	1.31402
5815.036	5.80501	1.46346	4.14295	2.26539
5819.047	4.96066	-1.32384	3.98529	2.11417
5823.055	3.59730	0.89467	3.19853	1.87322
5827.033	3.36906	0.92651	0.17288	1.34409
5831.040	0.12769	0.97123	-0.29838	2.12551
5835.036	0.51168	0.78287	1.89882	1.56579
5839.044	0.06311	0.18617	0.19420	1.39226
5843.026	0.07286	0.64844	-0.18226	1.34168
5847.029	0.17434	0.81502	-0.06877	1.46004
5851.030	0.32506	0.85518	-0.07420	1.35730
5855.027	0.03690	0.69211	-0.13630	1.23945
5859.035	0.67290	0.67960	0.12702	0.96080
5863.032	3.09923	-2.48107	-0.26321	0.97604
5867.030	0.62714	0.60298	-0.15861	0.86669
5871.034	0.54026	0.56955	-0.31464	0.61329
5875.033	0.04688	0.57241	2.25992	0.78790
5879.027	0.77342	0.36601	0.99918	0.70490
5883.033	0.28215	0.66435	0.32523	0.66224
5887.052	0.78407	0.57469	0.05564	0.68533
5891.038	0.02864	0.61015	-0.47135	0.65475
5895.036	1.05044	0.64199	-0.45257	0.69984
5899.042	1.04111	0.60764	-0.30950	0.91125
5903.031	1.04386	0.59233	0.16169	0.67154
5907.039	0.93507	0.70626	-0.58550	0.72065
5911.036	0.58652	0.73113	-0.38874	0.89726
5915.037	1.49887	-0.32961	2.10867	0.95514
5919.031	0.82069	-0.02688	1.44666	0.90007
5923.066	1.19247	-0.02164	-0.34027	0.82492
5927.034	1.53942	0.51972	-0.64017	0.71234
5931.045	1.17473	0.17791	-0.26910	0.98779
5935.036	1.31312	-0.46907	0.16059	0.90709
5939.034	3.34141	-1.94449	1.40281	1.13735
5943.029	1.16141	-0.47466	0.89299	1.25823
5947.023	1.26244	-0.42801	-0.72672	1.20158
5951.030	1.07852	0.11312	0.72456	1.23898
5955.055	-0.17333	-0.14857	0.19633	1.22484
5959.036	2.83390	-0.99121	-0.01189	1.45105
5963.031	1.21095	0.55889	-0.41182	1.53634
5967.035	1.09061	1.27487	-0.70712	1.73922
5971.033	1.05242	1.45655	-0.32697	1.69759
5975.034	1.11241	0.93476	-0.53064	1.89360
5979.039	1.16766	0.89066	-0.09751	2.45858
5983.035	1.09991	1.12546	-0.32789	1.74672
5987.032	1.23017	0.86923	-0.80337	1.53844
5991.029	1.07686	1.17489	-0.06822	1.86544
5995.032	1.36097	0.53516	-0.17591	1.78123
5999.032	2.71659	-0.23156	-0.58019	1.87224
6003.027	1.26210	-0.06365	-0.70620	1.83956
6007.035	1.18783	-0.15363	-0.31034	1.62716
6011.033	1.32786	-0.42649	0.03261	1.71492
6015.034	1.04749	-0.19916	-0.69878	1.69742
6019.028	1.08850	1.26953	1.01593	1.41914
6023.056	1.17619	0.40353	0.10461	1.27594
6027.029	1.09688	0.33421	-0.11538	1.13190
6031.032	1.07966	0.05448	0.20569	1.25092
6035.031	1.44011	-0.38879	0.15377	1.59885
6039.026	0.88168	0.37905	0.76905	1.28872
6043.034	0.99157	1.17820	0.83967	1.33665
6047.032	1.00648	1.00877	1.04257	0.71630
6051.032	0.53220	-0.00857	1.26046	1.00026
6055.026	1.28194	0.52159	0.61193	1.04334
6059.035	1.14732	0.97310	0.57069	0.85262
6063.030	1.52174	0.77048	0.64052	0.76993
6067.030	1.29201	0.72649	0.74876	0.90374
6071.034	1.30293	0.94136	0.54007	0.96699
6075.032	1.14126	0.89710	2.04956	0.84226
6079.028	0.99194	0.94729	0.25086	1.63399
6083.033	1.27594	0.73037	-1.31476	1.39645
6087.030	1.11410	0.83611	0.29970	1.29247
6091.042	1.29010	0.57979	0.50637	1.70659
6095.032	1.46653	0.57368	0.29342	1.64109
6099.025	1.32947	0.47545	0.40782	1.88800
6103.034	1.30317	0.79136	0.52595	1.55101
6107.036	2.02049	0.93272	-5.05033	1.67525
6111.032	3.46466	0.00107	-1.69949	8.22222
6115.027	2.17740	0.54269	-5.10576	-1.64652
6119.036	1.19239	0.47610	-5.21375	-2.82002
6123.060	-0.70536	11.36765	-3.61199	2.82019
6127.027	-2.36963	3.51897	NaN	NaN
6131.034	-3.48684	11.26776	NaN	NaN
6135.031	NaN	NaN	NaN	NaN
6139.031	NaN	NaN	NaN	NaN
6143.026	NaN	NaN	NaN	NaN
6147.040	NaN	NaN	NaN	NaN
6151.047	NaN	NaN	NaN	NaN
6155.039	NaN	NaN	NaN	NaN
6159.507	NaN	NaN	NaN	NaN
6163.202	NaN	NaN	NaN	NaN
6167.033	NaN	NaN	NaN	NaN
6171.029	NaN	NaN	NaN	NaN
6175.049	NaN	NaN	NaN	NaN
6179.032	NaN	NaN	NaN	NaN
6183.036	NaN	NaN	NaN	NaN
6187.028	NaN	NaN	NaN	NaN
6191.048	NaN	NaN	NaN	NaN
6195.033	NaN	NaN	NaN	NaN
6199.032	NaN	NaN	NaN	NaN
6203.029	NaN	NaN	NaN	NaN
6207.025	NaN	NaN	NaN	NaN
6211.023	NaN	NaN	NaN	NaN
6215.028	NaN	NaN	NaN	NaN
6219.027	NaN	NaN	NaN	NaN
6223.026	NaN	NaN	NaN	NaN
6227.132	NaN	NaN	NaN	NaN
6231.311	NaN	NaN	NaN	NaN
6235.040	NaN	NaN	NaN	NaN
6239.026	NaN	NaN	NaN	NaN
6243.035	NaN	NaN	NaN	NaN
6247.033	NaN	NaN	NaN	NaN
6251.030	NaN	NaN	NaN	NaN
6255.030	NaN	NaN	NaN	NaN
6259.035	NaN	NaN	NaN	NaN
6263.031	NaN	NaN	NaN	NaN
6267.024	NaN	NaN	NaN	NaN
6271.025	NaN	NaN	NaN	NaN
6275.018	NaN	NaN	NaN	NaN
6279.024	NaN	NaN	NaN	NaN
6283.023	NaN	NaN	NaN	NaN
6287.019	NaN	NaN	NaN	NaN
6291.026	NaN	NaN	NaN	NaN
6295.028	NaN	NaN	NaN	NaN
6299.028	NaN	NaN	NaN	NaN
6303.022	NaN	NaN	NaN	NaN
6307.023	NaN	NaN	NaN	NaN
6311.028	NaN	NaN	NaN	NaN
6315.022	NaN	NaN	NaN	NaN
6319.023	NaN	NaN	NaN	NaN
6323.017	NaN	NaN	NaN	NaN
6327.024	NaN	NaN	NaN	NaN
6331.021	NaN	NaN	NaN	NaN
6335.018	NaN	NaN	NaN	NaN
6339.025	NaN	NaN	NaN	NaN
6343.021	NaN	NaN	NaN	NaN
6347.021	NaN	NaN	NaN	NaN
6351.015	NaN	NaN	NaN	NaN
6355.033	NaN	NaN	NaN	NaN
6359.021	NaN	NaN	NaN	NaN
6363.023	NaN	NaN	NaN	NaN
6367.025	NaN	NaN	NaN	NaN
6371.025	NaN	NaN	NaN	NaN
6375.021	NaN	NaN	NaN	NaN
6379.022	NaN	NaN	NaN	NaN
6383.016	NaN	NaN	NaN	NaN
6387.024	NaN	NaN	NaN	NaN
6391.021	NaN	NaN	NaN	NaN
6395.022	NaN	NaN	NaN	NaN
6399.019	NaN	NaN	NaN	NaN
6403.024	NaN	NaN	NaN	NaN
6407.023	NaN	NaN	NaN	NaN
6411.021	NaN	NaN	NaN	NaN
6415.015	NaN	NaN	NaN	NaN
6419.024	NaN	NaN	NaN	NaN
6423.024	NaN	NaN	NaN	NaN
6427.022	NaN	NaN	NaN	NaN
6431.068	NaN	NaN	NaN	NaN
6435.040	NaN	NaN	NaN	NaN
6439.034	NaN	NaN	NaN	NaN
6443.026	NaN	NaN	NaN	NaN
6447.026	NaN	NaN	NaN	NaN
6451.021	NaN	NaN	NaN	NaN
6455.025	NaN	NaN	NaN	NaN
6459.026	NaN	NaN	NaN	NaN
6463.021	NaN	NaN	NaN	NaN
6467.028	NaN	NaN	NaN	NaN
6471.026	NaN	NaN	NaN	NaN
6475.030	NaN	NaN	NaN	NaN
6479.040	NaN	NaN	NaN	NaN
6483.021	NaN	NaN	NaN	NaN
6487.020	NaN	NaN	NaN	NaN
6491.023	-23.25398	0.66098	NaN	NaN
6495.064	NaN	NaN	NaN	NaN
6499.055	-23.21877	-2.49904	-22.23947	4.75568
6503.027	-21.75715	1.05018	-22.21846	4.74122
6507.024	-20.05393	0.92015	-19.97785	4.84286
6511.025	-19.21507	2.32099	-19.14712	3.27141
6515.019	-15.93029	2.22154	-18.80294	3.68084
6519.026	-15.22285	3.13721	-17.62352	3.27837
6523.026	-13.36307	3.30663	-16.83859	2.79620
6527.024	-13.41472	2.30259	-16.48504	2.53642
6531.017	-12.55368	2.70791	-13.29140	2.37641
6535.026	-10.77536	1.49125	-13.03720	2.06630
6539.022	-10.10906	1.88696	-12.64454	-0.22537
6543.025	-9.75982	2.28166	-11.71463	2.77062
6547.017	-10.22959	1.48924	-8.95680	3.20276
6551.025	-10.11548	2.18201	-8.53984	0.03069
6555.024	-10.32440	1.41130	-12.62450	0.01700
6559.018	-10.02885	1.32911	-11.42740	3.75435
6563.030	-9.97934	1.15860	-11.80821	3.47666
6567.028	-10.25435	0.92788	-9.91339	3.77237
6571.026	-10.55522	0.84791	-8.96094	3.80903
6575.022	-10.53089	0.60420	-12.03315	3.95231
6579.019	-10.28193	1.21648	-11.38943	3.82872
6583.025	-10.40236	0.80637	-9.20359	3.95511
6587.021	-12.65864	2.20275	-9.20018	3.98761
6591.024	-11.51990	2.57167	-9.21348	4.02400
6595.017	-11.11755	1.76612	-8.60228	4.09750
6599.025	-9.94086	0.32249	-8.02448	4.15652
6603.022	-11.21037	1.79054	-9.36087	4.01675
6607.029	-11.01503	2.61343	-10.33629	3.99465
6611.016	-11.04699	1.63350	-8.75710	4.11742
6615.024	-10.89975	1.71711	-16.02252	-1.51949
6619.024	-10.98894	1.58932	-16.88821	-1.62825
6623.018	-11.24810	1.52286	-14.03309	-1.66021
6627.025	-11.23490	1.11682	-16.33107	-1.97133
6631.022	-11.22117	0.62863	-16.43855	-1.46008
6635.029	-11.21209	1.31204	-16.35762	-1.32052
6638.893	-11.25125	1.09729	-16.17542	-1.10543
6642.900	-11.22601	0.54895	-13.80645	-1.64935
6646.898	-11.33507	0.54039	-16.20139	-1.88115
6650.899	-11.39253	-0.30822	-16.33100	-1.30001
6654.894	-11.35818	0.58617	-16.13301	-1.02735
6658.899	-11.64375	-0.02020	-16.17954	-0.83727
6662.894	-11.63092	0.30691	-16.04212	-0.69707
6666.899	-11.84632	0.10966	-16.05690	-1.37518
6670.889	-11.49633	-0.22049	-16.01495	-1.64483
6674.900	-11.74309	0.13079	-15.91652	-1.55511
6678.895	-11.86902	-0.01787	-15.94504	-0.78489
6682.894	-11.75933	-0.46221	-15.93582	-0.40803
6686.898	-11.80666	-0.43847	-14.49230	-0.70526
6690.898	-11.84323	-0.02347	-16.06380	-1.27087
6694.893	-11.65896	-0.39716	-15.90236	-1.61657
6698.900	-12.50158	0.04406	-15.71947	-1.76943
6702.917	-11.75967	-0.34100	-15.94529	-1.87973
6706.928	-12.61868	-0.17898	-15.80151	-1.37825
6710.894	-12.64718	-0.20410	-15.21562	-0.71389
6714.889	-12.53157	0.21926	-14.53591	-0.52508
6718.891	-12.28107	0.35099	-14.16198	-0.30406
6722.885	-12.12578	0.84841	-15.72104	-0.67914
6726.892	-11.81570	0.70965	-15.77421	-0.36527
6730.892	-11.48599	-0.14582	-16.12119	-1.80265
6734.895	-11.54003	-0.16066	-15.58868	-1.74182
6738.885	-12.99270	0.97968	-15.84817	-1.61239
6742.894	-11.75220	-0.48028	-14.98426	-0.85504
6746.889	-12.46831	0.51497	-15.06438	-0.46794
6750.885	-12.76097	-0.16184	-15.11169	-1.66757
6754.892	-12.22499	-0.49206	-15.57832	-2.29422
6758.888	-13.79623	0.63345	-19.05751	-1.28486
6762.889	-7.12043	1.77423	-19.54232	-0.26349
6766.889	-17.44795	2.62872	-12.44387	0.17561
6770.890	-17.27027	6.85565	0.40199	14.51448
6774.895	-17.25080	7.13708	-19.76986	-12.09400
6778.893	-19.99129	-12.07760	-19.83961	-12.08885
6782.885	-19.99252	-12.07751	-19.87741	-12.08606
6786.891	-19.99293	-12.07748	-19.90127	-12.08429
6790.889	-19.99315	-12.07747	-19.91779	-12.08307
6794.889	-19.99326	-12.07746	-19.92994	-12.08216
6798.885	-19.99335	-12.07745	-19.93931	-12.08147
6804.146	-19.99342	-12.07745	-19.97614	-12.07873
6814.913	-19.99346	-12.07744	NaN	NaN
6818.921	-19.99366	-12.07743	NaN	NaN
6822.895	-19.99368	-12.07743	NaN	NaN
6826.895	NaN	NaN	NaN	NaN
6830.890	NaN	NaN	NaN	NaN
6834.887	NaN	NaN	NaN	NaN
6839.086	NaN	NaN	NaN	NaN
6842.897	NaN	NaN	NaN	NaN
6846.893	NaN	NaN	NaN	NaN
6850.891	NaN	NaN	NaN	NaN
6854.892	NaN	NaN	NaN	NaN
6858.889	NaN	NaN	NaN	NaN
6862.891	NaN	NaN	NaN	NaN
6866.892	NaN	NaN	NaN	NaN
6870.893	NaN	NaN	NaN	NaN
6874.886	NaN	NaN	NaN	NaN
6878.887	NaN	NaN	13.05008	11.59907
6882.884	NaN	NaN	NaN	NaN
6886.889	5.05846	8.87955	NaN	NaN
6890.889	1.52734	11.68451	-11.21510	-11.05327
6894.883	2.10835	0.82594	-5.33874	7.41889
6898.890	4.24396	0.43455	-19.99372	-12.07077
6902.888	2.58885	-2.03765	-19.99372	-12.07088
6906.887	4.36019	-12.31020	-0.07073	-13.16453
6910.922	3.32770	-4.69648	-1.50834	-2.05152
6914.886	4.18990	-12.18493	0.00817	-2.77244
6918.887	1.63933	-11.48173	-3.79702	-7.16918
6922.882	1.41531	-9.46177	-3.52418	-11.11915
6926.889	-0.38348	-9.42216	-1.27619	-8.20912
6930.885	0.96715	-4.66496	-2.95228	-5.84047
6934.885	0.22946	-4.83145	-4.24638	-2.11781
6938.888	2.74945	-11.19452	-7.08979	-11.10113
6942.890	-4.82952	-10.87170	-3.84851	-11.16069
6946.885	-1.11008	-9.89773	-3.20798	-11.05226
6950.880	-0.44753	-10.36406	-1.24652	-9.81816
6954.888	-1.14268	-11.00763	-2.81721	-10.44818
6958.886	0.62590	-10.25837	-3.62047	-10.33566
6962.885	1.87577	-11.29802	-5.08360	-11.83324
6966.887	-1.44307	-9.97177	-7.16898	-14.29992
6970.890	-0.44110	-10.07050	-3.48343	-11.71198
6974.889	-2.17351	-9.89406	-3.23277	-14.32773
6978.882	0.95911	-9.81540	-2.74474	-11.45593
6982.889	-0.63012	-9.95188	-3.15028	-11.29882
6986.891	1.75813	-11.40403	-3.39097	-10.39862
6990.888	-0.71794	-10.62252	-4.25736	-10.00443
6994.892	-0.24309	-10.72561	-4.40029	-11.43295
6998.886	-0.46229	-9.41174	-4.06157	-11.98094
7002.882	0.82724	-10.74466	-5.10061	-14.01312
7006.888	-2.34736	-11.21455	-2.85999	-12.85134
7010.883	2.17368	-11.21032	-2.78250	-12.41752
7014.886	-2.45218	-9.39540	-3.37670	-9.90098
7018.879	-0.52036	-8.55726	-3.41624	-11.91125
7022.888	-2.45822	-11.75295	-5.69276	-12.42691
7026.892	-0.28716	-11.84626	-3.98138	-12.71815
7030.880	-0.56091	-12.33950	-19.99372	-11.96823
7034.890	-0.72883	-11.23215	-3.87025	-12.67984
7038.890	-1.96362	-11.87760	-3.96698	-13.28672
7042.918	-2.29877	-10.94987	-2.86024	-13.25932
7046.888	-0.92750	-11.66817	-1.38721	-13.07647
7050.884	-0.60806	-11.54291	0.32419	-13.40002
7054.885	-0.63950	-11.42945	-1.41266	-12.71244
7058.890	-0.26321	-11.31823	-1.13620	-12.96102
7062.889	2.99698	-11.29420	-3.86249	-11.39710
7066.885	-0.51602	-10.86650	-4.22273	-9.97059
7070.886	-1.20254	-10.21651	-19.99372	-12.22779
7074.888	2.86685	-9.86696	-19.99372	-12.22097
7078.884	-2.67274	-9.18008	-19.99372	-12.21863
7082.885	-0.53016	-9.26820	-6.30306	-13.58207
7086.890	-0.12012	-10.30793	-3.59861	-12.42798
7090.885	-2.00098	-8.73502	-5.60725	-14.07296
7094.883	-1.86164	-10.22678	-1.10723	-12.83855
7098.885	-19.99372	-11.92718	-19.99372	-12.08209
7106.889	3.11302	-13.72613	-19.99372	-12.07311
7110.894	-19.99372	-12.19911	-19.99372	-12.08093
7114.886	-19.99372	-12.16265	-19.99372	-12.08062
7118.891	-0.17022	-10.54150	-19.99372	-12.08062
7122.884	-0.13473	-14.98589	-19.99372	-12.08059
7126.884	3.06719	-14.06677	-19.99372	-12.08055
7130.879	-19.99372	-12.17233	-19.99372	-12.06434
7134.889	1.17587	-14.51198	-19.99372	-12.09810
7138.883	0.72630	-13.64492	-19.99372	-12.08908
7142.884	-19.99372	-12.22750	NaN	NaN
7146.882	0.83912	-13.17955	NaN	NaN
7150.889	0.71479	-12.84987	NaN	NaN
7154.883	3.16812	-14.91800	NaN	NaN
7158.881	0.78387	-12.60736	NaN	NaN
7162.883	-0.46815	-13.03020	NaN	NaN
7166.888	2.45550	-14.03287	NaN	NaN
7170.886	1.12385	-13.04933	NaN	NaN
7174.883	0.97651	-13.31730	NaN	NaN
7178.888	1.28606	-13.55926	NaN	NaN
7182.886	1.62155	-13.61259	NaN	NaN
7186.882	-19.99372	-12.29206	NaN	NaN
7190.884	-19.99372	-12.25045	NaN	NaN
7194.885	1.39619	-14.06829	NaN	NaN
7198.880	-19.99372	-12.28742	4.77101	-14.22533
7202.878	-19.99372	-12.31700	1.47918	-11.78987
7206.885	1.29340	-13.20440	-19.99372	-12.07079
7210.888	1.08460	-13.20073	1.59889	-14.44099
7214.883	1.16329	-13.12557	-1.44287	-14.35620
7218.878	1.23126	-14.46037	-19.99372	-12.09504
7222.888	-19.99372	-12.23203	-19.99372	-12.09479
7226.882	-0.71476	-14.94342	-19.99372	-12.09446
7230.883	-19.99372	-12.19993	-19.99372	-12.09401
7234.885	-19.99372	-12.19574	0.57039	-14.33299
7238.885	0.84414	-14.62789	-1.90175	-13.41731
7242.881	3.45932	-14.62238	-2.00708	-12.83479
7246.889	-19.99372	-12.20906	-19.99372	-12.14538
7250.883	0.56838	-13.20530	-19.99372	-12.14317
7254.882	-0.06731	-14.83439	-0.18020	-13.71350
7258.877	0.63945	-14.73698	-19.99372	-12.14993
7262.885	2.86475	-14.88569	-19.99372	-12.14826
7266.885	-19.99372	-12.20890	-19.99372	-12.14625
7270.886	-19.99372	-12.18369	0.62302	-14.19642
7274.877	-19.99372	-12.17892	-19.99372	-12.15834
7278.886	-19.99372	-12.17365	-19.99372	-12.13663
7282.881	3.85422	-13.90710	-19.99372	-12.09589
7286.881	0.49019	-12.82572	-19.99372	-12.11127
7290.883	0.33161	-12.86738	-19.99372	-12.10998
7294.883	-3.18883	-13.77222	-19.99372	-12.10857
7298.880	-19.99372	-12.11714	-19.99372	-12.08356
7302.876	-19.99372	-12.10723	-3.70107	-14.18632
7306.884	-19.99372	-12.10328	-19.99372	-12.09450
7310.883	-19.99372	-12.10270	-3.21495	-12.03376
7314.916	-0.13344	-12.50797	2.11948	-14.38678
7318.892	0.85451	-12.75748	-19.99372	-12.07506
7322.884	2.13849	-13.06541	-19.99372	-12.07501
7326.882	0.46172	-13.47965	-19.99372	-12.07501
7330.911	1.77038	-14.86179	-3.65554	-14.70906
7334.880	-19.99372	-12.14194	-19.99372	-12.07689
7338.874	-19.99372	-12.10531	-19.99372	-12.07689
7342.883	-19.99372	-12.10518	-19.99372	-12.07689
7346.880	2.72808	-14.03949	-19.99372	-12.06787
7350.880	1.42027	-14.39995	-19.99372	-12.06842
7354.878	-4.35790	-14.00967	-19.99372	-12.08452
7358.887	-0.77697	-13.08620	-19.99372	-12.07885
7362.881	1.70251	-13.27505	-3.73999	-14.99432
7366.887	1.39351	-12.90687	-19.99372	-12.08024
7370.886	-19.99372	-12.17700	-19.99372	-12.08015
7374.881	4.31018	-14.64256	-19.99372	-12.07861
7378.879	-3.02539	-12.90173	-19.99372	-12.07858
7382.911	-0.40822	-9.63067	-19.99372	-12.07856
7386.889	-2.61228	-10.55476	-19.99372	-12.07854
7390.881	-4.79546	-10.74898	-4.89988	-10.13220
