time (ms)	lx (deg)	ly (deg)	rx (deg)	ry (deg)
0.000	-2.14669	-1.12200	-0.35563	-1.60729
4.000	-2.28608	-1.14535	-0.95184	-1.30202
8.000	-2.64104	-1.05936	-0.72677	-1.16301
11.995	-2.29936	-1.34150	-2.57206	-0.99865
15.997	-2.32664	-1.86829	-2.46798	-1.31315
19.998	-2.22540	-1.18571	-2.98270	-1.35140
23.995	-2.77183	-1.42775	-2.97336	-1.25743
27.998	-2.42203	-1.26483	-2.66773	-1.12587
31.998	-1.11249	-1.33353	-2.89596	-1.12312
35.998	-2.27518	-1.15022	-2.97789	-0.92023
39.992	-2.18786	-1.17151	-0.66975	-0.89627
43.999	-2.12213	-0.81980	-0.80049	-1.04524
47.996	-2.83982	-0.78109	-3.08238	-0.70459
51.997	-2.56060	-0.78170	-2.39998	-0.41863
55.993	-2.39101	-0.74188	-2.33588	-0.93625
60.000	-2.39597	-0.80681	-2.78953	-1.04901
63.995	-2.34461	-1.01160	-2.55235	-1.11036
68.011	-2.02894	-1.12286	-2.67338	-1.00013
72.004	-2.05435	-1.26792	-3.00314	-1.06042
76.021	-2.27005	-1.47930	-3.33171	-1.25127
79.998	-1.92706	-1.59859	-2.94911	-1.12319
83.997	-1.99994	-2.76303	-3.34378	-1.22009
87.998	-2.01858	-1.99637	-3.53229	-1.00574
91.996	-1.89305	-1.56286	-3.17480	-1.17303
95.994	-1.99751	-1.73314	-3.21067	-1.10853
99.991	-1.85432	-1.61358	-3.54944	-1.17984
103.997	-1.70598	-1.87987	-3.50692	-1.03436
107.997	-1.62587	-0.99781	-3.26050	-1.04866
112.001	-1.70234	-1.45635	-3.30191	-0.93292
115.991	-1.96437	-1.13812	-0.35059	-1.00321
119.991	-2.11348	-1.35286	-0.70690	-0.89584
123.995	-2.05913	-0.88185	-1.06255	-0.81598
127.991	4.45436	-7.03218	-0.69826	-0.87337
131.990	-2.35531	-1.10755	-3.18776	-1.06101
136.033	-2.07070	-0.71056	-2.76554	-1.10873
139.997	-1.98051	-0.60956	-2.88636	-1.12995
143.991	-1.60402	-0.76757	-2.83172	-1.03032
147.995	-1.94032	-1.01621	-2.61122	-0.95298
151.997	-1.63755	1.02259	-2.55911	-0.55401
155.996	-2.01050	-0.88223	-2.59539	-0.96026
159.994	-2.98322	-0.84721	-1.77209	-0.84319
163.998	-4.80073	-3.58180	-2.67115	-1.94975
167.992	-2.55195	-0.84035	-2.77465	-1.22225
171.989	-3.27452	-0.78442	-2.79860	-1.17224
175.999	-2.04351	-1.32182	-2.10791	-1.11659
179.994	-3.73811	-1.12117	-2.24453	-0.65874
183.991	-2.83177	-1.14042	-2.32102	-1.30996
187.991	-3.35085	-1.07544	-2.61862	-1.40570
191.994	-4.12683	-1.17664	-2.29983	-1.02119
195.999	-3.50754	-1.19487	-1.93026	-1.16540
199.994	-4.10836	-1.11644	-2.37971	-1.59504
203.998	-3.07676	-1.30644	-2.46350	-1.75419
207.994	-3.49809	-1.23256	-2.29287	-1.04510
211.992	-3.46699	-1.31094	-1.42255	-0.81728
215.998	-2.57432	-1.20096	-2.15296	-0.27409
219.992	-0.88676	-0.69953	-2.05375	-0.49037
223.995	1.52206	-0.18665	-1.55313	0.65274
227.988	-0.99400	-1.40823	-0.09612	0.98380
231.997	0.73360	2.02447	-1.05287	0.86126
235.999	-0.03484	-0.89825	0.21011	1.00293
239.996	-0.10952	-0.24832	0.06656	-0.01250
243.991	-1.36677	0.09333	-2.17717	-0.27595
247.996	0.55332	-0.57817	-1.97228	-0.25731
251.993	-0.02777	0.14219	-1.56047	-0.12567
255.992	-0.31052	-0.06431	-1.22442	0.34748
259.994	0.68337	-0.53217	-1.30394	0.08842
263.993	-0.14878	0.41547	-0.94715	0.23941
267.995	-0.39698	0.15222	-0.25140	0.33571
271.995	-0.34598	0.24697	-0.11630	0.42389
275.993	-1.70849	0.26055	-0.36427	-0.10054
279.997	0.27488	0.59779	-0.89416	0.03116
283.992	-0.18015	-1.35787	-1.32761	-0.02171
288.020	-0.27438	-0.57893	-1.57329	-0.01893
291.994	-1.43684	0.12118	-1.73214	0.04113
295.989	-2.04547	0.26688	-1.68694	-0.07230
299.993	-2.01729	0.28780	-1.62309	0.28309
303.993	-2.04949	0.27895	-1.42089	0.02377
307.996	-1.41921	0.06484	-1.38741	-0.15524
311.991	-1.56402	-0.38680	-0.89870	-0.30292
315.993	-0.62245	-0.73307	-1.42102	0.33141
319.995	0.49706	-0.28685	-1.59256	0.72528
323.988	-0.10394	0.19420	-1.16930	0.52909
327.989	0.12171	0.28688	-1.21167	0.36629
331.990	0.00409	0.02915	-1.21601	-0.35128
335.989	-1.33847	-0.12687	-1.40033	-0.78443
339.997	-1.00114	-0.30279	1.78520	0.43844
343.992	0.81218	1.05350	-1.90998	0.82689
347.986	0.15690	-0.64329	-2.17333	1.48309
351.988	1.02374	-1.04251	-1.57186	0.96320
355.989	1.34849	0.88911	-1.52290	0.39036
359.996	-0.25726	2.01146	-1.56434	0.39594
363.990	0.90517	-0.72427	-1.39852	-0.32987
367.988	1.07614	-1.12967	-2.47085	0.58384
371.990	2.46986	-0.16971	-1.62396	0.55166
375.991	-0.78404	0.78096	-1.63727	0.13684
379.989	-0.01941	-1.83421	-1.48181	0.57095
383.995	-0.31585	-1.08762	-1.55135	0.15912
387.989	-0.36102	-0.53617	-1.62703	0.25857
391.993	-1.14761	0.02621	-1.44376	0.13456
395.989	-2.27721	0.11936	-0.22333	0.01046
399.991	-0.90051	-0.77508	-1.56419	1.46650
403.990	-0.46185	-0.67922	-1.38495	1.38216
407.986	0.12553	0.53677	-1.53666	0.47498
411.993	-1.34549	0.32555	-1.67457	-0.10251
415.991	-0.53143	0.06249	-0.61962	0.41574
419.988	-0.36757	-0.54834	-1.60836	1.86173
423.987	0.30652	-0.74249	-1.62096	0.98587
427.993	2.70602	-0.80297	-0.69173	0.36771
431.989	-0.44177	0.18688	-1.12529	0.67509
435.992	-1.18597	0.11378	-1.69083	0.32873
439.985	-0.56600	-0.72892	-2.05633	0.92386
443.996	-0.23879	-0.96785	-1.68558	0.19992
447.996	-1.29772	-1.16482	-1.60861	-0.24745
451.990	-1.15987	-0.94704	-1.85428	-0.12406
455.988	-0.90520	-0.34565	-1.91469	0.44760
459.989	0.62340	-1.04468	-0.86354	0.48091
463.986	-0.44157	-0.98032	-1.32820	0.54441
467.985	-0.50731	-0.04199	-1.52749	0.65176
471.986	-0.60243	0.26997	-1.01186	0.64257
475.986	-0.54860	0.22964	-0.86307	0.78336
479.991	3.53810	-6.24710	-1.07614	0.75462
483.990	0.67613	-1.09338	-1.71122	0.85772
487.999	-0.87009	-0.68910	-1.78411	1.02142
491.989	-1.48208	-0.56424	-1.83404	0.64336
495.989	-0.62660	-0.92793	-2.21509	0.93717
499.986	-1.28943	-1.08709	-2.11760	0.62510
503.986	-0.55493	-0.21968	-1.92929	0.70568
507.990	-0.65749	-0.06664	-1.71181	0.64397
511.988	-0.82449	0.16376	-1.10507	1.09618
515.986	0.26483	0.33347	-2.20372	1.58507
519.989	-2.45812	0.66348	-2.48678	0.45249
523.985	-0.54605	-0.64515	-2.38261	0.38646
527.998	-0.56233	-0.52167	-2.14077	-0.07420
531.986	-1.29107	-0.85540	-2.43991	0.13620
535.991	-0.75523	-0.51365	-1.98524	0.26004
539.986	-0.86659	-0.03762	-0.43107	0.70387
543.987	-0.58439	-0.51588	-0.13885	0.00343
547.990	-0.53064	0.28160	-2.15561	-0.02478
551.988	-0.66858	0.59391	-2.10094	-0.35855
555.985	-1.10889	0.26720	-1.91385	-0.58602
559.984	1.95257	-0.93735	-1.46814	-0.22682
563.991	2.41026	-1.56271	-0.48396	-0.10834
567.993	-1.12546	-0.17838	-1.33842	0.00159
571.991	-0.67121	-0.51664	-0.92205	-0.00991
575.990	-0.87158	-0.10058	-1.25714	-0.01481
579.985	-0.70062	0.22305	-1.25071	-0.03806
583.987	-1.01082	0.09414	-0.59746	-0.11962
587.992	-1.49081	0.13985	-0.34221	0.33317
591.989	-0.65067	0.05787	-1.29425	1.36483
595.988	0.09197	-0.05800	-1.85051	2.09155
599.983	1.96660	-0.42556	-1.46856	2.37597
603.987	-1.01392	-0.27044	1.50876	0.09700
607.988	2.31396	-0.15203	-0.70714	0.16682
611.998	1.57491	-4.36488	-2.89569	0.36588
615.995	-0.63285	0.12036	-1.94491	0.65492
619.986	-1.83030	-4.42650	-2.29262	0.71222
623.862	-0.22706	-0.90607	-2.52508	0.83208
627.861	-1.45817	-0.20772	-2.02862	0.47381
631.861	1.11593	-5.77852	-1.95651	0.19011
635.860	-1.60449	0.00869	-2.56827	0.14882
639.857	-2.22423	0.42117	-2.15591	0.12667
643.858	0.25068	-6.47619	-2.41014	0.36836
647.862	-2.35219	0.91065	-2.21519	0.56997
651.864	-1.45061	0.40684	-2.32761	-0.27232
655.857	-0.90795	-0.05749	-2.27959	-0.19322
659.868	-2.26559	0.54465	-2.22411	-0.14521
663.860	-2.44957	0.37696	-2.33460	-0.10329
667.859	-0.86768	-0.06512	-2.17943	-0.10258
671.859	-2.24943	0.54006	-2.23182	-0.04077
675.860	-1.59432	0.70131	-2.30479	-0.22584
679.882	-1.74050	0.67960	-2.12206	-0.18073
683.861	-2.27580	0.77828	-2.23023	-0.11504
687.857	-0.98072	-0.21832	-2.15068	-0.31923
691.863	2.51363	-9.65415	-2.18615	-0.27634
695.858	-1.40274	-0.13693	-2.17237	-0.25735
699.863	0.86116	0.37028	-2.22594	-0.31559
703.863	-1.15501	-0.25850	-2.19878	-0.41747
707.861	-1.54951	0.51251	-1.99860	-0.26788
711.860	-1.35278	0.66487	-1.94374	-0.34527
715.856	-1.12060	-0.34121	-1.92602	-0.46465
719.863	-1.60672	0.66015	-1.90797	-0.39095
723.887	-0.55977	0.50825	-1.93546	-0.29610
727.878	-0.69134	-0.27464	-1.88402	-0.41075
731.863	-0.54342	-0.46311	-1.82165	-0.37508
735.857	-1.12511	0.40434	-1.93641	-0.55043
739.864	-1.48280	0.11049	-1.98886	-0.51912
743.857	-1.60171	-0.53386	-2.08882	-0.73702
748.162	0.47952	0.49012	-1.80362	-1.23817
751.862	2.15477	-0.71665	-0.96685	-0.41822
755.857	0.89902	-0.80392	0.03854	-0.13148
759.857	1.04389	-0.86037	-1.10780	0.11543
763.858	0.78756	-0.79015	-1.02052	0.07806
767.856	1.10790	-0.93119	-0.66642	-0.04838
771.854	1.18163	-1.03642	0.39177	0.03153
775.860	1.28130	-0.16448	-0.28731	-0.12509
779.859	1.38515	0.00169	-2.11066	-0.37561
783.874	-0.48423	0.37995	-0.89505	0.78509
787.863	-1.73023	-0.44600	-2.18297	0.57619
791.858	-0.31305	-0.47932	-1.91814	0.74516
795.855	1.47734	-0.96433	-1.02856	0.95176
799.855	1.45388	-0.95466	-0.90470	0.91935
803.861	-0.51840	-0.05034	-1.07666	0.32072
807.857	-0.87580	-0.51488	-1.04893	1.00354
811.859	-1.49711	0.11168	-1.79656	0.94508
815.914	-1.58842	-0.06821	-1.87676	0.98062
819.869	0.94971	-0.00166	-1.47766	1.18650
823.859	-0.50947	-0.18932	-1.23369	0.98470
827.854	-0.49649	0.01476	-2.12250	1.08399
831.859	-1.10886	-0.11853	-1.87188	0.96518
835.860	-1.22159	0.10727	-2.07831	0.91573
839.854	0.15169	-0.79030	-2.04475	0.75022
843.860	0.18978	-0.60542	-2.42733	0.92934
847.858	0.09912	-0.30671	-2.25712	0.54686
851.856	-0.41750	-0.11520	-2.28207	0.81872
855.855	0.03063	-0.71485	-1.99178	0.59423
859.855	0.22346	-1.16610	-2.19004	0.63540
863.867	0.23336	-0.49001	-4.93901	-0.01951
867.866	0.25269	-0.17526	-5.20639	-1.15675
871.856	0.41656	-0.68830	-2.57751	0.54095
875.859	0.94658	-1.11655	-2.52740	0.60576
879.856	-0.63570	-0.61600	-3.37254	1.11108
883.862	-1.02072	-0.67593	-2.41026	1.12626
887.862	-1.10559	0.47710	-3.62922	1.95048
891.854	-0.96638	1.22160	-4.06364	2.40109
895.855	-1.06771	2.02426	-3.80335	2.44691
899.857	-1.62512	1.54187	-2.92245	1.97885
903.859	-2.08634	1.83029	-3.08253	1.42572
907.859	-2.03050	1.77528	-3.33745	1.98201
911.863	-1.44579	2.02290	-3.06246	2.64158
915.856	-1.17463	1.81469	-3.58732	2.41649
919.855	-1.48808	2.45175	-3.06120	2.41342
923.859	-1.80355	2.01661	-3.77901	2.49668
927.856	-1.25572	2.41985	1.09115	2.54961
931.858	-2.17940	2.03406	-0.18725	2.65012
935.853	-2.39431	2.13346	-2.15713	2.58906
939.853	-1.92238	2.27767	-2.49072	2.58005
943.854	-0.31178	2.46517	-3.00529	2.71154
947.858	-0.94199	2.15009	-3.30505	2.68326
951.855	-1.67191	2.30747	-3.74278	2.61680
955.857	-2.18297	2.15445	-1.62775	2.71291
959.857	-2.34441	2.67019	0.27647	2.70483
963.853	-2.66347	2.62744	-1.61778	2.87764
967.858	-2.55527	2.06217	-1.58234	2.96738
971.855	-2.38593	2.37469	-2.59666	2.83136
975.854	-0.59506	2.59271	-3.21537	2.86092
979.852	-0.52957	2.51847	-3.75091	2.88158
983.855	-0.17452	2.40269	-4.03611	3.00904
987.857	-0.32513	2.40405	-3.82766	3.05026
991.862	-0.89356	2.78150	-1.55326	3.25800
995.857	-1.70710	2.64946	0.65221	3.19553
999.852	4.00267	-0.87326	0.46629	3.22238
1003.853	-2.35771	2.48270	-0.82188	3.25446
1007.859	-2.80845	2.44295	-1.49488	3.23603
1011.855	-1.88340	2.53960	-1.65922	3.33614
1015.852	-1.02191	2.60241	-3.82492	3.15452
1019.851	-2.16875	2.73872	-3.36035	3.21009
1023.852	-2.35367	3.23111	-4.50666	3.22986
1027.854	-7.09123	3.12625	-5.11612	3.01031
1031.859	-7.11606	3.46359	-8.13045	3.27709
1035.852	-14.61636	1.72177	-7.79010	3.17696
1039.849	-10.46652	2.35247	-9.34268	3.04307
1043.856	-10.65465	2.31714	-9.50918	3.11947
1047.856	-10.59675	2.59464	-9.70333	2.95242
1051.852	-10.23183	2.93967	-9.65143	3.20828
1055.851	-10.33091	2.72983	-9.86358	3.29397
1059.857	-13.01800	1.18148	-10.09027	3.42017
1063.853	-10.31662	2.12368	-10.09708	3.36501
1067.853	-12.48499	0.56387	-10.28635	3.63863
1071.866	-10.24586	2.20832	-10.46753	3.64858
1075.861	-10.29906	1.89954	-10.73447	3.57233
1079.852	-10.21192	2.11263	-10.79978	3.95706
1083.857	-10.17211	1.90640	-10.57378	3.91692
1087.895	-10.18483	2.08304	-10.58740	4.13397
1091.865	-10.18142	1.82621	-10.50897	4.29071
1095.853	-13.14188	0.24007	-10.13345	4.32736
1099.855	-13.67768	-0.22942	-10.19464	4.49692
1103.849	-10.24649	1.96136	-10.00957	4.65465
1107.857	-10.29358	1.95581	-9.76560	2.80299
1111.852	-14.51872	0.14491	-9.54322	2.98021
1115.861	-13.98938	0.61479	-9.74000	2.21049
1119.852	-10.49973	1.88553	-9.60659	2.71174
1123.854	-10.61044	1.98702	-9.48224	2.29694
1127.853	-10.65206	2.11280	-9.35727	2.34447
1131.854	-10.68619	2.28099	-9.44902	2.96150
1135.856	-10.81628	1.95559	-9.36684	2.55299
1139.851	-10.79085	2.27428	-9.40337	2.92184
1143.855	-14.53653	-1.37803	-9.39685	3.20456
1147.848	-10.87654	1.72934	-9.41491	3.51766
1151.854	-14.06338	-0.71381	-9.38559	3.39927
1155.855	-10.90212	1.47606	-9.29065	2.92753
1159.855	-10.94033	1.71342	-9.31255	3.31672
1163.852	-13.85400	-1.46523	-9.17048	2.99018
1167.850	-13.72908	-1.97851	-9.30479	3.10160
1171.847	-10.89262	1.52378	-9.17498	2.79288
1175.853	-13.97267	-1.92516	-9.24240	2.89434
1179.851	-13.93445	-1.02321	-9.16409	2.38100
1183.853	-10.96306	1.40445	-8.89623	1.95023
1187.854	-13.81825	-0.21138	-9.18347	2.10819
1191.851	-10.89791	1.57008	-9.02077	2.06712
1195.850	-10.84516	1.53546	-9.05093	2.42399
1199.859	-13.82050	-1.53600	-9.15838	2.36392
1203.854	-10.76556	1.76434	-9.15911	2.16385
1207.853	-10.79799	1.90173	-9.18738	2.39150
1211.850	-10.81355	1.80822	-9.26374	2.73450
1215.854	-10.86392	1.91603	-9.31668	2.61845
1219.851	-13.84780	-0.14688	-9.34389	2.33822
1223.890	-10.80580	2.01110	-9.48183	3.18344
1227.848	-10.64118	2.01761	-9.70864	2.72637
1231.852	-10.53459	2.15323	-9.54971	2.81415
1235.850	-13.83351	1.36707	-9.67075	2.85021
1239.855	-10.25209	2.35315	-9.66455	2.91980
1243.848	-10.22240	2.25774	-9.96581	3.01201
1247.855	-14.32374	-3.33859	-10.08072	3.05180
1251.850	-10.09354	2.26956	-10.02114	3.14174
1255.852	-10.07141	2.29395	-10.11584	3.30369
1259.853	-10.05599	2.42684	-10.16622	3.16447
1263.851	-9.89504	2.43231	-10.15187	3.41696
1267.851	-9.87630	2.50249	-10.19531	3.25841
1271.848	-9.92868	2.60867	-10.09689	3.38129
1275.853	-9.89528	2.59083	-10.07468	3.43765
1279.850	-9.89436	2.50829	-10.05548	3.48563
1283.865	-14.80604	-2.23021	-10.11158	3.51235
1287.854	-9.85286	2.54902	-10.00047	3.54864
1291.875	-13.16127	0.73021	-9.99515	3.53706
1295.853	-10.00194	2.64134	-9.97310	3.52948
1299.848	-13.93342	0.86266	-9.91544	3.48945
1303.848	-13.44489	-0.24729	-9.87928	3.34698
1307.851	-9.93376	2.30416	-9.86577	3.22482
1311.850	-13.92127	0.44277	-9.85228	3.15776
1315.847	-9.94517	2.52055	-9.83828	2.86502
1319.850	-9.58919	1.89451	-9.86105	2.57910
1323.855	-9.81720	1.54744	-9.87750	2.62950
1327.846	-9.59276	2.00127	-9.90091	3.01321
1331.852	-9.80992	1.89278	-9.37554	2.16399
1335.851	-14.87717	-0.60903	-9.85582	2.96496
1339.849	-8.30378	2.24073	-7.72412	4.31662
1343.851	-6.29725	3.93201	-6.10764	5.19853
1347.849	-4.98822	3.93574	-5.71652	5.14431
1351.848	0.03715	4.34194	-2.62182	5.28571
1355.869	0.42817	2.51154	-2.47717	5.29785
1359.856	1.54470	2.32706	-2.45141	5.23520
1363.857	1.69877	1.86110	-2.46332	5.32872
1367.850	1.56846	2.30469	-2.77493	5.48572
1371.849	0.88709	3.57081	-2.87401	5.40540
1375.846	0.89019	3.46264	-2.88227	5.22959
1379.851	1.31468	2.54844	-2.70906	5.32735
1383.850	1.65448	2.60526	-2.54762	5.38948
1387.852	2.08612	2.52700	-2.61838	5.37142
1391.847	2.15879	2.86652	-2.57286	5.27954
1395.848	2.17844	2.64178	-2.50127	5.05743
1399.846	2.34106	2.84469	-2.54390	4.83883
1403.851	2.51487	2.79722	-2.42369	4.95651
1407.854	2.59445	2.93041	-2.44303	5.16444
1411.852	2.65364	2.97704	-2.33036	4.99137
1415.845	2.87225	2.62031	-2.33219	5.24294
1419.849	2.94460	2.63604	-1.92471	4.90679
1423.847	2.87403	2.69430	-0.70791	5.10592
1427.873	2.44856	2.82074	-1.34656	4.68453
1431.849	2.97176	2.75067	-1.58837	4.66767
1435.847	2.82581	2.70209	-2.24683	4.20009
1439.844	2.61768	2.86742	-2.06647	4.19152
1443.848	2.13628	2.70078	-2.35365	4.90484
1447.852	1.48106	2.82029	-2.56966	4.81248
1451.846	2.27441	3.00354	-2.08662	4.86245
1455.849	1.66120	2.94058	-2.45666	5.13440
1459.846	1.43808	3.16677	-2.33720	4.97220
1463.847	0.30985	3.65976	-2.33804	4.49728
1467.845	0.43529	3.26307	-2.01952	4.54707
1471.848	0.03244	3.21491	-2.54452	4.29428
1475.847	0.71278	3.13738	-2.55975	4.88326
1479.722	0.91200	3.47522	-2.99373	4.32308
1483.718	0.07041	3.86973	-2.83031	4.89600
1487.722	0.66672	3.45861	-2.62378	5.05747
1491.722	2.39168	3.09759	-2.60701	5.20299
1495.733	3.55493	2.89287	-2.66016	5.57335
1499.725	7.03091	-0.99981	-2.32516	6.01513
1503.720	2.02381	3.63135	-2.63967	5.49760
1507.724	1.53711	3.51665	-2.48297	4.72397
1511.723	1.02786	3.87452	-2.29292	5.09352
1515.720	0.15012	4.03455	-2.51685	4.57961
1519.725	0.30538	4.05787	-2.66491	4.48132
1523.722	0.75568	3.89160	-2.43637	4.67292
1527.722	2.53384	2.87981	-2.18719	4.79798
1531.719	2.90433	3.40906	-2.02919	5.29917
1535.728	1.05664	3.83215	-1.57818	5.11897
1539.721	1.31255	4.00177	-1.14057	4.80792
1543.723	1.85450	3.12003	-2.33274	4.80379
1547.719	2.47430	3.08326	-2.21432	4.55987
1551.724	2.60557	3.39253	-2.47410	4.62529
1555.721	2.65183	3.08489	-2.44175	4.42521
1559.721	2.35313	2.90955	-2.22817	5.59067
1563.723	2.73472	2.38629	-1.91774	5.29261
1567.722	1.65656	3.10275	-2.21326	5.79666
1571.726	1.40790	2.71894	-2.06538	5.67675
1575.721	2.16119	3.54904	-2.22991	5.25378
1579.725	3.27717	2.53883	-2.30536	4.94835
1583.718	1.94533	3.00271	-2.11727	4.71568
1587.720	1.76567	2.94845	-2.32493	5.02724
1591.721	2.55955	3.12974	-0.13555	4.59503
1595.717	2.59108	3.40127	-0.45137	8.33085
1599.721	1.49654	4.68632	4.01672	8.32396
1603.717	3.42683	4.76792	0.80915	8.77890
1607.724	6.80729	4.56039	1.05647	8.80120
1611.719	3.95174	6.28677	1.47816	9.18593
1615.720	3.91968	7.79309	1.22732	9.73291
1619.721	4.37803	4.89716	1.01283	9.82682
1623.719	4.07927	7.20120	1.25361	9.29518
1627.726	4.45362	7.22862	1.83972	9.14417
1631.723	4.79080	6.71577	5.90310	9.54979
1635.718	4.67707	6.27233	1.24960	9.53093
1639.723	4.63767	7.27798	1.43828	10.95960
1643.719	5.39455	7.41141	1.52047	10.68620
1647.720	6.15527	7.35120	1.78624	10.89698
1651.717	6.21208	7.36894	1.97327	9.80426
1655.720	6.45836	7.50469	1.95433	9.76583
1659.722	5.96539	7.35678	1.98571	9.89016
1663.726	6.11437	7.39050	2.29007	10.00610
1667.717	5.33512	7.36307	2.74908	10.02022
1671.721	6.40224	6.95766	3.45440	10.01117
1675.718	6.59074	6.95500	2.06057	8.98757
1679.719	6.92917	6.96623	1.81339	9.45698
1683.716	7.21252	7.24536	1.77633	10.01712
1687.720	6.35991	7.49229	1.91362	9.89327
1691.720	8.45817	3.54332	2.50729	9.96751
1695.721	1.33091	9.11759	2.10347	10.12817
1699.719	0.98521	10.13614	1.63779	10.47680
1703.727	4.47136	6.53029	1.42950	9.94100
1707.719	4.59221	6.76535	1.48513	9.98293
1711.739	4.22461	7.25130	1.51581	9.72800
1715.723	4.58826	5.99394	1.55814	9.94463
1719.716	4.39678	8.12318	2.16243	9.96986
1723.718	4.30993	7.52461	1.92523	10.04601
1727.718	3.58287	8.21175	2.65827	9.87950
1731.716	7.51518	6.87419	2.40627	9.99457
1735.720	5.24806	7.08276	2.29178	9.85133
1739.716	7.66465	5.31617	1.52191	9.88248
1743.724	4.12317	5.66135	1.55338	9.98872
1747.716	2.82360	7.38573	1.82824	10.20269
1751.719	3.78526	5.42294	2.03432	10.65241
1755.718	3.96446	5.23613	1.97904	10.77777
1759.716	3.40643	7.21756	2.42235	9.90399
1763.721	3.37143	7.61313	3.03016	9.98691
1767.714	2.47975	7.01426	2.14042	9.37010
1771.720	3.59268	6.71032	1.79490	9.16933
1775.716	4.15023	2.29734	1.59033	9.06000
1779.717	3.87527	6.58148	1.57724	9.52427
1783.717	4.30532	6.74670	1.78032	9.78911
1787.720	4.47869	6.77876	1.71050	9.40997
1791.730	4.37451	7.12041	1.83635	9.00590
1795.764	5.04829	6.56931	1.72322	9.49955
1799.722	3.56319	7.65485	1.82026	9.66228
1803.714	2.85814	5.70309	1.88402	9.64316
1807.714	3.97879	8.06419	1.96405	9.66828
1811.716	3.87680	7.50317	2.58353	9.77078
1815.716	3.50281	7.47852	2.85655	9.60375
1819.713	4.04653	7.06304	1.87599	9.95534
1823.717	4.09752	5.62358	1.86580	10.17431
1827.717	4.52037	3.17861	1.89930	10.05235
1831.710	4.89429	6.50047	2.12563	9.87487
1835.714	3.25496	8.30578	2.00219	9.67286
1839.716	2.98782	7.98459	1.94821	9.37962
1843.714	2.96997	7.27447	6.55400	9.35895
1847.718	3.49473	7.15674	2.99767	10.19247
1851.721	1.81260	7.84279	1.86548	10.45692
1855.717	3.55454	7.65358	1.88640	10.19472
1859.713	2.52835	7.92233	2.04780	9.18692
1863.717	2.75754	8.04904	2.34297	8.92819
1867.720	2.43543	8.51257	1.86865	9.66205
1871.720	2.76755	8.33999	1.45252	10.33945
1875.713	3.43254	8.04858	2.24614	10.05188
1879.718	3.42379	8.10497	2.54660	9.66132
1883.716	3.21127	6.69553	4.59588	7.20725
1887.718	4.65358	7.08972	5.38383	8.41348
1891.714	4.50663	3.60553	7.13397	5.30002
1895.714	7.38283	2.57409	7.19256	4.97880
1899.713	6.60277	2.87455	6.60847	4.80746
1903.746	7.37040	2.08289	6.01463	3.14120
1907.717	7.33134	1.24246	8.17274	3.43929
1911.719	5.42368	1.88203	8.96302	2.88879
1915.712	5.00765	0.59525	7.47561	1.27503
1919.711	5.30380	0.30381	8.08920	1.95981
1923.717	4.69075	0.51316	7.88020	2.65125
1927.715	4.78949	0.44760	7.94988	-2.71289
1931.717	4.73586	0.36522	7.94506	-2.66228
1935.710	4.35738	-5.70317	8.14266	-2.33609
1939.712	4.72551	0.41532	6.95115	-2.03805
1943.715	4.68614	0.44093	7.28044	-1.82647
1947.712	5.34639	0.31250	8.66392	-1.50010
1951.718	6.10087	0.15700	9.26766	-1.66526
1955.716	6.52956	0.02452	6.85909	3.16669
1959.715	7.49929	-1.42885	5.14365	2.88629
1963.709	7.71762	0.38755	7.48888	2.56189
1967.715	4.55800	-3.96382	7.58737	2.66295
1971.716	4.50870	-3.21365	8.01513	2.61674
1975.711	4.32873	-3.15342	8.00883	2.43556
1979.718	5.41010	-3.79117	4.78134	3.26908
1983.713	3.97998	-3.72271	6.14405	2.58612
1987.711	4.10841	0.31420	6.10404	2.50363
1991.718	4.08999	1.17454	6.42300	2.92518
1995.719	4.84610	1.30704	6.00371	3.04544
1999.714	4.27489	1.34858	5.13454	2.71158
2003.718	6.58156	0.47938	5.00337	3.22931
2007.732	2.08825	-4.15681	5.31940	3.35427
2011.713	4.11478	-3.00341	8.20607	2.81972
2015.709	4.34909	-4.87880	5.09901	2.47905
2019.709	5.98012	0.39018	5.48973	3.56377
2023.712	5.78109	0.87841	5.40316	3.24524
2027.712	6.03054	-3.28386	5.20142	3.33053
2031.710	4.34090	0.37374	5.67204	3.23480
2035.719	4.04705	1.15592	5.61741	3.28729
2039.710	4.03735	-3.02303	5.64700	2.74564
2043.712	4.59699	1.14545	5.42112	2.37191
2047.710	5.39296	-2.50320	5.49131	2.38926
2051.711	5.98582	-5.01356	5.54887	2.91678
2055.712	6.09776	-3.19370	5.49901	3.35152
2059.710	6.28837	0.65256	5.68045	3.35596
2063.714	3.75407	-2.84002	5.69028	3.16087
2067.728	5.49615	0.86239	5.24218	3.37424
2071.718	5.77067	0.61489	5.27410	3.40269
2075.716	5.62458	0.67840	5.31285	3.46357
2079.713	2.06758	-1.65525	5.43696	3.27588
2083.709	3.23497	-0.39300	5.22820	3.35745
2087.709	3.96807	-1.49333	5.36991	2.83875
2091.706	5.19352	0.35267	5.44156	2.56018
2095.715	4.40502	-3.52577	5.18843	3.34732
2099.710	4.07268	-3.09973	5.29942	3.23289
2103.713	4.69349	0.75789	5.23531	3.47700
2107.714	5.67236	-2.79574	5.24142	3.50827
2111.711	6.53945	0.50823	5.40980	3.55318
2115.709	6.05165	0.08520	5.35077	3.52796
2119.721	6.33309	0.68419	5.52291	2.98213
2123.717	3.45227	-0.76613	5.73210	2.66481
2127.712	3.55760	-3.20346	5.39337	3.70626
2131.708	5.01632	0.71632	5.42023	3.89281
2135.714	3.01351	-2.55634	5.52559	3.25831
2139.711	-0.52721	-3.03340	5.61775	2.28940
2143.707	5.09813	1.14646	5.48676	1.99427
2147.714	4.82545	1.43997	5.37751	5.07124
2151.712	3.21243	2.40177	0.83779	2.33805
2155.711	4.37302	2.92205	4.74942	6.84669
2159.713	4.12399	1.28428	8.43887	6.56765
2163.715	4.17485	3.86864	13.05413	9.95430
2167.710	NaN	NaN	NaN	NaN
2171.713	NaN	NaN	NaN	NaN
2175.717	NaN	NaN	NaN	NaN
2179.711	NaN	NaN	NaN	NaN
2183.713	NaN	NaN	NaN	NaN
2187.710	NaN	NaN	NaN	NaN
2191.714	NaN	NaN	NaN	NaN
2195.718	NaN	NaN	NaN	NaN
2199.714	NaN	NaN	NaN	NaN
2203.745	NaN	NaN	NaN	NaN
2207.712	NaN	NaN	NaN	NaN
2211.736	NaN	NaN	NaN	NaN
2215.717	NaN	NaN	NaN	NaN
2219.710	NaN	NaN	NaN	NaN
2223.711	NaN	NaN	NaN	NaN
2227.712	NaN	NaN	NaN	NaN
2231.713	NaN	NaN	NaN	NaN
2235.709	NaN	NaN	NaN	NaN
2239.721	NaN	NaN	NaN	NaN
2244.495	NaN	NaN	NaN	NaN
2248.415	NaN	NaN	NaN	NaN
2252.478	NaN	NaN	NaN	NaN
2256.450	NaN	NaN	NaN	NaN
2259.714	9.10717	5.47658	NaN	NaN
2263.711	0.22812	5.63084	NaN	NaN
2267.709	-0.86654	1.82951	16.71601	8.03276
2271.709	-3.55456	12.16125	0.03010	7.93892
2275.708	-3.11524	11.97841	1.79981	1.44632
2279.711	4.07935	-6.02812	1.95574	-3.82004
2283.717	-2.85445	4.83395	2.23947	1.20553
2287.709	4.16356	5.37181	-1.95145	0.99237
2291.705	7.50412	9.29151	-8.18064	0.41751
2295.708	4.45007	1.19548	-2.06324	3.69739
2299.707	4.28616	-0.44548	-5.81071	-3.79266
2303.706	5.08158	1.03235	-7.46943	-4.41774
2307.708	4.24552	1.95560	-2.03050	-2.46249
2311.713	-4.17714	-2.39818	2.64299	0.40937
2315.709	7.11889	-2.66539	-4.33942	-3.00592
2319.705	7.44891	-2.51865	1.56858	0.24383
2323.712	7.91921	-2.77777	0.64868	0.36848
2327.712	5.67981	-1.10658	1.60799	0.32075
2331.589	3.01168	-0.97972	2.01632	0.47258
2335.580	2.62955	-0.49598	1.98358	0.58954
2339.586	-0.31871	-1.42141	1.93167	0.45497
2343.581	1.50294	-1.02059	1.68332	0.40831
2347.584	0.69149	-1.14365	1.96675	0.38677
2351.579	0.60615	-1.53771	1.81099	0.44983
2355.585	0.75404	-1.60532	1.48932	0.41026
2359.582	0.84453	-3.75582	1.25686	0.27921
2363.580	0.97172	-1.91980	1.08229	0.03093
2367.584	2.07189	-1.98358	1.32431	-1.15830
2371.582	1.25175	-1.20206	3.94241	0.25926
2375.588	1.13764	0.00402	2.23687	0.62239
2379.584	2.14523	-0.93195	1.26289	1.05713
2383.585	1.70663	-0.83860	1.16247	0.37718
2387.586	1.52094	-1.72872	1.18912	0.37504
2391.583	1.68684	-1.70810	1.06905	0.30688
2395.584	2.01652	-2.11173	0.99712	-0.24172
2399.578	1.48997	-2.28962	0.81543	-0.22705
2403.585	2.10704	-1.36706	0.79310	0.31289
2407.582	2.40377	-0.31813	0.15645	1.72917
2411.583	2.38985	-0.69300	-0.11652	0.85326
2415.587	2.38420	-1.09988	0.62885	0.27099
2419.586	2.25687	-1.24934	0.84955	0.05389
2423.581	2.64468	-2.73599	0.79662	-0.34129
2427.583	2.10848	-2.20497	0.50339	-0.27472
2431.579	2.27850	-1.99055	0.62144	-0.79026
2435.636	2.11884	-2.31253	0.60124	-0.08133
2439.586	2.27746	-1.03354	0.82955	2.13663
2443.580	2.26286	-0.23116	1.19195	1.62179
2447.580	2.04049	-0.77575	1.00499	0.31188
2451.585	2.28147	-0.76011	1.11333	0.65937
2455.604	2.17118	-0.91851	1.15399	0.70357
2459.586	2.06959	-1.06687	1.28651	0.40051
2463.579	2.14166	-1.32524	1.25148	0.73239
2467.581	1.91338	-1.12864	0.82009	0.18642
2471.580	1.75297	-1.15370	1.21534	0.69320
2475.580	1.53118	-0.98370	1.49398	0.57862
2479.578	1.54862	-0.87259	1.08860	0.50615
2483.582	1.49560	-0.87629	1.34544	0.40400
2487.581	1.58847	-0.91298	1.02928	0.39625
2491.578	1.75922	-0.92119	1.36233	0.38291
2495.582	1.24099	-0.96693	1.32143	0.41360
2499.585	1.34708	-1.35889	1.24530	0.53643
2503.577	1.27147	-3.08644	1.33160	-2.41750
2507.580	1.38257	-2.06030	1.38416	-1.43929
2511.580	1.50728	-1.91253	1.15300	-0.94186
2515.581	1.59202	-1.49463	1.10063	-0.73310
2519.579	1.63018	-1.33866	0.77225	-0.36005
2523.579	1.90911	-1.20898	0.63605	0.11358
2527.577	2.86143	-0.98625	1.19837	0.59749
2531.582	1.95054	-1.23211	1.14330	1.48878
2535.579	3.72289	-1.25893	0.87622	1.13326
2539.588	2.28816	-1.96621	0.73074	-1.12719
2543.578	3.41016	-1.61379	0.82813	-0.79017
2547.577	4.31047	-3.80936	0.66950	-0.01150
2551.577	2.25526	-1.58424	0.60178	-0.32481
2555.581	2.37862	-1.23943	0.67695	0.50640
2559.576	2.51116	-1.20576	0.59086	1.43692
2563.581	3.08961	-2.02789	0.54488	1.77532
2567.598	2.84432	-2.19333	0.66565	-0.43763
2571.584	2.48993	-2.50124	0.61091	-0.71376
2575.582	2.95418	-2.34124	0.60774	-0.95049
2579.579	2.85621	-2.04123	0.62134	-0.42966
2583.585	2.37840	-1.25722	0.55280	0.15453
2587.580	1.86960	-1.67828	0.42703	0.62265
2591.579	1.29836	-1.26218	0.32523	0.67854
2595.577	-1.22506	-1.07018	0.06736	-0.35618
2599.582	-0.43991	-2.22575	-1.59673	0.78038
2603.576	-0.75203	-2.12089	-2.55946	0.66010
2607.577	-1.16143	-1.96278	-2.96401	0.98125
2611.580	-1.58966	-1.61976	-2.89463	-0.40799
2615.577	-1.82879	-1.44540	-3.12331	-0.64288
2619.576	-2.12203	-1.41472	-3.01816	0.49023
2623.581	-1.71913	-1.56803	-2.95738	0.31506
2627.582	-1.73175	-1.62604	-3.13939	0.95767
2631.579	-1.65267	-1.77573	-2.99826	0.90873
2635.577	-1.41608	-1.41528	-2.97111	0.53566
2639.593	-1.52109	-1.58270	-2.93173	1.02690
2643.575	-1.94250	-0.50726	-2.92879	0.98999
2647.578	1.82601	-0.74883	-3.17678	0.79001
2651.577	-1.74129	-0.52448	-3.12697	0.71765
2655.582	-1.43577	-1.25861	-3.29142	0.28016
2659.576	-1.86771	-1.01568	-3.19618	-0.28041
2663.582	-1.54145	-1.13614	-2.91785	-1.10141
2667.577	-1.30327	-1.57424	-3.07283	0.49479
2671.573	-1.34594	-1.20331	-2.74885	0.96347
2675.577	-1.47890	-0.43592	-3.25881	0.81792
2679.578	-1.46559	-0.42184	-3.32803	0.50650
2683.573	-1.68704	-0.92018	-3.56692	-0.14355
2687.577	-1.51278	-1.14547	-3.18838	-1.10146
2691.577	-1.19485	-1.34330	-3.18868	0.38950
2695.582	-1.34636	-1.52233	-2.97740	0.72262
2699.577	-0.50091	-0.67365	-3.14422	0.72124
2703.577	-1.30908	-0.36036	-3.45200	0.50924
2707.580	-1.57967	-0.34730	-3.56517	-0.29813
2711.583	-1.71315	-1.12701	-3.16025	-0.65856
2715.576	-0.90646	-0.79848	-3.12519	0.58649
2719.579	-1.10085	-0.85556	-3.10569	1.18411
2723.578	-0.29200	-1.38071	-3.01970	0.92866
2727.572	-1.23699	-0.62258	-3.73393	0.79715
2731.578	-0.92296	-0.42767	-3.54457	0.70396
2735.575	-1.56196	-0.37071	-3.69373	-0.05746
2739.576	-0.87021	-0.22367	-3.70900	-0.47280
2743.572	-0.87265	-0.31179	-3.31821	-0.58065
2747.579	-1.01886	-0.76765	-3.15533	-0.80483
2751.576	-0.94170	-0.81141	-3.25842	-0.86324
2755.578	-1.23687	-1.14304	-3.19034	0.12581
2759.580	-1.10174	-1.10137	-3.23296	0.46601
2763.577	-3.39265	-0.63135	-3.21208	0.18645
2767.574	-1.90227	-0.42567	-3.41360	0.25921
2771.572	-1.26870	-0.11977	-3.30586	0.17239
2775.578	-1.50502	-0.38627	-3.20399	0.20401
2779.576	-1.54088	-0.66343	-3.23012	-0.24065
2783.575	-1.79232	-0.83228	-3.08372	0.14275
2787.615	-1.94954	-0.63949	-3.11037	0.09672
2791.587	-2.19103	-0.90906	-3.12546	0.21177
2795.574	-2.44534	-0.79758	-3.07916	0.19615
2799.577	-2.37260	-0.73280	-3.06145	0.10285
2803.575	-2.28945	-0.72746	-2.91651	0.18938
2807.576	-1.93616	-0.67632	-2.86730	0.15707
2811.572	-2.28351	-0.63394	-2.78144	0.24398
2815.578	-2.31264	-0.62355	-2.59205	0.38759
2819.579	-2.17670	-0.63230	-2.73593	1.26278
2823.574	-2.09593	-0.72805	-2.71827	1.73809
2827.578	-2.36500	-0.73132	-2.71102	2.22429
2831.580	-2.14699	-0.47524	-2.43709	-0.03677
2835.576	-1.93918	-0.64292	-2.63078	-0.65862
2839.574	-1.87917	-0.40872	-2.51358	-0.26444
2843.573	-0.93120	-0.13514	-2.61890	0.20722
2847.574	-1.69721	-0.34902	-3.31140	0.06187
2851.576	-2.20882	-0.43195	-2.72333	1.13852
2856.036	-1.85442	-0.45104	-2.42666	2.60701
2859.579	3.32854	-0.36590	-0.72042	0.65830
2863.608	6.87240	-3.02139	1.59088	0.76780
2867.574	0.40167	-3.98130	5.36066	2.30679
2871.574	0.51902	-6.89123	7.16764	1.24633
2875.576	6.28378	-0.76143	5.73342	2.31931
2879.580	6.61981	-0.77691	8.90330	0.55090
2883.572	10.52703	-0.57787	9.54114	-1.16894
2887.574	8.82075	-0.81049	8.48391	0.36283
2891.572	9.03111	-0.71796	8.76867	0.78274
2895.571	9.15560	-2.13487	8.71792	0.86194
2899.571	8.96094	-1.61503	8.05161	0.67034
2903.573	8.94801	-1.67776	8.34135	0.85797
2907.571	8.98770	-2.30798	8.72054	1.41065
2911.570	8.99709	-2.32831	9.01082	1.34777
2915.576	8.99562	-1.92074	9.36749	1.31503
2919.574	9.73260	-2.32979	9.39477	1.50515
2923.587	10.35837	-2.29259	10.22471	1.20475
2927.576	9.14194	-2.46635	10.34050	1.08538
2931.572	9.05538	-2.54777	9.86948	1.48329
2935.574	9.98131	-2.53581	9.11399	1.38302
2939.570	9.57264	-2.45826	8.17644	1.51116
2943.574	10.17942	-2.52082	8.53532	1.45007
2947.568	9.46099	-2.39418	9.16344	1.43448
2951.569	10.11406	-1.84522	8.77524	1.50243
2955.576	9.18990	-0.76343	8.99750	1.36862
2959.575	8.57175	-0.82493	8.92597	1.31695
2963.568	8.95138	-0.45572	9.06061	1.30187
2967.576	8.88453	-1.03383	9.58480	1.21513
2971.573	9.11322	-0.59631	9.25678	1.09913
2975.572	8.97341	-1.23295	8.93343	1.05308
2979.575	10.99037	-1.55828	9.18248	0.51329
2983.572	11.12350	-1.35070	9.56371	-0.26327
2987.568	9.03592	-1.60072	8.95782	-0.49508
2991.593	9.00578	-2.08816	8.62282	0.81252
2995.577	10.73337	-1.43388	8.52044	1.63013
2999.578	10.35916	-1.41134	9.04650	1.32301
3003.575	9.78761	-1.04724	8.89964	1.26449
3007.574	9.98013	-1.16535	9.02970	1.25192
3011.569	8.94176	-1.20151	8.96525	1.33244
3015.569	8.71523	-1.11916	8.99649	1.24345
3019.568	8.89310	-1.32924	9.00854	0.84354
3023.568	9.19193	-1.27297	8.85448	1.07564
3027.573	10.30593	-1.40747	8.71880	1.18456
3031.569	9.72763	-1.17378	8.88174	0.75616
3035.569	9.29698	-1.24497	8.77652	0.49778
3039.577	9.73330	-1.38125	8.48046	0.91339
3043.572	9.67808	-1.34509	8.43081	0.81278
3047.571	9.72903	-1.51818	8.65489	0.19041
3051.570	10.20668	-1.60924	8.57835	0.24303
3055.569	9.75174	-1.63762	8.68055	0.09602
3059.577	9.92302	-1.84159	8.71952	0.13092
3063.573	9.16218	-1.88207	8.74578	0.54247
3067.587	8.34660	-1.78495	9.00261	0.24067
3071.573	8.29951	-1.82098	8.80587	0.07946
3075.568	7.54025	-1.83972	8.83910	-0.01829
3079.578	9.71611	-1.85852	8.94154	0.10911
3083.574	9.62046	-1.82353	8.82686	0.32459
3087.572	9.79146	-1.87945	8.89342	0.27371
3091.569	10.01672	-1.82321	8.67711	0.77283
3095.566	9.76514	-1.78199	8.57134	0.95236
3099.568	10.46018	-1.64887	8.82051	0.77700
3103.573	8.94697	-1.20402	8.81280	0.99355
3107.569	9.71117	-1.25296	8.78784	1.02035
3111.566	9.24240	-1.33724	8.76564	1.00647
3115.572	9.34425	-1.36023	8.71734	1.37524
3119.569	9.42438	-1.30219	8.88433	1.83025
3123.573	9.40332	-1.07759	8.78326	2.25221
3127.582	9.30426	-1.04323	8.83832	2.68626
3131.569	9.95432	-0.92366	9.30974	-0.87772
3135.574	10.15422	-0.77907	8.45380	0.88933
3139.569	10.26845	-0.68357	8.66411	-0.31547
3143.571	9.83228	-0.89681	8.81399	0.12973
3147.566	10.40673	-1.07608	8.77075	0.37179
3151.571	11.26206	-1.21068	8.59303	0.15904
3155.567	11.70661	-1.28533	8.63357	0.13210
3159.570	9.45549	-1.29850	8.68761	0.20771
3163.570	9.95382	-1.20906	8.74690	0.11781
3167.573	9.99289	-1.07910	8.67420	0.14162
3171.568	9.83708	-1.03357	9.07903	0.18040
3175.570	9.32927	-0.97629	8.91466	0.23793
3179.565	9.55850	-0.91650	8.94956	0.28916
3183.571	8.51960	-0.88259	8.88140	0.33998
3187.445	8.29555	-1.00876	8.99194	0.38366
3191.446	10.61322	-0.43699	9.10560	0.39431
3195.597	12.67216	-1.12996	10.78896	0.24002
3199.452	11.90683	-2.00724	13.27374	0.19234
3203.444	16.32426	-3.37871	13.31065	0.16061
3207.438	15.63122	-3.52917	12.85352	-0.67930
3211.451	15.68203	-4.33686	13.09534	-1.40039
3215.444	13.06989	-4.07430	13.21648	-1.68480
3219.444	15.99030	-4.28400	13.30952	-1.85740
3223.441	15.77389	-3.88793	13.27642	-1.93341
3227.446	15.34130	-3.68981	13.29142	-1.98182
3231.443	15.00579	-3.78549	13.03765	-1.92848
3235.444	15.46793	-4.10615	13.02667	-1.97144
3239.440	15.26720	-3.64372	13.09016	-2.00831
3243.446	13.75994	-3.60884	12.79843	-1.97977
3247.442	14.36686	-3.28387	12.53864	-2.02479
3251.449	14.24564	-3.55143	12.56971	-2.17828
3255.445	14.66896	-3.56497	12.81783	-2.53868
3259.444	14.88651	-3.87388	14.12621	-2.15895
3263.446	13.63902	-3.77742	14.14182	-2.24523
3267.446	16.02181	-4.39646	14.20096	-2.22074
3271.440	13.89720	-4.61760	13.23163	-2.21837
3275.443	13.91402	-4.52298	13.77900	-2.16452
3279.438	14.01351	-4.64637	13.02999	-2.23105
3283.443	17.19696	-4.85653	13.49378	-0.05657
3287.443	18.45692	-5.20488	12.32537	-0.43226
3291.438	17.96278	-4.69058	13.80898	-0.78848
3295.447	18.28423	-5.19256	13.72692	-1.39250
3299.444	17.67049	-5.07533	13.46245	-1.62842
3303.439	17.20833	-3.32031	12.91682	-1.23887
3307.444	16.52741	-3.94659	12.89470	-2.13016
3311.440	15.45984	-3.54150	12.98435	-2.14906
3315.443	15.57102	-3.50803	13.06125	-2.45553
3319.446	15.10693	-3.73220	12.10900	-1.23452
3323.443	14.88394	-3.64649	12.19448	-1.24066
3327.441	12.73800	-3.16627	12.00241	-1.53448
3331.444	13.35727	-3.46415	12.18889	-1.67211
3335.446	13.36023	-3.68239	11.91037	-1.79650
3339.441	17.04276	-5.13498	13.01041	-1.70424
3343.443	15.74175	-3.58199	13.68902	-2.17251
3347.440	16.72136	-4.18942	13.24922	-2.22553
3351.441	17.76489	-5.03504	13.61054	-0.03734
3355.438	19.93200	-5.73998	11.96888	-0.99681
3359.443	16.53642	-3.83188	13.87206	-1.16840
3363.440	13.19369	-2.39941	13.77792	-0.80398
3367.440	14.27114	-2.83672	13.86050	-0.64548
3371.438	13.72439	-3.26310	12.41615	-0.84779
3375.442	14.98926	-3.24245	11.79865	-1.49049
3379.445	14.41450	-3.31841	13.74184	-1.67443
3383.440	14.94782	-3.02346	13.76734	-1.32833
3387.442	15.02689	-3.38755	11.73424	-0.97845
3391.436	14.37976	-3.21578	13.22657	-0.38960
3395.442	12.84793	-3.16540	13.62146	-0.49671
3399.442	13.67583	-3.12207	13.69600	-0.65858
3403.442	13.98202	-3.14526	11.85250	-0.30786
3407.441	14.48729	-3.27251	11.99308	-0.35828
3411.436	15.01772	-3.37117	11.58732	-0.31594
3415.437	14.69388	-3.36783	11.45336	-1.40740
3419.443	15.06260	-3.37020	11.52938	-1.07147
3423.436	14.51963	-3.44775	12.16017	-1.89126
3427.438	12.97801	-3.44929	13.53317	-1.62698
3431.442	13.37441	-3.36258	13.62298	-1.50493
3435.440	13.33175	-3.41958	12.87546	-1.80661
3439.441	13.34310	-3.46758	13.74615	-1.99893
3443.441	15.16077	-3.52015	13.94394	-2.70217
3447.440	14.61355	-3.55802	10.97251	-1.98268
3451.439	14.65298	-3.52845	10.86297	-1.74658
3455.435	14.48769	-3.49969	11.56164	-1.70985
3459.447	13.22032	-3.51447	12.08338	-1.55891
3463.443	13.00429	-3.46518	12.26251	-1.73441
3467.442	13.11015	-3.38161	11.93885	-1.87927
3471.440	13.46451	-3.44467	11.93394	-1.88147
3475.436	13.28613	-3.45709	11.89110	-1.93675
3479.441	14.90433	-3.45512	11.95451	-1.98166
3483.439	14.71949	-3.40401	12.15782	-1.81858
3487.478	13.92028	-3.37807	12.14098	-1.79964
3491.442	13.50903	-3.32692	12.19493	-1.51799
3495.436	12.74844	-3.20055	12.53317	-1.63896
3499.437	13.31069	-3.02337	12.53199	-1.30745
3503.444	14.09371	-3.08082	12.05917	-1.73848
3507.437	14.81384	-3.11607	11.86505	-1.96533
3511.437	15.31009	-3.17760	12.81080	-1.89056
3515.440	15.97881	-3.25132	12.43985	-1.51664
3519.437	16.60559	-4.72879	12.16328	-1.56686
3523.438	13.83301	-4.10949	12.17618	-2.08288
3527.434	12.71080	-6.57247	12.19486	-1.84955
3531.436	17.23095	-5.25761	11.84470	-1.82059
3535.434	18.03345	-5.44693	12.37032	-1.54344
3539.441	18.21714	-4.97215	11.64097	-1.21480
3543.440	14.77902	-3.69315	11.64259	-0.48091
3547.440	14.97020	-3.58920	12.71708	0.52172
3551.436	14.56678	-3.36738	12.04882	0.64171
3555.435	16.75323	-4.26956	14.15925	-3.02492
3559.436	17.02406	-4.70702	11.68462	-1.85238
3563.439	18.08087	-4.65575	11.73290	-1.51657
3567.457	17.33755	-4.53519	12.75875	-1.92583
3571.441	14.78930	-4.28086	13.92861	-1.81212
3575.440	14.72492	-3.35761	12.97318	-1.13338
3579.436	13.16487	-3.13322	11.60568	-1.13446
3583.434	13.62877	-3.26509	11.52755	-0.67538
3587.443	13.57190	-2.65376	11.43679	-0.21031
3591.435	16.16248	-2.86130	11.11449	-0.70398
3595.437	16.81576	-3.87783	11.07150	-0.41023
3599.432	17.08939	-4.03976	11.18535	-1.74900
3603.432	16.95456	-3.39209	11.18969	-1.52404
3607.441	15.64369	-3.60168	11.19533	-1.06924
3611.435	16.02740	-3.30271	11.10178	-0.89161
3615.437	14.71535	-3.67527	11.19607	-0.77989
3619.434	14.13841	-3.72218	11.22427	-1.26536
3623.438	16.40980	-3.76899	11.79460	-2.00568
3627.444	16.56323	-3.85439	12.40321	-2.09718
3631.436	16.96977	-3.96778	11.98108	-2.23427
3635.440	16.47336	-3.95715	12.01616	-2.45223
3639.436	15.91225	-3.94981	12.09477	-2.44858
3643.437	14.64958	-3.91128	11.99341	-2.52791
3647.437	12.44881	-3.96423	13.77724	-2.54319
3651.433	14.31883	-3.97430	13.03640	-2.54769
3655.438	13.90855	-3.84406	13.32235	-2.59199
3659.436	13.16623	-3.78266	13.17696	-2.66093
3663.436	16.44453	-3.83220	12.42557	-0.32156
3667.436	16.52554	-3.75292	12.14025	-0.39207
3671.439	16.06353	-3.85934	12.10015	-1.48954
3675.440	15.04253	-2.84165	13.34505	-1.51965
3679.439	15.62802	-3.11281	11.38085	-1.34813
3683.437	13.91942	-2.97586	12.05976	-1.94577
3687.432	14.05465	-3.53683	12.04766	-1.42472
3691.440	13.79000	-3.54111	12.20807	-1.41796
3695.461	14.65033	-3.35158	11.79553	-1.88769
3699.430	16.08048	-3.90961	12.90668	-1.46033
3703.437	15.98367	-3.00347	12.23327	-1.18671
3707.434	15.79795	-3.08337	11.83957	-1.25306
3711.441	15.40906	-3.28222	11.67441	-1.28400
3715.431	16.62186	-4.23867	11.43657	-1.47485
3719.432	16.84064	-3.51160	11.29021	-1.25635
3723.434	16.74123	-3.59541	11.66187	-0.94506
3727.431	16.68619	-3.34375	12.12865	-1.34003
3731.431	16.81287	-3.32039	13.01826	-1.81762
3735.436	15.33151	-3.21512	12.21750	-3.54635
3739.431	15.19281	-3.37901	13.86390	-3.71005
3743.437	14.60174	-3.84365	11.75384	-0.82617
3747.434	13.92255	-4.01742	11.45598	-0.86404
3751.437	18.58701	-4.43148	11.58868	-1.20128
3755.461	16.98970	-4.06966	12.56259	-1.36489
3759.439	16.25420	-3.17257	12.08333	-2.17232
3763.434	14.85461	-3.17725	12.27296	-2.70077
3767.432	14.36437	-3.48999	12.82554	-2.51838
3771.431	13.36723	-3.69757	12.47458	-1.95133
3775.434	14.21402	-4.07720	13.76628	-2.04778
3779.435	14.15757	-3.81630	12.14973	-1.59978
3783.429	17.05991	-4.21901	14.17322	-2.29823
3787.435	16.71827	-4.01468	14.12084	-1.56672
3791.432	16.70927	-4.15064	12.13738	-1.92159
3795.435	16.14549	-4.07397	12.12039	-1.49178
3799.434	15.90874	-3.69617	12.18450	-1.60584
3803.438	15.15568	-3.99107	12.08499	-1.64149
3807.437	14.81511	-3.81816	11.92450	-1.68472
3811.435	17.95422	-5.17715	12.23806	-1.64637
3815.432	18.19052	-7.29706	11.42790	-1.14697
3819.470	9.03551	-2.93377	10.08738	-0.96134
3823.436	8.85797	-1.33121	12.40557	-2.06389
3827.431	3.62116	0.45176	6.61295	0.34086
3831.435	7.53232	-3.86609	4.93736	0.45497
3835.437	3.52170	-3.76241	3.79828	1.14836
3839.436	2.75185	-6.85524	2.18748	0.92659
3843.432	1.93817	-0.83571	2.22267	0.83377
3847.434	2.48344	-0.41453	0.92525	0.84415
3851.430	0.53555	0.06659	-1.28360	0.41539
3855.435	-2.18149	0.71056	-1.36945	0.86702
3859.431	-2.41346	0.23521	-1.69326	1.19088
3863.430	-2.22579	-0.18948	-1.64560	1.50229
3867.429	-2.06775	0.25406	-0.55064	1.60302
3871.435	-1.36139	0.07681	-0.26220	1.39822
3875.437	-2.50486	0.49816	-1.67400	0.38822
3879.437	-2.43669	0.08898	-1.88583	1.06458
3883.435	-2.10748	0.22361	-1.80754	1.74224
3887.431	-2.14573	1.08268	-1.32595	2.22958
3891.431	0.46641	0.02661	-1.29209	1.48189
3895.435	0.03738	0.88925	-1.93876	0.25890
3899.431	-2.01494	0.53287	-2.25162	1.37271
3903.429	-1.69200	0.93277	-1.86719	1.66868
3907.430	4.91962	-4.05916	-1.98090	0.71365
3911.434	-1.56655	0.48352	-2.38633	1.57090
3915.430	-1.79061	0.41708	-2.11859	0.47349
3919.453	-1.75962	0.35696	-1.75624	1.29108
3923.433	-2.18917	0.14211	-1.73542	1.62949
3927.459	-1.71119	0.12975	-2.06401	1.58310
3931.433	-2.95391	0.14207	-2.01199	1.04472
3935.431	-1.45748	0.14915	-1.53418	0.69249
3939.428	-1.39150	0.15141	-1.29616	1.31885
3943.458	-1.41993	0.19379	-1.43721	1.79584
3947.436	-1.14518	0.12236	-1.73537	2.34891
3951.427	-1.31486	0.30134	-0.91810	0.97538
3955.432	-1.78347	0.15518	-1.41303	1.66667
3959.435	-1.52089	0.04079	-1.51732	0.92975
3963.433	-1.47022	0.20330	-1.91432	1.07857
3967.440	-0.46329	0.16149	-1.51261	1.38856
3971.430	0.84667	0.13116	-1.05041	1.18064
3975.429	-0.22559	0.15565	-0.78737	1.40056
3979.427	-1.08205	0.29274	-0.96112	1.64272
3983.428	-1.58406	0.38183	-1.55474	1.94755
3987.428	-1.40542	0.56508	-1.44366	1.60830
3991.431	-1.68216	0.40424	-1.37459	1.47373
3995.429	-1.52759	-0.05286	-1.58537	1.19171
3999.426	-1.34142	0.20393	-1.53198	1.39617
4003.432	-0.67933	0.23978	-1.28688	1.31900
4007.429	-1.46720	0.49154	-1.27919	1.37561
4011.432	-1.71541	0.31142	-1.41866	1.36352
4015.428	-1.69612	0.41872	-2.20243	1.25040
4019.433	-0.81590	0.02646	-2.22111	0.95291
4023.428	-0.81761	0.16530	-2.05231	1.39396
4027.426	-1.05061	-0.01252	-0.25445	1.09394
4031.425	-1.31744	0.33743	0.39809	1.09753
4035.430	-0.55972	0.62532	-1.37027	1.55726
4039.304	-0.21487	0.31396	-2.50687	0.96294
4043.302	-0.41259	0.18718	-1.58728	1.21016
4047.307	-0.64503	0.06530	-0.28069	1.16259
4051.303	-1.14948	-0.01391	-1.91209	0.88397
4055.302	-0.17732	0.07723	-1.56511	1.11333
4059.305	-0.41827	-0.00241	-2.16662	1.20132
4063.300	-0.52116	0.04768	-1.99892	1.45104
4067.306	-0.88364	-0.02897	-1.84587	2.06196
4071.308	-1.08827	0.10840	-1.90108	1.84873
4075.309	-1.15602	0.12425	-2.20624	1.17061
4079.301	-0.94048	0.51390	-0.83607	1.25395
4083.305	-1.05438	0.16020	-1.72924	1.34733
4087.305	-0.78265	0.43625	-2.46966	1.12187
4091.309	-1.98569	0.33625	-2.46922	1.12150
4095.303	-2.48284	1.59482	-2.52701	1.25455
4099.301	2.53662	-3.37151	-5.62009	1.10024
4103.317	-4.26366	1.05572	-1.45363	-1.74870
4107.313	-7.73745	1.49193	-4.22118	-1.87677
4111.300	0.93088	-3.25966	-2.80392	-1.91185
4115.307	-7.46924	1.60048	-3.94960	-2.21813
4119.301	-7.38190	1.82539	-5.44532	-2.62237
4123.331	-6.86403	2.34969	-1.54614	1.18267
4127.298	-7.21117	1.66440	-3.24313	-5.36991
4131.309	-6.75742	1.75972	-4.46043	0.61774
4135.327	-6.74521	1.55966	-2.42520	-0.73131
4139.305	-6.11910	2.05212	-4.38891	-1.76743
4143.304	-6.64498	1.77130	-5.03041	-2.57937
4147.299	-2.43493	-2.03605	-6.00889	-3.21135
4151.304	-4.80923	1.90273	-3.89001	-4.86285
4155.300	-6.41805	1.83881	-5.42540	-5.12032
4159.301	-6.79843	-1.58012	-6.89216	-6.83893
4163.300	-6.17035	2.30459	-6.55890	-1.53092
4167.302	0.25909	-1.47597	-6.61812	-7.71180
4171.306	-6.42273	1.62657	-6.76736	-8.14282
4175.304	-10.43378	-1.54537	-7.47890	-8.72387
4179.301	-4.62182	2.20476	-7.18760	-8.95888
4183.299	0.94172	-3.31965	-8.42585	-8.91443
4187.299	-6.60566	1.76476	-8.08878	-8.35184
4191.299	-4.99517	1.77148	-7.08573	-8.96511
4195.299	-4.89028	2.56208	-3.93263	-9.22219
4199.304	-5.24060	1.93234	-19.99372	-12.07720
4203.301	-6.36712	2.07747	-3.89184	-15.00405
4207.308	-6.39695	1.97245	-11.46988	-9.14648
4211.298	-6.21527	2.13168	-13.46165	-14.68964
4215.309	-4.45239	2.05052	-7.33476	-12.26503
4219.302	-5.67386	1.98914	-0.32873	-0.73325
4223.304	-4.58368	1.93128	-3.49171	1.51167
4227.301	-7.44891	-2.58071	-10.42127	-12.47357
4231.298	-0.55292	-2.49619	-19.99372	-11.97380
4235.298	-0.57138	-2.41285	-3.86840	2.22768
4239.299	-7.91887	0.28850	0.67258	1.39449
4243.304	-0.12252	-2.43087	-4.11900	0.83544
4247.303	-4.24949	1.91730	-3.80713	1.78714
4251.297	-6.04387	-1.94497	-0.84419	-1.43654
4255.308	-4.15939	1.93113	-4.40184	2.62955
4259.303	-4.62303	2.07245	-7.16891	-8.24889
4263.300	-4.45594	1.09035	-6.15316	1.70668
4267.303	-4.35321	1.42151	-1.20876	2.15794
4271.299	0.14749	-1.73833	-1.26143	2.33803
4275.301	-5.21077	1.95236	-0.14062	1.71283
4279.297	-5.01809	1.76744	-4.68775	0.96341
4283.298	0.19727	-2.08262	-4.97137	0.12536
4287.304	-4.02164	3.32998	-5.43329	1.86808
4291.302	0.33280	-0.38937	-5.03162	1.76429
4295.304	0.26656	-0.84791	-5.36353	1.86279
4299.305	-5.41408	2.42639	-5.00832	2.45889
4303.304	2.63782	-2.39894	-4.70022	1.45571
4307.301	1.03067	-2.08577	-5.64847	3.06521
4311.298	-0.74459	-0.45660	-5.51725	-1.83350
4315.301	0.17511	-0.68081	-4.08782	-2.03026
4319.302	2.16414	-2.65241	-5.24452	0.44021
4323.301	0.52739	-2.17614	-3.34457	0.66231
4327.298	-5.10583	1.67744	0.38611	1.09417
4331.297	-5.79123	-1.79136	-1.03729	1.63419
4335.303	-5.27774	-1.57845	-1.33148	3.16763
4339.321	-0.56456	-0.84599	-5.35596	1.41337
4343.299	-0.94996	-0.44627	-5.21779	0.87602
4347.297	0.92574	-2.87675	-5.45393	1.14441
4351.299	-5.65553	2.17323	-4.69783	2.49685
4355.297	0.00429	-1.37005	-4.25314	1.42165
4359.301	-0.63072	-3.09390	-8.37130	1.24085
4363.297	-4.55648	-0.65384	-1.81932	-0.55657
4367.299	-6.19113	2.50719	-5.03334	0.61294
4371.296	-0.51982	-2.76472	-5.05979	2.14216
4375.295	-0.22519	-2.45970	-4.49746	-0.47003
4379.302	-6.42508	2.68641	-5.07914	-0.38958
4383.302	0.32913	-1.42925	-5.49667	-0.21153
4387.299	-3.16733	-1.63067	-8.08696	-0.06584
4391.294	-4.09740	2.59185	-5.60099	-0.22658
4395.295	-4.23029	2.11639	-5.26450	0.06416
4399.299	1.90277	-2.15306	-4.89456	2.08751
4403.297	-4.59677	2.55889	-1.93269	2.12597
4407.301	-6.00774	2.64162	-0.67546	-0.28358
4411.295	0.18693	-0.87571	-2.56433	1.93965
4415.297	-5.97300	2.54732	-3.79176	-0.23357
4419.297	-6.80617	2.36039	-5.09249	0.65503
4423.300	1.08016	-1.94745	-5.14576	0.51986
4427.297	-0.03090	-0.83927	-6.26333	2.58095
4431.293	-4.22091	2.01977	-3.55177	1.72397
4435.294	-0.11022	-2.12936	-5.25335	1.50161
4439.298	-1.63306	-1.27091	-4.15421	1.70946
4443.299	1.98869	-2.47031	-3.99998	0.46550
4447.296	-5.20410	2.25052	-4.96194	0.68034
4451.299	-4.88887	1.90790	-1.85435	0.77049
4455.297	-3.56413	0.30664	-4.34421	2.12157
4459.295	-0.34111	-0.65384	-5.33682	0.61826
4463.298	-8.34521	-1.27504	-4.84965	0.85194
4467.302	0.27533	-2.65779	-4.39402	0.32389
4471.296	-3.58025	2.11642	-5.82245	1.58441
4475.297	-3.65346	1.62789	-5.86116	1.65131
4479.295	-5.18481	1.83722	-4.69384	0.55330
4483.299	1.85269	-1.30755	-4.67618	-0.58645
4487.296	2.16587	-5.71022	-4.82050	1.36760
4491.299	-5.59359	1.77619	-3.21589	0.49031
4495.294	2.17274	-1.10786	-4.00598	-0.86490
4499.298	-6.91474	1.78741	-5.78814	1.13521
4503.298	-3.06028	-2.11785	-4.85398	1.85492
4507.305	-2.43352	0.69405	-5.87909	1.96106
4511.304	0.51905	-3.29077	-6.72690	0.49187
4515.297	-6.57228	0.93030	-6.30897	2.88520
4519.297	-5.76986	0.66530	-4.99977	1.44452
4523.297	-5.72740	0.76156	-4.94243	1.42624
4527.301	-5.07444	0.67777	-5.08759	1.30375
4531.297	1.74092	-3.95816	-5.51747	0.54918
4535.298	2.01196	-5.57108	-6.28513	2.35390
4539.294	-4.84489	1.76528	-6.53487	2.57398
4543.298	-7.10282	-2.13604	-6.07359	2.14057
4547.302	-2.58633	-2.25830	-5.81788	1.37772
4551.294	-5.12408	-1.28344	-6.12892	1.36293
4555.293	1.55189	0.47324	-6.71402	1.94771
4559.297	-4.56064	1.23880	-6.40820	1.98203
4563.356	-5.14914	0.15537	-5.35888	0.16455
4567.305	0.01010	-1.11628	-5.34137	1.45057
4571.294	1.88938	-5.13866	-1.68384	2.29377
4575.295	-3.63762	2.00751	-1.76780	3.26099
4579.290	-0.01425	1.20545	-1.54472	3.25799
4583.296	1.43982	0.54662	-1.86023	1.63399
4587.300	2.06590	0.72595	0.79027	1.38290
4591.300	3.93529	0.32879	3.39703	1.78376
4595.298	2.14823	0.21827	3.20924	1.27218
4599.293	2.44564	0.72159	2.89822	1.91107
4603.297	6.45079	-2.06076	0.01839	1.00524
4607.292	5.09177	-3.06554	-0.05728	1.31950
4611.291	5.56259	-0.23063	0.20618	1.11618
4615.292	5.52859	-2.27775	0.97695	1.30282
4619.292	4.46727	-0.01551	0.95547	0.93717
4623.291	4.85997	-3.57880	0.26011	0.79740
4627.292	5.66877	-3.39612	1.71709	1.02635
4631.304	5.96389	-3.74265	2.17370	1.25035
4635.295	5.49844	-1.79363	0.37189	1.18119
4639.292	6.19586	-2.99724	0.44390	1.68225
4643.292	4.52419	-3.06703	0.26508	1.01157
4647.293	4.65925	-2.98077	0.35739	0.78251
4651.291	8.65928	-3.53996	1.03714	0.97309
4655.289	4.78114	-4.50402	0.67553	1.16481
4659.290	7.55581	-2.68121	0.51421	1.16827
4663.293	5.84736	-2.76766	0.43971	1.11988
4667.296	5.79983	-1.65964	0.40355	1.05835
4671.296	5.29063	-1.44139	0.52441	0.86795
4675.311	4.24860	-2.48597	0.49520	0.33937
4679.293	4.67692	-1.60177	1.63893	0.63578
4683.296	-1.18492	-2.84419	0.61049	0.42084
4687.296	5.25690	-2.48540	0.43016	0.71378
4691.313	2.87341	-2.98349	0.57362	3.20658
4695.297	5.35362	-3.09377	0.51006	3.28178
4699.296	4.10308	-2.66883	0.36236	0.70003
4703.293	3.63559	-2.74191	0.23398	-0.02296
4707.294	3.97849	-2.81815	0.75057	0.41258
4711.290	3.72652	-1.64114	0.85992	0.39724
4715.300	4.88690	-2.93213	0.19715	0.46039
4719.296	3.94836	-2.83222	-0.17784	3.25376
4723.294	7.41534	-2.44995	1.00303	0.53145
4727.290	5.09241	-2.38539	0.78913	0.66629
4731.295	4.92595	-2.59591	0.23358	0.04175
4735.291	4.77520	-2.29417	0.73310	-0.07665
4739.292	5.15660	-2.83674	0.96259	0.27251
4743.288	7.47077	-3.27312	-0.26272	0.44660
4747.296	5.17240	-2.12755	0.32124	0.57530
4751.292	5.16002	-2.78693	0.62280	0.57307
4755.300	5.54395	-4.60665	1.93546	0.51864
4759.294	4.49593	-3.40543	0.62598	0.51202
4763.292	8.97712	-4.55163	0.58640	0.40126
4767.291	5.51464	-4.86734	0.68923	0.55244
4771.289	1.55631	-1.36542	1.00350	0.23012
4775.295	3.11942	-2.67768	1.68828	0.03992
4779.321	8.10092	-4.58796	0.62496	0.43980
4783.292	4.88875	-3.23436	0.69263	0.53597
4787.295	4.53709	-2.62328	0.67958	0.11311
4791.290	2.28797	-3.15374	0.88664	0.15767
4795.296	2.29471	-0.61942	0.87500	0.70955
4799.300	2.92941	-0.64305	0.75201	0.40922
4803.297	5.66806	-1.85588	0.73905	-0.07052
4807.292	3.36174	-2.63761	0.76866	0.27396
4811.292	2.32325	-2.56909	0.93120	0.01270
4815.293	2.31884	-2.68530	0.88272	-0.34943
4819.292	3.55787	-1.81289	0.68940	0.83481
4823.291	4.57426	-2.16738	0.95170	0.81069
4827.292	6.14710	-2.09675	0.79116	-0.18019
4831.290	4.06663	-2.24437	1.21353	-0.18354
4835.288	6.76672	-5.66254	1.36836	-0.38795
4839.303	6.05523	-1.66376	3.11158	-0.39466
4843.290	6.09170	-1.69828	3.04395	0.59428
4847.291	5.98123	-1.73238	2.73477	0.34647
4851.287	4.85024	-2.01178	1.42841	-0.34186
4855.292	7.13996	-2.34835	0.54674	-0.30826
4859.288	5.47862	-2.22978	0.46688	-0.42917
4863.291	5.92837	-1.57581	0.51478	0.36161
4867.288	5.95965	-1.65684	0.49954	0.55149
4871.291	5.40651	-1.45427	2.45245	0.79447
4875.290	5.45405	-1.41608	1.24612	0.07759
4879.295	5.16721	-1.56901	0.34821	0.06133
4883.292	7.63957	-2.40984	1.37111	1.03063
4887.291	7.06554	-4.22985	0.86865	0.64108
4891.161	5.58592	-2.46499	0.49488	-0.29067
4895.162	5.12432	-2.71891	0.03259	1.23665
4899.169	4.92351	-2.20329	0.12466	0.76424
4903.163	4.04535	-2.38343	0.69404	1.08205
4907.166	0.30617	6.31745	-0.20680	1.08403
4911.160	6.94071	-1.53735	-0.33062	1.74268
4915.164	8.82785	-2.58129	1.37106	1.38932
4919.164	7.41965	-3.50817	1.25555	0.73723
4923.163	6.33392	-3.23669	2.94653	0.12954
4927.171	-1.64382	6.38133	0.96998	2.63478
4931.164	8.41021	-6.66050	1.39215	1.31934
4935.160	7.21777	-3.00187	0.94822	0.97642
4939.161	4.92410	-2.28086	0.89785	0.87608
4943.168	6.21392	-1.96715	0.46172	2.28072
4947.170	1.03104	-1.18080	0.55592	2.39249
4951.166	3.96140	-2.86101	0.53952	2.82824
4955.162	-1.84228	1.58768	-2.55532	3.02483
4959.163	0.73044	0.68674	-2.48205	3.24692
4963.165	-2.48069	1.57699	-2.97423	3.98637
4967.170	-2.05385	2.30281	-3.34272	4.54691
4971.172	-2.55866	2.68000	-2.76884	3.53236
4975.161	-2.54544	2.57449	0.32479	4.79038
4979.163	-1.97071	3.10370	-2.64703	5.65727
4983.160	-1.77962	2.55951	-2.49951	4.78540
4987.165	-2.11393	2.72879	-1.59717	3.81291
4991.161	-1.50043	2.76559	-3.47092	4.73471
4995.163	-0.28716	3.24145	-3.49124	4.29502
4999.162	-0.42763	3.13198	-3.27569	4.39283
5003.187	0.74548	2.73614	-3.68770	4.58062
5007.166	-2.16853	4.37753	-2.84581	3.91295
5011.171	-1.80236	2.84295	-1.96387	4.53298
5015.160	-1.60737	2.49723	-3.34756	5.62596
5019.159	-1.96117	2.47742	-2.43127	4.46384
5023.164	-2.22386	2.75193	-1.72713	5.03596
5027.161	-1.40420	2.84311	-3.68409	4.81469
5031.165	-1.36633	2.45146	-3.88127	4.55866
5035.162	-0.63918	3.30952	-3.75593	4.75968
5039.159	-0.56940	3.13144	-2.26931	4.86007
5043.160	0.29163	2.99441	-3.79672	5.39063
5047.163	1.75124	2.39969	-2.97898	4.79486
5051.164	1.61689	2.92680	0.54726	4.99552
5055.158	-2.35100	3.23152	-4.06631	3.56232
5059.163	-2.18387	2.59300	-1.96719	5.04901
5063.161	-1.48188	3.42423	-1.99778	4.04287
5067.183	4.53606	1.41933	-3.85498	5.38881
5071.169	5.02728	-1.44926	-1.43630	3.96205
5075.164	-1.63018	3.25650	-3.76673	5.31361
5079.158	-1.01734	2.89516	-3.70846	5.06942
5083.160	5.87391	0.32821	-3.38202	4.90444
5087.164	4.42775	-0.85054	-3.76712	4.89193
5091.165	-1.26470	3.20313	-3.61938	4.26993
5095.165	3.48081	1.49555	-2.56884	4.12578
5099.162	-1.26877	2.96409	-3.50388	4.29720
5103.163	0.32005	3.06351	-2.52119	4.08336
5107.158	0.14104	3.83556	-3.70438	5.04565
5111.163	-0.17953	3.25505	-4.11372	4.54646
5115.159	2.89475	1.91928	-4.64958	4.90906
5119.158	-1.31831	2.73904	-3.23662	4.87924
5123.159	-1.26098	3.81003	-3.40368	3.80092
5127.164	-1.63028	3.69277	-2.76148	5.28897
5131.162	-1.95939	2.83564	-3.05573	3.79987
5135.161	-1.69966	2.94270	-2.61080	4.86470
5139.165	0.29034	3.16862	-3.64066	4.77896
5143.160	0.72146	3.18506	-3.49972	4.98594
5147.162	-1.77469	3.96951	-2.71364	5.29224
5151.156	3.27064	-0.10181	-4.05147	4.89512
5155.157	6.46978	-0.13121	-1.37201	5.31915
5159.158	-0.79942	3.26443	-0.51669	5.52689
5163.157	-0.47113	4.01823	-2.65419	5.73544
5167.166	-0.28466	3.62248	-3.50294	5.71393
5171.161	-0.67843	3.45937	-2.55700	5.82014
5175.162	-1.24791	3.52750	-3.21750	5.76867
5179.162	-1.85410	5.02975	-3.49102	5.41966
5183.163	-2.34399	4.41869	-3.64036	5.20865
5187.162	-1.04974	4.23058	-5.71050	6.12401
5191.161	-1.79460	4.08177	-3.17641	6.80393
5195.160	-1.09596	4.72109	-3.55874	5.90963
5199.158	-1.40266	4.29010	-5.04779	5.33332
5203.155	-2.12047	4.10326	-5.39792	3.07270
5207.161	-0.84729	4.39094	-4.01675	6.20001
5211.159	2.14446	2.63007	-4.12056	5.79039
5215.159	-4.67618	4.59999	-5.53018	5.41049
5219.160	6.94690	1.74840	-6.03906	5.25911
5223.160	6.56069	2.89397	-4.68188	6.08994
5227.178	6.40888	1.76012	-4.90917	5.51344
5231.165	6.34032	1.13182	-4.84112	11.65904
5235.163	6.38479	4.66704	-7.39034	8.19768
5239.162	6.06804	5.07228	-1.44832	7.87839
5243.159	3.60398	10.70694	3.52484	-0.68629
5247.158	6.33669	4.10625	-1.33108	5.22743
5251.156	1.88073	8.85128	-13.79269	1.42136
5255.158	1.56030	8.62117	NaN	NaN
5259.163	-1.34614	13.94189	-16.60306	1.82839
5263.155	-4.16040	14.37427	-4.88762	5.08032
5267.155	-19.57778	8.07644	NaN	NaN
5271.158	-18.54194	8.90028	NaN	NaN
5275.159	-21.19771	10.90667	NaN	NaN
5279.155	-18.30978	-3.64114	NaN	NaN
5283.159	-19.87030	-12.08658	NaN	NaN
5287.158	-19.91270	-12.08344	NaN	NaN
5291.156	-22.68501	4.19461	NaN	NaN
5295.160	-23.07529	7.81988	NaN	NaN
5299.157	-19.93689	-12.08165	NaN	NaN
5303.161	-22.68596	8.36121	NaN	NaN
5307.155	-19.95130	-12.08058	NaN	NaN
5311.158	-20.00779	-12.07638	NaN	NaN
5315.157	-20.01518	-12.07583	NaN	NaN
5319.162	-19.98929	-12.07775	NaN	NaN
5323.155	-19.99392	-12.07741	NaN	NaN
5327.158	-19.99392	-12.07741	NaN	NaN
5331.154	-23.00598	8.99503	NaN	NaN
5335.156	-19.99388	-12.07741	NaN	NaN
5339.158	-19.99385	-12.07741	NaN	NaN
5343.163	-19.99385	-12.07741	-20.00893	6.47446
5347.154	NaN	NaN	-20.00819	-12.07635
5351.159	NaN	NaN	-20.00808	-12.07635
5355.156	NaN	NaN	-20.00792	-12.07637
5359.158	NaN	NaN	-20.00770	-12.07638
5363.155	-23.35977	10.77773	-20.00742	-12.07640
5367.162	-23.24361	9.33199	-20.00709	-12.07643
5371.158	-22.78408	10.45078	-20.00672	-12.07646
5375.158	-13.68682	14.06424	-20.00628	-12.07649
5379.155	-19.99418	-12.07739	-20.00582	-12.07652
5383.167	-19.99418	-12.07739	-20.00531	-12.07656
5387.157	-21.23830	11.77289	NaN	NaN
5391.159	-20.35959	12.81588	NaN	NaN
5395.155	-20.82277	11.32325	NaN	NaN
5399.158	-21.15494	11.97061	NaN	NaN
5403.154	-20.24120	-12.05889	NaN	NaN
5407.160	-20.19094	-12.06267	NaN	NaN
5411.156	-20.15670	-12.06524	NaN	NaN
5415.157	-21.35799	10.96451	NaN	NaN
5419.153	-20.75497	12.31236	-9.36375	12.88508
5423.197	-20.20292	-12.06177	NaN	NaN
5427.159	-19.75408	13.65922	NaN	NaN
5431.157	-21.99468	11.83450	NaN	NaN
5435.151	-20.05918	-12.07254	NaN	NaN
5439.151	-20.01596	-12.07577	NaN	NaN
5443.160	-19.99497	-12.07733	NaN	NaN
5447.155	-22.86234	13.09516	NaN	NaN
5451.152	-19.99405	-12.07740	NaN	NaN
5455.152	-19.99357	-12.07743	NaN	NaN
5459.157	-22.71382	11.51795	NaN	NaN
5463.154	-19.94823	-12.08081	NaN	NaN
5467.156	-21.78534	13.56130	NaN	NaN
5471.151	-20.00453	-12.07662	NaN	NaN
5475.150	-22.69494	13.65388	NaN	NaN
5479.155	-22.51890	13.72353	NaN	NaN
5483.153	-20.00630	-12.07649	NaN	NaN
5487.153	-20.00584	-12.07652	NaN	NaN
5491.155	-23.02102	8.68502	NaN	NaN
5495.152	-22.68693	11.64385	NaN	NaN
5499.149	-20.00709	-12.07643	NaN	NaN
5503.151	-20.00446	-12.07662	NaN	NaN
5508.118	-20.00382	-12.07667	NaN	NaN
5515.158	-22.40767	11.83892	NaN	NaN
5519.155	-21.98177	13.94177	NaN	NaN
5523.155	-19.73321	5.21056	-19.58452	13.24295
5527.150	-19.94257	-12.08123	-19.96838	-12.07931
5531.156	-22.35906	11.30136	-19.96858	-12.07929
5535.153	-19.93597	-12.08172	-19.96887	-12.07927
5539.155	-20.68441	12.39084	-19.96928	-12.07924
5543.149	-22.00857	7.90924	-19.96981	-12.07920
5547.157	-21.34858	13.20154	-19.97042	-12.07916
5551.161	-14.00141	12.94350	-22.35668	10.95774
5555.151	-20.06028	-12.07246	-19.96972	-12.07921
5559.151	-20.04543	-12.07357	-19.97071	-12.07914
5563.152	-19.43015	12.44239	-19.97176	-12.07906
5567.155	-19.61467	12.46002	-19.99401	-12.07740
5571.153	-19.94880	-12.08076	-19.99401	-12.07740
5575.151	-17.75949	12.52583	-19.99399	-12.07740
5579.160	-22.22289	12.07602	-19.99399	-12.07740
5583.152	-19.88573	-12.08544	-19.99399	-12.07740
5587.154	-21.93301	12.40011	-19.99396	-12.07741
5591.162	-19.87963	-12.08589	-7.88410	14.90932
5595.156	-20.45852	12.67580	NaN	NaN
5599.152	-20.04766	12.47279	NaN	NaN
5603.155	-19.98734	-12.07790	NaN	NaN
5607.152	-20.02685	-12.07496	NaN	NaN
5611.153	-19.62493	13.81448	NaN	NaN
5615.151	-20.29320	11.30623	NaN	NaN
5619.150	-20.07519	-12.07135	NaN	NaN
5623.152	-20.06450	-12.07215	NaN	NaN
5627.154	-19.36072	-0.87383	NaN	NaN
5631.173	-20.02554	-12.07505	8.05849	14.82044
5635.159	-20.02337	-12.07521	NaN	NaN
5639.150	-19.98800	-12.07785	NaN	NaN
5643.162	-19.52167	0.78152	NaN	NaN
5647.155	-19.92639	-12.08243	NaN	NaN
5651.154	-19.92770	-12.08233	NaN	NaN
5655.151	-19.96231	-12.07976	NaN	NaN
5659.152	-19.92974	-12.08218	NaN	NaN
5663.149	-19.93170	-12.08203	NaN	NaN
5667.155	-23.05624	12.25194	19.09397	10.01201
5671.151	-19.95591	-12.08024	NaN	NaN
5675.166	-20.26126	12.50883	NaN	NaN
5679.148	-19.96937	-0.65069	NaN	NaN
5683.152	-19.98649	-12.07796	NaN	NaN
5687.150	-20.02063	-12.07542	NaN	NaN
5691.154	-20.02008	-12.07546	NaN	NaN
5695.153	-21.36966	2.47332	NaN	NaN
5699.148	-20.02863	-12.07482	NaN	NaN
5703.152	-20.02749	-12.07491	NaN	NaN
5707.149	-21.92936	13.37553	NaN	NaN
5711.154	-20.72211	7.17851	13.23330	14.42157
5715.155	-21.58802	8.75047	NaN	NaN
5719.155	-20.63743	7.37918	NaN	NaN
5723.151	-20.11918	-12.06806	NaN	NaN
5727.148	-20.11623	-12.06828	NaN	NaN
5731.151	-21.12244	7.34305	NaN	NaN
5735.150	-20.95734	12.96038	15.04422	14.48821
5739.150	-20.20169	-12.06186	NaN	NaN
5743.147	-16.69607	4.05462	NaN	NaN
5747.027	-17.73448	7.09694	13.19400	14.69753
5751.024	-20.88950	12.76831	NaN	NaN
5755.027	-16.35929	3.52787	NaN	NaN
5759.028	-16.17638	1.12642	NaN	NaN
5763.030	-18.02544	8.80763	NaN	NaN
5767.030	-18.59218	8.39620	5.62230	13.89457
5771.023	-17.09880	7.95670	NaN	NaN
5775.027	10.97026	8.26477	NaN	NaN
5779.073	-20.00595	-12.07651	NaN	NaN
5783.028	-14.15755	5.59692	-9.34742	13.30802
5787.052	-20.00113	-12.07687	NaN	NaN
5791.038	-20.00098	-12.07688	NaN	NaN
5795.026	-19.93852	-12.08153	NaN	NaN
5799.027	-11.49333	-12.71255	NaN	NaN
5803.026	-19.95152	-12.14842	NaN	NaN
5807.032	-16.76672	11.12753	NaN	NaN
5811.023	-19.99368	-12.13558	NaN	NaN
5815.051	9.28697	1.78703	NaN	NaN
5819.030	-19.99372	-12.12786	NaN	NaN
5823.023	9.20678	8.51816	NaN	NaN
5827.022	-19.85333	13.30666	NaN	NaN
5831.025	-19.92863	-12.13642	NaN	NaN
5835.027	5.43917	1.72394	NaN	NaN
5839.020	-19.92009	-12.14085	NaN	NaN
5843.026	11.36057	11.86555	17.79199	14.52609
5847.085	-19.92262	-12.08271	18.27881	13.99914
5851.031	-19.93433	-12.08184	NaN	NaN
5859.025	-19.93696	-12.08164	NaN	NaN
5863.020	-19.94558	-12.08100	NaN	NaN
5867.023	-19.94795	-12.08083	NaN	NaN
5871.022	-19.95453	-12.08034	NaN	NaN
5875.024	NaN	NaN	NaN	NaN
5879.020	NaN	NaN	NaN	NaN
5883.022	NaN	NaN	NaN	NaN
5887.021	NaN	NaN	NaN	NaN
5891.024	NaN	NaN	NaN	NaN
5895.024	NaN	NaN	NaN	NaN
5899.023	NaN	NaN	NaN	NaN
5903.025	NaN	NaN	NaN	NaN
5907.025	NaN	NaN	NaN	NaN
5911.026	NaN	NaN	NaN	NaN
5915.490	NaN	NaN	NaN	NaN
5919.297	NaN	NaN	NaN	NaN
5923.049	NaN	NaN	NaN	NaN
5927.028	NaN	NaN	NaN	NaN
5931.030	NaN	NaN	NaN	NaN
5935.023	NaN	NaN	NaN	NaN
5939.027	NaN	NaN	NaN	NaN
5943.025	NaN	NaN	NaN	NaN
5947.025	NaN	NaN	NaN	NaN
5951.027	NaN	NaN	NaN	NaN
5955.023	NaN	NaN	NaN	NaN
5959.024	NaN	NaN	NaN	NaN
5963.026	NaN	NaN	NaN	NaN
5967.024	NaN	NaN	NaN	NaN
5971.032	NaN	NaN	-7.82472	15.03033
5975.027	NaN	NaN	NaN	NaN
5979.020	NaN	NaN	NaN	NaN
5983.049	NaN	NaN	NaN	NaN
5987.028	NaN	NaN	NaN	NaN
5991.018	NaN	NaN	NaN	NaN
5995.019	NaN	NaN	NaN	NaN
5999.018	NaN	NaN	-7.82021	15.02717
6003.016	NaN	NaN	NaN	NaN
6007.025	NaN	NaN	NaN	NaN
6011.021	NaN	NaN	NaN	NaN
6015.026	NaN	NaN	NaN	NaN
6019.028	-20.83927	7.58890	NaN	NaN
6023.023	-20.00643	-12.07648	-3.41120	10.58294
6027.044	-20.00634	-12.07648	NaN	NaN
6031.035	-20.93284	9.32120	NaN	NaN
6035.025	-20.02635	-12.07499	NaN	NaN
6039.021	-22.98733	9.27388	NaN	NaN
6043.024	-20.02942	-12.07476	NaN	NaN
6047.035	-20.02847	-12.07483	NaN	NaN
6051.697	-20.02736	-12.07492	NaN	NaN
6055.037	-20.02611	-12.07501	NaN	NaN
6059.024	-20.02471	-12.07512	NaN	NaN
6063.023	-20.01018	-12.07620	NaN	NaN
6067.034	-20.00946	-12.07625	NaN	NaN
6071.028	-20.00871	-12.07631	NaN	NaN
6075.024	-23.12697	-4.91430	NaN	NaN
6079.020	NaN	NaN	NaN	NaN
6083.020	NaN	NaN	NaN	NaN
6087.018	NaN	NaN	NaN	NaN
6091.023	NaN	NaN	NaN	NaN
6095.017	NaN	NaN	NaN	NaN
6099.021	NaN	NaN	NaN	NaN
6103.017	NaN	NaN	NaN	NaN
6107.018	NaN	NaN	NaN	NaN
6111.017	NaN	NaN	NaN	NaN
6115.025	NaN	NaN	NaN	NaN
6119.521	NaN	NaN	NaN	NaN
6123.404	NaN	NaN	NaN	NaN
6127.362	NaN	NaN	NaN	NaN
6131.034	NaN	NaN	NaN	NaN
6135.030	NaN	NaN	NaN	NaN
6139.024	NaN	NaN	NaN	NaN
6143.018	NaN	NaN	NaN	NaN
6147.018	NaN	NaN	NaN	NaN
6151.017	NaN	NaN	NaN	NaN
6155.019	NaN	NaN	NaN	NaN
6159.014	NaN	NaN	NaN	NaN
6163.017	NaN	NaN	NaN	NaN
6167.137	NaN	NaN	NaN	NaN
6171.024	NaN	NaN	NaN	NaN
6175.015	NaN	NaN	NaN	NaN
6179.024	NaN	NaN	NaN	NaN
6183.025	NaN	NaN	NaN	NaN
6187.606	NaN	NaN	NaN	NaN
6191.032	NaN	NaN	NaN	NaN
6195.025	NaN	NaN	NaN	NaN
6199.022	NaN	NaN	NaN	NaN
6203.022	NaN	NaN	NaN	NaN
6207.022	NaN	NaN	NaN	NaN
6211.038	NaN	NaN	NaN	NaN
6215.028	NaN	NaN	NaN	NaN
6219.017	NaN	NaN	NaN	NaN
6223.026	NaN	NaN	NaN	NaN
6227.020	-21.50832	10.54483	NaN	NaN
6231.021	-23.06637	8.93646	NaN	NaN
6235.022	-20.29078	10.45493	NaN	NaN
6239.021	-20.04740	-12.07342	NaN	NaN
6243.019	-20.04679	-12.07347	NaN	NaN
6247.017	-20.04589	-12.07354	-7.81809	14.96895
6251.059	-20.04473	-12.07362	NaN	NaN
6255.023	-20.04330	-12.07373	NaN	NaN
6259.017	-20.04166	-12.07385	NaN	NaN
6263.022	-20.03982	-12.07399	NaN	NaN
6267.027	-20.03783	-12.07414	NaN	NaN
6271.020	-20.02891	-12.07480	NaN	NaN
6276.390	-20.02464	-12.07512	NaN	NaN
6287.019	NaN	NaN	NaN	NaN
6291.016	NaN	NaN	NaN	NaN
6296.391	NaN	NaN	NaN	NaN
6307.021	NaN	NaN	NaN	NaN
6311.020	NaN	NaN	NaN	NaN
6315.019	NaN	NaN	NaN	NaN
6319.034	NaN	NaN	NaN	NaN
6323.739	NaN	NaN	NaN	NaN
6327.425	NaN	NaN	NaN	NaN
6331.024	NaN	NaN	NaN	NaN
6335.024	NaN	NaN	NaN	NaN
6339.017	NaN	NaN	NaN	NaN
6343.013	NaN	NaN	NaN	NaN
6347.022	NaN	NaN	NaN	NaN
6351.017	NaN	NaN	NaN	NaN
6355.029	NaN	NaN	NaN	NaN
6359.016	NaN	NaN	NaN	NaN
6364.425	NaN	NaN	NaN	NaN
6375.018	NaN	NaN	NaN	NaN
6379.013	NaN	NaN	NaN	NaN
6383.019	NaN	NaN	NaN	NaN
6387.021	NaN	NaN	NaN	NaN
6391.537	NaN	NaN	NaN	NaN
6395.169	NaN	NaN	NaN	NaN
6399.029	NaN	NaN	NaN	NaN
6403.016	NaN	NaN	NaN	NaN
6408.373	NaN	NaN	NaN	NaN
6419.019	NaN	NaN	NaN	NaN
6423.018	NaN	NaN	NaN	NaN
6427.015	NaN	NaN	NaN	NaN
6431.021	NaN	NaN	NaN	NaN
6435.020	NaN	NaN	NaN	NaN
6439.016	NaN	NaN	NaN	NaN
6443.018	NaN	NaN	NaN	NaN
6447.016	NaN	NaN	NaN	NaN
6451.016	NaN	NaN	NaN	NaN
6455.014	NaN	NaN	NaN	NaN
6459.089	NaN	NaN	NaN	NaN
6463.017	NaN	NaN	NaN	NaN
6467.015	NaN	NaN	NaN	NaN
6471.019	NaN	NaN	NaN	NaN
6475.020	NaN	NaN	NaN	NaN
6479.016	NaN	NaN	NaN	NaN
6483.013	NaN	NaN	NaN	NaN
6487.013	NaN	NaN	NaN	NaN
6491.015	NaN	NaN	NaN	NaN
6495.013	NaN	NaN	NaN	NaN
6499.012	NaN	NaN	NaN	NaN
6503.012	NaN	NaN	NaN	NaN
6507.015	NaN	NaN	NaN	NaN
6511.012	NaN	NaN	NaN	NaN
6515.030	NaN	NaN	NaN	NaN
6519.019	NaN	NaN	NaN	NaN
6523.013	NaN	NaN	NaN	NaN
6527.140	NaN	NaN	NaN	NaN
6531.015	NaN	NaN	NaN	NaN
6535.013	NaN	NaN	NaN	NaN
6539.014	NaN	NaN	NaN	NaN
6543.012	NaN	NaN	NaN	NaN
6547.012	NaN	NaN	NaN	NaN
6551.012	NaN	NaN	NaN	NaN
6555.019	NaN	NaN	NaN	NaN
6559.012	NaN	NaN	NaN	NaN
6563.013	NaN	NaN	NaN	NaN
6567.015	3.13152	14.11667	NaN	NaN
6571.012	3.12591	14.11632	NaN	NaN
6575.012	3.12690	14.11425	NaN	NaN
6579.010	NaN	NaN	NaN	NaN
6583.009	NaN	NaN	NaN	NaN
6587.008	NaN	NaN	22.15667	10.40017
6591.006	NaN	NaN	21.86688	10.76193
6595.044	NaN	NaN	22.15029	10.29925
6599.015	NaN	NaN	NaN	NaN
6602.888	NaN	NaN	NaN	NaN
6606.892	NaN	NaN	21.40583	11.09642
6610.887	NaN	NaN	NaN	NaN
6614.890	NaN	NaN	NaN	NaN
6618.893	NaN	NaN	NaN	NaN
6623.173	NaN	NaN	NaN	NaN
6627.412	NaN	NaN	NaN	NaN
6630.896	NaN	NaN	NaN	NaN
6634.895	NaN	NaN	NaN	NaN
6639.201	NaN	NaN	-7.81956	14.98523
6643.081	NaN	NaN	NaN	NaN
6647.335	NaN	NaN	-7.79310	14.99480
6650.959	3.17557	14.06374	22.30786	10.72895
6654.896	3.18051	14.06034	NaN	NaN
6658.883	3.18145	14.05860	NaN	NaN
6662.914	NaN	NaN	22.65489	10.54936
6666.885	NaN	NaN	17.22568	12.14979
6670.881	NaN	NaN	NaN	NaN
6674.886	3.18168	14.05656	20.33439	10.95342
6678.882	3.18200	14.05546	NaN	NaN
6682.886	NaN	NaN	22.13363	10.96826
6686.883	NaN	NaN	NaN	NaN
6694.886	NaN	NaN	NaN	NaN
6698.887	NaN	NaN	NaN	NaN
6702.883	NaN	NaN	NaN	NaN
6706.884	3.18170	14.04982	21.66911	10.90490
6710.886	3.18094	14.04924	NaN	NaN
6714.883	NaN	NaN	NaN	NaN
6718.881	NaN	NaN	NaN	NaN
6722.876	NaN	NaN	NaN	NaN
6726.891	3.18259	14.04612	NaN	NaN
6730.883	NaN	NaN	NaN	NaN
6734.886	NaN	NaN	NaN	NaN
6738.881	NaN	NaN	NaN	NaN
6742.883	NaN	NaN	NaN	NaN
6746.884	NaN	NaN	NaN	NaN
6750.889	NaN	NaN	NaN	NaN
6754.885	3.19289	14.03933	NaN	NaN
6758.882	3.19749	14.03658	NaN	NaN
6762.881	NaN	NaN	NaN	NaN
6766.884	NaN	NaN	NaN	NaN
6770.890	NaN	NaN	-7.86756	14.95997
6774.888	NaN	NaN	NaN	NaN
6778.886	NaN	NaN	NaN	NaN
6782.911	NaN	NaN	NaN	NaN
6786.883	NaN	NaN	-7.84598	14.96900
6790.895	3.20629	14.02871	NaN	NaN
6794.884	3.20090	14.02820	NaN	NaN
6798.882	NaN	NaN	NaN	NaN
6802.882	NaN	NaN	19.46234	-2.17114
6806.878	NaN	NaN	NaN	NaN
6810.890	NaN	NaN	NaN	NaN
6814.904	NaN	NaN	NaN	NaN
6818.889	NaN	NaN	-19.95187	-0.08797
6822.886	3.19571	14.02448	-19.95988	-12.07994
6826.880	NaN	NaN	16.35347	4.53275
6830.877	NaN	NaN	-19.96003	-12.07993
6834.879	NaN	NaN	-7.91190	14.96115
6838.883	3.18860	14.02465	-19.95711	-12.08015
6842.879	NaN	NaN	-19.95830	-12.08006
6846.878	NaN	NaN	-19.96281	-12.07972
6850.888	3.18311	14.02540	-19.96398	-12.07964
6854.882	NaN	NaN	-19.96525	-12.07954
6858.880	3.17967	14.02530	-19.96661	-12.07944
6862.932	NaN	NaN	-7.91490	14.95776
6866.917	3.17829	14.02431	NaN	NaN
6870.885	NaN	NaN	NaN	NaN
6874.878	NaN	NaN	NaN	NaN
6878.924	NaN	NaN	NaN	NaN
6882.884	NaN	NaN	-7.93189	14.94276
6886.883	NaN	NaN	-7.93262	14.93851
6890.880	3.17393	14.02208	NaN	NaN
6894.882	NaN	NaN	NaN	NaN
6898.883	NaN	NaN	NaN	NaN
6902.880	NaN	NaN	-7.92510	14.93553
6906.881	NaN	NaN	NaN	NaN
6910.880	NaN	NaN	-20.01417	12.17009
6914.883	NaN	NaN	-20.01307	-12.07598
6918.880	NaN	NaN	-20.01274	-12.07601
6922.880	NaN	NaN	-20.01233	-12.07604
6926.886	NaN	NaN	-20.01018	-12.07620
6930.887	NaN	NaN	-20.00843	-12.07633
6935.435	NaN	NaN	-20.00801	-12.07636
6939.234	NaN	NaN	-20.00755	-12.07639
6942.934	NaN	NaN	-20.00707	-12.07643
6946.886	NaN	NaN	-20.00556	-12.07654
6950.881	NaN	NaN	-20.00505	-12.07658
6954.881	NaN	NaN	NaN	NaN
6958.883	NaN	NaN	NaN	NaN
6962.887	NaN	NaN	NaN	NaN
6966.881	NaN	NaN	NaN	NaN
6970.886	NaN	NaN	-19.10275	13.81762
6974.890	NaN	NaN	-19.98167	-12.07832
6978.880	NaN	NaN	-19.98175	-12.07831
6982.881	NaN	NaN	-19.98191	-12.07830
6986.882	NaN	NaN	-19.98211	-12.07829
6990.882	NaN	NaN	-19.98235	-12.07827
6994.885	NaN	NaN	-19.98265	-12.07825
6998.884	NaN	NaN	-19.98300	-12.07822
7003.144	NaN	NaN	-19.98338	-12.07819
7006.884	NaN	NaN	-19.98379	-12.07816
7010.882	NaN	NaN	-19.98423	-12.07813
7014.880	NaN	NaN	NaN	NaN
7018.879	NaN	NaN	NaN	NaN
7022.910	NaN	NaN	NaN	NaN
7026.886	NaN	NaN	NaN	NaN
7030.932	NaN	NaN	NaN	NaN
7034.876	NaN	NaN	NaN	NaN
7038.882	NaN	NaN	NaN	NaN
7042.880	NaN	NaN	NaN	NaN
7046.879	NaN	NaN	NaN	NaN
7050.878	NaN	NaN	NaN	NaN
7054.895	NaN	NaN	NaN	NaN
7058.894	NaN	NaN	NaN	NaN
7062.878	NaN	NaN	NaN	NaN
7066.895	NaN	NaN	NaN	NaN
7071.428	NaN	NaN	NaN	NaN
7075.266	NaN	NaN	NaN	NaN
7078.985	NaN	NaN	NaN	NaN
7082.890	NaN	NaN	NaN	NaN
7086.888	NaN	NaN	NaN	NaN
7090.887	NaN	NaN	NaN	NaN
7094.878	NaN	NaN	NaN	NaN
7098.885	NaN	NaN	NaN	NaN
7102.892	NaN	NaN	NaN	NaN
7106.886	NaN	NaN	NaN	NaN
7110.876	NaN	NaN	NaN	NaN
7114.873	NaN	NaN	NaN	NaN
7118.879	NaN	NaN	NaN	NaN
7122.882	NaN	NaN	NaN	NaN
7126.872	NaN	NaN	NaN	NaN
7130.876	NaN	NaN	NaN	NaN
7134.877	NaN	NaN	NaN	NaN
7138.889	NaN	NaN	NaN	NaN
7142.884	NaN	NaN	NaN	NaN
7146.877	NaN	NaN	NaN	NaN
7150.873	NaN	NaN	NaN	NaN
7154.872	NaN	NaN	NaN	NaN
7158.878	NaN	NaN	NaN	NaN
7162.878	NaN	NaN	NaN	NaN
7166.876	NaN	NaN	NaN	NaN
7170.876	NaN	NaN	NaN	NaN
7174.877	NaN	NaN	NaN	NaN
7178.877	NaN	NaN	NaN	NaN
7182.880	NaN	NaN	NaN	NaN
7186.877	NaN	NaN	NaN	NaN
7190.977	NaN	NaN	NaN	NaN
7194.882	NaN	NaN	NaN	NaN
7198.878	NaN	NaN	NaN	NaN
7202.879	NaN	NaN	NaN	NaN
7207.153	NaN	NaN	NaN	NaN
7210.880	NaN	NaN	NaN	NaN
7214.886	NaN	NaN	NaN	NaN
7218.884	NaN	NaN	NaN	NaN
7222.885	NaN	NaN	NaN	NaN
7226.880	NaN	NaN	NaN	NaN
7230.918	NaN	NaN	NaN	NaN
7234.876	NaN	NaN	NaN	NaN
7238.874	NaN	NaN	NaN	NaN
7242.876	NaN	NaN	NaN	NaN
7246.873	NaN	NaN	NaN	NaN
7250.875	NaN	NaN	NaN	NaN
7254.893	NaN	NaN	NaN	NaN
7258.886	NaN	NaN	NaN	NaN
7262.895	NaN	NaN	NaN	NaN
7266.878	NaN	NaN	NaN	NaN
7270.873	NaN	NaN	NaN	NaN
7274.893	NaN	NaN	NaN	NaN
7278.878	NaN	NaN	NaN	NaN
7282.870	NaN	NaN	NaN	NaN
7286.875	NaN	NaN	NaN	NaN
7290.870	NaN	NaN	NaN	NaN
7294.872	NaN	NaN	NaN	NaN
7423.790	NaN	NaN	NaN	NaN
7473.447	NaN	NaN	NaN	NaN
7523.569	NaN	NaN	NaN	NaN
7573.573	NaN	NaN	NaN	NaN
7623.568	NaN	NaN	NaN	NaN
7673.567	NaN	NaN	NaN	NaN
7723.570	NaN	NaN	NaN	NaN
7773.697	NaN	NaN	NaN	NaN
7823.687	NaN	NaN	NaN	NaN
7873.691	NaN	NaN	NaN	NaN
7923.687	NaN	NaN	NaN	NaN
7991.516	NaN	NaN	NaN	NaN
7995.244	NaN	NaN	NaN	NaN
7999.245	NaN	NaN	NaN	NaN
8003.250	NaN	NaN	NaN	NaN
8007.238	NaN	NaN	NaN	NaN
8011.238	NaN	NaN	NaN	NaN
8015.111	NaN	NaN	NaN	NaN
8019.122	NaN	NaN	NaN	NaN
8023.115	NaN	NaN	NaN	NaN
8027.110	NaN	NaN	NaN	NaN
8031.114	NaN	NaN	NaN	NaN
8035.103	NaN	NaN	NaN	NaN
8039.127	NaN	NaN	NaN	NaN
8043.118	NaN	NaN	NaN	NaN
8047.110	NaN	NaN	NaN	NaN
8051.115	NaN	NaN	NaN	NaN
8055.109	NaN	NaN	NaN	NaN
8059.103	NaN	NaN	NaN	NaN
8063.111	NaN	NaN	NaN	NaN
8067.113	NaN	NaN	NaN	NaN
8071.130	NaN	NaN	NaN	NaN
8075.113	NaN	NaN	NaN	NaN
8079.111	NaN	NaN	NaN	NaN
8083.109	NaN	NaN	NaN	NaN
8087.113	NaN	NaN	NaN	NaN
8091.108	NaN	NaN	NaN	NaN
8095.114	NaN	NaN	NaN	NaN
8099.109	NaN	NaN	NaN	NaN
8103.112	NaN	NaN	NaN	NaN
8107.102	NaN	NaN	NaN	NaN
8111.114	NaN	NaN	NaN	NaN
8115.108	NaN	NaN	NaN	NaN
8119.109	NaN	NaN	NaN	NaN
8123.102	NaN	NaN	NaN	NaN
8127.114	NaN	NaN	NaN	NaN
8131.115	NaN	NaN	NaN	NaN
8135.105	NaN	NaN	NaN	NaN
8139.113	NaN	NaN	NaN	NaN
8143.109	NaN	NaN	NaN	NaN
8147.107	NaN	NaN	NaN	NaN
8151.100	NaN	NaN	NaN	NaN
8155.109	NaN	NaN	NaN	NaN
8159.111	NaN	NaN	NaN	NaN
8163.108	NaN	NaN	NaN	NaN
8167.105	NaN	NaN	NaN	NaN
8171.115	NaN	NaN	NaN	NaN
8175.110	NaN	NaN	NaN	NaN
8179.110	NaN	NaN	NaN	NaN
8183.113	NaN	NaN	NaN	NaN
8187.107	NaN	NaN	NaN	NaN
8191.107	NaN	NaN	NaN	NaN
8195.111	NaN	NaN	NaN	NaN
8199.105	NaN	NaN	NaN	NaN
8203.109	NaN	NaN	NaN	NaN
8207.108	NaN	NaN	NaN	NaN
8211.148	NaN	NaN	NaN	NaN
8215.105	NaN	NaN	NaN	NaN
8219.112	NaN	NaN	NaN	NaN
8223.106	NaN	NaN	NaN	NaN
8227.106	NaN	NaN	NaN	NaN
8231.106	NaN	NaN	NaN	NaN
8235.107	NaN	NaN	NaN	NaN
8239.109	NaN	NaN	NaN	NaN
8243.107	NaN	NaN	NaN	NaN
8247.100	NaN	NaN	NaN	NaN
8251.106	NaN	NaN	NaN	NaN
8255.114	NaN	NaN	NaN	NaN
8259.109	NaN	NaN	NaN	NaN
8263.111	NaN	NaN	NaN	NaN
8267.108	NaN	NaN	NaN	NaN
8271.108	NaN	NaN	NaN	NaN
8275.106	NaN	NaN	NaN	NaN
8279.108	NaN	NaN	NaN	NaN
8283.108	NaN	NaN	NaN	NaN
8287.107	NaN	NaN	NaN	NaN
8291.102	NaN	NaN	NaN	NaN
8295.111	NaN	NaN	NaN	NaN
8299.113	NaN	NaN	NaN	NaN
8303.105	NaN	NaN	NaN	NaN
8307.099	NaN	NaN	NaN	NaN
8311.111	NaN	NaN	NaN	NaN
8315.123	NaN	NaN	NaN	NaN
8319.107	NaN	NaN	NaN	NaN
8323.107	NaN	NaN	NaN	NaN
8327.104	NaN	NaN	NaN	NaN
8452.065	NaN	NaN	NaN	NaN
8519.511	NaN	NaN	NaN	NaN
8523.233	NaN	NaN	NaN	NaN
8527.225	NaN	NaN	NaN	NaN
8531.227	NaN	NaN	NaN	NaN
8535.220	NaN	NaN	NaN	NaN
8539.224	NaN	NaN	NaN	NaN
8543.231	NaN	NaN	NaN	NaN
8547.220	NaN	NaN	NaN	NaN
8551.222	NaN	NaN	NaN	NaN
8555.223	NaN	NaN	NaN	NaN
8559.224	NaN	NaN	NaN	NaN
8563.222	NaN	NaN	NaN	NaN
8567.225	NaN	NaN	NaN	NaN
8571.226	NaN	NaN	NaN	NaN
8575.218	NaN	NaN	NaN	NaN
8579.227	NaN	NaN	NaN	NaN
8583.227	NaN	NaN	NaN	NaN
8587.224	NaN	NaN	NaN	NaN
8591.224	NaN	NaN	NaN	NaN
8595.224	NaN	NaN	NaN	NaN
8599.226	NaN	NaN	NaN	NaN
8603.224	NaN	NaN	NaN	NaN
8607.223	NaN	NaN	NaN	NaN
8611.222	NaN	NaN	NaN	NaN
8615.225	NaN	NaN	NaN	NaN
8619.220	NaN	NaN	NaN	NaN
8623.223	NaN	NaN	NaN	NaN
8627.233	NaN	NaN	NaN	NaN
8631.232	NaN	NaN	NaN	NaN
8635.218	NaN	NaN	NaN	NaN
8639.226	NaN	NaN	NaN	NaN
8643.221	NaN	NaN	NaN	NaN
8647.222	NaN	NaN	NaN	NaN
8651.223	NaN	NaN	NaN	NaN
8655.219	NaN	NaN	NaN	NaN
8659.221	NaN	NaN	NaN	NaN
8663.222	NaN	NaN	NaN	NaN
8667.230	NaN	NaN	NaN	NaN
8671.222	NaN	NaN	NaN	NaN
8675.222	NaN	NaN	NaN	NaN
8679.217	NaN	NaN	NaN	NaN
8683.225	NaN	NaN	NaN	NaN
8687.221	NaN	NaN	NaN	NaN
8691.223	NaN	NaN	NaN	NaN
8695.224	NaN	NaN	NaN	NaN
8699.223	NaN	NaN	NaN	NaN
8703.218	NaN	NaN	NaN	NaN
8707.219	NaN	NaN	NaN	NaN
8711.226	NaN	NaN	NaN	NaN
8715.218	NaN	NaN	NaN	NaN
8719.217	NaN	NaN	NaN	NaN
8723.213	NaN	NaN	NaN	NaN
8727.224	NaN	NaN	NaN	NaN
8731.219	NaN	NaN	NaN	NaN
8735.217	NaN	NaN	NaN	NaN
8739.220	NaN	NaN	NaN	NaN
8743.224	NaN	NaN	NaN	NaN
8747.221	NaN	NaN	NaN	NaN
8751.223	NaN	NaN	NaN	NaN
8755.223	NaN	NaN	NaN	NaN
8759.224	NaN	NaN	NaN	NaN
8763.221	NaN	NaN	NaN	NaN
8767.220	NaN	NaN	NaN	NaN
8771.218	NaN	NaN	NaN	NaN
8775.217	NaN	NaN	NaN	NaN
8779.220	NaN	NaN	NaN	NaN
8783.220	NaN	NaN	NaN	NaN
8787.217	NaN	NaN	NaN	NaN
8791.222	NaN	NaN	NaN	NaN
8795.227	NaN	NaN	NaN	NaN
8799.221	NaN	NaN	NaN	NaN
8803.219	NaN	NaN	NaN	NaN
8807.216	NaN	NaN	NaN	NaN
8811.219	NaN	NaN	NaN	NaN
8815.221	NaN	NaN	NaN	NaN
8819.220	NaN	NaN	NaN	NaN
8823.222	NaN	NaN	NaN	NaN
8827.216	NaN	NaN	NaN	NaN
8831.220	NaN	NaN	NaN	NaN
8835.221	NaN	NaN	NaN	NaN
8839.223	NaN	NaN	NaN	NaN
8843.218	NaN	NaN	NaN	NaN
8847.220	NaN	NaN	NaN	NaN
8851.212	NaN	NaN	NaN	NaN
8855.223	NaN	NaN	NaN	NaN
8980.081	NaN	NaN	NaN	NaN
9019.828	NaN	NaN	NaN	NaN
9069.964	NaN	NaN	NaN	NaN
9119.927	NaN	NaN	NaN	NaN
9169.937	NaN	NaN	NaN	NaN
9219.938	NaN	NaN	NaN	NaN
9269.928	NaN	NaN	NaN	NaN
9320.056	NaN	NaN	NaN	NaN
9370.055	NaN	NaN	NaN	NaN
9420.058	NaN	NaN	NaN	NaN
9470.059	NaN	NaN	NaN	NaN
9520.056	NaN	NaN	NaN	NaN
9570.184	NaN	NaN	NaN	NaN
9620.181	NaN	NaN	NaN	NaN
9670.173	NaN	NaN	NaN	NaN
9720.174	NaN	NaN	NaN	NaN
9770.178	NaN	NaN	NaN	NaN
9820.333	NaN	NaN	NaN	NaN
9870.304	NaN	NaN	NaN	NaN
9920.303	NaN	NaN	NaN	NaN
