time (ms)	lx (deg)	ly (deg)	rx (deg)	ry (deg)
0.000	-6.16788	-0.39987	-7.11907	0.67398
4.001	-5.98336	0.81814	-7.25758	0.74897
7.990	-3.85666	-0.10220	-7.06212	0.79954
11.995	-6.00074	0.53569	-7.13654	0.84786
15.994	-7.10968	0.47875	-6.94971	0.77471
19.996	-6.21730	-0.53498	-6.96856	0.96993
23.989	-7.84077	0.37390	-6.79403	0.85097
27.997	-7.52298	0.85025	-6.77834	1.06726
31.993	-6.36638	1.04329	-6.62547	0.91816
35.996	-5.56517	1.15814	-6.47696	0.72912
39.999	-7.01286	2.88976	-6.51674	0.56204
43.994	-7.84299	3.35972	-6.98878	1.09048
47.998	-7.47753	1.62975	-7.82898	1.43931
51.990	-7.31953	1.41975	-6.92237	1.82657
55.997	-7.47270	1.35957	-6.44064	1.35851
59.994	-5.49020	1.33054	-5.99465	1.76439
63.994	-6.80237	1.34198	-4.30260	1.92503
68.022	-6.98614	0.68488	-4.84346	1.39386
72.000	-3.27556	0.77678	-0.83458	2.27725
76.001	-3.29520	0.92112	-1.05843	0.39207
79.995	-1.22789	1.11657	0.07661	2.32034
84.051	-1.10581	0.05744	0.35521	2.10634
88.004	-1.09911	0.60191	0.35365	1.78969
91.999	-1.08609	0.91970	0.44390	1.70544
95.993	1.21730	3.54863	0.49381	1.70818
100.011	-1.54418	2.79676	-0.56339	1.92043
103.993	-1.39083	1.74557	-0.13248	1.48991
107.990	-1.27075	0.72250	0.02382	1.44696
111.992	-2.84284	1.91781	-0.40713	2.00672
115.992	-1.47079	0.65098	-0.50190	2.03995
119.988	-1.00142	0.43255	-0.42763	2.04689
123.997	-1.18443	0.27152	0.18789	1.90693
127.996	0.79384	0.25560	-0.31339	1.92650
131.993	1.10986	0.07906	-0.43907	1.70735
135.993	-1.10291	1.65987	-0.16037	1.46394
139.990	-1.18324	1.74065	-0.54662	1.09445
143.996	-1.14657	0.96868	-0.32019	0.72073
147.992	-1.03101	1.10761	-0.18794	1.05832
151.993	-1.14747	1.94222	0.44998	1.09665
155.987	-0.90867	2.07431	-0.24249	1.57997
159.993	-0.27860	0.95808	0.47128	0.80714
163.993	-1.11509	0.74239	0.66836	0.79733
167.988	-1.41110	0.40854	0.02199	0.23303
171.995	-0.59816	-0.18832	0.10471	0.43927
175.995	-0.44386	-0.40460	-0.23775	0.82736
179.992	-0.58684	0.16949	0.11935	0.63149
183.988	-1.95882	0.17834	-0.10992	0.54912
187.995	-1.15238	0.58389	-0.08915	1.04536
191.991	-0.70121	0.75805	-0.16623	1.30092
195.989	-0.79002	0.64718	-0.29453	1.37052
199.994	-0.56731	0.60299	-0.10639	0.86078
203.996	-0.78851	1.08702	0.07004	1.23436
207.995	-1.04525	0.93488	0.23594	1.12502
212.005	-0.60585	0.46964	0.08632	1.50633
215.990	-0.41949	0.15632	0.19536	1.25900
219.992	-0.75461	0.69379	0.42544	1.11344
223.986	-0.50289	0.68933	0.86587	1.07232
227.994	-0.80615	0.15012	1.69669	1.32516
231.996	-0.63307	0.09191	2.42138	1.13812
235.988	-0.68531	0.09268	2.55928	1.39825
239.994	-0.74330	0.15385	2.90755	1.08934
243.989	-0.80012	-0.00373	3.36663	1.05226
247.992	-0.59846	0.01563	3.68273	1.01596
251.985	-0.68372	0.04368	0.99906	1.06964
255.996	-0.77722	-0.05151	3.74404	0.93240
259.991	-0.73171	-0.12093	1.82217	1.26805
263.992	-0.61828	-0.18198	0.37869	3.26146
267.986	-0.70846	-0.15798	0.10701	3.05803
271.995	-0.80521	-0.02723	0.13590	3.02924
275.997	-0.23574	2.14215	-0.47999	1.75667
279.992	1.52568	-0.14969	0.16648	1.51142
283.992	1.41643	-0.44654	0.55644	1.53241
287.985	3.72682	-1.13625	0.93879	1.37478
292.031	3.42989	0.54665	1.15987	1.04664
295.998	0.81342	-0.19601	1.01680	0.65276
299.999	0.01861	-0.38098	0.49485	0.33816
303.994	-1.64392	-1.43951	0.31076	0.32636
307.990	-1.79408	-0.71326	0.89297	-0.06617
311.993	2.69232	0.08797	0.84654	-0.22175
315.989	3.03269	-1.13675	0.68841	-0.37507
319.998	2.00596	-1.02749	0.55721	0.32988
323.992	1.25957	-0.36104	1.09118	0.72649
327.995	0.49944	0.74955	0.76953	0.82891
331.995	1.06225	0.08124	0.50947	0.85633
335.996	0.57099	-0.03484	0.36558	0.96125
339.999	0.42249	-0.05166	0.24130	0.72379
343.995	0.37611	0.00313	0.26627	1.03333
347.993	0.85307	0.29507	-0.04390	0.95573
351.988	1.19998	-0.12037	0.10302	1.88075
355.993	2.07517	-0.20152	0.38951	2.81033
359.992	0.11379	0.12022	0.35556	2.34165
363.988	1.24218	-0.02305	0.15556	2.34985
367.996	0.31513	0.46566	-0.09279	2.11951
371.993	-1.16902	0.19247	0.40633	1.16812
375.994	0.21460	0.40011	0.39132	1.25177
380.010	-0.31449	1.59071	-0.19142	1.26930
383.997	-0.56898	1.60277	0.23693	1.47404
387.994	-0.76124	1.29741	-0.31359	1.25166
391.988	-0.30136	0.31346	0.47666	1.35979
395.995	-0.65908	1.27278	0.66074	1.43469
399.992	1.24188	-0.25134	0.61325	0.94701
403.994	1.41199	-0.00586	0.58563	0.57484
407.994	-0.84027	1.44494	0.59057	0.31146
411.994	-0.57878	1.00234	0.71479	0.26238
415.998	-0.36405	-0.40582	0.57709	0.16521
419.997	0.36891	0.57719	0.50331	0.10657
423.993	0.08835	0.93169	0.59019	0.44685
427.987	0.00829	1.13024	0.51964	0.62558
431.996	-0.46899	0.90527	0.56496	1.03952
435.993	-0.87101	1.57414	0.56913	1.19906
439.994	-0.44090	1.21821	0.50061	1.09026
443.995	6.49308	1.22001	0.46507	1.42377
447.993	-0.37067	1.68386	0.31704	1.38510
451.993	1.54820	0.51092	0.23666	1.04580
455.992	2.26757	-1.37456	0.39132	0.34390
459.995	-0.00087	0.29682	0.74824	0.35322
463.998	-0.80260	0.01143	0.53562	0.61102
467.992	-0.40537	0.13990	0.61228	0.88692
471.988	2.14260	-0.08785	0.42199	1.25547
475.996	2.85608	-1.11165	0.36022	1.41226
479.995	2.14377	-0.56446	0.37747	1.30207
483.994	-0.24252	-0.57625	0.37631	1.45162
487.989	1.45492	-0.02201	0.17365	1.53602
491.996	1.13672	-0.05014	0.15891	1.71720
496.025	-0.00690	-0.66431	0.36809	1.78366
499.995	0.84741	-0.35627	0.60662	1.27053
503.994	0.88587	-0.33656	0.71796	1.64091
507.994	-0.33285	-0.44523	0.87153	1.52394
511.994	-2.18382	-0.15207	0.65111	1.34637
515.990	4.49978	3.32853	0.26989	0.91394
519.991	-0.16042	0.41480	0.62709	0.79671
523.862	-0.92187	0.49124	0.28416	1.47172
527.868	3.77468	-1.08365	0.12985	1.49227
531.864	3.31863	0.16276	-0.19432	1.46868
535.865	0.04241	-0.05683	2.68789	1.07034
539.869	0.98035	-0.33504	2.40783	1.17285
543.868	1.01628	-1.36777	0.82253	2.04163
547.864	0.16814	-1.26883	0.37787	1.67755
551.862	2.62023	0.35234	0.21914	1.69808
555.867	2.27394	-1.62158	0.11210	1.49771
559.864	2.18037	-0.71761	0.00707	1.57526
563.866	2.38120	-1.26692	0.10205	1.55473
567.861	1.12578	-1.96176	-0.02430	1.20752
571.868	0.64583	-1.18029	-0.06038	1.32102
575.865	0.94341	-0.64760	-0.13952	1.07251
579.867	0.67245	0.35484	-0.10989	0.67507
583.859	0.45666	1.10716	-0.01030	0.72595
587.869	0.28940	0.64594	0.19919	0.76071
591.872	0.38159	-0.15177	-0.03194	0.55012
595.864	0.93393	-0.41932	0.44492	0.79068
599.858	0.08542	0.55879	0.22559	0.57171
603.866	2.84378	-0.30943	0.28726	0.55101
607.865	2.12682	-0.15902	0.94028	0.40185
611.874	-0.28565	-0.09621	0.80148	0.32775
615.864	-1.90728	0.61974	0.72645	0.35730
619.859	-1.29162	-0.17382	0.42316	0.25701
623.868	2.79211	-1.53862	0.70342	0.04557
627.864	2.33883	-0.13368	0.68054	-0.16931
631.866	4.09404	-1.15479	0.59171	-0.17523
635.860	-0.67414	-0.73701	0.90718	0.14741
639.867	-0.30694	0.09452	0.44837	0.15036
643.861	-1.96863	-0.68669	0.48470	0.80697
647.865	-0.56295	-0.07636	0.30746	1.36834
651.860	-1.27961	0.16225	0.00551	1.12376
655.867	-0.67506	0.09842	-0.09245	0.89708
659.863	2.63754	0.07926	2.71590	0.22188
663.863	0.53699	-0.51407	5.17083	0.70078
667.868	0.24865	2.57140	3.04120	0.96761
671.865	5.90266	0.54532	2.20974	1.04970
675.869	5.59226	-2.51537	0.87984	0.89750
679.865	2.37114	-0.02843	2.18979	0.91763
683.859	1.31148	-0.50524	0.36362	0.59863
687.870	8.49879	-4.75355	-0.08038	0.60090
691.863	-0.68496	0.04440	0.81096	0.60830
695.863	1.23392	-0.60958	0.39814	1.03910
699.858	1.89253	-3.09275	0.20576	1.20291
703.865	0.24085	-2.24142	0.33337	1.58959
707.862	-1.60432	-0.20771	0.47567	1.82573
711.864	4.85588	0.87262	0.48870	1.79894
715.904	2.41732	-1.04493	0.38119	1.50024
719.860	1.81629	-0.91262	0.30386	1.37720
723.862	4.39185	-1.46098	0.17489	0.59904
727.864	-0.18119	-1.18769	0.29347	0.96377
731.860	1.51105	-1.32215	0.37107	1.10118
735.862	0.05859	-1.29651	0.72923	1.00511
739.860	-0.09148	-0.76543	0.52456	1.09582
743.865	4.36069	1.34776	0.22981	0.91394
747.866	-2.46850	0.83946	-0.75230	0.90381
751.861	-3.80940	1.34417	-2.29312	1.14008
755.863	-4.67653	-0.66567	-4.73409	1.14928
759.857	-8.01886	1.07512	-7.92787	1.41181
763.864	-9.65727	0.93600	-9.49567	1.17140
767.861	-10.57529	0.46208	-11.36272	1.85197
771.862	-10.35743	0.28675	-11.88855	0.76776
775.856	-11.39165	0.23198	-12.32850	0.86191
779.864	-12.33510	0.10922	-12.34785	-0.09545
783.860	-11.73880	0.89506	-11.86995	0.78736
787.866	-11.75034	0.89200	-11.86800	1.20894
791.865	-12.29884	0.78319	-11.73956	0.58106
795.862	-12.43355	-0.78111	-11.67120	0.31864
799.866	-11.28204	-0.69741	-12.30386	0.51466
803.857	-11.59482	-0.54403	-11.84454	0.43826
807.863	-11.77277	-2.71241	-11.83393	0.52581
811.862	-11.31638	-0.60253	-11.81679	0.13679
815.860	-11.34151	-0.20780	-11.81387	0.48153
819.864	-11.56691	-0.70501	-11.77246	0.26547
823.862	-11.53789	0.52693	-11.82887	0.30219
827.856	-11.10524	0.55011	-11.70899	0.24597
831.864	-11.86117	0.22458	-11.75641	0.10605
835.861	-11.17892	-0.56947	-11.84487	0.09779
839.861	-11.09525	0.72099	-11.69845	0.13668
843.856	-11.86493	0.39239	-11.69750	0.19131
847.863	-11.04565	-0.58934	-11.72527	0.08757
851.860	-11.06693	-1.14750	-11.61830	0.05004
855.857	-10.94227	-0.38584	-11.64347	-0.21497
859.863	-11.01510	0.13654	-11.55566	0.01010
863.859	-11.36095	-0.23763	-11.61956	0.12871
867.859	-10.90626	0.16478	-11.03533	0.30958
871.857	-11.44711	-0.26839	-11.58132	0.41563
875.864	-11.64375	0.66583	-8.72306	0.62510
879.859	-10.88125	0.95043	-11.39654	0.63582
883.866	-11.91826	0.12609	-12.28062	0.30234
887.861	-10.90980	0.67766	-12.32741	1.80897
891.854	-11.16688	0.63692	-11.38480	-0.82975
895.859	-10.42658	0.30920	-12.12058	1.27505
899.860	-11.20751	0.79548	-11.53684	0.94536
903.855	-11.64082	0.46487	-12.20529	0.90490
907.863	-10.40092	0.72084	-12.23173	0.68498
911.860	-11.11685	0.15595	-12.18227	0.69919
915.863	-12.03337	0.40294	-12.11584	0.62651
919.858	-11.03607	-0.14375	-12.44013	0.51694
923.862	-11.10933	0.15135	-12.23270	-0.02132
927.879	-10.25997	-0.46922	-12.08463	-0.47918
931.862	-10.36694	0.16717	-12.21295	-0.10720
935.858	-11.88625	-2.65524	-12.12404	-0.09856
939.860	-10.77770	-0.24125	-12.21056	-0.54712
943.853	-10.21543	-0.05828	-12.22566	-0.47115
947.861	-11.07412	-0.26988	-12.34723	0.37571
951.861	-10.95844	-0.14462	-12.39393	-0.53434
955.862	-11.02182	0.14681	-12.12646	-0.32472
959.856	-11.02253	0.38939	-12.20615	0.47585
963.857	-11.15143	0.15050	-12.58302	0.89692
967.853	-10.40104	0.36636	-12.30197	0.47213
971.861	-10.78417	-0.16765	-12.10744	0.79884
975.862	-10.74331	0.36918	-12.00483	0.05094
979.855	-10.78534	0.03500	-12.57032	0.73746
983.862	-10.98889	0.12548	-12.45648	1.84832
987.855	-10.94026	-0.01898	-12.20785	1.15934
991.858	-10.60747	0.89404	-12.13180	1.02960
995.852	-10.71926	0.38137	-11.77094	0.82868
999.860	-10.75600	-0.41606	-12.16932	0.94985
1003.858	-10.83007	-0.09987	-12.12452	1.24506
1007.863	-11.06693	0.51941	-12.15208	0.87327
1011.861	-10.58589	1.07663	-12.37809	1.07775
1015.855	-13.48463	1.16344	-13.20324	1.24041
1019.860	-11.72512	1.29920	-15.44778	1.26130
1023.853	-12.82212	-0.15669	-16.75136	1.07482
1027.860	-14.03699	0.62999	-17.20251	0.74598
1031.856	-13.58946	0.44669	-16.54472	0.28687
1035.859	-13.27497	0.83699	-15.97945	-0.01381
1039.868	-15.52550	1.60356	-15.82439	0.29150
1043.857	-12.97962	0.62562	-15.96929	0.50959
1047.857	-13.96818	0.80884	-15.94653	0.43291
1051.852	-14.05227	0.84532	-15.92753	0.28913
1055.859	-14.17017	0.69293	-16.02655	0.21970
1059.853	-14.13939	0.59906	-16.04226	0.28653
1063.858	-14.21253	0.39972	-16.20055	0.34328
1067.851	-14.32917	0.55795	-16.15838	0.28593
1071.860	-14.14200	0.29934	-16.22977	0.39608
1075.857	-14.06009	0.67102	-16.16873	0.50030
1079.858	-14.45637	0.74512	-16.32270	0.60838
1083.852	-14.57274	0.85820	-16.40815	0.70450
1087.859	-14.41077	1.23470	-16.44638	0.68508
1091.864	-14.06971	0.87150	-16.51935	0.77071
1095.857	-14.13449	0.78558	-16.53080	0.86294
1099.852	-14.68298	1.63501	-15.21097	0.80546
1103.860	-13.84703	1.47350	-14.20989	0.71564
1107.853	-14.71528	1.34590	-16.53664	0.35662
1111.861	-13.85077	1.45107	-16.53642	0.28285
1115.856	-14.42216	1.27390	-16.68154	0.38982
1119.857	-13.78150	1.51701	-16.76829	0.00447
1123.853	-14.01218	0.95745	-16.68571	-0.03537
1127.858	-13.60817	0.91259	-16.66565	-0.12372
1131.858	-13.68879	0.24887	-16.82274	-0.17121
1135.857	-14.08783	0.77914	-16.51242	0.05310
1139.859	-13.85402	0.82217	-16.58979	-0.23805
1143.855	-13.83117	0.87997	-16.51329	-0.80082
1147.858	-13.48078	-0.18128	-16.40911	-0.88745
1151.851	-13.68033	0.06005	-16.61163	-0.96861
1155.858	-13.72692	0.70394	-16.53995	-0.69737
1159.896	-13.74399	0.36836	-16.23768	-1.33711
1163.857	-14.04264	0.52030	-16.35566	-1.27823
1167.851	-13.93836	0.50756	-16.50334	-0.09730
1171.857	-14.04549	-0.14548	-16.63772	0.18185
1175.853	-13.80273	0.09602	-16.36555	-0.00536
1179.855	-13.65270	-0.06841	-16.42332	-0.21328
1183.851	-13.51985	-0.05405	-16.51023	-0.02513
1187.857	-13.49786	-0.82208	-16.74378	0.30237
1191.855	-13.62617	-0.04383	-16.59991	0.32093
1195.851	-13.61462	-0.76614	-16.58414	0.20927
1199.858	-13.62186	-0.34703	-16.53110	0.19069
1203.851	-13.66679	-0.69268	-16.57709	0.26531
1207.854	-13.64996	-0.90233	-16.63116	0.13186
1211.860	-13.68506	-0.72138	-16.57921	0.22080
1215.865	-14.00237	-1.06273	-16.48616	0.14294
1219.854	-13.50422	-0.51440	-16.50564	0.03143
1223.877	-13.65645	-0.95325	-16.34231	0.08856
1227.862	-14.02914	-1.18054	-16.31084	0.15471
1231.858	-13.74111	-1.07138	-16.27064	0.10665
1235.853	-13.41488	-1.01032	-16.23203	0.12958
1239.856	-13.82295	-0.55542	-16.24734	0.11191
1243.850	-13.63566	-0.81526	-16.16745	0.25231
1247.857	-13.29882	-0.34042	-16.20068	0.15162
1251.854	-13.21387	-0.04657	-16.15403	0.20927
1255.855	-13.35595	-0.08276	-16.16763	0.21036
1259.848	-12.96946	-0.00719	-16.15149	0.24589
1263.857	-13.15746	0.18902	-16.55724	-0.08013
1267.854	-12.09332	0.05343	-16.49252	-0.37160
1271.854	-12.87876	0.57755	-16.47041	-0.08731
1275.850	-12.94926	-0.07737	-16.47543	-0.08009
1279.856	-12.77056	0.43166	-16.55589	-0.11714
1283.854	-12.90583	0.55003	-16.49627	-0.71835
1287.883	-13.33401	0.36380	-16.63252	-0.56212
1291.875	-13.63681	-0.02169	-16.50948	-0.39772
1295.853	-12.96503	-0.85947	-16.49275	-0.81568
1299.855	-14.04334	-0.10453	-16.41128	-0.79705
1303.849	-14.26956	-0.15449	-16.73593	-0.41106
1307.843	-13.61440	-0.19714	-16.56898	-0.10546
1311.848	-13.29323	0.17085	-16.67157	-0.46042
1315.852	-13.73406	-0.34011	-16.65963	-0.62324
1319.847	-13.88871	0.57557	-16.39073	-0.88932
1323.849	-13.54194	0.65681	-14.97097	-0.36390
1327.843	-13.29974	0.33408	-16.68667	-0.34057
1331.851	-13.31476	-0.90520	-16.51116	-0.41859
1335.848	-13.72310	0.67632	-16.55496	0.14446
1339.848	-13.64877	0.18811	-16.76663	0.02120
1343.842	-14.09887	-1.13646	-16.95949	-0.23859
1347.851	-13.84165	-0.66768	-15.13501	0.17532
1351.853	-13.75032	-0.70882	-16.34373	0.51659
1355.852	-13.59816	1.06535	-16.96702	-0.49618
1359.875	-13.57466	0.69628	-17.52929	0.58715
1363.847	-14.06399	2.29454	-18.25930	0.92076
1367.842	-17.11918	2.95261	-19.79937	-12.09182
1371.849	-17.57175	7.98893	-21.38341	5.61667
1375.850	-17.22683	10.16938	-19.94301	-12.08119
1379.722	-19.98250	-12.07826	10.47952	14.71062
1383.717	-19.98816	-12.07784	-19.96023	-12.07991
1387.728	-19.99004	-12.07770	-19.96922	-12.07925
1391.726	-19.99100	-12.07763	-19.97454	-12.07885
1395.723	-19.99160	-12.07758	-19.97820	-12.07858
1399.965	-19.99199	-12.07755	-19.98094	-12.07837
1403.746	-19.99228	-12.07753	-19.98603	-12.07800
1407.736	-19.99249	-12.07751	-20.00446	-12.07662
1411.728	-19.99269	-12.07750	-20.00393	-12.07666
1417.236	-19.99370	-12.07743	NaN	NaN
1427.738	NaN	NaN	NaN	NaN
1431.737	NaN	NaN	NaN	NaN
1436.471	NaN	NaN	NaN	NaN
1443.723	NaN	NaN	NaN	NaN
1447.721	NaN	NaN	NaN	NaN
1451.719	NaN	NaN	NaN	NaN
1455.724	NaN	NaN	NaN	NaN
1459.724	NaN	NaN	NaN	NaN
1463.723	NaN	NaN	NaN	NaN
1467.895	NaN	NaN	NaN	NaN
1472.089	NaN	NaN	NaN	NaN
1475.802	NaN	NaN	NaN	NaN
1479.922	NaN	NaN	NaN	NaN
1483.769	NaN	NaN	NaN	NaN
1487.970	NaN	NaN	NaN	NaN
1491.825	11.39058	9.72211	NaN	NaN
1496.004	5.17683	4.92242	4.20936	14.36925
1499.741	0.02122	13.63176	NaN	NaN
1503.729	0.85488	1.65086	10.07309	8.87001
1507.723	0.70039	1.07762	11.31877	6.36682
1511.716	1.31662	9.80183	7.00382	0.06250
1515.723	4.55482	9.48914	3.00475	-2.64296
1519.719	4.67352	9.40743	-2.36041	0.69150
1523.723	5.23659	9.17241	4.60957	0.18051
1527.719	3.30611	-0.77954	1.81644	-1.50247
1531.723	4.60355	5.50927	1.20460	-1.09485
1535.719	4.61578	4.61296	-0.28922	0.06143
1539.724	7.41109	4.20126	-3.71271	-1.84263
1543.719	4.76386	4.40164	-2.46023	-1.49502
1547.715	3.05363	1.60124	-2.39146	-0.58544
1551.727	3.66219	-0.87301	-2.48797	-1.39143
1555.720	4.48833	-0.86899	-0.19261	-0.62013
1559.752	4.69684	-1.01048	-3.49297	-2.14723
1563.713	4.09639	-0.95374	1.06411	0.21968
1567.722	4.05868	-0.32780	1.03392	2.02768
1571.718	5.02272	0.13753	0.59870	2.10642
1575.719	2.33918	-0.77636	1.00685	1.83745
1579.713	3.39315	-0.91202	1.37734	0.69750
1583.721	4.21244	-0.93403	1.43181	0.27062
1587.715	4.65308	-1.02521	1.77816	0.28053
1591.719	3.79818	-1.17651	1.83162	-0.22462
1595.717	5.47481	-1.21781	2.04951	-0.43010
1599.721	3.75632	-1.24525	1.77457	-0.40432
1603.717	3.48632	-0.74428	1.64042	0.23527
1607.712	5.85512	-1.66792	1.92570	0.36440
1611.720	5.80258	-0.97842	1.95619	0.82018
1615.716	2.16843	-1.93931	2.01878	0.49783
1619.718	2.02641	-0.47702	2.07194	0.67334
1623.721	3.45796	-0.84169	2.01327	0.06934
1627.715	3.99978	-2.37767	2.02492	0.58792
1631.717	3.68693	-2.39590	2.07227	0.56694
1635.718	5.24471	-2.36439	2.26534	0.80108
1639.718	5.07035	-1.25556	2.22322	0.53935
1643.713	5.55885	-1.00247	2.26527	0.36241
1647.720	4.39281	-1.55603	2.07368	0.02972
1651.714	6.14383	-1.72939	1.86538	-0.17306
1655.717	4.26832	-1.23756	2.10984	-0.08463
1659.718	4.05638	-1.66130	1.99384	0.51850
1663.721	4.30225	-1.54733	2.00529	0.26942
1667.717	3.60220	-1.54075	2.09993	0.22848
1671.712	4.08789	-2.08591	2.16654	0.27158
1675.719	4.12851	-1.40437	2.20220	0.15023
1679.720	4.09967	-1.47154	2.17807	0.33107
1683.716	3.94268	-1.56807	2.55341	0.22079
1687.712	3.67005	-1.46706	2.22304	0.24493
1691.719	3.47866	-1.80848	2.30120	0.39403
1695.716	3.84117	-0.46772	2.40600	0.55284
1699.716	3.59013	-1.13613	2.36834	0.56008
1703.717	4.64985	-1.49110	2.64636	0.58138
1707.713	4.89212	-1.33484	2.50112	0.81881
1711.720	7.77532	-2.06968	3.73097	0.62239
1715.714	10.33437	-4.00491	4.05903	1.00500
1719.717	6.08370	-2.33247	4.06826	0.78826
1723.721	7.47787	-2.35786	2.96737	0.81118
1727.718	6.23118	-2.23253	5.05270	0.75677
1731.712	6.42457	-2.94140	5.11898	0.68527
1735.720	8.76067	-4.71192	4.22540	0.80500
1739.715	6.70854	-2.41489	3.48568	0.74822
1743.718	5.41731	-2.67485	3.14615	0.80062
1747.713	4.13340	-2.62772	3.30505	0.95494
1751.719	1.49106	-2.63657	3.03784	0.91435
1755.715	2.52877	-2.67223	2.75170	0.51491
1759.717	3.30712	-2.68608	2.93191	0.14093
1763.716	2.73796	-2.47964	4.65180	0.03289
1767.720	3.57281	-2.41630	4.70624	1.19349
1771.721	3.85281	-2.64386	4.84706	0.90462
1775.721	2.82843	-2.33429	4.34971	1.13454
1779.749	5.12962	-2.42360	6.54149	1.03372
1783.718	7.00732	-0.29655	6.82736	-0.17449
1787.718	4.49938	-2.50034	2.98450	1.55738
1791.712	3.55975	-2.52142	2.84430	1.12984
1795.717	2.82325	-3.04753	2.24101	1.46228
1799.713	2.92572	-2.49155	2.46830	0.34925
1803.719	7.92726	-2.94227	2.96799	1.07442
1807.708	8.09450	-2.85138	2.69601	1.24451
1811.721	5.23664	-1.83403	2.72352	1.36135
1815.715	7.64179	-1.68878	2.56377	1.25941
1819.714	3.88043	-2.60245	2.14186	1.42984
1823.715	3.17186	-3.09351	2.57712	0.50387
1827.713	2.95735	-3.03470	2.26993	-0.51257
1831.709	1.02893	-3.14972	3.10604	0.14349
1835.717	7.26259	-3.26726	6.11319	0.55630
1839.719	4.52086	-2.59207	2.75683	0.91565
1843.712	6.54416	-2.98394	2.20597	1.10414
1847.716	3.63095	-1.69003	2.88869	0.75880
1851.716	4.81808	-2.53468	2.55686	1.10309
1855.710	4.28241	-2.69017	2.42314	1.16214
1859.716	4.10742	-2.63085	2.23023	0.75602
1863.712	4.97039	-3.01358	2.43322	0.77926
1867.713	2.79184	0.04793	1.81478	1.00161
1871.708	1.65974	0.06565	-0.41259	1.39316
1875.717	1.32304	0.16771	-3.52741	1.19477
1879.712	-2.96948	-0.88064	-6.91041	2.65853
1883.714	-5.08709	-1.43668	-7.03352	-0.23473
1887.712	-3.05815	-1.05667	-7.09436	1.24321
1891.716	-9.08481	-1.11651	-9.90296	1.71940
1895.712	-9.12698	6.76422	-9.83852	1.04788
1899.714	-9.53448	-0.21470	-10.72019	2.30368
1903.708	-10.97411	-1.05344	-13.15597	1.11652
1907.717	-12.50290	-1.09534	-13.26975	1.43979
1911.715	-12.52863	-1.14330	-15.08481	1.56460
1915.714	-15.57134	-1.14519	-16.51096	1.63737
1919.712	-15.40348	-0.54552	-15.91420	0.87553
1923.715	-14.25974	-1.27123	-15.88704	2.26838
1927.712	-13.72732	-0.23270	-15.60067	2.32324
1931.714	-13.47230	-0.92009	-15.33444	0.93906
1935.716	-13.12380	0.09702	-14.83865	0.79971
1939.711	-14.28315	-0.26325	-14.73327	0.71730
1943.712	-14.28555	-1.35128	-15.63233	0.87374
1947.707	-15.10797	-0.14718	-15.22530	0.92279
1951.715	-14.09311	-0.17295	-14.99832	0.30593
1955.712	-10.78781	-0.47930	-15.18414	2.23230
1959.712	-13.23810	0.10834	-14.97634	0.48160
1963.707	-11.23165	0.12603	-15.49047	1.74727
1967.716	-12.06968	0.65194	-15.17260	0.82170
1971.711	-14.46936	-0.11092	-14.99056	0.59042
1975.728	-14.80836	0.08024	-15.30515	1.10155
1979.715	-13.78675	-0.34947	-15.50343	0.33784
1983.706	-12.08456	-0.34098	-15.64657	1.31726
1987.733	-12.97080	0.40811	-15.10841	1.60784
1991.709	-14.28236	-0.04780	-14.49918	1.21925
1995.713	-12.94926	-0.09493	-14.17962	1.08621
1999.705	-13.43489	-1.09746	-12.31561	1.24724
2003.713	-13.20724	-0.03701	-15.32105	0.47744
2007.711	-13.42535	-0.11445	-13.71830	0.37610
2011.715	-12.34005	-0.20896	-13.70758	0.59388
2015.705	-12.79909	-0.06976	-14.03141	-0.53614
2019.713	-13.57895	0.00466	-13.92353	0.53497
2023.710	-12.59510	0.50014	-13.78899	0.93022
2027.705	-11.46301	-0.13231	-14.01756	0.44671
2031.713	-12.05098	-0.13784	-13.54333	0.84458
2035.714	-13.46303	0.02615	-15.25910	0.53804
2039.713	-13.82316	-0.21410	-14.79584	0.87803
2043.737	-11.57977	-0.09903	-13.31182	0.92866
2047.715	-9.39424	-0.77223	-15.61251	1.17551
2051.709	-13.12983	0.57879	-14.45807	0.83740
2055.711	-12.91847	-1.04559	-13.82330	1.32512
2059.708	-13.82223	-0.03079	-15.06271	0.99633
2063.714	-14.05077	0.02818	-14.33199	1.11288
2067.709	-12.90435	0.16589	-15.46602	1.05408
2071.710	-12.38535	0.15043	-15.61103	1.10090
2075.705	-12.87129	-0.11645	-14.00202	1.17092
2079.712	-11.23420	0.29932	-15.71913	1.00204
2083.709	-12.62081	-0.77497	-13.68940	0.78268
2087.710	-11.40670	0.49955	-15.59250	0.94071
2091.704	-12.46675	-0.80990	-14.73662	0.76051
2095.724	-12.38647	0.57517	-15.14065	0.11960
2099.709	-11.95064	0.08771	-15.51472	0.96910
2103.707	-11.45283	0.46241	-15.77164	-0.00992
2107.715	-12.12737	0.89812	-15.66723	0.61987
2111.729	-12.27858	0.49813	-15.85526	0.29428
2115.712	-12.61618	0.10320	-16.21474	0.36168
2119.704	-13.19661	1.06086	-14.23459	0.94713
2123.710	-13.51023	0.16415	-14.75628	0.65884
2127.710	-13.27868	-0.17398	-15.48656	0.24064
2131.709	-13.41948	0.77380	-15.77492	0.81113
2135.711	-13.44097	0.09941	-15.97746	1.03814
2139.709	-11.44399	0.02555	-15.75842	0.11307
2143.705	-12.29730	1.18358	-15.87393	0.30677
2147.715	-12.09766	1.39082	-15.94500	0.66128
2151.708	-13.31944	0.41822	-16.05826	0.46416
2155.705	-13.32249	-0.18742	-16.04923	0.37124
2159.711	-10.93071	1.09633	-15.90343	0.43764
2163.709	-12.93276	0.01674	-15.96250	0.28760
2167.706	-13.04959	-0.23331	-15.68000	0.27393
2171.711	-13.30016	0.99141	-15.77589	0.26890
2175.708	-11.44089	0.12404	-15.57417	0.66666
2179.723	-11.64937	1.19221	-15.74056	1.51424
2183.708	-12.13311	1.06063	-13.29781	0.49455
2187.712	-11.82761	1.15488	-13.43517	0.97462
2191.708	-12.28694	1.00339	-13.57208	0.97018
2195.707	-13.31445	0.37995	-15.82685	-1.50779
2199.716	-14.20642	1.36950	-16.07771	-0.10363
2203.708	-12.80060	1.18192	-15.97193	0.30251
2207.744	-12.48972	0.95383	-16.01557	0.76971
2211.702	-12.24239	1.51740	-15.66583	0.86680
2215.713	-12.40453	0.86804	-15.14629	0.87926
2219.713	-12.38019	1.09977	-13.10134	0.59691
2223.703	-12.43528	1.05912	-12.35604	0.80748
2227.709	-12.56361	0.94437	-13.95360	0.65841
2231.581	-12.55063	0.89512	-14.07219	0.65146
2235.577	-12.78920	1.11652	-16.06641	0.23769
2239.584	-12.74690	0.52679	-15.75835	0.10425
2243.580	-12.81047	0.41298	-15.40364	-0.71851
2247.581	-12.76966	-0.92144	-14.87693	0.19804
2251.584	-10.55279	-0.01668	-16.02692	0.41289
2255.576	-12.32468	-1.89816	-16.34334	0.30521
2259.584	-12.87723	0.08173	-16.17354	-0.06270
2263.581	-12.97118	0.26692	-14.18095	0.65599
2267.586	-13.11260	0.20682	-13.21044	0.37787
2271.575	-12.85970	0.02810	-15.55729	0.99214
2275.584	-11.66772	0.03529	-15.33403	0.78956
2279.580	-11.49648	0.22573	-15.66779	0.01821
2283.581	-12.09669	0.40661	-15.70968	-0.14135
2287.582	-13.38430	0.18123	-15.83643	0.28395
2291.585	-12.79437	0.35420	-16.04324	0.47805
2295.577	-12.66186	0.39834	-15.78239	0.89019
2299.584	-13.00016	0.99989	-15.88052	0.44882
2303.580	-11.90317	0.39309	-15.63895	0.36726
2307.586	-11.82243	1.05536	-15.81817	0.27033
2311.580	-11.52753	0.90640	-15.80693	0.03857
2315.583	-12.23858	0.74571	-15.42691	-0.11028
2319.586	-11.85459	0.77605	-15.97581	-0.54282
2323.585	-13.39492	0.95792	-15.99679	-0.13305
2327.578	-12.49408	1.13819	-16.01280	-0.31325
2331.585	-12.09505	0.75777	-15.84957	0.15605
2335.582	-12.21184	0.98464	-16.06541	0.33012
2339.581	-14.39830	0.95433	-15.39681	0.00343
2343.575	-13.97730	1.03361	-15.98069	-0.17608
2347.584	-10.49378	-0.34558	-15.70471	-0.16642
2351.586	-12.05582	0.98915	-15.93254	0.01443
2355.576	-13.44284	0.62161	-15.63009	1.61601
2359.583	-11.89839	0.16799	-14.72956	0.57888
2363.579	-12.24787	0.75731	-15.75224	-0.05613
2367.582	-12.40860	0.49487	-15.44580	-0.01035
2371.574	-12.08684	0.65785	-15.62068	0.15507
2375.583	-13.80819	0.63045	-15.69576	-0.00715
2379.579	-13.01161	0.56425	-15.52529	0.77665
2383.585	-11.49080	0.37675	-12.75424	0.89237
2387.582	-10.72364	0.49044	-15.61863	0.46630
2391.584	-11.60058	0.35285	-15.07218	2.02334
2395.575	-13.51675	0.69993	-15.43171	0.40718
2399.609	-11.44840	0.28212	-15.77334	0.37049
2403.576	-12.65342	0.91590	-15.34824	-0.04958
2407.579	-13.49298	0.63192	-15.86941	0.58747
2411.588	-11.94714	0.94118	-16.05922	0.92038
2415.579	-11.62504	0.72954	-15.60505	0.57526
2419.579	-13.50058	0.82485	-15.70979	1.77276
2423.582	-11.68258	0.69116	-12.82576	0.87909
2427.616	-13.08232	1.03140	-14.63460	0.94077
2431.585	-11.48797	1.08302	-15.23704	0.54188
2435.578	-12.26370	1.03295	-15.68879	0.64727
2439.586	-12.78146	0.81632	-15.24293	1.06310
2443.582	-13.37087	0.65339	-14.73683	0.99962
2447.583	-12.49533	1.03455	-14.72766	0.62192
2451.586	-11.82730	1.02726	-15.38249	1.16961
2455.582	-11.29049	0.72955	-15.80374	0.70220
2459.578	-13.31462	0.59989	-15.99709	-0.27771
2463.586	-11.76611	1.11039	-14.26648	0.88192
2467.580	-12.62927	1.71944	-16.05051	1.29157
2471.582	-11.35530	1.57178	-16.15092	0.19446
2475.579	-12.75460	0.55140	-14.28967	0.52679
2479.587	-12.50136	0.57232	-16.45441	0.54644
2483.580	-12.76347	0.96442	-16.38036	0.13041
2487.578	-12.12646	1.15314	-16.32922	0.71837
2491.583	-13.08018	0.83511	-16.00908	0.14852
2495.577	-11.62356	1.35466	-16.35420	0.76231
2499.585	-10.96523	0.93107	-16.36334	0.33169
2503.582	-13.01802	0.89770	-16.15199	-0.01919
2507.584	-12.76177	0.72561	-16.36791	0.37348
2511.577	-12.39769	0.71844	-16.31333	0.15125
2515.590	-11.94258	1.04313	-16.12486	-0.03330
2519.587	-12.14082	0.90782	-16.06064	0.92579
2523.585	-12.99830	1.19345	-16.23501	1.20974
2527.586	-12.45679	0.97011	-16.18675	0.52934
2531.581	-12.84312	1.32576	-16.14732	0.54190
2535.583	-12.24995	1.30032	-16.27776	0.95942
2539.586	-12.80532	1.12588	-16.14501	1.70523
2543.582	-12.58954	0.81349	-16.29594	1.56539
2547.582	-12.30656	1.30761	-16.31395	0.63072
2551.577	-12.31438	1.39917	-16.05903	0.91673
2555.584	-10.47660	0.89239	-14.73397	0.84322
2559.585	-12.45558	0.85707	-16.37707	0.74465
2563.582	-12.04666	1.26874	-16.40809	0.63533
2567.578	-12.39935	1.32335	-16.28832	1.74269
2571.584	-13.29878	0.47148	-16.40560	0.60349
2575.580	-12.51305	1.20239	-15.97631	1.02408
2579.583	-12.82179	0.61795	-16.60793	0.91347
2583.577	-12.43182	0.81486	-16.42845	0.74484
2587.583	-12.59481	0.46110	-16.40324	0.70594
2591.586	-12.43128	0.79082	-16.29914	0.82488
2595.579	-12.62438	1.00136	-14.42425	1.02964
2599.587	-12.23407	0.42243	-16.41363	0.72895
2603.586	-12.48324	0.85938	-16.27668	0.63695
2607.615	-12.56474	0.58986	-16.25976	1.33336
2611.582	-12.69450	1.18377	-16.23766	0.76751
2615.574	-12.48353	0.80369	-13.66562	1.08773
2619.584	-12.99694	0.83828	-16.00860	0.72735
2623.579	-12.69462	0.88400	-16.18448	0.62489
2627.576	-13.41615	0.86410	-13.37000	0.95210
2631.583	-13.10189	1.12737	-17.71545	0.54273
2635.583	-14.04848	3.27090	-18.13995	0.83742
2639.579	-14.56367	6.86424	-17.78388	2.24274
2643.574	-15.20771	4.32055	-21.81131	1.19669
2647.583	-15.97782	4.05857	-11.64616	0.39443
2651.577	NaN	NaN	-19.93591	-12.08172
2655.581	NaN	NaN	-19.96448	-12.07960
2659.580	NaN	NaN	-19.97452	-12.07885
2663.582	NaN	NaN	-19.97967	-12.07847
2667.582	NaN	NaN	-19.98283	-12.07823
2671.635	NaN	NaN	-19.98496	-12.07808
2675.702	NaN	NaN	-19.98881	-12.07779
2679.787	NaN	NaN	-19.99690	-12.07719
2684.018	NaN	NaN	-19.99714	-12.07717
2687.637	NaN	NaN	NaN	NaN
2691.589	NaN	NaN	NaN	NaN
2695.774	NaN	NaN	NaN	NaN
2700.048	NaN	NaN	NaN	NaN
2704.192	NaN	NaN	NaN	NaN
2708.379	NaN	NaN	NaN	NaN
2711.893	NaN	NaN	NaN	NaN
2716.109	NaN	NaN	NaN	NaN
2719.598	NaN	NaN	NaN	NaN
2724.117	NaN	NaN	NaN	NaN
2727.725	NaN	NaN	NaN	NaN
2731.761	NaN	NaN	NaN	NaN
2735.914	NaN	NaN	NaN	NaN
2739.621	NaN	NaN	NaN	NaN
2743.637	NaN	NaN	NaN	NaN
2747.768	NaN	NaN	NaN	NaN
2751.966	NaN	NaN	NaN	NaN
2756.108	NaN	NaN	NaN	NaN
2760.070	12.74530	7.27882	NaN	NaN
2764.160	14.85053	4.63020	14.20924	10.18204
2768.306	10.65271	1.61519	10.25574	8.47207
2772.353	11.54773	0.70890	11.48225	6.16798
2777.882	NaN	NaN	-5.49903	6.49825
2781.936	NaN	NaN	-3.18222	5.33149
2787.596	10.01575	0.53469	10.42598	4.85935
2792.669	12.56727	-0.57746	10.33447	2.94608
2796.970	10.23817	1.13745	11.42408	3.74258
2801.255	12.27341	-0.87034	10.16973	3.56354
2805.461	10.68710	0.09992	10.32390	1.85726
2809.743	12.28747	-0.93088	9.62596	3.36119
2814.059	9.50513	0.70528	8.83701	5.12236
2818.370	9.42960	0.22332	6.89348	3.55448
2822.718	7.18335	-0.10754	6.41971	3.08593
2827.039	9.33509	0.88084	6.32983	3.03362
2831.352	9.51401	0.54275	7.26874	2.88583
2835.647	7.97437	-0.50137	6.27138	2.67233
2839.939	9.41182	-0.37786	6.24803	2.24940
2844.131	5.51334	-0.59479	6.73143	2.44675
2848.368	7.95078	-0.81386	6.43770	2.18718
2852.640	8.41111	0.25801	6.43270	1.65918
2856.876	5.17115	-0.32439	6.09084	2.42842
2862.168	8.07779	-0.70734	6.23780	2.42400
2866.456	11.77456	-1.15386	5.93684	2.83260
2870.524	7.82742	-0.66425	5.95228	2.43654
2874.706	5.98621	-0.47454	5.93880	2.22353
2879.004	9.13785	-1.07404	5.46057	2.72752
2883.342	9.65512	-1.00771	5.96350	1.77921
2887.656	5.34570	-0.38655	6.03984	1.86852
2891.877	7.95285	-0.40995	6.13117	2.57641
2896.006	9.38218	-0.48297	5.78976	2.12276
2900.179	8.22458	-0.34797	7.46216	1.90682
2904.353	3.06684	-0.44150	5.71527	2.12370
2908.565	4.90967	-0.35059	5.90399	2.14079
2912.817	8.74263	-0.73795	5.63586	2.09947
2917.083	6.72205	-0.24076	5.59373	1.63501
2921.281	10.00473	-0.30019	7.96159	2.00863
2925.359	7.14042	-0.84206	6.17411	1.81284
2930.382	4.01025	2.62980	5.56224	2.19497
2934.549	4.12794	0.90382	5.56709	1.60619
2938.682	6.48320	-0.21772	5.66988	1.57606
2942.838	7.70085	-0.02061	5.52441	1.90236
2946.997	7.28803	-0.24352	5.30564	1.42335
2951.235	7.30717	-0.62947	5.26512	1.10858
2955.582	8.80432	-0.37892	5.63048	1.54711
2959.899	10.55565	-0.57105	6.15176	1.88822
2964.080	10.58783	-0.08100	5.49551	1.60389
2968.211	11.43283	-2.36607	5.38321	1.67135
2972.303	7.25821	-0.33339	5.45280	2.22380
2976.427	7.07720	-0.95790	5.87472	2.51603
2980.636	7.69897	-0.52389	7.08441	1.96914
2984.788	10.65251	1.47340	5.44478	1.70378
2988.901	8.57515	1.72834	5.48440	2.57752
2993.062	6.47115	2.87348	6.55596	2.27671
2998.080	10.87115	-0.58507	5.79848	2.00169
3002.332	9.02041	0.46862	5.43020	3.62178
3006.500	10.84214	-1.18375	5.34912	1.61417
3010.681	14.02365	-4.34493	5.39192	3.32500
3014.864	11.57000	-1.89259	6.07518	1.80086
3019.050	9.24629	-2.54646	5.70563	2.25259
3023.197	6.08890	-0.74172	7.31140	2.19668
3027.481	6.21296	-0.37961	5.30104	2.01774
3031.820	6.46973	-3.47092	5.04649	1.78653
3035.934	3.59936	-1.68387	4.00373	2.20046
3040.255	2.92948	-0.79900	2.73640	1.09896
3044.481	6.37866	-0.82775	3.56252	1.55554
3048.667	7.28932	-0.98384	4.14739	0.69228
3052.876	3.58507	-0.10359	3.39337	1.61563
3184.515	NaN	NaN	NaN	NaN
3251.867	NaN	NaN	NaN	NaN
3255.568	NaN	NaN	NaN	NaN
3259.564	NaN	NaN	NaN	NaN
3263.568	NaN	NaN	NaN	NaN
3267.565	NaN	NaN	NaN	NaN
3271.566	NaN	NaN	NaN	NaN
3275.563	NaN	NaN	NaN	NaN
3279.560	NaN	NaN	NaN	NaN
3283.564	NaN	NaN	NaN	NaN
3287.561	NaN	NaN	NaN	NaN
3291.577	NaN	NaN	NaN	NaN
3295.567	NaN	NaN	NaN	NaN
3299.562	NaN	NaN	NaN	NaN
3303.567	NaN	NaN	NaN	NaN
3307.575	NaN	NaN	NaN	NaN
3311.562	NaN	NaN	NaN	NaN
3315.561	NaN	NaN	NaN	NaN
3319.560	NaN	NaN	NaN	NaN
3323.569	NaN	NaN	NaN	NaN
3327.568	NaN	NaN	NaN	NaN
3331.565	NaN	NaN	7.33972	4.63880
3335.567	NaN	NaN	6.11604	4.55820
3339.565	13.60336	11.08153	4.76433	4.26058
3343.569	13.45449	4.60289	1.64141	2.50726
3347.571	6.07852	5.71737	1.46107	3.37807
3351.570	5.39482	1.63738	-5.73537	0.03783
3355.568	12.48099	-0.21675	8.47651	3.22017
3359.565	11.61259	-0.43138	2.64218	3.01162
3363.566	11.42523	-0.63208	3.85834	3.40359
3367.581	7.78635	-1.34438	2.93096	2.71730
3371.568	7.14223	-0.80964	2.05412	3.57016
3375.565	10.65669	-0.88251	3.57723	3.36585
3379.565	10.00719	-1.56796	2.42359	3.70029
3383.564	9.81725	-0.59889	3.46906	3.27621
3387.572	5.98736	-0.41780	3.97284	3.21103
3391.568	8.15044	-0.32319	4.21422	3.21948
3395.570	1.49837	-0.41528	3.16010	3.14218
3399.564	5.16910	-0.23790	5.88270	2.94388
3403.569	3.31373	-0.46779	7.67623	2.73427
3407.564	7.01120	0.37396	3.05229	3.18525
3411.565	9.51242	-2.34902	6.96656	3.04832
3415.566	6.22606	-0.85746	4.41689	3.09897
3419.565	3.70082	-0.22288	4.62226	2.93244
3423.569	8.71957	-0.59354	5.02307	2.98870
3427.570	6.94663	-0.97269	5.44586	2.79546
3431.565	7.30673	-0.02043	3.68211	2.40757
3435.567	8.56809	-2.34400	2.86066	2.89308
3439.564	6.90997	-1.19317	2.64064	2.63955
3443.566	6.83059	-0.83040	2.71993	2.55798
3447.563	3.86482	-0.68566	2.14201	2.66355
3451.568	3.99003	-0.49368	2.05068	2.69287
3455.564	5.30574	0.52312	1.52213	2.78685
3459.567	7.27965	-0.34395	2.26861	2.89664
3463.584	3.02210	-0.74157	2.31921	3.00057
3467.577	7.14616	-0.76516	3.35385	2.69196
3471.569	6.58714	-0.54863	4.24117	2.87354
3475.569	7.10206	1.12273	2.94686	3.12860
3479.564	7.06283	0.33928	2.00071	2.81490
3483.564	7.25074	-2.94547	3.10794	2.82743
3487.563	4.73547	-2.41240	1.74194	2.98829
3491.567	2.27853	-0.30920	1.83246	3.18329
3495.562	6.09481	-1.29234	1.94771	5.11392
3499.563	2.78760	-0.22206	4.57421	3.20980
3503.562	-1.59462	-2.24375	3.57234	3.82658
3507.567	4.26526	-0.63254	2.13390	3.24615
3511.568	4.17408	-0.66297	1.88085	3.13928
3515.572	7.25272	-0.84074	2.29535	3.47938
3519.562	4.99600	-2.13614	2.05402	3.62450
3523.565	5.08187	-1.03212	2.22347	3.37277
3527.564	5.37591	-1.08078	2.19945	3.35072
3531.564	7.35588	-0.37536	1.94590	3.86263
3535.565	8.61783	-0.25848	2.10716	4.02801
3539.566	4.52281	-1.24025	2.40166	3.49824
3543.562	3.37561	-0.26336	2.01684	1.73537
3547.567	2.70366	-1.05452	2.09083	3.24916
3551.570	3.28098	0.51186	1.93266	4.04750
3555.568	4.16107	-0.89576	5.43927	3.48536
3559.561	3.86101	-0.10668	2.11866	3.71069
3563.567	4.71932	-0.15379	4.91388	3.63684
3567.563	5.00440	-1.09886	2.33715	4.93989
3571.565	8.20087	-1.44637	2.47942	5.15455
3575.559	5.18493	-0.03324	2.46917	5.27797
3579.568	7.84937	-0.45057	2.44640	5.48831
3583.562	8.64230	-1.09725	4.59850	5.52388
3587.565	4.30857	2.80294	5.28579	5.82363
3591.630	3.25097	0.21415	2.73256	8.11456
3595.573	4.82239	2.67706	2.76619	7.39746
3599.561	5.76175	2.73263	2.95153	6.15434
3603.565	5.93505	2.01982	3.19704	5.45418
3607.564	5.54223	1.86236	3.32803	5.04989
3611.559	5.67757	1.34279	4.35121	6.16772
3615.565	2.93869	0.88836	4.20462	6.68989
3619.564	4.61201	2.77339	2.97302	7.47629
3623.562	4.05527	3.28192	3.89513	7.42859
3627.560	3.31296	3.16582	3.57374	7.35875
3631.564	4.20180	2.66849	3.55192	6.77368
3635.568	4.00494	2.43974	3.39540	6.20443
3639.562	3.91062	3.17467	3.91432	5.98838
3643.564	4.62278	2.75343	4.78659	6.31176
3647.561	6.67880	2.54417	3.80999	7.58467
3651.563	8.03115	2.73412	3.81963	6.96793
3655.559	3.74602	3.12759	4.37685	6.44747
3659.565	4.89429	2.91034	4.94344	6.91768
3663.559	8.53328	2.09688	3.95399	6.81935
3667.566	3.96308	2.61754	5.00120	6.78633
3671.562	4.89634	2.76800	5.49578	6.86045
3675.559	6.75404	2.69761	6.67936	6.22225
3679.565	3.55043	3.12132	5.65454	6.15386
3683.559	3.10275	4.01000	3.69140	6.88950
3687.562	4.40258	3.09318	4.13295	7.03697
3691.559	3.29463	3.63506	4.29806	6.92201
3695.559	6.67887	2.71554	4.42178	6.64249
3699.559	6.54058	2.72743	4.66332	6.85857
3703.562	3.69704	3.44443	5.30235	6.71424
3707.560	3.18264	3.47204	6.04416	6.67076
3711.560	3.71189	3.20175	6.49217	6.52830
3715.558	3.94631	2.99500	6.88404	6.10704
3719.567	4.60126	3.35324	4.04209	6.75403
3723.560	4.33979	2.88513	4.15991	6.47915
3727.566	3.43704	3.04770	3.44913	6.44603
3731.560	3.92191	3.92231	3.36406	6.64136
3735.565	4.39849	4.12416	3.66770	6.68333
3739.565	4.03011	3.38454	4.28123	7.22887
3743.563	3.97988	3.47184	6.53000	6.67308
3747.560	3.64237	3.49524	6.21806	5.94149
3751.559	3.48311	3.46394	5.37451	6.07977
3755.563	4.42525	2.55099	3.52707	6.25968
3759.562	5.03925	2.22819	3.37541	6.34933
3763.563	4.83898	1.91917	3.57968	6.59748
3767.563	5.39377	1.91209	3.66083	6.20439
3771.560	4.90397	3.00924	3.42623	5.85287
3775.562	5.82176	3.39200	3.37826	6.32697
3779.557	3.34170	2.32244	3.02133	7.01658
3783.564	3.20204	3.27917	3.71411	6.48249
3787.559	7.79851	2.12311	3.71799	6.38817
3791.560	3.28553	2.73277	3.33967	6.69740
3795.558	6.73994	1.93915	3.14377	6.50835
3799.557	3.37324	2.96392	3.31863	6.57406
3803.567	5.14234	3.19827	4.65237	6.81951
3807.560	4.48845	2.73199	5.74030	6.03642
3811.621	5.86231	2.25269	8.13378	6.96337
3815.564	4.10002	3.32420	3.69202	6.84366
3819.557	3.80639	2.80609	3.02935	7.35132
3823.562	3.77792	3.01328	3.22967	6.83623
3827.558	5.85436	2.59770	3.57080	6.75363
3831.558	7.04442	2.81441	3.37774	7.38178
3835.558	4.50404	3.35572	5.64798	6.44693
3839.559	4.21133	3.25561	3.00420	6.07041
3843.564	3.51720	2.48433	3.42661	6.52442
3847.558	3.70265	3.08655	3.25117	6.37490
3851.567	8.61293	2.14203	3.42866	6.44680
3855.558	2.66479	2.95936	3.39436	8.13485
3859.556	6.65140	2.88810	2.86849	6.25386
3863.561	4.37460	3.02110	3.45596	6.41189
3867.556	6.10912	3.25213	3.65304	6.31821
3871.557	8.69430	2.78107	4.10214	5.82484
3875.557	2.96044	3.28746	3.20934	7.23112
3879.557	3.27588	3.30977	3.38691	6.21162
3883.559	5.48755	2.62873	3.42589	6.23958
3887.576	2.40387	3.04500	2.43241	5.67561
3891.563	1.91243	3.44185	3.56868	5.31058
3895.556	2.64849	1.67168	1.82269	5.30410
3899.557	0.75712	2.36074	1.31764	2.77168
3903.560	1.31121	1.95518	1.12908	2.86415
3907.557	2.94282	2.15684	0.86977	4.72353
3911.560	0.62201	2.00697	1.23248	3.96673
3915.557	0.93579	2.14776	4.28357	2.78679
3919.557	1.08128	1.67110	1.56766	5.19575
3923.555	2.48250	1.89424	1.23020	3.86253
3927.563	3.04645	1.69071	1.45195	4.27558
3931.577	2.41370	1.72697	3.06422	6.82799
3935.613	-0.05827	1.82259	3.01685	4.79625
3939.559	0.65615	1.80487	4.06690	4.10054
3943.555	2.64559	1.89834	4.20415	4.02532
3947.556	2.50343	1.89438	3.36082	4.35790
3951.559	2.15601	1.90492	2.64502	4.33007
3955.558	0.76953	2.11709	1.98353	4.47419
3959.553	2.38271	2.03658	1.65371	4.34280
3963.561	0.45795	2.04599	1.83615	4.32357
3967.563	2.05117	1.72948	1.29224	4.39789
3971.560	2.70993	2.08341	3.89071	4.32982
3975.554	2.53880	1.93971	2.40310	3.93622
3979.561	0.78868	2.18203	1.18753	4.28980
3983.554	2.47006	1.87687	1.17113	4.65446
3987.560	4.06821	1.88969	1.71677	4.64136
3991.558	2.57144	2.18054	1.73946	4.43338
3995.559	2.71855	2.23644	1.56885	4.24065
3999.554	2.68267	2.22308	1.35762	4.07516
4003.552	3.01705	2.02253	1.56744	3.99820
4007.559	2.93114	1.97150	1.69309	4.23290
4011.560	2.61860	1.82225	1.61213	4.52309
4015.565	2.81201	1.75603	1.23568	4.28350
4019.557	2.74568	1.74634	1.04855	3.93964
4023.559	-0.39040	2.26045	1.89969	4.62920
4027.603	2.76022	1.72548	2.09685	3.71561
4031.562	0.85580	2.13702	5.54966	3.74667
4035.559	5.33637	2.24463	1.80595	4.20906
4039.561	2.71478	2.15030	1.99503	2.91331
4043.557	1.54621	1.88292	1.63586	4.95029
4047.553	3.71483	1.68965	1.32991	3.58077
4051.557	0.78049	1.97189	1.61158	5.32202
4055.558	2.70825	1.95165	1.45294	3.45947
4059.556	0.29560	2.17020	1.51268	5.04519
4063.431	2.28066	2.13668	1.10259	3.82215
4067.427	0.41487	2.29981	1.79921	3.96696
4071.553	2.13011	2.20201	1.21107	3.96090
4075.432	1.15687	1.85151	1.48062	3.34323
4079.429	3.95812	2.12429	1.24786	4.13216
4083.432	1.78734	1.52039	1.20321	3.96195
4087.430	2.92436	2.22277	1.52074	4.30334
4091.428	2.50006	2.20012	3.97089	4.15469
4095.427	2.61075	1.40859	3.92072	4.17526
4099.431	2.47132	1.81532	1.93358	4.57460
4103.431	2.43553	1.45158	1.56422	4.14813
4107.429	2.65733	1.43483	1.70105	3.89223
4111.431	1.71491	2.06836	1.26247	3.37795
4115.429	1.65205	1.89079	1.57176	3.97817
4119.430	1.71397	2.00726	1.41043	4.08191
4123.427	1.30856	2.11635	0.98703	4.23748
4127.431	2.71936	1.71781	0.79024	4.27941
4131.428	2.85118	1.67305	1.74330	4.27224
4135.427	2.89426	2.22979	1.33894	4.29009
4139.436	2.83336	1.98168	3.52628	4.41719
4143.430	2.69430	1.60257	1.66510	3.09685
4147.434	2.45297	2.50180	1.17029	4.28157
4151.428	1.43210	2.27725	1.72178	3.81386
4155.428	2.69596	2.45485	0.97911	3.78242
4159.425	1.56221	2.31930	1.25203	3.90241
4163.432	2.76260	2.22791	4.00322	4.03250
4167.433	1.57223	2.11926	1.31915	4.54575
4171.428	3.21951	2.37399	1.57823	3.07372
4175.428	2.21063	1.92586	1.74613	4.02432
4179.431	2.56619	1.95145	1.35437	3.74407
4183.431	2.35008	2.28577	1.72004	3.63638
4187.430	1.35896	2.67202	1.69190	3.80625
4191.426	2.33202	2.11979	3.74520	3.41098
4195.431	2.39423	2.19085	1.38857	4.31404
4199.427	2.56934	2.02186	1.54140	3.40119
4203.430	1.03024	2.10155	2.03122	3.99746
4207.433	2.82469	2.14475	1.62061	4.05218
4211.429	1.59804	2.19630	2.50308	3.28104
4215.431	2.70153	2.13947	2.80959	4.16228
4219.430	1.55876	2.42653	1.17974	4.10433
4223.439	4.64325	2.03158	1.49582	2.98263
4227.431	0.85654	2.64962	1.77665	3.51410
4231.428	2.84351	2.31686	2.36906	4.05818
4235.425	0.80057	2.26831	2.50434	2.49987
4239.432	3.62553	1.43147	1.99273	4.22839
4243.426	2.69921	1.72317	0.86922	4.08940
4247.463	4.98544	1.99866	-0.75523	4.28973
4251.424	4.42666	4.15604	-0.81205	6.11291
4255.429	0.50361	4.63975	0.13456	6.17525
4259.426	4.09545	5.22076	-2.26177	6.39350
4263.433	-4.05033	7.94145	-4.13920	7.33209
4267.428	-3.43865	7.92953	-4.54143	8.66753
4271.429	-8.22625	8.59940	-5.70669	9.67160
4275.426	-8.50173	8.78037	-4.62116	9.90271
4279.428	-6.03368	9.97921	-8.10863	10.83701
4283.424	-9.34031	10.62255	-10.11062	11.08441
4287.426	-9.88085	11.82215	-10.67032	12.78445
4291.436	-9.83744	11.72310	-11.49426	12.70060
4295.425	-12.11479	11.67372	-9.92615	11.47721
4299.426	-9.94033	12.01067	-9.19757	12.07276
4303.428	-9.09064	11.50448	-9.20431	10.65453
4307.445	-11.20202	11.63612	-10.39131	12.44322
4311.436	-8.29450	11.75052	-7.06281	12.69414
4315.425	-10.21063	11.94443	-8.57056	12.01219
4319.427	-11.25805	11.87469	-8.49547	11.74036
4323.425	-8.07027	12.07848	-6.92237	11.93055
4327.431	-9.97351	12.34097	-8.34009	11.70330
4331.425	-11.04087	12.83613	-8.68844	11.95940
4335.433	-9.27738	12.29573	-9.14946	11.78755
4339.427	-9.21527	12.16333	-8.72990	12.33986
4343.427	-10.58505	11.86305	-9.10439	11.99352
4347.429	-11.06361	11.65313	-8.62600	11.78143
4351.431	-10.77833	12.11674	-9.34048	11.70996
4355.428	-10.17521	12.65654	-9.31694	12.31453
4359.426	-10.83814	12.27479	-9.24793	11.68477
4363.423	-9.24329	12.17887	-8.72275	11.98557
4367.427	-10.89796	11.91369	-9.05117	11.88153
4371.423	-9.58946	12.03994	-8.64965	11.49343
4375.423	-10.70057	11.04120	-8.32825	11.97922
4379.422	-10.66534	12.24017	-9.37373	12.41189
4383.426	-7.51374	12.32393	-9.56660	12.01065
4387.423	-9.85688	11.64650	-9.68090	11.74137
4391.429	-13.24257	12.83766	-9.25417	12.35033
4395.428	-9.04255	12.63121	-9.21108	11.72770
4399.424	-7.85032	12.43399	-9.19641	11.78390
4403.426	-12.13882	13.69859	-9.10722	11.91410
4407.420	NaN	NaN	-9.38221	11.69206
4411.458	-7.22673	13.20938	-8.64313	12.16005
4415.430	-7.43847	12.86533	-9.52717	12.67490
4419.425	-7.49098	12.19033	-9.24825	11.90175
4423.426	-7.90022	11.04129	-9.40371	11.41997
4427.429	NaN	NaN	-9.29302	12.00404
4431.430	-11.53963	12.72649	-9.45493	12.11303
4435.426	-11.20849	12.15808	-10.30329	12.40608
4439.426	-10.87694	11.64257	-9.34418	12.45323
4443.424	-8.24623	11.89975	-9.58745	12.53746
4447.493	-8.05197	11.36201	-9.74699	12.48320
4451.433	-9.32548	12.02477	-9.84621	12.10657
4455.424	-10.43356	11.66116	-9.85356	11.69836
4459.423	-10.80512	11.89195	-9.50192	11.60099
4463.422	-10.81188	11.84171	-9.39030	11.73554
4467.426	-10.87237	10.42915	-9.32726	11.78945
4471.425	-11.05524	11.76932	-9.35575	11.51064
4475.435	-10.10670	11.78112	-9.05959	11.28390
4479.423	-8.27163	11.93472	-9.18035	11.26723
4483.425	-8.25989	11.86233	-9.17316	11.15106
4487.419	-8.90841	11.84778	-7.22949	11.93816
4491.427	-9.51734	11.77014	-7.89888	11.65399
4495.420	-8.97155	11.53113	-7.73411	11.51276
4499.422	-8.25741	11.34181	-9.00506	12.61675
4503.420	-8.74847	12.05519	-8.93595	11.30692
4507.424	-9.82481	10.98235	-6.81703	11.16561
4511.419	-8.75002	11.08903	-6.51216	11.49151
4515.427	-8.54860	10.13190	-6.58832	10.21273
4519.424	-6.44924	8.88454	-2.62853	6.71019
4523.423	-8.61661	8.76024	-1.50368	11.39786
4527.423	2.07487	13.02296	-1.42360	12.00418
4531.419	3.18831	13.40267	-2.74445	11.45918
4535.423	NaN	NaN	NaN	NaN
4539.422	NaN	NaN	NaN	NaN
4543.424	NaN	NaN	NaN	NaN
4547.996	NaN	NaN	NaN	NaN
4552.187	NaN	NaN	NaN	NaN
4556.209	NaN	NaN	NaN	NaN
4559.931	NaN	NaN	NaN	NaN
4565.315	3.07181	13.82682	NaN	NaN
4569.307	NaN	NaN	NaN	NaN
4575.424	NaN	NaN	NaN	NaN
4579.422	NaN	NaN	NaN	NaN
4583.423	NaN	NaN	NaN	NaN
4587.425	NaN	NaN	NaN	NaN
4591.422	NaN	NaN	NaN	NaN
4595.422	NaN	NaN	NaN	NaN
4599.432	NaN	NaN	NaN	NaN
4603.425	NaN	NaN	NaN	NaN
4607.425	NaN	NaN	NaN	NaN
4611.426	NaN	NaN	NaN	NaN
4615.434	NaN	NaN	NaN	NaN
4619.423	NaN	NaN	NaN	NaN
4623.415	NaN	NaN	NaN	NaN
4627.424	NaN	NaN	NaN	NaN
4631.420	3.11136	14.09756	NaN	NaN
4635.423	3.11383	14.10630	NaN	NaN
4639.429	3.11787	14.10770	NaN	NaN
4643.420	3.12227	14.10727	NaN	NaN
4647.422	NaN	NaN	NaN	NaN
4652.039	NaN	NaN	NaN	NaN
4659.477	NaN	NaN	NaN	NaN
4663.441	6.07609	9.43961	1.32981	8.01916
4667.418	3.07550	0.14387	1.35412	7.30821
4671.422	3.06466	-0.54090	3.56339	2.17481
4675.419	3.06263	-0.17759	6.22054	3.11396
4679.425	2.92790	-2.59752	4.04764	2.72434
4683.430	3.05145	-0.05337	6.53095	3.49406
4687.422	3.06880	-1.74958	2.79176	2.91380
4691.418	3.02791	-1.31848	2.83098	2.40985
4695.423	3.17178	-1.40437	3.79633	2.90391
4699.419	3.77711	0.85170	2.56765	2.73969
4703.420	5.17422	-3.66949	2.33016	2.28344
4707.418	4.23182	-0.67308	2.98465	1.74379
4711.418	3.42510	0.57153	2.53389	2.29467
4715.419	4.21298	0.30556	2.15346	1.92437
4719.418	3.84718	0.39029	2.28777	1.90175
4723.425	2.04949	0.56044	2.82533	2.00250
4727.422	1.76214	0.68598	2.79679	1.95842
4731.417	2.75648	0.84098	2.75019	2.12359
4735.417	-0.03415	0.66744	2.47868	1.91771
4739.420	2.03407	-1.42569	2.26041	1.96778
4743.416	3.34779	-1.73668	1.69192	2.05032
4747.422	3.20506	-1.56973	1.03650	2.33635
4751.429	2.04996	-1.26622	2.12830	2.66040
4755.421	1.79455	-1.24741	3.32605	2.29050
4759.413	0.03886	0.72797	6.89845	1.67826
4763.426	2.84695	0.11570	0.54170	2.22884
4767.419	3.16181	-0.36132	1.09405	2.43847
4771.420	3.18702	-1.26271	1.01320	2.19964
4775.417	3.36142	-1.21456	1.67015	2.27610
4779.420	3.43252	-1.99046	1.71027	1.86376
4783.418	3.67368	-0.89668	1.01084	1.28240
4787.420	3.85128	-0.90465	0.93187	1.58940
4791.421	3.81281	-0.86969	1.50497	1.43561
4795.419	4.23197	-0.48211	0.90567	1.91090
4799.418	5.20324	-1.08853	0.86376	2.14800
4803.415	4.80305	-0.72440	0.76111	2.22504
4807.426	4.07256	-0.85356	0.87277	2.32716
4811.423	3.48017	-1.13765	1.28968	2.32620
4815.420	3.33559	-1.07583	1.04468	2.33888
4819.429	3.16399	-1.10915	1.07101	2.40855
4823.418	3.66997	-1.58408	1.58051	2.28131
4827.417	3.33844	-1.11273	2.03739	2.01743
4831.416	3.37393	-1.10587	1.49289	1.90925
4835.419	4.39109	-1.42189	1.52851	1.68188
4839.417	2.83648	-1.00563	1.82963	1.29103
4843.421	5.32348	-1.37816	3.82672	1.20301
4847.422	2.92918	-1.40978	5.17740	1.55385
4851.445	3.27786	-1.72598	1.90058	3.00906
4855.428	3.49643	-2.82915	1.86652	2.66655
4859.417	4.47967	-2.03798	1.70033	1.87993
4863.435	2.68960	0.66688	1.69654	1.34996
4867.414	3.65112	-0.03990	1.48563	1.08199
4871.420	3.31719	0.09481	2.82464	1.18198
4875.416	2.38276	-0.83363	2.94666	1.11406
4879.414	2.34334	-1.52787	1.56600	3.14051
4883.415	3.59458	-1.00659	1.42893	2.17494
4887.413	2.74266	-0.49040	1.23754	1.85624
4891.425	2.60768	-0.26270	1.29444	0.75908
4895.416	2.23737	-0.57068	1.20742	0.35851
4899.415	2.05821	-1.10377	1.65577	0.45854
4903.414	2.21090	0.24292	1.90971	0.83736
4907.413	1.63601	-0.86192	1.29926	3.15492
4911.417	1.80201	-0.58814	1.36712	2.76176
4915.416	1.40249	-1.24134	1.19229	1.99043
4919.293	1.19775	-1.44458	0.93445	2.06891
4923.290	3.09832	1.03456	1.08220	1.52466
4927.292	5.29777	-0.83732	1.61592	0.05944
4931.288	7.73499	-1.47853	5.09052	0.58158
4935.298	2.94978	-0.53621	4.60636	1.04209
4939.291	3.82126	-1.22768	2.70735	1.50165
4943.289	7.52664	-1.77764	3.17742	1.39886
4947.293	7.83108	-1.85523	3.54104	1.35935
4951.288	2.48324	-3.70366	2.79845	0.58579
4955.288	2.82655	-3.03084	3.26485	0.03362
4959.294	1.86546	-3.41715	3.03831	0.57907
4963.290	3.88058	-1.74686	2.77121	0.52793
4967.288	3.03400	-2.63447	2.69891	0.40156
4971.288	3.51797	-3.43789	2.84796	0.52472
4975.288	7.04484	-3.59431	2.23965	0.40485
4979.296	14.97062	-7.56236	1.90468	0.19218
4983.290	8.52343	-4.64179	2.58598	0.17332
4987.287	5.94475	-3.51094	2.02304	0.03829
4991.291	4.85100	-3.51709	2.66961	0.28146
4995.285	2.34708	-2.43104	2.81506	0.05530
4999.293	2.67382	1.91312	2.47080	0.38515
5003.289	2.67764	-1.21396	2.22842	1.28361
5007.291	2.45329	1.27259	2.20017	1.42884
5011.289	3.07929	1.50108	1.98546	1.78622
5015.294	2.78055	-1.85201	2.54358	0.69590
5019.294	2.90255	-1.87388	2.67028	1.11428
5023.318	4.15512	-1.65233	2.92794	1.27584
5027.295	5.22466	-1.01665	2.21754	1.37244
5031.283	7.40579	-3.36735	2.63497	1.35751
5035.294	2.52287	-2.74204	2.66340	1.44291
5039.301	2.03645	-1.82630	2.58781	1.32342
5043.293	5.50759	-1.91351	2.43280	1.03395
5047.291	1.85710	-1.65407	3.25377	-0.07852
5051.286	2.05214	-1.90172	2.58140	-1.08212
5055.288	2.83586	-1.89053	2.75423	-0.13609
5059.292	8.19722	-2.16812	2.36339	0.80780
5063.294	4.39212	-4.02016	2.40040	1.01930
5067.286	2.04468	-2.09086	2.01674	0.08332
5071.283	4.35277	-2.31145	2.22701	0.18332
5075.292	4.24715	-3.46310	2.88086	0.15471
5079.288	3.82005	-2.03007	2.17393	-0.41954
5083.290	1.93271	-2.11198	2.03501	-0.23865
5087.343	2.05343	-2.87897	2.08733	0.04835
5091.291	2.00631	-1.99921	2.07963	0.32262
5095.287	6.27152	-2.45099	2.21717	0.54509
5099.283	5.23460	-1.23548	2.14498	0.47336
5103.294	-0.35940	-0.23303	2.28700	0.47828
5107.286	1.66053	-0.78816	2.24473	0.78719
5111.287	1.87840	-0.10990	2.46280	0.73176
5115.288	5.20125	-1.02396	2.32704	0.89781
5119.285	2.14134	-0.66318	2.49956	0.61952
5123.285	1.82762	-0.38138	2.52810	0.77196
5127.285	1.68543	-0.61915	2.76908	0.82663
5131.288	7.58069	-0.64604	2.69854	0.93229
5135.285	7.28161	-0.39511	2.70233	0.93931
5139.290	5.88046	-0.54624	2.71473	0.86138
5143.292	2.79152	-0.71075	2.70993	1.07213
5147.285	4.17865	-0.38822	2.78696	1.11536
5151.323	6.09172	-2.07207	2.73746	1.28560
5155.297	8.59461	-4.42515	2.65619	1.55497
5159.288	8.41051	-6.75033	2.67595	1.71447
5163.292	6.04389	-5.18534	2.61734	1.09122
5167.285	3.50368	-2.37486	2.37119	1.24150
5171.286	3.09557	-2.58316	2.68962	0.89150
5175.282	2.45369	-2.17338	2.51898	0.71746
5179.290	5.57505	0.51811	3.14130	1.41877
5183.285	4.63479	2.90899	5.01487	1.59358
5187.292	4.98866	2.00197	6.41150	3.23733
5191.282	5.57876	-0.89550	2.81271	0.46317
5195.287	4.94386	0.77011	2.99967	2.54510
5199.286	8.89254	2.30525	NaN	NaN
5203.285	9.48142	1.93575	19.59300	14.31984
5207.290	NaN	NaN	NaN	NaN
5211.284	NaN	NaN	NaN	NaN
5215.282	3.41221	14.06434	NaN	NaN
5219.285	NaN	NaN	NaN	NaN
5223.287	NaN	NaN	NaN	NaN
5227.317	NaN	NaN	NaN	NaN
5231.296	NaN	NaN	NaN	NaN
5235.293	NaN	NaN	NaN	NaN
5239.288	NaN	NaN	NaN	NaN
5243.284	NaN	NaN	NaN	NaN
5247.283	NaN	NaN	NaN	NaN
5251.285	NaN	NaN	NaN	NaN
5255.284	NaN	NaN	NaN	NaN
5259.288	NaN	NaN	NaN	NaN
5263.492	NaN	NaN	NaN	NaN
5267.718	NaN	NaN	NaN	NaN
5271.947	NaN	NaN	NaN	NaN
5276.122	NaN	NaN	NaN	NaN
5280.233	NaN	NaN	NaN	NaN
5284.570	NaN	NaN	NaN	NaN
5288.317	NaN	NaN	NaN	NaN
5292.175	NaN	NaN	NaN	NaN
5296.629	NaN	NaN	NaN	NaN
5300.739	NaN	NaN	NaN	NaN
5304.366	NaN	NaN	NaN	NaN
5307.894	NaN	NaN	NaN	NaN
5311.291	NaN	NaN	NaN	NaN
5315.283	NaN	NaN	NaN	NaN
5319.286	NaN	NaN	-7.75777	15.05071
5323.283	NaN	NaN	NaN	NaN
5327.285	NaN	NaN	NaN	NaN
5331.284	NaN	NaN	NaN	NaN
5335.300	NaN	NaN	-7.76569	15.05010
5339.426	NaN	NaN	NaN	NaN
5343.509	NaN	NaN	-7.77844	15.04856
5347.757	NaN	NaN	NaN	NaN
5351.849	NaN	NaN	NaN	NaN
5355.701	9.41069	8.63842	16.27828	4.65722
5359.299	8.87355	6.73783	16.74644	14.40603
5363.286	8.52884	3.31357	NaN	NaN
5367.284	8.93656	-0.32591	8.92767	0.84322
5371.283	7.87428	3.49358	2.14250	-7.15312
5375.279	6.92498	-1.40367	4.08446	-2.19017
5379.288	6.95582	-1.49535	10.44168	2.58314
5383.282	11.73269	-2.51214	6.96844	0.78417
5387.284	7.35341	3.72800	1.95768	-2.20656
5391.280	2.78518	2.37907	9.31124	-0.18335
5395.285	6.36275	-3.29731	-0.17027	-2.37825
5399.284	7.67591	-2.93775	7.13404	-0.41694
5403.282	11.28166	-2.74584	7.24141	-0.43678
5407.281	2.68700	-1.35973	2.59549	-2.56686
5411.281	6.38621	-1.61440	7.07099	-0.62970
5415.287	7.10572	-2.15306	7.03130	-0.45994
5419.282	10.75138	-5.35869	1.48662	-2.36854
5423.281	9.42941	-2.88873	1.44617	-2.92336
5427.283	7.30424	-1.04068	3.02764	-1.12132
5431.280	0.44202	-3.63810	2.91332	-1.09353
5435.289	6.41876	-4.31089	3.29698	-0.80479
5439.280	5.33583	-3.22641	3.21993	-0.77263
5443.285	7.24239	-0.94286	2.90114	-0.83107
5447.280	2.93960	-2.06111	2.97782	-0.85079
5451.281	6.79489	-4.19639	1.46197	-0.42237
5455.280	3.55978	-4.70690	3.41800	-0.82989
5459.284	5.76001	-3.75578	1.30139	-1.99432
5463.280	3.89584	-3.62259	5.12831	-0.98306
5467.280	5.16435	-6.44622	7.01020	-2.12503
5471.281	4.58789	-3.93074	6.25507	-0.98852
5475.289	5.05144	-3.50806	2.99589	-0.77295
5479.288	4.02189	-2.40918	2.92948	-0.82649
5483.285	3.60388	-2.22089	2.85301	-1.36559
5487.308	4.53287	-3.68649	1.59683	-1.17027
5491.282	9.90559	-7.78135	2.65409	-0.22176
5495.275	7.63801	-3.34952	3.40212	-0.71949
5499.284	9.54684	-3.94265	3.70779	-1.06127
5503.302	4.12140	-2.44820	6.27290	-0.73161
5507.283	7.77093	-1.98675	2.53013	-1.27085
5511.276	2.66479	-3.08149	3.20333	-1.10968
5515.285	5.58611	-6.21092	3.54435	-1.01545
5519.284	5.93532	-3.88428	3.55676	-1.50207
5523.283	6.07079	-2.61525	3.85652	-0.98901
5527.276	9.87042	-7.26270	3.48494	-0.68816
5531.285	6.27959	-4.36522	3.57224	-1.91961
5535.280	10.83261	-2.27455	8.63049	-0.73213
5539.287	2.26200	-0.64133	3.20825	0.25708
5543.281	5.36789	-2.48757	3.44624	-0.82875
5547.279	5.97502	-3.09826	3.47683	-0.71748
5551.278	5.43873	-3.63385	3.50828	-0.67676
5555.280	8.21033	-3.70681	3.60672	-1.23286
5559.285	11.39542	-6.61273	3.56620	-0.46052
5563.277	5.06567	-2.26707	3.28605	-0.59731
5567.277	2.86529	-3.23341	3.40860	-0.86395
5571.278	2.81481	-3.93407	3.33057	-1.32434
5575.282	2.92629	-1.04621	3.48029	-1.33951
5579.278	2.97678	-3.26218	3.48961	-1.38037
5583.277	3.94312	-3.22331	3.49270	-1.34217
5587.281	6.29359	-3.41866	3.62074	-1.08393
5591.277	3.84409	-7.37876	3.48373	-1.25360
5595.274	5.28581	-7.05226	3.49057	-1.36463
5599.283	5.87759	-4.55100	3.44683	-1.27951
5603.286	4.54321	-2.67704	3.40793	-0.87568
5607.276	2.88799	-2.20061	3.51394	-1.39266
5611.282	4.87599	-4.12096	3.80298	-1.15834
5615.278	2.37850	-4.00995	3.84090	-1.45488
5619.281	5.18291	-4.17936	3.79957	-1.80965
5623.275	4.66936	-2.75458	3.55748	-1.26035
5627.283	6.24445	-3.54548	3.66085	-0.94404
5631.277	6.86591	-3.39521	3.28560	-1.01587
5635.281	8.98872	-3.15794	3.38461	-1.01058
5639.315	4.91521	-1.69410	3.45309	-0.83829
5643.290	8.20043	-4.28893	3.37462	-1.51969
5647.283	6.45481	-2.83315	4.63506	1.18681
5651.277	6.53781	-2.97533	3.11200	1.26032
5655.281	6.14975	-2.80228	5.91815	0.99210
5659.274	4.69938	-2.92191	3.26515	-0.57602
5663.283	11.38695	-5.54494	3.38320	-0.71854
5667.277	8.75485	-3.19200	3.67037	-0.52918
5671.278	4.21153	-3.15790	3.52845	0.35400
5675.282	8.87033	-3.22228	3.90150	-0.49941
5679.276	12.42472	-4.12447	3.20934	-0.11963
5683.285	5.02770	-2.83180	3.39273	-0.56138
5687.279	4.30865	-4.74502	3.59233	-1.65756
5691.282	4.09937	-3.38010	6.19974	-0.74527
5695.277	6.02016	-3.41635	3.59770	0.66142
5699.280	1.72165	-4.44705	3.70420	-0.41899
5703.308	2.46194	-4.77669	3.94690	-0.91176
5707.277	3.24447	-4.47521	3.40321	-0.72046
5711.279	3.86689	-4.19542	3.18346	-1.10139
5715.282	4.64216	-2.60450	3.53246	-0.93468
5719.278	6.75881	-4.86530	3.67477	-1.36939
5723.274	6.23484	-5.11334	3.50986	-1.41190
5727.284	6.37386	-4.14163	3.43998	-1.20291
5731.279	9.34208	-4.37887	3.61157	-1.11912
5735.273	1.84292	-6.09228	3.29107	-1.48521
5739.280	7.07561	-2.24579	3.89105	-1.28552
5743.277	6.06541	-2.08441	3.77300	-0.81462
5747.275	6.46142	-5.66090	3.21646	-1.22444
5751.274	6.53860	-2.55132	3.46798	-1.75213
5755.278	6.38337	-5.19250	3.79156	0.50062
5759.274	5.38877	-4.83343	3.68592	-0.59572
5763.274	5.59015	-0.27990	3.49305	-1.56416
5767.279	6.26826	-3.94838	3.84283	-1.69063
5771.153	5.23054	-5.74491	3.69101	0.53665
5775.177	5.40120	0.02296	3.58030	-1.23206
5779.158	2.69178	1.46464	3.37969	-2.20949
5783.150	6.20330	-4.55129	3.24850	0.61294
5787.159	4.49114	-0.34853	3.69200	-1.12629
5791.147	5.82361	-0.56644	3.21978	-0.98473
5795.150	2.85316	-1.52421	3.00512	-0.19043
5799.149	5.22658	0.92420	3.28155	-0.76936
5803.152	5.87007	-3.92204	3.00935	0.97134
5807.149	5.50623	-3.77813	3.14357	-0.85775
5811.149	5.13931	-3.75795	2.95807	-0.86693
5815.153	6.32981	-3.40656	2.95997	-0.62033
5819.152	5.26686	-4.04422	3.36851	-0.85436
5823.150	1.53143	-4.87271	2.97277	1.39853
5827.151	3.65937	-1.90987	3.00198	-0.84531
5831.146	3.19165	-1.78591	2.80310	-0.70436
5835.148	10.08192	-5.44235	2.63232	-0.35802
5839.149	0.52106	-2.21220	1.11985	0.41529
5843.210	4.47235	-2.27472	-4.42822	-0.06216
5847.152	1.17838	-2.70545	-2.05026	-0.38958
5851.151	-3.39139	-2.87180	-2.35075	1.78465
5855.159	-0.14357	-2.27731	-1.54110	-0.06068
5859.156	0.04839	-2.28880	-1.94992	-0.41195
5863.148	-0.17980	-2.10923	-1.71399	0.71587
5867.148	0.59148	-2.36082	-1.90150	-0.21068
5871.148	-3.77968	-2.41475	-2.01137	-0.06303
5875.152	-0.05467	-2.47465	-2.03447	0.53676
5879.148	2.18696	-2.59439	-2.08111	-0.21632
5883.148	4.43914	-2.77820	-2.16270	-0.28864
5887.148	-3.71982	-2.69363	-2.07782	-0.35990
5891.152	-3.61367	-2.67479	-2.02039	-0.42872
5895.166	-0.61203	-2.25593	-2.19313	-0.47647
5899.156	0.90872	-2.24267	-2.29969	-0.26920
5903.151	1.68654	-2.94126	-2.53550	0.69303
5907.149	1.19336	-2.52341	-2.44668	-0.56955
5911.181	1.61860	-2.16299	-2.52198	-0.54839
5915.151	1.88767	-1.91603	-2.39654	-0.67701
5919.151	-0.31918	-1.92146	-2.37288	-0.72709
5923.145	-2.28229	-2.31352	-2.51091	-0.89781
5927.152	-3.48724	-2.64472	-2.74970	-0.79222
5931.148	0.14466	-2.39329	-2.06865	0.10124
5935.151	1.75379	-2.47516	-2.33745	-0.90229
5939.148	0.47602	-1.99069	-2.62016	-1.30111
5943.157	2.09760	1.02895	-2.22059	-1.08571
5947.149	0.82578	-1.35250	-2.44138	-0.75796
5951.145	0.44941	-2.69449	-2.13011	-0.93293
5955.151	1.06183	-2.09642	-2.04907	-0.97273
5959.147	0.84218	1.34412	-1.71320	-0.89484
5963.150	-2.66954	-2.31529	-1.40237	-0.17084
5967.144	-1.83762	-2.44435	-1.28899	-0.60629
5971.151	-2.62734	1.30939	-1.94129	-0.84619
5975.149	0.93133	-2.43023	-1.94387	-0.42549
5979.152	-2.98153	-2.09417	-0.42631	-0.29875
5983.153	-0.35538	-2.30901	1.91263	-0.07888
5987.145	1.12906	-0.15182	2.16248	0.32914
5991.145	1.25371	-3.04006	1.78347	-1.86501
5995.150	-2.80553	-2.68206	1.98239	-0.44892
5999.150	0.03867	-2.45489	1.31555	-0.09289
6003.144	0.93619	-1.27530	-0.00668	1.28188
6007.152	1.14238	-2.47156	1.29727	-2.05019
6011.146	-3.05244	-2.53319	-0.12749	-1.49421
6015.146	0.08356	-1.76984	1.34197	-0.14704
6019.147	0.87510	-1.80813	1.36045	0.63141
6023.154	1.24173	-2.29008	1.58830	1.05916
6027.146	0.95130	-2.59976	0.10751	-2.26771
6031.142	-2.06959	-1.07723	-0.16675	-0.15742
6035.150	0.59823	-1.79479	0.11493	1.00792
6039.146	0.79662	-1.00189	0.52093	-1.43970
6043.151	0.83496	-2.49909	0.13404	-0.44631
6047.144	-3.11650	-1.41246	-0.64583	-0.55550
6051.145	-2.87799	0.26935	-0.54875	-0.61867
6055.146	-3.08382	-1.64369	-0.35583	-0.25288
6059.146	-1.55375	-1.55661	-0.45008	-1.00529
6063.154	-0.97246	-1.79815	-0.71856	-1.68448
6067.151	-1.32642	-1.97457	-1.12511	-1.48501
6071.145	1.47119	-2.27084	-1.34395	-0.96374
6075.149	0.65029	-1.38714	-1.16756	-0.40306
6079.145	-3.02353	-2.38930	-0.72302	-0.99659
6083.145	-1.53518	-1.47630	-1.45886	-1.85270
6087.144	-1.55261	-1.66980	-1.90981	-1.65499
6091.148	-2.01692	-1.84724	-2.08649	-1.05311
6095.177	-0.30200	-1.96231	-2.04862	-0.53797
6099.144	2.47630	-1.80241	-2.09133	-1.80193
6103.149	1.67918	-1.68079	-1.82661	-0.99999
6107.147	-2.11532	-1.49875	-6.50082	1.40941
6111.143	-2.58058	-1.09187	-1.80613	-0.28339
6115.174	-2.15975	-1.21142	-2.01937	-0.50339
6119.157	-1.78086	-1.80387	-2.00083	-0.39798
6123.145	-0.18266	-1.53004	-1.96871	-0.13704
6127.143	0.65610	-1.59902	-1.50931	0.05919
6131.144	-1.92277	-1.65088	-1.69986	0.66854
6135.179	-2.27761	-1.96243	-1.22710	-0.01133
6139.156	-2.29565	-1.83492	-1.10435	0.11053
6143.146	1.57436	-1.97458	-1.25766	0.08332
6147.151	-0.26240	-1.89012	-4.13406	-0.26551
6151.147	-2.97487	-1.08692	-1.94704	-0.59202
6155.143	0.38854	-1.93643	-1.82619	-0.05849
6159.143	0.10319	-1.82319	-1.50244	0.07730
6163.147	1.33569	-2.00406	-1.51097	-0.75650
6167.143	-0.04035	-1.76850	-1.79227	-0.41802
6171.143	0.00551	-1.87020	-1.54066	-0.04605
6175.146	3.34371	-2.08169	-1.86749	-0.25484
6179.142	1.77224	-1.77783	-1.83033	-0.70798
6183.145	-0.02593	-1.92518	-1.70167	-0.63998
6187.143	-0.61456	-1.85903	-1.82522	-1.30134
6191.153	-1.95443	-1.74732	-2.06309	-2.11092
6195.142	0.49245	-1.85844	-4.21066	-2.89748
6199.143	0.11163	-1.98706	-6.22630	-0.71747
6203.146	3.95948	-2.69717	-2.14300	-1.40654
6207.143	0.33461	-1.81998	-2.08010	-2.42167
6211.144	0.20653	-2.02224	-0.50527	-1.55035
6215.140	-0.79171	-1.87923	-1.30526	-1.77380
6219.147	-1.26636	-1.44593	1.54683	-2.83710
6223.144	1.87961	-1.94791	1.45443	-2.48891
6227.149	0.56721	-1.75707	-1.15322	-1.17901
6231.153	-1.98688	-1.68243	-1.58049	-1.55965
6235.145	-2.99913	0.00313	-2.32870	-1.73174
6239.146	0.30940	-1.62075	-4.40164	-2.12408
6243.146	2.37592	-1.78618	-2.26480	0.58619
6247.142	0.98120	-1.51840	-2.41343	0.93682
6251.142	-1.78198	-2.24515	-2.52044	1.02832
6255.143	-1.57267	-1.72803	-1.91667	1.72898
6259.142	-0.19723	-1.52224	-2.10766	1.53663
6263.146	-1.85504	-1.75586	-1.41742	1.45952
6267.142	-1.14260	-1.25918	-1.09753	1.04505
6271.146	3.09490	-2.41777	-1.28683	1.09114
6275.148	2.96629	-2.16849	-1.20539	1.09391
6279.144	2.83806	-2.61197	-0.99231	-1.45610
6283.145	0.18097	-1.33857	-1.33693	-1.49023
6287.156	0.43931	-2.22565	-2.08781	-1.68997
6291.146	0.89269	-2.68755	-5.64793	-0.98173
6295.143	0.46510	-2.11113	-1.79604	-0.38695
6299.142	0.55711	-2.60709	-1.84423	0.15582
6303.144	-1.64697	-2.46213	-2.05306	0.00767
6307.140	-1.19512	-1.58507	-0.73027	0.23523
6311.141	-1.56357	-1.79802	-0.47527	0.39759
6315.148	-1.57934	-1.66481	-0.44455	0.04498
6319.141	-1.63447	-2.01622	-0.35831	0.19929
6323.139	-1.58294	-1.71241	-0.60605	0.14158
6327.142	-1.60947	-1.45480	-0.21212	-0.59370
6331.142	-1.51563	-1.41917	-0.14548	-1.02991
6335.143	-1.63784	-1.45031	-1.09879	-0.81343
6339.139	-1.24811	-1.49378	-2.02121	-1.25008
6343.141	-2.12421	-1.54939	-2.54556	-1.30940
6347.141	-3.15844	-1.59367	-2.73026	-1.00060
6351.145	-1.43493	-1.16294	-2.52485	-0.98382
6355.144	-1.66586	-0.60495	-1.35343	-1.73003
6359.146	3.32016	-1.70726	-1.04362	-2.11435
6363.140	1.98792	-1.72104	-1.40001	-1.80770
6367.143	1.23935	-2.02965	-1.73943	-1.49581
6371.136	-0.25639	-2.32964	-2.17435	-1.29272
6375.144	-0.31967	-2.37607	-1.46529	-1.13486
6379.141	-3.15691	-1.73233	-1.84567	-1.19184
6383.142	-2.98391	-1.92672	-2.07137	-1.78399
6387.140	-0.87183	-2.00413	-2.83016	-0.98782
6391.143	-1.20804	-1.15671	-1.93266	-1.53017
6395.142	-0.14002	-0.88088	-1.49344	-1.32973
6399.144	-0.43336	-1.16026	-1.47580	-0.79118
6403.139	-0.04713	-0.92505	-1.99481	0.72176
6407.142	3.31497	-1.17130	-1.40279	-0.82841
6411.140	3.02232	-1.81897	-1.63846	-1.08802
6415.142	0.01089	-2.02335	-1.99766	-1.22046
6419.147	-0.70064	-1.63473	-1.73539	-1.46690
6423.143	-0.34362	-1.94511	-2.54093	-1.04004
6427.138	-1.12258	-1.83517	-1.84228	-1.35906
6431.139	0.15504	-1.15992	-1.50356	-1.36781
6435.138	0.30843	-0.95465	-1.88978	0.00020
6439.146	0.27748	-1.20358	-1.36134	-1.09118
6443.140	-1.12544	-1.50825	-1.88452	-1.51495
6447.140	3.17173	-3.91529	-2.53456	-1.60101
6451.140	0.85215	-3.70138	-1.66596	-1.27836
6455.140	0.01549	-2.07564	-2.61184	-1.55812
6459.146	0.62206	-1.47895	-1.73222	-1.72169
