time (ms)	lx (deg)	ly (deg)	rx (deg)	ry (deg)
0.000	5.53572	1.94635	-5.13070	-4.98261
4.004	4.51371	-4.29128	-4.11522	-4.46103
8.001	4.99837	-0.44191	1.13189	-2.52374
12.000	5.34097	-0.61297	-0.64094	-1.74744
15.998	5.96119	-1.32638	0.06922	-4.63597
20.002	5.79302	-2.96824	-2.07328	-1.73325
24.002	6.62057	-3.04039	-2.42141	-6.81696
28.001	6.03444	1.89648	-0.05688	-2.33825
32.009	6.46583	-3.49227	0.78880	-2.09331
36.002	4.49161	-3.07969	-6.44603	-7.21321
40.001	7.37582	-3.98848	-0.16258	-0.31538
43.998	NaN	NaN	-0.68598	-3.46053
47.998	NaN	NaN	-0.18015	-2.82491
52.002	NaN	NaN	0.12379	-2.83255
56.001	6.40778	-6.87146	0.56471	-2.81378
60.003	4.55213	-7.16426	0.76352	-2.32623
64.000	7.71306	-7.75885	0.46391	-2.72168
68.002	2.46181	-4.12894	1.14404	-3.37419
72.023	6.36023	-8.87076	-0.04055	-5.35185
76.008	4.60232	-7.98998	1.99064	-3.17049
80.002	-3.92223	-7.09302	1.49904	-3.49442
83.997	1.10093	-0.37877	0.53419	-2.86029
88.005	0.59302	-3.61649	1.83132	-3.29663
91.999	2.14771	-7.41428	-2.08367	-7.49325
96.001	1.77796	-6.72499	1.24037	-2.22703
100.003	-1.78091	-3.56588	0.82684	-2.00472
103.995	0.61801	-1.30699	2.41328	-3.48082
108.011	0.65526	-5.14455	0.94385	-4.26194
111.998	0.96167	-5.66462	3.32669	-1.97254
116.003	-0.52091	-4.53313	0.60419	-2.94718
120.008	-0.00025	-4.34251	0.61563	-1.43920
124.000	3.15543	-2.42910	2.67910	-3.03661
128.002	1.10847	-4.72184	-0.59138	-2.52936
132.073	2.19908	-4.56320	0.61431	-3.61769
136.009	2.76591	-6.64242	0.37434	-2.83133
139.995	0.95331	-4.63823	0.34806	-2.89008
143.997	2.15353	-4.79819	1.45373	-1.99411
147.991	1.44679	-3.84535	0.63402	-2.42398
151.996	0.79047	-6.53411	0.62784	-2.68070
156.002	2.77235	-6.06575	-0.24445	-2.84408
160.000	4.11742	-7.37268	1.02630	-2.63055
163.995	2.41043	-3.84165	-1.62785	-3.37917
168.001	2.92708	-4.44186	-1.27291	-3.36118
171.997	4.57519	-4.38576	-0.87101	-5.16722
176.008	2.77844	-4.63245	0.19589	-2.79657
179.997	3.24328	-4.47475	-0.40072	-3.50587
183.993	5.00058	-6.21493	-0.83029	-3.95885
187.990	4.84906	-5.77632	-1.47367	-4.14756
191.994	5.29228	-9.48883	-1.04257	-3.85096
196.043	5.17425	-8.57235	-1.63063	-3.41401
200.002	0.05614	-4.09904	-1.95373	-3.43306
203.998	0.48768	-4.81906	-1.90834	-3.44899
208.008	2.48844	-3.41171	-0.49354	-3.10629
212.002	3.17960	-3.05260	-0.88508	-3.66485
215.992	0.67253	-2.04738	-0.49627	-2.22801
219.995	1.31396	-3.50803	-0.58181	-1.97730
224.003	2.81541	-3.60758	-0.65052	-2.14764
227.996	2.77465	-5.30545	-0.73819	-2.14127
231.999	4.76906	-4.95787	-0.26106	-1.89404
235.990	2.68690	-3.48193	-0.84012	0.31813
239.999	5.16017	-4.47923	0.52577	-3.47279
244.020	5.35207	-4.93798	-0.71216	-3.57722
247.991	4.54444	-5.27326	-0.09733	-2.87722
251.993	4.04167	-5.80820	-1.41931	-3.55223
256.008	2.68623	-5.13530	-1.27688	-1.78355
260.001	4.65355	-5.71025	-1.23154	-1.78909
263.996	2.80580	-4.88765	-1.60556	-2.19126
267.999	2.65931	-5.41191	-1.45033	-1.86062
271.991	3.93231	-3.30704	-0.05956	-2.96050
276.001	3.18781	-2.95227	-0.89572	-1.67569
279.996	5.04954	-6.09197	-0.56205	-1.99421
284.003	3.15211	-8.03644	0.14203	-1.83301
287.992	2.50058	-6.41718	-1.42761	-1.78838
291.994	5.46426	-6.37571	-1.67829	-1.44321
295.998	1.97292	-7.15575	-1.51360	0.87931
299.996	0.66163	-5.66395	-6.26145	-5.50237
303.993	5.53862	-6.94350	-3.60447	-1.96391
307.999	3.72642	-6.73450	1.62239	-2.40659
311.998	3.68293	-1.93887	0.68975	-1.01578
315.991	4.88833	-6.92449	-0.90674	-1.46679
320.020	0.31401	-6.56838	-2.85371	-1.95232
324.000	3.55679	-6.13240	-3.37848	-1.15161
327.988	3.15459	-3.92242	-1.76574	-0.25173
331.997	1.58644	-6.05345	-0.14106	-2.36489
335.997	0.80404	-8.35790	1.22052	-5.66059
339.991	4.58819	-6.60087	-2.09745	-2.93700
343.999	3.17656	-5.45158	-7.21342	-5.97667
347.993	1.87840	-2.38140	-2.72516	0.71161
351.995	2.69537	-5.95986	0.97038	-3.39544
355.994	1.73132	-4.12797	-2.53833	1.17412
359.998	2.23417	-4.99325	0.39665	-3.35766
363.997	-1.02796	-5.26907	-2.36143	-1.91723
367.995	2.19648	-5.82013	-1.33158	0.70852
371.991	3.36762	-5.11228	-3.06177	-0.45207
375.998	-0.19837	-1.99603	-1.82038	0.67210
380.039	-0.20725	-5.46922	-1.28011	-0.11043
383.996	2.20793	-5.45582	0.86932	-0.36163
387.996	3.76403	-3.69911	-3.60615	-0.49663
391.991	3.92151	-3.86600	0.47927	-1.38011
395.997	3.98536	-2.55225	-1.05116	1.19303
399.994	2.18748	1.19966	-0.37129	1.45534
403.993	4.20141	-6.86540	-0.66156	1.65838
407.999	4.44654	-3.02607	0.96249	1.38155
412.001	4.11236	-3.61519	-1.13008	-1.03823
415.994	3.91536	-4.42225	0.94440	0.49618
419.995	5.88348	-7.63494	0.92254	-1.01391
423.991	3.90274	-3.29191	-0.23475	-1.94306
427.997	5.56991	-4.19556	0.86143	3.00385
431.995	5.02105	-3.36351	2.50652	-3.49982
435.990	3.69595	-2.05899	-0.72069	-3.32945
439.997	3.65762	-1.64062	2.08805	-2.76699
443.996	6.60071	-4.31371	2.31145	-2.47849
447.998	3.46231	0.85411	2.92218	1.31414
451.997	2.06736	-3.64137	NaN	NaN
455.991	5.76534	-3.31865	-2.44948	-1.41864
459.992	NaN	NaN	-0.70290	0.27285
463.997	NaN	NaN	1.09874	1.86862
468.008	NaN	NaN	0.51930	2.38943
471.987	NaN	NaN	1.20874	-1.45406
476.002	NaN	NaN	-0.96422	1.72114
479.993	4.23014	-1.48556	-1.59745	3.00691
483.995	0.84776	-2.41521	-1.18641	2.01721
487.995	NaN	NaN	-1.43424	-1.12577
491.998	2.59225	0.26859	-2.05796	-0.65060
495.997	2.28834	1.01797	-0.50396	-0.00321
499.992	2.82878	4.84007	0.35772	-3.91089
503.995	4.17378	-2.84790	-0.23016	2.10220
507.993	2.82952	0.55220	-0.70786	-0.28915
511.992	2.51750	3.24220	-0.98015	0.56815
516.021	2.63257	4.51178	-1.15719	1.97313
519.995	0.83104	-2.27031	-0.74697	1.59671
523.995	3.31091	-2.33648	-1.00640	1.73320
527.991	1.93893	0.74466	-1.53619	1.05460
531.996	4.28236	-0.69264	-1.02779	0.27682
536.025	4.30265	0.84468	-1.21315	-0.20754
539.869	1.93199	0.67439	-1.72837	0.29758
543.867	1.51675	2.98605	-1.12100	0.88454
547.863	-2.26611	0.68584	-0.99201	0.99635
551.865	NaN	NaN	-0.94567	-0.62293
555.866	NaN	NaN	-0.83310	-1.28221
559.868	4.50234	-3.87787	-1.47933	-0.66670
563.863	4.79149	-5.70152	-1.53495	-1.35282
567.869	NaN	NaN	-1.82832	-0.09622
571.867	NaN	NaN	-1.84540	0.00549
575.865	NaN	NaN	-2.58573	0.14981
579.881	NaN	NaN	-0.88815	2.90560
584.510	NaN	NaN	-2.08092	0.81722
588.371	NaN	NaN	-1.89563	0.58262
592.180	5.23187	-7.52413	-0.33183	-0.20674
596.043	5.40720	-4.91733	4.99122	-11.64836
599.869	5.41807	-7.19313	3.15179	-8.56834
603.864	6.28879	-7.63425	4.01314	-8.35217
607.863	2.44390	-4.88968	4.74760	-8.58517
611.863	5.56318	-1.56244	4.89604	-8.87298
615.868	6.08993	-1.42005	4.28809	-11.89176
619.865	5.51418	-1.75624	5.11290	-9.77983
623.863	-1.90919	-2.17185	2.64795	-9.73031
627.866	4.07663	-6.24724	3.21745	-10.33427
631.864	5.86418	-6.29515	1.77191	-6.46160
635.866	-1.44066	-5.18866	3.66207	-6.14254
639.866	2.91037	-5.64257	3.48971	-8.83001
643.862	4.79092	-2.46538	-1.73475	-0.01349
647.868	-1.30074	-2.99462	-2.90884	-12.30547
651.862	5.84183	-5.43960	-3.37287	-6.14099
655.865	4.94721	-5.09652	0.10480	-6.14859
659.873	2.68551	-2.93948	2.67625	-4.24436
663.864	-0.65655	-2.74154	2.99638	-10.01373
667.868	-1.61344	-2.97518	-0.23644	0.43331
671.863	3.20988	-2.89843	3.77804	-4.57571
675.866	4.75827	-3.32559	-1.81597	-5.71101
679.862	2.01000	0.70351	-1.32126	-2.96440
683.868	1.84128	-6.84967	2.07098	-4.11490
687.864	-0.23887	-7.16065	3.94831	-4.20234
691.863	1.83623	-2.83254	4.14011	-5.85672
695.884	-1.05193	-3.01585	4.34855	-3.98344
699.866	1.89238	-1.94368	-1.76599	0.62143
703.874	2.08367	-1.82776	1.45190	-3.94034
707.858	4.74326	-0.53689	1.22886	-3.40520
711.862	0.86897	-2.90646	0.91718	-3.28895
715.861	0.40899	-1.77831	3.07647	-0.34882
719.874	1.38902	-1.80359	4.37071	0.18545
723.868	-0.04405	-1.46355	0.03020	-0.39278
727.862	1.51995	-2.88201	1.20995	-3.93695
731.864	0.31101	-2.60479	1.60427	-0.32378
735.864	1.90869	-2.55905	-0.48793	-1.14369
739.863	0.37338	-1.13181	-0.57084	-3.54480
743.867	-0.37521	-1.10103	-0.96723	-0.40269
747.869	-1.33822	-3.54567	0.67260	-0.31785
751.863	-3.01942	-3.03720	1.12281	-0.21083
755.862	1.82343	-1.07915	0.86282	2.68943
759.866	1.94897	-3.98876	0.18080	-3.64265
763.860	-1.21239	-0.72485	1.03126	-1.78008
767.864	-1.66187	1.14519	-1.10857	-1.36105
771.862	-1.54445	-0.53571	-4.35368	2.63031
775.867	1.36635	-5.23832	-4.43396	2.46058
779.862	-6.22598	3.13686	-7.32629	0.05706
783.864	-2.51973	-7.13076	-8.24098	4.71198
787.867	-8.87673	-1.33018	-7.93135	5.16070
791.870	-9.14225	3.20710	-9.92435	5.13882
795.863	-11.61006	3.50594	-10.18401	3.10499
799.863	-14.54723	-7.19717	-10.40970	2.68284
803.859	-14.74936	5.63105	-17.05049	4.07050
807.864	-19.60809	0.04361	-19.34250	2.39906
811.861	-16.93083	1.48626	-17.57333	2.38917
815.863	-19.60765	-0.18357	-19.26708	-0.07025
819.865	-22.05896	-13.71550	-19.20230	5.00745
823.861	-22.20470	-7.38405	-19.35955	3.55112
827.866	-19.55923	2.26986	-22.40954	1.21231
831.864	-20.59832	1.39054	-14.22225	0.20265
835.860	-19.98855	5.85000	-23.01950	0.22642
839.863	-22.08634	2.24071	-23.07015	-8.16625
843.858	-21.27197	4.33654	-22.06465	-2.75893
847.859	-19.33711	6.09901	-21.86297	-12.92058
851.861	-20.57007	0.91909	-22.91256	-2.38875
855.860	-22.19302	-1.65174	-19.69400	-12.34456
859.862	-19.88894	4.34341	-19.85022	-12.22631
863.862	-18.63852	6.98941	-21.18787	-6.30881
867.859	-22.38756	-13.47322	-18.24126	-6.36272
871.867	-20.41794	6.54025	-22.48158	-3.16066
875.862	-21.10601	-1.49954	-20.09552	-12.16120
879.864	-20.01894	2.06741	-20.07070	-12.13992
883.897	-20.70224	1.62569	-20.05502	-12.12653
887.868	-19.21166	-1.79805	-20.03818	-12.11772
891.859	-20.11161	1.23623	-20.02379	-12.07518
895.858	-18.62927	2.47017	-20.01951	-12.07550
899.859	-19.00066	1.76966	-20.01829	-12.07559
903.861	-18.11702	2.87416	-21.20243	-5.43706
907.856	-19.87654	1.60588	-20.00372	-12.07668
911.862	-21.98964	-8.92775	-22.10533	-11.73452
915.863	-19.50535	-1.95509	-20.00722	-12.03185
919.864	-19.67120	1.69619	-20.00698	-12.03224
923.857	-19.53889	1.49344	-20.00667	-12.03289
927.860	-19.71190	1.55609	-20.00632	-12.03372
931.886	-18.90029	1.93280	-20.00591	-12.03478
935.868	-18.33049	-2.27013	-20.00542	-12.03602
939.860	-17.69155	4.98413	-20.00494	-12.03742
943.865	-18.08139	0.96114	-20.00439	-12.03896
947.862	-17.71604	-2.89287	-19.99427	-12.04413
951.867	-19.55096	4.91968	-19.99425	-12.04556
955.860	-17.72266	7.43524	NaN	NaN
959.864	-18.60895	1.73303	NaN	NaN
963.876	-18.65394	0.99688	NaN	NaN
967.858	-18.56090	6.17938	NaN	NaN
971.852	-17.58388	6.55640	NaN	NaN
975.863	-18.58393	3.65093	NaN	NaN
979.860	-18.75367	1.27756	NaN	NaN
983.858	-17.64428	2.44844	NaN	NaN
987.852	-18.10491	2.88836	NaN	NaN
991.854	-18.81064	2.53338	NaN	NaN
995.861	-17.58517	5.93501	NaN	NaN
999.868	-18.82364	1.85612	-19.99046	7.93997
1003.870	-18.62116	5.06685	-19.99046	-12.07767
1007.862	-18.36400	2.31169	-19.99048	-12.07766
1011.862	-18.65332	1.52547	-19.99052	-12.07766
1015.856	-18.50778	2.41915	-19.99057	-12.07766
1019.857	-18.54988	3.29392	-19.99063	-12.07765
1023.856	-18.76172	1.30529	-19.99070	-12.07765
1027.861	-18.88419	3.10939	-19.99079	-12.07764
1031.861	-18.53578	5.83421	-19.99089	-12.07763
1035.857	-19.02191	1.63727	-19.99100	-12.07763
1039.862	-18.17690	2.45486	-19.99111	-12.07762
1043.856	-18.72580	4.60707	NaN	NaN
1047.861	-18.56480	2.38462	NaN	NaN
1051.857	-18.77122	6.31414	NaN	NaN
1055.862	-18.82834	5.38892	NaN	NaN
1059.858	-18.93470	1.27977	NaN	NaN
1063.860	-19.10793	1.24038	-19.97958	7.49785
1067.875	-19.04567	1.40288	-19.96744	7.22308
1071.861	-18.89463	0.22786	-19.96834	-12.07931
1075.864	-18.73686	2.35810	-19.92472	7.66414
1079.862	-18.80768	-0.04726	-20.06409	7.49008
1083.856	-18.79456	0.76350	-18.78715	7.95223
1087.856	-20.56343	-3.76006	-20.09631	7.26044
1091.860	-19.53170	-12.11143	-19.91843	7.56088
1095.858	-18.76679	5.42211	-18.56752	7.89280
1099.858	-16.51164	2.53648	-19.96130	7.64002
1103.858	-18.20532	4.31339	-19.96433	7.23761
1107.853	-18.46842	-3.42906	-20.25156	7.10656
1111.854	-18.25496	2.43254	-20.04965	-12.07325
1115.857	-19.06103	2.35756	-19.98658	7.21559
1119.861	-18.28434	3.13337	-19.77553	7.24483
1123.852	-17.96444	4.82737	-19.66654	7.35979
1127.856	-22.10188	-11.79707	-21.36845	6.43919
1131.862	-19.76243	-12.02197	-20.47854	5.67192
1135.855	-18.99991	4.06783	-19.91770	7.13750
1139.858	-19.70370	2.38261	-19.90116	7.29292
1143.857	-19.16459	5.63051	-19.54563	7.01376
1147.858	-18.65929	3.39627	-20.01189	7.33731
1151.856	-19.18875	7.77821	-20.43858	4.89834
1155.856	-19.84249	7.74772	-19.95808	6.69476
1159.867	-22.84401	-5.04292	-23.04359	6.69859
1163.860	-22.43017	0.47299	-20.37987	7.19634
1167.860	-21.83824	3.61025	-19.69252	8.76358
1171.860	-22.21655	9.66288	-22.56715	2.52509
1175.855	-22.48361	3.76361	-19.69549	12.81848
1179.859	-21.16553	13.94944	-5.93812	13.63849
1183.851	-23.03022	9.29900	-4.56767	11.91780
1187.888	-21.59832	5.28227	-4.43932	3.19830
1191.856	-20.14493	-12.06613	14.86926	13.26145
1195.869	-20.21039	-12.06121	-19.89629	-12.08466
1199.859	-20.12986	-12.06726	-19.89563	-12.08471
1203.857	-20.09679	-12.06973	-19.91704	-12.08312
1207.863	-20.07527	-12.07134	-19.86596	-12.08691
1211.857	-20.05206	-12.07307	-19.93646	-12.08168
1215.854	-20.04212	-12.07382	-19.94641	-12.08094
1219.853	-20.03505	-12.07434	NaN	NaN
1223.854	-20.00547	-12.07655	NaN	NaN
1227.853	-20.00400	-12.07666	NaN	NaN
1231.855	NaN	NaN	NaN	NaN
1235.855	NaN	NaN	NaN	NaN
1239.853	NaN	NaN	NaN	NaN
1243.857	NaN	NaN	NaN	NaN
1247.852	NaN	NaN	NaN	NaN
1251.855	NaN	NaN	NaN	NaN
1255.905	NaN	NaN	NaN	NaN
1259.871	NaN	NaN	NaN	NaN
1264.354	NaN	NaN	NaN	NaN
1268.482	NaN	NaN	NaN	NaN
1271.860	NaN	NaN	NaN	NaN
1275.868	NaN	NaN	NaN	NaN
1279.985	NaN	NaN	NaN	NaN
1283.865	NaN	NaN	NaN	NaN
1287.979	NaN	NaN	NaN	NaN
1291.858	NaN	NaN	NaN	NaN
1297.215	NaN	NaN	NaN	NaN
1307.860	NaN	NaN	NaN	NaN
1311.851	NaN	NaN	NaN	NaN
1315.857	NaN	NaN	NaN	NaN
1319.847	NaN	NaN	NaN	NaN
1323.852	NaN	NaN	NaN	NaN
1327.850	0.82099	-14.78009	NaN	NaN
1331.889	-19.99372	-12.07961	13.92865	14.33565
1335.870	-19.99372	-12.07961	20.08362	0.14306
1339.858	-19.99372	-12.07959	NaN	NaN
1343.860	-19.99372	-12.07954	NaN	NaN
1347.854	-19.99372	-12.07950	NaN	NaN
1351.856	-20.25304	11.20945	NaN	NaN
1355.856	2.38722	6.41429	NaN	NaN
1359.855	-20.03561	-12.07669	NaN	NaN
1363.851	3.78047	4.90391	3.86664	3.81107
1367.860	-20.03989	-12.07651	3.84560	1.04070
1371.853	1.58115	2.29952	NaN	NaN
1375.855	-20.03866	-12.07407	0.47813	1.14677
1379.880	-20.03699	-12.07420	-0.60600	-1.84448
1383.853	-20.03511	-12.07434	-0.93470	1.34349
1387.852	-20.03305	-12.07449	-1.10760	1.39658
1391.724	-20.03088	-12.07465	-3.84760	-0.54816
1395.728	NaN	NaN	-3.89565	0.83012
1399.726	4.15171	9.98708	-2.10340	3.17723
1403.727	3.90684	1.07086	-4.36219	3.30957
1407.729	6.10750	-1.50801	-7.12933	3.15107
1411.724	3.02029	2.70442	-4.69189	-0.95887
1415.736	NaN	NaN	-5.05004	1.32010
1419.726	4.74930	-1.22146	-4.01304	0.48433
1423.728	3.87304	-1.12533	-6.60076	0.66272
1427.723	2.45094	-1.40445	-3.59426	-1.59779
1431.730	4.26691	1.03137	-3.15221	0.75378
1435.727	3.42678	1.11682	-7.02409	2.69409
1439.726	4.07041	2.90652	-4.98586	-1.89483
1443.730	5.37126	-2.20518	-4.20553	2.33572
1447.728	4.89966	-2.03421	-7.11767	0.94928
1451.725	3.68260	1.01279	-6.80184	-1.22351
1455.733	2.20669	0.78465	-5.90161	-1.30730
1459.732	6.11785	3.36740	-6.15107	0.49720
1463.728	0.95085	4.25391	-5.77993	-2.26331
1467.728	5.67204	1.21532	-3.50234	-0.16799
1471.719	0.43385	4.33897	-5.83132	-1.61128
1475.731	0.99861	1.52301	-4.13653	-0.27092
1479.725	1.65711	1.50436	-5.47422	-2.93121
1483.727	0.68168	1.19563	-5.74537	-2.11529
1487.724	2.22027	3.03440	-5.91779	-2.25244
1491.728	0.78064	2.65537	-5.66646	-2.68009
1495.725	2.61803	2.37395	-4.07406	-3.91865
1499.733	2.34414	1.59766	-5.68241	-2.99959
1503.729	3.69832	1.07318	-0.64000	4.21558
1507.727	3.00888	1.86131	-5.77615	-1.75958
1511.726	2.62992	1.28333	-5.39510	-2.48519
1515.723	5.41234	1.07260	-5.49512	-2.99226
1519.728	2.72372	0.65284	-4.22646	1.93768
1523.727	3.26841	0.58296	-5.64115	-2.93457
1527.727	3.36196	0.78681	-4.77446	-1.82139
1531.722	3.31665	1.86720	-4.23493	-3.41414
1535.769	2.86772	1.59702	-5.69585	-1.11651
1539.730	3.21119	1.20830	-6.06907	-2.26023
1543.735	5.04243	0.66983	-4.63703	-4.14064
1547.723	3.34974	1.99613	-5.54604	-3.02708
1551.727	3.31880	0.65392	-5.04821	-2.93882
1555.722	3.68186	0.89357	-4.93701	-3.11260
1559.727	6.21286	2.65195	-3.88275	-3.60159
1563.726	3.61876	2.23029	-4.41156	-2.81904
1567.728	3.77604	1.40690	-4.99039	-2.97754
1571.729	5.35729	1.27875	-4.54163	-4.25805
1575.726	4.16951	2.16152	-4.77577	-4.15588
1579.727	4.73488	1.28023	-4.28989	-4.23305
1583.725	3.68428	2.08487	-4.74848	-7.13302
1587.725	3.98815	0.25555	-4.24083	-3.86445
1591.725	5.18200	1.62763	-4.66107	-2.61175
1595.765	4.76248	-1.27302	-5.76448	-3.45726
1599.719	5.99522	-1.50760	-4.90188	-3.56198
1603.749	6.36185	0.99177	-3.72002	-3.29345
1607.731	8.68550	-1.29269	-4.84373	-5.17094
1611.722	4.78390	0.67557	-5.01989	-4.08069
1615.726	4.46135	-1.44379	-4.46403	-3.57854
1619.722	4.83444	0.16107	-4.84671	-1.82550
1623.730	8.86619	-0.71650	-5.05595	-1.91837
1627.723	8.62474	-1.50372	-3.80258	-2.99561
1631.722	5.63582	1.53709	-3.68416	-1.38907
1635.726	4.86628	-0.80991	-3.47220	-0.18183
1639.732	6.54031	-1.52974	-3.26866	-0.61201
1643.724	4.80103	0.61964	-2.62313	-1.89408
1647.725	3.86062	1.38941	-2.34300	-1.11731
1651.722	4.35378	0.88491	-2.14704	0.13265
1655.722	4.00917	1.13070	-1.97875	-0.34509
1659.716	7.88811	-0.14409	-1.88650	0.38865
1663.724	7.09287	-0.68260	-1.73792	-0.45884
1667.727	8.19642	-1.33460	-1.61352	-0.19866
1671.756	7.62916	-1.15599	0.70275	1.91931
1675.734	5.86089	1.89407	-1.41921	0.92778
1679.716	5.88034	-1.83429	-2.27783	0.28410
1683.726	5.35423	-3.71399	-1.90217	0.19769
1687.723	2.78748	0.35117	-1.67350	1.22349
1691.724	1.77050	0.74500	-2.21863	0.71295
1695.730	5.67241	1.55910	0.38412	1.48214
1699.724	6.78669	-0.64219	1.17979	1.88567
1703.724	5.75480	-1.46218	1.26056	2.09736
1707.721	5.60185	1.86775	-0.56719	1.75742
1711.730	5.41185	0.34683	1.83390	1.57369
1715.723	7.58954	-2.96033	1.20050	1.25076
1719.721	5.09603	-2.35820	1.51085	1.52845
1723.719	4.89284	0.41185	-0.66918	0.77085
1727.719	3.10834	1.29358	-1.73946	1.26602
1731.722	2.76591	1.19068	-1.44619	1.44858
1735.724	5.08463	0.28590	-0.60521	2.11835
1739.818	4.93499	0.46800	1.39820	0.91661
1743.733	2.99638	0.26319	0.32300	1.05302
1747.725	4.30297	3.65224	-0.11615	1.02539
1751.720	4.42365	1.12650	-0.01395	2.10715
1755.730	3.82568	1.65123	0.83101	0.98114
1759.721	3.80493	0.63322	-0.23115	1.74691
1763.725	3.72511	0.42168	0.08818	0.56165
1767.722	3.03680	0.89671	0.27314	0.21946
1771.725	2.62023	0.69422	-0.15777	0.34401
1775.715	4.83375	0.40463	-0.19812	0.72737
1779.725	3.66276	0.70543	-0.60253	0.69936
1783.721	1.84453	0.36414	-0.81498	0.04080
1787.724	2.93285	1.01581	-1.37290	-0.39063
1791.729	3.04444	1.73774	-2.61365	-0.35487
1795.723	2.69012	0.93609	4.02026	1.81128
1799.719	2.80308	0.69732	-0.89123	1.30460
1803.720	3.64306	1.75390	-1.39785	-0.46749
1807.760	0.58724	0.93842	-0.80915	0.61389
1811.731	3.33258	0.04875	-2.12746	-0.53956
1815.721	2.39111	0.93102	-1.76807	-0.38472
1819.719	0.48200	1.48962	-1.68094	2.07526
1823.722	0.32466	1.46697	-1.85923	1.76328
1827.720	3.48632	-1.51790	-1.60300	-0.01336
1831.726	3.38847	-0.43513	-1.77486	-0.31970
1835.717	2.48577	1.07277	-1.35445	1.02200
1839.728	0.08833	2.28124	-1.37526	1.48827
1843.724	0.12880	2.60624	-1.36382	0.94839
1847.715	-0.05299	3.22529	-1.32815	0.20468
1851.723	-0.07018	2.98134	-0.88242	-0.32322
1855.720	0.18633	1.86520	-1.20038	1.90372
1859.717	0.07649	1.77163	-1.40656	1.13045
1863.715	0.63905	-0.27635	-2.02311	0.20619
1867.723	0.89994	-0.16227	-2.61684	0.21457
1871.726	1.33416	-3.33044	-1.00978	0.97789
1875.730	1.23392	-3.77512	-0.87523	0.45202
1879.746	1.76366	-0.65049	-0.54180	-0.05633
1883.722	2.34879	-0.90946	0.10701	0.62945
1887.717	2.24956	-1.04461	0.18132	0.97871
1891.717	2.63091	-1.84331	2.29183	1.78438
1895.718	3.22826	-0.83677	2.61102	1.34761
1899.724	1.62629	-0.46210	0.58620	1.09218
1903.725	1.26019	-0.23300	5.09574	4.16280
1907.713	-3.74506	-0.86730	3.87500	2.16097
1911.717	-3.26178	-0.76769	5.56465	4.02750
1915.725	0.64521	-0.80049	5.58021	3.67373
1919.714	3.55538	-1.37683	5.34211	3.70404
1923.716	1.00300	-0.56432	3.12700	5.15056
1927.718	1.27805	1.10898	2.91747	4.45214
1931.717	1.02799	-1.80681	2.15918	4.52636
1935.716	0.36429	-0.63277	-0.15849	4.81487
1939.723	-0.28292	-0.51046	0.50622	5.00438
1943.724	-0.09614	-0.34575	0.13617	4.34407
1947.716	3.26351	-0.05589	2.56456	7.38157
1951.715	0.93197	-0.56279	2.60617	7.39466
1955.724	0.19378	3.69011	2.74224	7.41506
1959.718	-3.30737	-1.06993	2.63896	7.09121
1963.715	0.54111	-2.37416	3.04316	6.43581
1967.715	-0.25478	-1.83792	4.83738	6.81137
1971.720	-0.06381	0.15478	2.73514	10.10749
1975.716	-3.11161	-1.65156	3.01739	9.11935
1979.715	-2.14161	-1.74241	5.43902	9.75920
1983.722	-0.40318	0.13776	0.24177	9.72722
1987.717	0.75761	-2.63009	5.82695	7.84916
1991.720	-0.99916	-2.54312	2.82427	10.29956
1995.712	-0.16164	-0.61504	4.23236	10.14884
1999.726	0.29116	0.51605	6.30845	10.94098
2003.742	-2.66887	-1.21700	6.24055	10.80741
2007.722	-1.53091	-0.94524	4.83945	10.09487
2011.722	0.66826	-2.91016	2.82459	10.76213
2015.720	0.20551	-1.84644	6.45184	12.77791
2019.749	2.46801	-3.31552	6.58903	11.15284
2023.719	0.21760	0.16239	6.96594	13.21204
2027.711	-0.05787	0.55715	6.60140	12.74536
2031.719	0.72250	0.59477	6.34170	13.03270
2035.716	0.12932	0.87425	5.21144	12.91334
2039.723	-0.03474	0.91869	7.55849	12.38597
2043.722	0.05815	-1.76324	8.96065	12.56482
2047.714	0.18916	-2.53764	7.01225	13.20540
2051.714	0.05842	-2.02791	7.29467	13.36074
2055.713	-1.73628	0.62060	4.24391	12.73470
2059.718	0.30185	0.37293	6.40128	12.55213
2063.715	-1.93918	1.00474	6.20766	12.62812
2067.719	-0.34995	0.80783	6.95521	13.16477
2071.720	0.19713	0.16286	6.52569	12.58926
2075.716	0.07378	0.37537	9.12198	13.40693
2079.721	2.16721	-0.18065	-2.36443	-3.01761
2083.726	3.12799	0.12322	-3.51233	-2.69337
2087.712	3.37487	0.38871	-2.66070	5.12472
2091.717	3.12328	-1.79775	1.70772	2.03912
2095.717	0.44515	0.60566	1.15387	1.02876
2099.710	-0.09905	-0.72218	-4.08402	9.98625
2103.718	-12.74121	4.55992	-7.73991	-0.74177
2107.714	3.30203	1.59962	-1.80087	-1.41656
2111.717	3.18737	1.13871	-1.11157	0.85787
2115.713	-4.24549	7.65635	NaN	NaN
2119.717	NaN	NaN	NaN	NaN
2123.718	NaN	NaN	NaN	NaN
2127.716	NaN	NaN	NaN	NaN
2131.732	NaN	NaN	NaN	NaN
2135.722	NaN	NaN	NaN	NaN
2139.718	NaN	NaN	NaN	NaN
2143.723	NaN	NaN	NaN	NaN
2148.239	NaN	NaN	NaN	NaN
2151.863	NaN	NaN	NaN	NaN
2155.715	NaN	NaN	NaN	NaN
2161.084	NaN	NaN	NaN	NaN
2171.715	NaN	NaN	NaN	NaN
2175.717	NaN	NaN	NaN	NaN
2179.720	NaN	NaN	NaN	NaN
2183.721	NaN	NaN	NaN	NaN
2187.708	NaN	NaN	NaN	NaN
2191.714	NaN	NaN	NaN	NaN
2195.722	NaN	NaN	NaN	NaN
2199.719	NaN	NaN	NaN	NaN
2203.716	NaN	NaN	NaN	NaN
2207.718	NaN	NaN	NaN	NaN
2211.712	NaN	NaN	NaN	NaN
2215.882	NaN	NaN	NaN	NaN
2219.716	NaN	NaN	NaN	NaN
2223.714	NaN	NaN	NaN	NaN
2227.720	NaN	NaN	NaN	NaN
2231.711	NaN	NaN	NaN	NaN
2235.719	NaN	NaN	NaN	NaN
2241.460	NaN	NaN	NaN	NaN
2244.837	NaN	NaN	NaN	NaN
2251.598	-4.59273	1.73009	-1.89642	12.80267
2255.605	4.73786	7.10575	-1.39872	13.01230
2259.597	4.21076	7.68434	2.18020	5.19527
2263.585	-4.87835	1.79774	-4.42797	12.86648
2267.590	NaN	NaN	-5.28224	13.05615
2271.588	-1.58282	0.30654	-5.82653	3.32671
2275.589	-7.10186	-3.81769	-1.55660	3.70708
2279.584	0.15997	0.67077	-2.27446	12.02042
2283.628	2.12203	0.16712	-1.44126	5.63352
2287.595	3.75168	-2.97504	-1.14756	3.47058
2291.586	16.39484	4.91692	-0.98507	9.38908
2295.589	-1.56846	-2.75929	1.42603	8.76245
2299.590	-0.64466	-2.10910	-0.32419	8.65445
2303.582	7.04208	-3.26060	-2.48438	4.28865
2307.590	8.19265	-5.23582	-2.24574	3.95502
2311.586	3.18860	-3.09351	-1.41102	2.62539
2315.589	0.04805	-2.66233	-1.51402	-2.28548
2319.584	6.75326	-2.50058	-4.53613	5.06272
2323.590	2.21311	-2.90225	-3.62234	3.83430
2327.588	2.90737	-2.53446	-4.93686	-2.32588
2331.583	-0.95194	-2.23950	-3.89216	-1.93018
2335.590	4.56316	-0.94884	-3.94394	-2.31171
2339.589	2.99425	-1.94412	-4.30063	0.39998
2343.589	7.16285	-3.51895	-4.07658	0.22045
2347.582	0.76057	-2.05282	-2.98210	-2.09573
2351.628	6.14734	-1.93426	-3.23969	-3.59980
2355.592	-2.00346	-0.80007	-4.17262	-5.10253
2359.584	-0.16531	0.26479	-0.99936	-0.77803
2363.590	1.70306	1.68751	-1.42853	-4.60952
2367.585	0.02551	-0.56682	-1.74243	-1.82383
2371.589	1.39341	-0.65992	-0.13952	0.26680
2375.584	0.62178	-0.21304	-0.12841	-0.06118
2379.595	0.26245	0.26464	-0.70263	0.53467
2383.585	0.66694	2.58514	-1.57481	-0.00713
2387.584	1.18031	0.93437	1.07679	-2.99264
2391.588	-2.21955	-4.99673	0.13679	0.63345
2395.585	2.00361	-4.68706	-0.06862	-0.26750
2399.590	1.41023	0.82143	-0.42150	1.13200
2403.580	0.74062	-0.43337	-0.28883	0.39092
2407.584	-2.30563	-0.82645	3.05162	0.20973
2411.586	0.96346	0.47611	-0.00707	0.47093
2415.588	1.99082	-4.49224	-0.50398	-0.36005
2419.620	3.26530	-2.65755	-0.24877	-0.57334
2423.591	2.81986	0.41621	-0.25490	-4.36927
2427.585	5.19022	-4.50782	0.85659	-0.06786
2431.588	0.90304	0.64465	0.09071	0.37358
2435.583	4.75593	-4.15750	-0.61878	-0.49461
2439.618	1.10842	-0.92508	0.51930	-4.77864
2443.586	4.29841	-3.75655	1.01248	-3.73684
2447.583	6.30573	-4.42234	2.96770	-4.02687
2451.586	5.50766	-4.73828	0.08798	0.21971
2455.582	5.43443	-3.71069	1.02771	-3.89384
2459.587	2.57568	-2.32630	4.56747	-4.12843
2463.607	3.83673	-2.69237	0.23222	-4.01388
2467.587	0.03767	-8.31806	-3.78514	-4.64897
2471.586	4.46712	-14.49569	1.25738	-3.72881
2475.579	1.61798	-10.93041	1.25289	-4.49787
2479.588	-19.99372	-12.10578	-0.25622	1.36355
2483.582	-19.99372	-12.09189	1.08713	-3.23385
2487.582	-19.99372	-12.08700	1.18845	-2.38737
2491.580	3.51577	-3.21283	1.45611	-2.09087
2495.586	3.54524	-6.36675	1.81322	-1.78084
2499.581	1.65433	-3.84154	-0.60424	-0.78929
2503.603	2.16258	-4.23949	-0.41666	-2.35394
2507.593	1.18559	-2.70507	0.97782	-5.07540
2511.582	1.91660	-2.49107	0.71930	-2.26307
2515.586	6.53174	-8.02086	-0.35792	-0.30656
2519.581	4.11293	-4.43764	-0.44053	-0.73110
2523.586	1.18381	-1.16154	-0.44098	-0.43191
2527.582	3.35494	-3.93638	0.00472	0.02905
2531.581	2.48708	-1.56733	3.73566	-4.73834
2535.580	2.72882	-1.52015	-1.00913	-1.62403
2539.581	4.32841	-11.15549	-0.54632	-2.90867
2543.589	2.42978	-8.87585	2.63148	-2.93844
2547.585	4.66879	-11.44797	-0.40929	-5.08658
2551.585	4.51531	-15.17571	-0.93152	-0.50607
2555.584	-19.99372	-11.78041	1.59938	-5.89808
2559.585	3.89767	-3.26453	0.18211	-4.36259
2563.577	4.05564	-3.65929	-0.07800	-5.72143
2567.586	4.20916	-3.28148	0.12106	-5.72543
2571.584	4.38492	-2.93097	0.48857	-5.09466
2575.578	7.38012	-9.90672	-1.23665	-4.53362
2579.581	4.07710	-0.80087	0.48847	-5.19636
2583.584	3.24239	-0.60543	-0.34988	-1.00669
2587.589	3.95342	-3.01345	-0.61866	-1.97389
2591.580	5.98108	-7.01974	-1.15146	-3.31287
2595.581	-1.45204	-0.14810	-1.62093	-5.32936
2599.583	5.91874	-9.63704	0.41623	-3.22944
2603.598	6.59713	-8.82405	0.11029	-2.80085
2607.585	6.65333	-8.32090	-0.82111	-2.77878
2611.581	4.25946	-1.94108	-1.60923	-2.87520
2615.586	3.77236	-4.15588	0.24071	-1.04948
2619.581	3.80557	-1.96101	0.30935	-3.96450
2623.580	2.35479	-3.02575	0.52245	-2.76353
2627.587	5.87830	-2.83781	1.56709	-3.29983
2631.585	4.24228	-3.91508	1.27634	-0.47203
2635.581	4.02031	-2.74134	0.49823	-0.70471
2639.584	2.03796	-0.96657	1.58740	-2.81254
2643.576	5.94258	-4.16543	0.91934	-0.21477
2647.580	3.77421	-1.94343	0.88287	-0.31569
2651.584	2.34632	-4.33278	-1.49542	-0.63624
2655.576	4.65594	-2.72496	2.32897	-3.92892
2659.617	3.48135	-2.83295	-1.48344	-0.02278
2663.582	3.30537	-2.31465	-0.47036	-2.14850
2667.584	3.76416	-2.32435	-0.30352	-6.83243
2671.577	2.64933	-3.35775	0.09877	-1.96283
2675.583	2.80791	-2.46158	-0.41591	-1.65150
2679.580	4.13996	-2.41017	1.23598	-2.61622
2683.579	3.06028	-2.22772	0.83831	-2.24316
2687.577	0.11076	1.45306	0.71089	-0.38244
2691.578	3.75847	-2.62393	-0.39653	-2.15142
2695.579	4.67594	-5.40951	1.34371	-0.57443
2699.580	5.05767	-6.14786	0.56615	0.66915
2703.580	1.06044	1.58115	-0.59372	1.97909
2707.576	4.71799	-3.53963	1.92322	-1.54149
2711.587	1.97106	-2.26953	-0.57940	1.76593
2715.581	3.00794	-4.90028	0.08520	-1.37615
2719.581	4.82809	-4.36517	-0.97261	1.26076
2723.577	-2.29136	1.45027	-0.68285	-0.22375
2727.582	5.30077	-5.51387	-0.87905	1.42374
2731.578	4.60673	-4.64585	-1.50958	-0.65112
2735.583	5.04703	-5.68344	-0.80898	-1.10266
2739.573	3.75136	-4.33210	0.18425	-6.84325
2743.580	-0.33407	1.42908	-0.67928	0.15711
2747.580	4.99041	-3.86102	-0.64000	-1.47689
2751.581	5.94440	-4.40726	-0.76595	1.36761
2755.593	5.07971	-5.11921	-0.57650	1.25797
2759.581	4.00527	-4.15945	-0.10543	-0.71549
2763.587	-0.61637	1.28734	0.54734	-3.04967
2767.577	5.05452	-3.10644	-0.33687	1.34752
2771.575	-0.42003	1.18590	-2.14498	0.26547
2775.576	4.74885	-5.49123	1.23489	-0.99977
2779.577	2.64034	-3.96483	-0.75826	0.20884
2783.577	4.27516	-3.99773	1.82400	-0.15116
2787.573	3.66224	-2.78069	-0.92001	1.42375
2791.577	3.68812	-3.84999	-0.78915	1.16535
2795.580	3.44812	-3.27378	-1.07902	-1.01376
2799.572	2.09559	-2.18845	-1.01332	0.14703
2803.575	3.29560	-2.03264	-1.06520	1.10526
2807.576	5.64518	-3.06488	-0.87411	-1.59665
2811.576	3.99944	-4.46282	-1.38190	0.13648
2815.573	5.74846	-3.83362	-1.37238	-0.20822
2819.580	5.66170	-3.52703	-0.83950	0.84994
2823.582	5.85733	-3.16674	2.15311	0.05984
2827.581	5.77497	-4.70833	-1.16615	1.00745
2831.577	5.38577	-2.68402	-1.83796	-1.19833
2835.588	3.37279	-4.84654	-0.30406	-1.47937
2839.580	3.42428	-1.28715	2.65367	-1.35434
2843.578	3.36965	-0.83574	-3.71738	-1.62882
2847.573	3.42688	-7.67990	-2.26423	-0.68954
2851.592	3.30977	-2.78176	-2.53107	-1.28815
2855.584	3.27116	-2.78338	-3.04313	-1.60778
2859.574	-1.55789	-0.58513	-1.67757	-0.58262
2863.577	0.89810	-2.38948	0.88103	-3.37525
2867.578	1.16612	-0.33224	0.80491	-4.36330
2871.582	1.34242	-2.67358	-2.66238	-7.56780
2875.580	-2.09871	-2.79647	-0.41862	-0.58171
2879.599	3.24909	-2.71871	-5.22635	-3.72345
2883.582	-0.66049	2.08113	-2.02411	-2.67889
2887.573	3.31069	-2.06477	-2.84393	-4.44391
2891.573	5.67278	-3.65743	0.64389	-3.86078
2895.573	3.20691	-0.39410	-2.14508	-3.70301
2899.577	5.43492	-4.94919	-2.25446	-1.90559
2903.579	3.93670	-4.36695	1.25870	-1.06100
2907.570	-1.49488	-0.19274	-2.59742	-0.78932
2911.574	-0.77588	0.44564	-3.09493	-1.08357
2915.576	2.10201	-2.92282	-1.61334	-1.10342
2919.583	4.98647	-6.84081	-2.23206	0.00529
2923.583	-5.01657	-4.25987	0.45311	-0.65930
2927.575	-2.56869	-3.96348	-1.41323	2.01439
2931.573	-0.85156	-0.01252	-1.66497	-0.16041
2935.573	4.33927	-2.72720	-2.50155	-6.54931
2939.574	2.45924	0.20904	-0.53950	-1.07642
2943.573	-1.27830	-2.22833	-1.73395	0.46205
2947.571	2.33534	-2.13942	-1.87441	1.24329
2951.576	4.68003	-3.13101	-2.93945	-1.18407
2955.578	2.77589	-2.46264	-3.08543	-0.94639
2959.577	2.71124	0.44042	-3.03700	-0.76307
2963.576	2.52381	-1.95394	-2.99443	1.34754
2967.574	-1.05260	-0.82716	-2.18577	1.61957
2971.576	4.17485	-2.38433	-1.05979	-2.79450
2975.577	0.76436	-2.66616	-1.55033	-1.22073
2979.577	2.93891	-1.58775	1.20231	-4.10180
2983.571	4.15796	-3.62131	1.26435	-0.61032
2987.578	2.28375	-2.02620	-0.18052	-5.48067
2991.575	2.35620	-2.27135	-1.88596	1.64017
2995.578	2.52156	-2.55982	-1.93422	0.34533
2999.571	5.16455	-3.04214	2.57404	-0.81281
3003.640	2.75163	-2.42533	0.83724	-3.34367
3007.575	3.07446	-3.45017	0.86652	-5.70278
3011.574	1.45455	-1.89293	-3.90279	-3.09864
3015.574	-1.86174	-3.56926	-0.85756	-0.42034
3019.577	1.79495	-4.68202	-2.15435	-0.80124
3023.578	2.88180	-1.92697	2.30784	-1.02260
3027.572	3.00886	-1.70641	1.58135	-1.08621
3031.573	2.71255	-1.26945	1.84550	-1.32972
3035.573	2.03754	-2.51334	2.71302	-1.68863
3039.574	-1.71536	-0.98118	1.28383	-5.14964
3043.581	2.87279	-3.73810	1.68570	-3.46569
3047.577	3.33374	-3.88083	-1.57233	0.83759
3051.591	1.12980	-0.90230	-0.45137	-3.98028
3055.577	2.62165	-3.96726	2.98963	-2.74275
3059.574	4.61778	-8.00633	0.43194	1.18230
3063.573	2.77728	-2.58342	2.42374	-1.69015
3067.579	2.70688	-3.70588	2.21234	-1.87320
3071.574	2.82754	-2.79319	-1.55789	-2.99352
3075.572	2.61971	-0.87855	1.99300	-1.71798
3079.578	3.19640	-2.38274	2.26668	-1.71388
3083.577	5.23888	-3.89162	2.47018	-1.12373
3087.618	5.25313	-2.61104	1.26004	-1.58573
3091.571	1.97520	-0.40062	-0.07416	-1.64925
3095.572	1.64960	-2.60638	-1.45944	1.18930
3099.573	5.67418	-3.84036	-3.89204	-1.79174
3103.451	4.02900	-2.55434	1.08869	0.49688
3107.447	1.81342	-1.71843	0.57630	2.99120
3111.447	0.30441	1.84113	-3.40803	0.38175
3115.446	2.07333	-2.89283	1.05706	-2.18021
3119.446	4.28217	-1.46422	2.06542	-0.15091
3123.442	1.63189	-1.54998	2.01119	-0.37923
3127.446	2.11628	-2.93003	2.55745	-1.01913
3131.455	4.26413	-4.07057	1.57523	-0.32743
3135.447	3.78632	0.28514	2.81249	-3.57313
3139.446	3.82944	-2.54558	-1.83796	-1.36830
3143.448	5.07264	-1.36114	-0.31233	2.15047
3147.442	5.48361	-3.79612	1.83876	-3.64923
3151.447	1.45767	-3.44295	3.18591	-2.98367
3155.449	1.77462	-3.29314	-1.93061	-0.73994
3159.442	3.65359	-4.84216	-1.88869	-1.47710
3163.466	1.61662	-3.15916	-1.56521	-0.46628
3167.445	1.55179	-0.61643	2.63304	-0.55098
3171.462	-0.73985	1.23496	1.71570	-0.36608
3175.450	1.47484	-1.43369	3.68253	-3.44705
3179.451	1.44212	-2.15402	2.66704	-0.56583
3183.442	1.62837	-1.90024	-2.23568	-1.63401
3187.445	2.22156	-1.90749	1.46807	-1.29491
3191.446	2.24507	-2.43940	2.03075	-2.37628
3195.446	1.24208	-3.18360	-1.48853	-1.45200
3199.446	1.54574	-1.85362	-0.37077	-1.14862
3203.446	3.91212	-3.53656	-1.01913	2.79040
3207.449	1.81096	-4.78882	1.44773	-1.12213
3211.441	4.00425	-2.17132	1.48161	-3.92605
3215.454	0.41720	-2.99237	0.53327	-3.18349
3219.449	5.08500	-2.19578	-0.08314	-1.83493
3223.445	5.33448	-2.14112	1.90039	-2.59537
3227.444	2.13205	-0.44190	1.67462	-2.56084
3231.445	3.28501	-1.96088	-0.05246	-1.24065
3235.446	1.38356	-2.65814	-0.00092	-1.38515
3239.444	1.47248	-2.75720	-0.28319	-2.42321
3243.448	2.71944	-7.55825	0.52307	-1.07552
3247.447	5.36791	-4.03591	0.05103	-1.17830
3251.439	-0.21418	1.87960	0.41437	-1.22681
3255.499	3.87312	-3.47912	-0.11324	-0.89653
3259.457	1.74382	0.52426	0.40025	-1.02435
3263.464	2.63316	1.11379	0.78278	-3.26828
3267.447	4.73769	-2.37499	0.09086	-3.78799
3271.449	2.17202	-2.13609	1.01355	-1.67434
3275.443	-3.04675	-3.12260	-0.25860	-2.05626
3279.450	4.43352	-1.94662	0.02075	-1.82148
3283.444	2.91143	-3.21866	-0.50624	-1.67295
3287.448	5.14338	-3.86272	-0.49093	-1.87865
3291.460	6.78750	-4.68854	0.62724	-1.89233
3295.446	3.25414	-2.96365	-0.19348	-0.98509
3299.450	3.31447	-2.26665	-0.34598	-0.52407
3303.445	5.25978	-4.08686	-0.03541	-1.68543
3307.447	5.47171	-8.04006	1.12772	-0.92925
3311.446	5.51514	-2.37223	-0.31049	-1.40534
3315.439	3.01574	-0.01094	0.23594	-0.91841
3319.447	2.07447	-2.07294	0.10468	-1.14877
3323.446	5.44739	-2.01427	-0.23857	-1.33690
3327.442	5.59042	-3.27043	-0.10778	-0.44482
3331.447	3.36448	-2.20672	-0.01695	1.71721
3335.443	2.97708	-4.33195	2.79013	-1.45747
3339.447	2.20820	-1.65418	3.64706	-1.23442
3343.444	3.92774	-2.41030	5.96819	-3.07437
3347.447	2.57820	-1.72073	3.25387	-1.69216
3351.446	2.24426	-1.28065	3.77500	-1.87851
3355.439	3.94426	-1.68060	5.74310	-4.09733
3359.447	2.21737	-0.42022	3.83591	-2.24868
3363.443	2.33613	-1.29210	5.49667	-3.16477
3367.447	2.83977	-2.00629	0.41097	-0.62638
3371.446	2.28866	1.60366	-2.51420	-0.37779
3375.445	1.34209	-2.02597	-0.22611	-1.32431
3379.438	1.27197	-1.29976	2.18724	-0.44635
3383.449	3.76522	-0.78190	0.87967	-0.29353
3387.445	0.95502	-1.23250	-0.82104	-1.22190
3391.439	3.27677	1.24909	4.38684	-1.21891
3395.482	3.14961	-0.79097	1.62924	0.25395
3399.452	0.68471	-0.90089	-0.50691	-1.10337
3403.443	3.69212	1.35526	0.12178	-1.57447
3407.438	2.59178	1.24516	4.98320	-0.09763
3411.440	2.57823	-1.59180	-0.81808	-2.09136
3415.445	0.80181	-1.13043	2.40018	-0.89808
3419.440	3.13803	1.32685	2.42096	-1.06811
3423.445	3.38315	1.12024	4.22306	-0.74177
3427.441	3.55347	0.35607	0.62508	0.55302
3431.444	3.03306	-2.51377	0.67471	0.75949
3435.446	5.70622	1.04955	5.97538	-3.14956
3439.443	2.31190	-1.61834	4.84036	-2.50474
3443.444	5.61308	-0.90534	1.29390	1.55071
3447.462	5.71718	0.62852	5.45049	-0.51241
3451.449	4.11073	0.54357	2.79055	1.76387
3455.437	3.51664	-1.33569	1.23409	1.22899
3459.446	3.16513	-3.61348	0.90277	0.32255
3463.449	5.31396	0.66111	1.12075	0.05602
3467.444	5.65902	-2.94699	0.96437	0.94238
3471.435	5.00401	-0.13204	0.98514	-0.39926
3475.440	3.43029	0.25846	2.36324	3.08837
3479.445	4.58417	-3.09789	5.17723	1.47618
3483.441	2.49275	-0.79762	1.20075	1.28418
3487.440	4.04848	-0.95972	0.85714	1.31536
3491.445	5.43248	-1.54730	0.99169	0.07677
3495.443	3.80337	0.67594	4.71454	-2.81358
3499.444	4.10426	-1.28345	0.93678	1.32134
3503.440	4.51736	-0.72935	1.39711	1.85119
3507.468	4.05505	0.17014	1.07994	0.13583
3511.439	5.56473	-1.22408	1.83159	1.52167
3515.439	3.42435	0.21751	1.08321	0.37922
3519.441	4.20138	-0.32266	0.89220	1.85089
3523.443	4.62656	0.14366	0.69938	0.03993
3527.435	5.93090	-0.66355	0.90396	1.36747
3531.443	4.45170	0.15719	0.90041	0.64421
3535.440	3.89130	-0.45631	1.30082	2.52802
3539.443	4.38025	-1.16124	-0.87466	2.61016
3543.437	3.41565	-2.10562	1.30437	1.76352
3547.442	3.29416	-0.41486	0.25143	3.21936
3551.444	7.04232	-0.17505	1.19123	0.41898
3555.437	3.18212	-0.74418	0.75218	1.89231
3559.441	3.90380	-0.79144	-0.59320	0.77518
3563.441	4.90191	1.17984	1.33964	2.28982
3567.443	7.29372	-2.69274	1.38433	1.56999
3571.444	4.64877	-0.77619	2.33167	2.65907
3575.440	7.37558	-1.24733	-0.67154	3.55406
3579.442	2.43595	-1.38092	1.02873	1.34596
3583.439	3.34947	0.02456	0.13228	0.83967
3587.441	5.17215	-0.46943	0.88359	1.82761
3591.444	3.90985	-0.45474	2.35623	2.40478
3595.444	6.94731	-0.86869	-1.54011	1.84596
3599.440	5.55767	-0.12149	0.24053	1.56946
3603.442	2.85465	-1.19183	-0.03383	1.21012
3607.434	4.19311	0.68263	-1.12625	1.17912
3611.437	2.26487	1.45369	-1.50881	0.86712
3615.440	2.49117	-1.27754	-1.36003	0.86943
3619.440	6.84392	-0.91057	-2.37560	-0.55173
3623.434	3.59411	-0.40198	2.74167	1.46825
3627.443	6.77345	-1.06207	-0.77461	1.08397
3631.447	6.55351	-1.27883	-1.30461	3.29750
3635.438	6.47090	0.92417	-1.52121	4.51792
3639.441	3.35429	1.50757	-3.77720	3.13539
3643.437	2.67529	-0.95430	-3.99568	4.86214
3647.441	2.33497	1.21880	-3.73213	3.59303
3651.444	-1.43962	2.67007	-2.73514	4.54194
3655.437	-5.42658	3.59428	-6.43993	5.07967
3659.441	-4.02470	2.10981	-3.53560	3.32381
3663.433	-2.10530	4.10103	-3.86916	3.48848
3667.444	-4.72332	2.76682	-3.45267	1.88071
3671.443	-6.45919	3.87936	-2.88381	3.16743
3675.445	-7.58278	1.44443	-5.29120	5.09529
3679.436	-5.14658	4.37413	-6.31902	4.63865
3683.442	-5.47525	4.28853	-6.40396	5.65888
3687.439	-5.10962	3.70003	-6.50503	3.56955
3691.437	-5.16270	4.48662	-5.07318	5.82340
3695.437	-5.07247	3.38084	-2.83526	-7.66364
3699.444	-6.35015	3.37160	-6.47889	4.40079
3703.440	-5.04843	3.97283	-6.74100	1.71227
3707.433	-5.02016	3.16835	-6.87440	4.16588
3711.448	-4.98672	4.22970	-9.24520	2.56056
3715.445	-4.95127	3.63303	-6.59762	3.72178
3719.474	-4.98324	3.69710	-9.41888	1.68329
3723.441	-5.06584	3.17504	-9.64738	1.14046
3727.450	-5.19692	3.28628	-9.96768	1.65044
3731.444	-5.46613	3.32161	-8.60868	1.98499
3735.434	-6.24006	3.26948	-6.72506	3.30427
3739.437	-12.13778	0.64737	-10.28868	0.87090
3743.438	-6.41815	2.91045	-6.78390	3.55067
3747.439	-11.31071	2.96009	-10.00538	3.02047
3751.436	-6.09177	3.64302	-9.39692	3.68560
3755.453	-10.80450	2.14303	-5.40220	3.52604
3759.444	-9.53487	5.17315	-7.95373	3.52290
3763.441	-6.46444	5.46268	-7.33100	3.63646
3767.436	-11.04857	2.82578	-7.81965	1.68521
3771.439	-6.56243	3.22999	-5.04435	3.83071
3775.434	-9.57722	1.73483	-6.32527	4.25320
3779.435	-8.86340	3.42334	-8.31365	4.62384
3783.438	-10.84140	-1.52319	-9.55741	2.99341
3787.439	-11.03284	1.07479	-7.77378	4.38502
3791.437	-9.80175	3.53195	-7.43359	4.89696
3795.446	NaN	NaN	NaN	NaN
3803.443	-11.26118	2.85846	-7.95256	3.16151
3807.439	-8.69355	2.98140	-7.55476	3.47651
3811.433	-10.77907	1.00469	-7.46121	4.25692
3815.440	-10.71144	2.73293	-7.00142	3.43493
3819.486	-11.63790	1.71689	-8.62765	3.36591
3823.435	-10.42185	2.81733	-8.37298	3.76776
3827.438	-5.36983	2.91836	-7.36933	4.50345
3831.437	-12.12094	-0.07386	-8.35384	4.13482
3835.435	-10.87747	2.78272	-7.89086	5.02265
3839.438	-12.11906	2.58982	-6.93291	4.65565
3843.445	-8.35039	2.82492	-8.17228	4.50001
3847.442	-8.75305	3.03988	-7.78552	4.61576
3851.434	-10.61874	-0.32366	-7.00531	4.67441
3855.436	-12.51132	1.38740	-10.71041	2.75411
3859.434	-11.08256	3.23000	-7.11882	5.21743
3863.434	-10.90549	-0.76117	-8.11184	4.76263
3867.452	-12.35424	1.91858	-8.54537	4.69810
3871.441	-8.70762	3.61486	-7.07349	5.22623
3875.438	-7.37338	4.15972	-7.01467	5.25110
3879.444	-10.25406	3.36633	-7.00199	4.74387
3883.440	-11.01053	-0.61121	-11.08282	4.10814
3887.436	-11.11145	-0.87627	-6.83164	4.77591
3891.433	-11.10794	2.33595	-0.54811	3.35893
3895.438	-4.76325	6.35383	-10.10615	-4.85783
3899.437	-3.81125	5.46023	-5.89200	-2.80531
3903.438	-4.09248	4.38564	4.78577	-4.61017
3907.429	-6.31610	4.20957	4.70219	-4.74765
3911.433	-3.16127	4.66235	4.66748	-8.25662
3915.452	-2.30843	5.16982	1.92379	-5.43264
3919.439	-5.59976	4.11077	-0.88820	-8.51081
3923.438	-3.14978	5.04354	-5.36486	-5.61427
3927.430	-3.07518	4.53803	-1.06612	-5.70513
3931.435	0.69645	4.67915	0.07485	-6.05322
3935.460	-2.17519	4.50319	4.21116	-8.57214
3939.429	-6.01316	3.41381	-1.00593	-3.64498
3943.431	-2.04919	4.69877	5.62355	-8.65185
3947.432	0.67139	0.75219	6.10791	-8.68456
3951.427	-5.14956	4.55976	5.50887	-8.68196
3955.309	-4.10231	4.37154	5.55101	-10.66388
3959.310	-1.02682	4.06170	-19.99372	-12.03620
3963.302	-4.37147	4.50693	0.50897	-11.41266
3967.317	-6.94704	4.58802	0.88215	-13.82966
3971.312	-6.31659	4.30129	0.76764	-12.83350
3975.306	-3.66347	4.46393	1.02079	-13.89287
3979.301	-3.49745	4.12203	-3.71656	-10.03750
3983.314	-3.99361	4.86601	0.60362	-10.25908
3987.306	-4.40609	4.45763	-1.43833	-9.43410
3991.306	-3.08394	4.27167	-1.83528	-7.64390
3995.306	-3.13813	4.52985	-3.73376	-9.93220
3999.302	-3.23833	4.51472	0.80635	-6.41619
4003.306	-4.22908	4.97616	6.03209	-12.64374
4007.324	-2.52500	5.58132	5.80889	-11.61347
4011.314	-3.93300	5.22903	-3.48328	-10.21315
4015.310	-2.31490	5.14729	0.90396	-12.40017
4019.306	-1.98789	4.73834	0.45837	-8.07585
4023.307	-3.41800	5.47231	5.53508	-10.06242
4027.306	-4.28397	5.19356	0.77841	-7.61874
4031.311	-1.93090	5.19255	-2.15058	-10.06055
4035.309	-3.70455	5.08000	4.14651	-13.97844
4039.306	-3.12828	5.31834	-4.09755	-7.82143
4043.305	-2.25863	5.12995	-1.83402	-7.46891
4047.311	-1.43838	2.25009	-3.90973	-5.44434
4051.313	-3.89026	5.37655	0.70603	-4.17776
4055.307	1.92629	4.87885	5.00233	-5.66233
4059.311	-5.57537	2.33342	3.03343	-3.40589
4063.305	-2.42948	5.20143	-1.27554	-3.60230
4067.309	-0.39720	4.07546	-0.72667	-5.38864
4071.311	-2.71694	5.46904	2.82974	-4.66410
4075.304	-3.63334	3.46562	2.72823	-3.99787
4079.305	-9.17529	3.05861	0.79037	-3.88467
4083.305	-3.14578	5.41830	0.76444	-6.82164
4087.310	-3.16691	4.38496	1.38719	-3.00393
4091.307	-5.28133	2.67154	2.29783	-3.66220
4095.309	-5.56758	2.72017	-0.50969	-5.71481
4099.309	-3.18188	5.19776	6.78037	-3.44334
4103.308	-3.92843	5.12003	5.50567	-0.14541
4107.301	-9.37303	-0.73524	6.96528	0.20006
4111.310	1.20574	3.05431	5.70925	-2.74576
4115.306	-3.52702	5.38359	6.04183	0.38013
4119.328	-3.06593	5.25114	1.48997	-2.60812
4123.311	-5.29590	2.95067	-0.39795	-2.48409
4127.304	-2.28390	5.14333	1.92116	0.42557
4131.305	2.07757	4.41864	5.51518	0.34024
4135.311	-3.22309	5.49182	5.88260	0.35354
4139.307	-2.27295	5.05287	-3.67717	-3.54661
4143.300	-6.75081	4.18747	5.79509	-0.45278
4147.303	-2.00229	4.69057	-3.93159	3.51504
4151.337	2.88559	-0.02087	-7.58842	3.19121
4155.305	2.85583	2.10937	4.90264	2.87375
4159.309	-2.26175	4.61995	1.49034	6.10697
4163.303	-3.97980	6.86103	2.19137	5.96535
4167.307	3.47505	4.53598	10.82411	7.03126
4171.299	3.99348	4.35312	10.78405	3.10931
4175.302	5.98675	-0.12799	21.26582	-3.73497
4179.309	4.50722	1.76531	9.08012	-0.93378
4183.303	6.15509	0.92259	14.79869	-2.14773
4187.323	7.07376	-0.61169	14.14887	0.18647
4191.305	12.46093	1.14178	21.11344	-1.38804
4195.301	15.47692	0.67710	19.50723	2.88772
4199.306	13.62526	1.18460	18.49972	7.09965
4203.305	18.57406	0.37887	NaN	NaN
4207.301	NaN	NaN	NaN	NaN
4211.302	NaN	NaN	NaN	NaN
4215.302	NaN	NaN	NaN	NaN
4219.308	NaN	NaN	NaN	NaN
4223.307	NaN	NaN	NaN	NaN
4227.299	NaN	NaN	NaN	NaN
4231.307	NaN	NaN	NaN	NaN
4235.317	NaN	NaN	NaN	NaN
4239.350	NaN	NaN	NaN	NaN
4243.322	NaN	NaN	NaN	NaN
4247.436	NaN	NaN	NaN	NaN
4251.689	NaN	NaN	NaN	NaN
4256.651	NaN	NaN	NaN	NaN
4260.871	NaN	NaN	NaN	NaN
4264.973	NaN	NaN	NaN	NaN
4269.057	NaN	NaN	NaN	NaN
4273.149	NaN	NaN	NaN	NaN
4277.137	NaN	NaN	NaN	NaN
4281.046	NaN	NaN	NaN	NaN
4284.990	15.41457	-1.24016	NaN	NaN
4287.428	12.17966	-0.99063	NaN	NaN
4291.310	15.04642	-0.96930	NaN	NaN
4295.303	10.08351	-0.47486	NaN	NaN
4299.302	11.82580	-0.88201	NaN	NaN
4303.301	11.64004	-1.00528	NaN	NaN
4307.305	8.12072	-2.33018	NaN	NaN
4311.301	18.17566	-0.98264	NaN	NaN
4315.300	17.77970	-2.85731	21.79297	13.26074
4319.345	14.43880	-1.87401	NaN	NaN
4323.897	NaN	NaN	NaN	NaN
4331.301	22.71705	-5.19073	NaN	NaN
4335.302	11.92187	-2.13966	NaN	NaN
4339.300	14.41764	-2.29648	NaN	NaN
4343.307	NaN	NaN	NaN	NaN
4347.300	23.01145	-8.71264	22.05414	13.20303
4351.324	14.23545	-2.42052	22.10316	12.21575
4355.299	15.59393	-2.18136	22.05243	12.10530
4359.300	17.83401	-4.55438	21.78058	12.22225
4363.300	14.38887	-2.69375	22.12358	12.24977
4367.298	10.23490	-1.54359	NaN	NaN
4371.301	22.91875	-5.26006	22.09052	11.68849
4375.297	17.40044	-0.08062	19.76487	12.27213
4379.304	14.70391	0.74727	18.88008	12.52201
4383.308	14.32027	0.49585	NaN	NaN
4387.304	16.39418	1.64629	22.12390	10.25351
4391.338	22.83235	-2.65424	19.43487	11.28342
4395.307	18.34551	-2.99498	18.73891	11.70081
4399.300	14.37163	-0.16588	18.42494	9.67734
4403.299	15.37120	-1.28873	19.40732	9.39562
4407.299	15.36514	0.92045	18.04240	9.96658
4411.299	15.04101	0.70744	18.66225	9.66320
4415.299	15.28166	-1.78056	19.47790	9.47441
4419.299	NaN	NaN	17.70376	9.81776
4423.304	23.14881	-3.66628	19.43171	9.51162
4427.305	14.73272	-1.10357	18.58523	9.70654
4431.302	16.77666	-2.75999	19.52312	6.78772
4435.298	16.30090	-2.45669	17.30878	9.22141
4439.295	15.30628	-1.78368	17.19178	9.06915
4443.303	15.12231	-2.12421	15.35983	9.40724
4447.298	NaN	NaN	NaN	NaN
4451.298	NaN	NaN	NaN	NaN
4455.306	NaN	NaN	-7.20883	14.96504
4459.903	15.97870	-0.31920	10.18031	11.12113
4463.302	15.61904	0.91322	7.35122	14.66265
4467.313	7.66629	5.07813	15.11799	9.33522
4471.300	11.90951	2.26571	17.53189	9.17336
4475.305	11.74608	1.85977	7.77269	14.34617
4479.301	11.55831	1.86854	15.89988	9.25342
4483.299	5.39815	0.41106	16.18137	9.34650
4487.295	12.69941	2.57976	10.41674	13.72990
4491.297	14.45151	2.18167	15.34882	9.41253
4495.299	6.37530	-0.02193	12.04979	11.38393
4499.297	12.65127	3.54550	NaN	NaN
4503.297	11.88670	-0.46110	11.55230	10.95657
4507.302	18.32353	-0.22525	14.34867	10.75229
4511.301	12.05791	2.65089	12.45591	11.47093
4515.298	11.86904	0.04611	12.15315	9.98376
4519.298	13.16835	2.80483	12.31912	10.58808
4523.302	12.43454	4.58300	14.46905	10.73903
4527.301	11.27269	3.20226	13.34352	11.35969
4531.299	7.97790	6.32739	6.75774	14.47926
4535.302	11.78657	4.48377	7.09800	12.99879
4539.294	11.77018	1.85319	13.95544	10.34776
4543.298	11.93712	2.71100	14.28198	10.23723
4547.297	10.81358	4.28039	13.07804	12.94883
4551.301	8.13779	4.99262	8.96644	14.17837
4555.297	10.92851	4.16285	12.51418	10.81744
4559.312	11.87142	3.21909	12.79550	10.91983
4563.301	8.23478	6.59590	10.99243	13.52066
4567.332	10.58639	5.02857	12.11147	8.58464
4571.303	7.78219	3.13622	13.63831	10.25702
4575.297	7.53969	2.76387	14.23900	10.05281
4579.292	11.64473	3.65715	14.07153	10.18002
4583.297	14.28413	2.40829	NaN	NaN
4587.296	11.85264	3.50435	5.34516	13.68953
4591.296	11.07056	4.57380	7.18359	13.60952
4595.305	12.41151	3.90132	8.79690	13.44221
4599.300	8.00832	3.64130	13.99164	9.96883
4603.295	9.40863	2.58317	14.14324	9.05113
4607.291	11.61768	2.43587	11.53260	9.80940
4611.295	7.98009	3.05562	8.20928	12.50314
4615.295	11.08813	3.83429	6.95066	14.07063
4619.295	12.70411	3.26260	6.94817	14.31971
4623.290	12.46356	1.81191	11.64032	7.56903
4627.294	NaN	NaN	NaN	NaN
4631.297	NaN	NaN	NaN	NaN
4635.303	NaN	NaN	NaN	NaN
4639.305	NaN	NaN	NaN	NaN
4643.301	16.11554	1.67438	NaN	NaN
4647.435	13.15654	3.51254	11.22718	7.18488
4651.294	15.78469	-1.15568	16.63874	7.24840
4655.296	9.12890	-0.23506	20.31741	4.19180
4659.296	21.75462	-1.79155	12.66245	6.99809
4663.299	21.30963	-2.75735	14.51088	6.73837
4667.296	19.82924	-1.77606	8.98305	7.00899
4671.295	21.50239	-1.99761	10.08938	6.64306
4675.295	19.25792	0.74564	11.03944	6.71599
4679.297	18.94893	0.22370	13.75577	7.05227
4683.297	21.42037	-2.56712	14.43820	7.06770
4687.299	18.82887	-1.78025	19.25847	6.34603
4691.292	NaN	NaN	10.56893	4.28696
4695.302	21.33099	-4.12976	9.91404	6.32077
4699.298	19.41450	-3.70919	10.19377	5.87338
4703.291	21.41043	-2.36998	14.59833	4.32146
4707.301	21.21686	-2.52391	13.85250	4.85987
4711.295	19.33222	-2.10234	10.53691	5.25172
4715.301	19.45970	-2.63931	10.23731	5.33446
4719.300	18.64175	-0.75360	10.00856	5.99880
4723.299	17.81648	-3.00455	10.18401	5.05845
4727.296	NaN	NaN	10.29608	4.61028
4731.310	19.43794	-1.42412	13.34876	3.98026
4735.300	19.16643	-2.04823	9.39462	5.06637
4739.294	22.69403	-4.35533	11.82138	4.96151
4743.295	16.94493	-4.37168	10.95208	4.54627
4747.292	17.26524	1.63869	10.73770	5.92554
4751.299	18.83618	-1.72455	9.21974	4.35395
4755.315	NaN	NaN	8.92757	6.00584
4759.307	20.07484	-1.92243	15.27125	4.08489
4763.297	19.38069	-0.56297	15.23124	4.45381
4767.296	17.61753	-1.49289	12.05983	3.99308
4771.290	NaN	NaN	12.88103	3.53333
4775.294	20.00157	-2.53207	16.41811	3.92952
4779.294	17.84163	-1.16445	11.22437	7.49470
4783.298	20.03903	-1.30087	12.56453	6.80002
4787.325	16.56868	-0.29738	10.60356	3.94467
4791.297	18.81642	-1.89114	14.16196	3.93015
4795.292	17.51212	-1.54072	13.05934	4.12941
4799.320	18.14761	1.07498	14.74302	3.85445
4803.305	18.38133	-1.37486	9.55961	8.44833
4807.171	22.59205	-1.36736	10.73032	7.33019
4811.168	NaN	NaN	9.97103	7.24882
4815.164	22.20343	-4.10197	12.82375	7.03423
4819.186	22.36993	-2.08662	11.08106	7.52901
4823.167	19.03034	-1.54951	12.28851	10.15658
4827.172	18.95437	-1.91233	13.81039	9.51116
4831.169	17.97646	-2.12158	14.14081	8.04061
4835.167	NaN	NaN	13.20940	8.23520
4839.162	12.44233	-4.79813	12.74239	7.37742
4843.165	17.85957	-1.82671	12.74532	9.94726
4847.188	17.53536	-2.31799	12.69611	10.36948
4851.171	17.59956	-1.94298	12.81106	10.66495
4855.166	17.64834	-3.59996	15.53101	10.40153
4859.168	17.33847	-5.07108	12.03232	11.04505
4863.167	NaN	NaN	13.63421	9.68530
4867.177	20.90744	-3.46265	17.62566	9.00930
4871.173	NaN	NaN	15.64027	10.66979
4875.168	NaN	NaN	13.29951	10.66702
4879.170	19.50956	-4.52688	16.53119	9.53256
4883.167	21.62014	-4.44118	17.07322	10.75944
4887.166	17.30480	-2.06495	14.57262	11.14225
4891.175	NaN	NaN	17.79930	9.83047
4895.164	18.28987	-3.69375	17.54540	11.43257
4899.167	13.62620	-1.66924	14.62205	12.15971
4903.166	21.06143	-4.11589	23.10808	10.44719
4907.166	18.57845	-1.98043	16.55653	11.27364
4911.161	20.93914	-5.58097	15.30085	12.88043
4915.166	21.93258	-3.82473	17.72340	11.94458
4919.166	18.40300	-2.11053	19.52853	11.36570
4923.165	18.68049	-3.97694	18.94340	12.56846
4927.163	19.79840	-3.62947	17.52992	12.92730
4931.176	18.77779	-3.12250	19.82408	12.31573
4935.167	19.20070	-3.93364	17.88174	12.88094
4939.169	19.30937	-3.82868	20.21774	12.30842
4943.163	17.82256	-2.09001	19.91241	12.94953
4947.167	NaN	NaN	19.99011	12.92093
4951.169	17.74263	-2.45182	19.89879	13.00566
4955.162	23.46477	-7.79102	18.65639	13.31085
4959.181	NaN	NaN	20.44250	13.01178
4963.169	21.56525	-5.36978	19.10058	13.36426
4967.162	NaN	NaN	21.51380	12.87069
4971.175	17.96300	-1.01963	20.04521	13.24136
4975.171	17.33741	-3.35695	21.44950	13.02808
4979.165	NaN	NaN	20.51355	13.22076
4983.161	17.25596	0.82845	23.52182	12.71915
4987.165	17.41835	-0.58457	20.99004	13.15444
4991.166	14.24977	-2.66869	19.52985	13.46333
4995.191	23.49365	-5.01768	21.30461	13.18752
4999.165	17.47950	-0.21493	19.60778	13.50908
5003.163	23.16323	-5.11731	21.79757	13.09471
5007.170	17.28706	-5.24922	20.77562	13.31301
5011.167	17.45353	0.90771	22.95645	12.90771
5015.166	18.12621	-2.67014	21.72927	13.10316
5019.174	16.61126	-5.32732	19.56326	13.58389
5023.164	21.71539	-3.99560	21.41708	13.24528
5027.168	NaN	NaN	22.42882	13.04960
5031.160	21.46309	-8.28730	18.82162	13.83512
5035.163	NaN	NaN	21.96713	13.11552
5039.163	NaN	NaN	20.86981	13.37395
5043.168	NaN	NaN	20.44305	13.45121
5047.159	18.33422	-3.11558	18.14382	14.01919
5051.168	22.88676	-5.25344	21.19585	13.35736
5055.168	14.74402	-1.48449	NaN	NaN
5059.182	16.28969	-4.25397	NaN	NaN
5063.173	17.61027	-3.18731	22.55767	13.02979
5067.163	16.25905	-2.98882	20.85778	13.35452
5071.167	14.13680	-2.47622	NaN	NaN
5075.165	18.10495	-3.17306	NaN	NaN
5079.165	NaN	NaN	NaN	NaN
5083.164	15.19644	-0.54719	17.63258	14.05774
5087.185	17.42703	-0.75676	NaN	NaN
5091.168	17.71345	-0.60063	NaN	NaN
5095.164	17.34605	-0.71810	NaN	NaN
5099.170	15.21617	-1.29780	NaN	NaN
5103.164	18.90818	-2.67558	17.61638	14.15959
5107.158	NaN	NaN	17.65429	14.23672
5111.162	NaN	NaN	22.00654	13.27817
5115.163	NaN	NaN	NaN	NaN
5119.163	23.15479	-5.49615	19.54731	13.91732
5123.158	14.36304	-1.31641	19.03416	13.99793
5127.162	13.89035	-0.54479	19.12422	13.92566
5131.162	15.58230	-0.95033	18.29481	14.05835
5135.166	15.78570	-0.73946	21.46823	13.46230
5139.174	17.16545	-2.19727	21.66536	13.35107
5143.166	16.05812	-1.33544	21.70125	13.26992
5147.163	18.02431	-2.71175	21.47747	13.28691
5151.159	15.92760	-1.15549	20.09270	13.44641
5155.168	16.44304	-0.56446	18.94054	13.72391
5159.177	14.87835	-2.93028	19.10348	13.72518
5163.162	14.89935	-1.78930	19.18541	13.71701
5167.161	14.09341	-1.11020	19.47505	13.42617
5171.161	14.35941	-1.55723	19.24153	13.42101
5175.168	13.84937	-1.50085	19.38023	13.33390
5179.165	13.72676	-1.74578	19.39858	13.33842
5183.167	13.14418	-2.20653	19.40807	13.37418
5187.162	14.64942	-0.20159	19.26610	13.40995
5191.162	14.86509	-0.34491	19.05434	13.47364
5195.164	15.45657	-0.89618	18.53781	13.59905
5199.160	18.57372	-1.48471	18.33221	13.58564
5203.161	19.13625	-2.27781	18.57858	13.56997
5207.199	NaN	NaN	20.76905	13.25129
5211.157	NaN	NaN	21.17432	13.21351
5215.160	20.78083	-3.01327	19.23516	13.51790
5219.160	15.63320	-1.86544	19.17830	13.58334
5223.165	15.95192	-2.90946	NaN	NaN
5227.160	21.30831	-3.03489	NaN	NaN
5231.160	18.45833	-2.67605	NaN	NaN
5235.161	16.05970	-0.16625	23.45074	9.96291
5239.161	18.11289	-1.91870	NaN	NaN
5243.155	21.24463	-3.75589	19.35717	13.55602
5247.158	18.38792	-1.71642	NaN	NaN
5251.160	NaN	NaN	NaN	NaN
5255.213	18.19898	-1.47227	NaN	NaN
5259.174	NaN	NaN	NaN	NaN
5263.180	16.07510	-2.10636	NaN	NaN
5267.162	17.99231	-1.21087	19.58631	13.66494
5271.166	18.32691	0.90413	18.77116	13.95457
5275.190	NaN	NaN	NaN	NaN
5279.172	NaN	NaN	NaN	NaN
5283.164	NaN	NaN	NaN	NaN
5287.161	NaN	NaN	NaN	NaN
5291.164	19.06327	-1.58791	NaN	NaN
5295.156	NaN	NaN	NaN	NaN
5299.158	22.41876	-3.98115	NaN	NaN
5303.162	18.78048	-1.72785	23.06756	11.83849
5307.164	NaN	NaN	18.87194	13.92961
5311.161	17.60472	-1.62900	18.74519	13.90359
5315.160	16.54214	-1.46994	NaN	NaN
5319.162	15.75440	-1.34537	NaN	NaN
5323.159	14.68756	-1.42581	20.59647	13.18070
5327.160	17.22631	-1.70309	21.17969	12.74542
5331.159	16.17789	-1.04575	23.03371	-4.25831
5335.163	14.63328	-1.22592	23.01797	-6.70051
5339.156	15.73844	-1.38568	17.52997	-1.04809
5343.215	16.16685	-1.13995	22.60597	-4.69257
5347.174	17.55885	-0.32585	22.05489	-2.16745
5351.165	13.52778	-0.58020	22.83463	5.48445
5355.160	18.06815	-2.26831	20.19223	-2.08087
5359.160	14.42532	0.94117	20.84274	-5.86597
5363.162	11.54428	2.19225	13.95336	0.16102
5367.161	8.10980	1.82335	14.02674	5.98058
5371.159	6.59199	4.42638	16.69140	5.36005
5375.159	5.07764	4.48315	8.21974	3.99509
5379.163	5.96016	2.55954	5.95135	5.70091
5383.159	6.58153	2.14680	10.25406	5.77293
5387.160	6.26512	2.07228	4.57014	4.58749
5391.173	3.09797	3.60212	4.10935	0.28414
5395.202	-0.32156	4.62099	1.19438	4.83082
5399.164	2.85690	4.55089	0.86917	7.46991
5403.158	-0.24460	4.18028	-0.86453	4.96369
5407.163	-2.69393	6.04499	1.48386	6.49572
5411.159	-2.18597	6.82148	2.97176	2.77533
5415.167	-2.42436	6.77793	-1.70375	5.86963
5419.161	0.15975	4.44770	-2.08362	7.32761
5423.157	0.08572	3.92983	1.59063	7.26932
5427.157	-2.63465	5.16545	-2.01647	2.84104
5431.164	-2.59723	6.55179	-1.76847	2.05446
5435.163	-2.46444	6.65248	2.10776	2.10610
5439.160	-2.34404	6.69637	-0.89250	5.18535
5443.167	-2.72622	6.13276	4.33663	1.85832
5447.160	-2.79761	6.72674	3.47725	1.83750
5451.158	0.35591	5.72583	-1.66041	2.39916
5455.162	-0.48574	4.30897	5.96706	-1.94866
5459.163	-3.26055	3.69342	2.79998	2.94707
5463.157	-2.47400	4.64603	-2.12030	4.98791
5467.160	-8.26599	-0.52754	-6.19743	3.93403
5471.157	2.82979	4.10520	0.68600	2.23059
5475.163	-3.87428	0.99799	-2.56082	4.92251
5479.157	-2.07980	1.01295	-2.47534	5.21019
5483.161	-3.85474	1.12216	-2.67630	4.73011
5487.155	-1.95366	3.87619	-2.27216	2.65303
5491.161	-3.89918	3.96286	-2.46038	4.70006
5495.159	-1.47940	4.26686	-6.49421	5.42747
5499.160	-3.63124	4.28280	0.58803	4.74525
5503.157	-3.20657	3.19089	-2.50699	5.27006
5507.162	-1.27460	3.98064	-2.78921	5.23581
5511.160	-1.35172	4.04805	-3.04096	5.65820
5515.159	1.74571	4.27154	-7.36581	5.37021
5519.166	1.96224	4.03623	-2.94134	5.28230
5523.159	-0.68851	4.39427	-3.59992	5.51654
5527.161	-0.74876	3.57452	-3.77782	4.62509
5531.155	-1.60704	3.74788	1.57466	-2.12208
5535.159	-2.06837	3.38009	-6.68707	4.86457
5539.156	1.90150	2.92224	1.52161	1.94691
5543.159	-1.38609	4.50086	-6.15887	4.24457
5547.159	4.03873	3.21945	-7.35493	4.14914
5551.160	3.10943	2.73205	-3.24543	6.30038
5555.163	1.99486	4.80865	-2.93804	4.41922
5559.158	-1.54046	3.10372	-3.97746	4.50190
5563.159	-2.59921	2.66485	-3.79596	4.42084
5567.155	-3.71533	-0.26399	-5.73084	3.96018
5571.158	-2.62073	2.52023	-3.41048	4.92754
5575.159	-7.52903	-5.35714	-5.72976	4.62955
5579.155	-2.17185	4.02787	-5.19325	-2.42965
5583.160	4.14236	0.48948	1.60665	1.57226
5587.159	3.14184	1.05691	-3.95253	-0.42737
5591.161	0.81064	3.06749	-4.78952	4.49215
5595.158	-6.86251	2.87107	-4.26166	4.28809
5599.166	-3.92178	3.31575	-0.44120	1.98725
5603.156	-2.75737	4.26108	1.87255	1.26071
5607.159	-3.65613	3.29690	-0.61925	3.26419
5611.186	-3.89995	3.88663	2.59222	3.35585
5615.157	-4.01490	0.23819	-7.73255	-0.55526
5619.157	-6.58266	0.35055	-4.16574	3.40765
5623.153	-2.92473	4.29529	-4.21303	1.30257
5627.157	-3.59639	3.01035	1.95076	0.47970
5631.156	-2.49783	3.06541	-0.84942	0.91084
5635.153	-4.46292	3.08971	2.12439	0.65075
5639.159	-4.71945	3.10155	1.90306	-0.26000
5643.155	-5.54511	2.67884	4.39224	-5.78748
5647.158	-4.82291	2.54538	-0.70295	1.45427
5651.148	-3.44273	0.96438	-4.47035	0.61032
5655.159	-4.57115	1.52454	-4.85354	-0.26498
5659.032	-5.07136	1.47805	-4.11893	-3.08930
5663.027	-2.96933	2.33712	-0.84501	-5.46795
5667.026	-3.92099	2.64604	-0.99506	-5.72897
5671.028	-5.53478	2.72894	-1.14494	-5.59547
5675.032	-6.20239	2.32265	-1.94590	-5.51536
5679.023	-6.63186	2.31735	-0.75327	-5.37686
5683.024	-3.20711	2.43118	0.97293	-4.54864
5687.037	-3.20770	2.86324	-1.64089	-3.05490
5691.032	-4.41112	0.46282	-1.77338	-2.68582
5695.031	-3.68246	1.73948	-3.56131	-3.57281
5699.034	-3.93174	1.64468	-3.24541	-8.89272
5703.029	-3.89426	2.14039	-2.64646	-8.87969
5707.023	-3.55046	3.12122	-3.30106	-5.90897
5711.027	-3.12640	2.91819	-3.56709	-7.77727
5715.026	-4.56244	2.07334	-5.33935	-5.53906
5719.027	-5.17373	2.45984	0.78868	-8.34565
5723.027	-3.84928	3.62375	1.30313	-6.24381
5727.032	-4.13562	2.73398	3.27076	-5.99723
5731.026	-3.54831	2.10894	0.79062	-5.03103
5735.027	-4.86150	1.72108	-3.61975	-7.76709
5739.021	-4.75805	2.34076	-0.49513	-3.05530
5743.027	-4.90782	2.45986	-4.18753	-5.65164
5747.029	-4.82870	0.60912	-3.78123	-7.09817
5751.030	-4.56279	0.91152	-3.56455	-7.94315
5755.031	-4.16156	0.59010	-5.02174	-7.70233
5759.025	-4.49225	0.97447	-4.66568	-7.80178
5763.028	-4.54185	1.78861	-4.12996	-8.01750
5767.034	-4.53302	1.90855	-5.06713	-7.56525
5771.036	-4.63040	3.11320	0.35640	-7.41492
5775.026	-4.79556	4.59108	0.23311	-7.48580
5779.027	-4.63999	2.21939	0.76888	-7.57570
5783.027	-4.41265	1.35378	-3.46535	-7.71579
5787.026	-3.94814	1.69461	-3.94394	-7.31884
5791.028	1.42327	1.72847	-5.55725	-7.74879
5795.030	-4.84299	1.06366	-5.59268	-7.46140
5799.027	-4.51087	1.25325	-5.23580	-8.06998
5803.022	2.35808	-1.46824	-4.13236	-8.64684
5807.033	2.56438	-1.32657	-2.22423	-9.04693
5811.031	-3.79020	0.79395	-3.30581	-2.96286
5815.032	-4.20647	0.75856	-2.95480	-3.23434
5819.030	-3.41338	0.21935	-1.96786	-3.90711
5823.053	-3.87040	1.08692	-2.48369	-3.93959
5827.021	-3.67979	1.27420	-3.07968	-4.43735
5831.025	-3.97558	2.23209	-3.81123	-4.46138
5835.027	-3.75613	3.19576	-2.84254	-5.23890
5839.027	-3.79764	2.85407	0.21894	-3.31309
5843.031	-3.95547	2.47221	1.71303	-3.53815
5847.024	-4.01786	1.66816	3.36433	-4.85650
5851.034	-4.07619	1.96436	3.62410	-6.03316
5855.022	-3.52395	1.76702	4.02942	-6.22955
5859.026	-4.08266	2.86420	2.43932	-5.08141
5863.025	-3.89313	3.11465	2.23744	-5.27973
5867.021	-3.58959	2.97019	-3.03638	-5.59917
5871.023	-4.49201	2.12963	-2.03848	-5.35247
5875.023	-3.53765	2.16189	1.25237	-0.10558
5879.029	-3.99240	2.81343	1.92699	-2.08706
5883.044	-4.29720	3.68250	-2.04232	-2.52427
5887.025	-4.53352	3.75085	-0.33593	-1.53605
5891.033	-3.92388	2.90810	1.21216	-2.22660
5895.031	-4.00739	2.84738	0.04363	-1.68454
5899.027	-4.27007	1.32895	-5.87803	-2.14669
5903.021	-3.79680	2.74739	-2.83677	-5.82982
5907.024	-5.69256	2.73331	-0.14804	-1.22763
5911.023	-5.88648	-1.77936	-5.30761	-0.57812
5915.024	-1.91806	4.22117	-2.02802	-0.53522
5919.024	0.27513	1.55136	8.70046	-5.13573
5923.028	3.98805	1.68138	5.48570	-4.69661
5927.027	3.98571	-0.17209	3.60959	-6.11671
5931.024	4.01527	0.42132	3.81755	-4.59031
5935.031	2.16530	-3.49374	-2.34126	-9.15272
5939.025	5.82886	-1.38977	1.72245	-3.80792
5943.027	6.40998	-0.88752	8.90158	-8.60835
5947.022	9.23667	-3.27223	8.68271	-6.73472
5951.026	9.00208	-5.63737	7.73692	-4.65665
5955.023	5.15950	-4.67832	6.07165	-4.91962
5959.026	8.64347	-3.99476	5.87248	-5.40576
5963.027	7.19185	-4.76599	7.92111	-7.63152
5967.024	6.25921	-4.15102	9.19205	-6.57049
5971.027	5.93318	-3.90383	8.65135	-7.98433
5975.032	5.18562	-0.00458	12.79782	-6.37104
5979.027	3.86674	-0.58263	10.65168	-7.27582
5983.018	4.92913	-0.55912	7.87888	-8.07341
5987.021	4.09532	-3.19792	7.52103	-7.51274
5991.024	3.72704	-4.04039	6.58171	-8.21473
5995.022	2.57508	-7.05505	6.19425	-7.75779
5999.023	7.80538	-3.43843	6.54345	-7.49592
6003.027	4.92031	-4.20504	6.26181	-5.61654
6007.026	4.13117	-4.52346	6.36366	-5.34986
6011.019	5.16300	-3.88177	6.28763	-5.52635
6015.029	3.61068	-3.79701	7.03883	-6.18869
6019.031	5.24622	-4.13112	6.91293	-5.51044
6023.028	5.22566	-2.83105	8.29625	-5.40471
6027.027	-0.47272	-4.88092	10.41095	-6.61842
6031.022	2.38593	-4.59263	10.43491	-6.80258
6035.030	NaN	NaN	-0.91706	-7.47905
6039.026	NaN	NaN	4.36604	-6.92443
6043.027	5.41460	-4.08960	5.96485	-6.43365
6047.067	6.96475	-2.83204	5.11748	-5.32661
6051.034	7.73996	-2.95627	6.63083	-5.06342
6055.359	6.98802	-4.49985	5.95727	-6.26790
6059.788	6.50303	-5.04604	7.24129	-0.33439
6063.029	5.14508	-2.35928	7.57742	-0.31150
6067.023	2.04178	-5.21218	4.55241	-3.85995
6071.021	3.69778	-4.47879	5.11169	-4.26173
6075.027	5.88068	-4.46239	6.21990	-4.30161
6079.022	5.23391	-4.20238	9.05758	-6.75221
6083.024	6.55444	-4.03122	9.28516	-7.14331
6087.020	5.84296	-4.11687	7.82898	-4.24828
6091.021	5.77394	-3.79795	7.49859	-6.61624
6095.025	4.70996	-3.77970	9.41622	-7.07417
6099.024	4.82764	-4.35298	4.37643	-7.01268
6103.026	6.61033	-2.92185	8.30031	-7.02888
6107.026	4.15275	-4.76179	7.68610	-6.49716
6111.022	4.44546	-4.82214	8.98499	-4.32056
6115.025	4.66874	-5.48354	7.13348	-4.61740
6119.021	3.29473	-5.78680	7.50971	-4.30880
6123.027	2.84011	-6.25462	7.41885	-5.34637
6127.021	4.45249	-3.69250	7.47573	-4.82034
6131.023	6.33579	-3.56742	6.12816	-4.29388
6135.027	6.32319	-3.45205	6.09248	-4.60431
6139.022	6.20175	-3.13052	6.37707	-3.80209
6143.023	4.41159	-2.92083	6.80277	-3.51064
6147.019	6.36104	-2.69565	6.85116	-3.12043
6151.022	4.28562	-3.21866	6.99345	-3.65624
6155.024	4.80081	-2.92902	6.97032	-3.35068
6159.032	4.55169	-3.28699	7.27172	-3.25169
6163.023	9.78869	-3.02019	7.26027	-2.70964
6167.021	6.61766	-2.64942	6.83012	-4.21032
6171.018	10.51916	-4.55988	7.35224	-3.85182
6175.020	5.57328	-2.78164	8.92069	-5.67888
6179.021	7.96324	-0.35531	10.18639	-4.57104
6183.025	7.08529	-1.49745	9.63042	-5.68905
6187.024	2.48210	-2.18691	5.77981	-3.95738
6191.025	6.81248	-2.14270	7.48080	-4.56646
6195.030	4.80332	-2.45997	7.00717	-4.30288
6199.020	5.35839	-1.71433	4.00778	-4.00142
6203.024	7.32312	-2.22495	4.73377	-3.31490
6207.021	7.28610	-1.65503	5.52187	-4.43512
6211.023	7.36037	-2.24211	5.30764	-5.36269
6215.020	5.55561	-2.07706	6.00577	-4.04483
6219.024	8.91197	-2.44357	9.57483	-3.49464
6223.021	8.74966	-1.64060	9.29746	-3.62191
6227.027	5.59939	-2.01933	5.27166	-2.90345
6231.020	5.29878	-2.92788	5.23893	-0.86649
6235.020	6.89240	-1.04484	9.31235	1.31193
6239.022	12.80490	-1.53080	9.37373	3.08231
6243.024	13.92681	-0.31470	9.75350	3.29436
6247.019	17.53335	-0.36601	3.09367	0.99150
6251.023	NaN	NaN	NaN	NaN
6255.029	NaN	NaN	NaN	NaN
6259.024	NaN	NaN	NaN	NaN
6263.038	NaN	NaN	NaN	NaN
6267.025	NaN	NaN	NaN	NaN
6271.021	NaN	NaN	NaN	NaN
6275.028	NaN	NaN	-7.28537	14.95166
6279.013	NaN	NaN	NaN	NaN
6283.023	NaN	NaN	NaN	NaN
6287.019	NaN	NaN	NaN	NaN
6291.015	NaN	NaN	NaN	NaN
6297.045	NaN	NaN	NaN	NaN
6307.019	NaN	NaN	NaN	NaN
6311.025	NaN	NaN	NaN	NaN
6315.014	NaN	NaN	NaN	NaN
6319.022	NaN	NaN	NaN	NaN
6323.028	NaN	NaN	NaN	NaN
6327.016	NaN	NaN	NaN	NaN
6331.014	NaN	NaN	NaN	NaN
6335.012	NaN	NaN	NaN	NaN
6339.014	NaN	NaN	NaN	NaN
6343.083	NaN	NaN	NaN	NaN
6347.227	NaN	NaN	NaN	NaN
6351.207	21.95923	-1.31456	NaN	NaN
6355.229	NaN	NaN	NaN	NaN
6359.291	20.28360	-5.44638	NaN	NaN
6364.357	21.57688	-5.13714	NaN	NaN
6368.471	NaN	NaN	NaN	NaN
6372.468	NaN	NaN	NaN	NaN
6376.417	NaN	NaN	NaN	NaN
6380.175	20.93249	-0.43198	NaN	NaN
6384.159	NaN	NaN	NaN	NaN
6388.261	NaN	NaN	NaN	NaN
6392.149	NaN	NaN	NaN	NaN
6395.951	NaN	NaN	NaN	NaN
6399.951	20.04488	-3.10026	NaN	NaN
6404.114	18.46603	0.25877	NaN	NaN
6407.960	18.38799	-2.29152	NaN	NaN
6412.128	18.50909	-0.93297	NaN	NaN
6415.784	NaN	NaN	NaN	NaN
6419.427	18.17024	-7.16768	NaN	NaN
6423.043	18.44781	-4.54528	NaN	NaN
6427.022	NaN	NaN	NaN	NaN
6432.103	NaN	NaN	NaN	NaN
6435.955	NaN	NaN	NaN	NaN
6439.773	NaN	NaN	NaN	NaN
6443.471	NaN	NaN	NaN	NaN
6447.557	NaN	NaN	NaN	NaN
6451.271	19.57152	-0.49898	NaN	NaN
6455.279	19.02679	-1.98807	NaN	NaN
6459.275	17.84777	-0.41203	NaN	NaN
6463.025	19.07119	-2.85553	NaN	NaN
6467.019	18.34732	-3.94985	NaN	NaN
6471.026	18.94833	-1.02176	NaN	NaN
6475.021	19.68018	-1.90882	NaN	NaN
6479.050	NaN	NaN	NaN	NaN
6483.016	19.28200	-3.94698	NaN	NaN
6487.014	19.70409	-2.16464	NaN	NaN
6491.092	22.18383	-4.54552	NaN	NaN
6495.021	18.95486	-0.90855	NaN	NaN
6499.575	18.69820	-5.62141	NaN	NaN
6503.200	NaN	NaN	NaN	NaN
6507.022	18.27308	-0.81172	NaN	NaN
6511.014	NaN	NaN	NaN	NaN
6514.887	20.99296	-0.83530	NaN	NaN
6518.889	NaN	NaN	NaN	NaN
6522.893	17.10208	-4.21265	NaN	NaN
6526.888	NaN	NaN	NaN	NaN
6530.884	18.69884	-0.83162	NaN	NaN
6534.965	20.08554	-1.98376	NaN	NaN
6539.220	18.97829	-1.01047	NaN	NaN
6543.360	20.48169	-1.89867	NaN	NaN
6547.499	NaN	NaN	NaN	NaN
6551.143	23.27714	-5.50564	NaN	NaN
6554.895	22.80368	-5.53950	NaN	NaN
6558.903	NaN	NaN	NaN	NaN
6562.886	22.75562	-4.03693	NaN	NaN
6567.318	18.59905	-0.99626	NaN	NaN
6570.918	19.85013	-2.77302	NaN	NaN
6574.894	16.07588	-0.54697	NaN	NaN
6578.887	18.68838	-2.04164	NaN	NaN
6582.884	7.41939	-12.45335	NaN	NaN
6586.888	18.03033	-2.83327	NaN	NaN
6590.888	18.61037	-3.76476	NaN	NaN
6594.885	12.06290	-2.22427	NaN	NaN
6598.884	18.47238	-1.68827	NaN	NaN
6602.888	15.72439	-2.33848	NaN	NaN
6606.896	15.90649	-2.43502	NaN	NaN
6610.890	18.11365	-1.79424	NaN	NaN
6614.884	16.01220	-0.42097	NaN	NaN
6618.887	17.77432	-2.21395	NaN	NaN
6622.889	-19.99372	-11.87309	NaN	NaN
6626.892	NaN	NaN	NaN	NaN
6630.906	NaN	NaN	NaN	NaN
6634.896	NaN	NaN	NaN	NaN
6638.895	NaN	NaN	NaN	NaN
6642.881	NaN	NaN	NaN	NaN
6646.885	NaN	NaN	NaN	NaN
6650.888	NaN	NaN	NaN	NaN
6654.883	NaN	NaN	NaN	NaN
6658.878	NaN	NaN	NaN	NaN
6662.885	NaN	NaN	NaN	NaN
6666.882	NaN	NaN	NaN	NaN
6670.878	NaN	NaN	NaN	NaN
6674.915	NaN	NaN	NaN	NaN
6678.882	NaN	NaN	NaN	NaN
6682.881	NaN	NaN	NaN	NaN
6686.877	NaN	NaN	NaN	NaN
6690.885	NaN	NaN	NaN	NaN
6694.901	NaN	NaN	NaN	NaN
6698.887	NaN	NaN	NaN	NaN
6702.889	NaN	NaN	NaN	NaN
6706.887	NaN	NaN	NaN	NaN
6710.885	NaN	NaN	NaN	NaN
6835.933	NaN	NaN	NaN	NaN
6885.595	NaN	NaN	NaN	NaN
6953.297	15.62807	1.57000	22.29801	-0.77742
6957.033	13.00280	1.14062	21.19762	1.86468
6961.025	13.90691	1.65644	21.81172	1.22383
6965.015	12.96654	0.58132	21.85151	0.88392
6969.007	14.52249	2.84527	21.89403	1.41407
6973.014	18.23461	-0.68979	21.72884	0.87332
6977.013	19.02451	-2.94664	14.70818	1.70921
6981.007	18.52226	-2.64249	19.07225	-0.26576
6985.001	18.13302	-1.38888	20.57139	-0.22322
6989.005	15.75870	1.34159	19.24489	-0.46540
6993.008	16.06600	1.13846	17.95786	1.18488
6997.022	12.91503	1.57631	20.77955	-0.74777
7001.010	13.78286	-0.00053	19.15412	1.03260
7005.037	14.43934	1.61671	20.34423	-0.68100
7009.008	16.03024	1.09932	20.48653	-0.66883
7013.023	15.96092	1.23539	20.66546	-1.09781
7017.013	15.80220	1.37449	20.37106	-0.63674
7021.004	15.90979	1.17159	20.68571	-0.81848
7025.005	15.88968	1.08217	20.70363	-0.20750
7029.004	16.56868	0.73623	21.07883	0.01006
7033.010	17.38916	0.47948	21.37028	0.30238
7037.007	14.92523	-2.85363	21.60375	0.37323
7041.012	15.30630	-2.84282	21.22430	0.21628
7045.004	15.32142	-2.77553	21.47326	-0.36820
7049.009	13.92629	-1.67433	21.46043	0.18013
7053.005	15.22126	-2.92716	21.38550	0.57020
7057.013	14.23209	0.45486	21.32044	0.57754
7061.008	14.59877	0.61630	21.29485	-1.07151
7065.009	14.31013	0.41243	21.36115	0.47315
7069.009	14.65841	0.36332	20.68006	-0.03936
7073.004	14.99304	0.59151	21.04042	-0.66267
7077.009	14.91629	1.82905	20.38984	-0.44941
7081.006	15.03358	1.94636	13.45904	2.59612
7085.009	16.01821	0.67759	14.15596	1.97324
7089.001	14.66366	1.96715	20.07105	0.55321
7093.005	13.33104	2.05124	18.33429	1.60319
7097.010	13.34054	-4.57757	18.57867	1.41332
7101.012	15.14500	-4.39945	19.95321	-0.54178
7105.011	15.40952	1.65592	20.15101	-0.76087
7109.004	15.80824	-0.53938	15.86930	1.88825
7113.010	15.76853	1.95815	20.71277	0.42085
7117.005	12.88645	-0.40639	20.66140	1.23378
7121.007	15.21268	2.18505	20.06903	1.16214
7125.003	14.84603	1.92735	18.70470	0.71997
7129.009	14.95737	2.06068	18.10968	1.52833
7133.022	15.48506	1.84994	19.39701	1.30447
7137.008	20.49568	-4.41178	15.68111	2.08198
7141.016	19.58591	-4.53315	14.04500	2.51821
7145.007	15.13769	1.61682	14.41778	2.87311
7149.001	15.04221	1.80346	13.66943	3.28383
7153.009	17.51361	-3.30948	19.94904	1.30110
7157.004	20.55331	-4.30255	15.33444	3.29484
7161.042	14.13841	2.07895	14.67323	2.99233
7165.017	15.64910	-1.38421	20.34227	0.55935
7169.002	16.39397	-4.23120	10.92894	3.20204
7173.005	20.90618	-7.43718	13.60960	3.25943
7177.005	12.21411	4.26599	2.81457	1.14694
7181.014	12.27976	-0.75567	1.77511	0.02951
7185.006	7.15863	4.05670	3.91133	3.62053
7189.008	4.47348	1.35902	1.87460	1.71391
7193.010	4.43485	3.50640	1.74097	4.10081
7197.018	-0.30918	-0.60447	3.89261	-0.12723
7201.008	0.76675	3.70821	-1.12040	3.55751
7205.004	-1.62247	4.44256	-3.46832	3.92135
7209.003	-2.60535	4.79911	-0.96611	-0.26771
7213.008	-2.65798	5.65400	-1.24451	0.92662
7217.005	-4.92110	5.88807	-1.25969	-0.32889
7221.008	-3.40341	5.35845	-1.23139	-0.48948
7225.007	-2.95772	4.65544	-3.72052	0.74042
7229.022	-3.93310	4.21640	-1.75912	4.32943
7233.010	-2.54640	4.73886	-2.05259	0.61164
7237.004	-2.97208	5.03090	-1.74350	0.87404
7241.011	-3.14469	4.97664	-4.02594	1.11070
7245.041	-3.11675	5.06460	-1.65664	-0.00763
7249.006	-3.14929	5.86360	-2.21648	4.08838
7253.000	-2.93661	4.63704	-4.01443	0.07365
7257.018	-2.72489	4.27816	-1.97223	4.01580
7261.005	-2.57964	4.75173	-1.55755	2.70232
7265.012	-3.12007	4.77302	-3.32432	2.26383
7269.007	-2.94839	4.77675	-4.20543	4.44067
7273.005	-2.67964	5.77850	-3.35813	4.79385
7276.997	-2.63450	6.08143	-4.11231	3.46103
7281.007	-2.58212	4.53717	-3.99181	4.43771
7285.003	-2.70743	4.48121	-3.84219	4.10503
7289.003	-2.45423	4.70137	-4.00245	4.23713
7293.000	3.66352	-1.30412	-5.99578	-3.94975
7297.039	-2.46275	6.06549	-4.74057	-0.94803
7301.008	-2.38506	6.54808	-4.08063	4.25947
7305.004	-2.17440	4.91387	-3.95950	4.33117
7309.007	-2.47563	4.95908	-3.73717	4.23458
7313.006	-2.27637	4.99791	-6.08490	-1.21235
7317.000	-1.88043	6.23518	-4.75290	4.14875
7321.003	-2.59688	5.66718	-3.79062	4.24423
7325.001	-2.50724	6.85109	-3.39352	4.27782
7328.997	3.78585	0.63948	-3.84441	4.28211
7333.006	-2.10183	5.35686	-3.00752	4.33401
7337.003	-2.72625	5.61637	-6.07228	-2.76285
7341.004	-1.29908	6.44563	-4.23224	0.46861
7344.999	-2.76329	5.85995	-5.38784	0.89945
7349.011	-1.41975	6.74232	-5.92208	0.94456
7353.003	-1.00548	5.11558	-4.80019	1.11296
7357.004	-3.24165	5.23449	-5.20797	2.87045
7360.999	-1.28782	5.59854	-5.50599	-3.24015
7365.022	-1.29375	6.08107	-2.04602	4.76209
7369.006	-2.63180	6.55198	-5.55907	-3.68723
7373.004	3.32295	3.32853	-5.90850	2.40100
7376.996	-0.08773	1.18101	-7.74220	1.82852
7381.005	-0.65640	3.54345	-4.71518	2.76559
7385.002	3.18009	0.58854	-6.00717	5.38765
7389.001	-0.80712	4.24317	-4.32442	2.98144
7393.008	-1.02546	3.71382	-4.94763	5.49050
7397.024	-0.92696	4.69350	-7.35029	-1.21666
7401.004	-0.15655	3.73451	-4.76591	5.57053
7404.999	-1.21705	2.67257	-5.47872	4.83733
7409.000	2.86041	1.49793	-4.33049	5.62674
7413.002	1.83690	0.88701	-5.24811	5.36565
7416.995	1.75166	3.27617	-5.78637	4.98946
7420.998	-5.20632	5.39753	-5.51713	3.46701
7425.001	0.15930	1.30472	-7.13158	3.73309
7429.002	-3.40808	5.94990	-7.48188	0.24807
7433.054	1.49599	1.57363	-6.50158	3.41707
7437.006	-1.33128	6.03622	-5.50378	4.17551
7441.006	-1.02548	5.19577	-6.88595	2.43085
7445.001	-1.46693	4.75752	-6.35677	3.39107
7448.997	-2.13140	1.96592	-5.48499	3.94265
7452.996	0.64841	3.04830	-4.91279	1.95496
7457.002	-1.87032	5.46488	-5.09133	3.46839
7460.999	-2.71785	4.34193	-5.09199	3.22413
7465.002	-1.62495	4.39534	-5.23950	3.25082
7468.997	-2.48445	3.36214	-2.29755	0.79165
7473.007	-2.21568	4.10402	-4.95999	3.61863
7476.999	-3.27180	1.96333	-5.10325	2.43956
7480.998	-3.85526	5.74436	-2.32957	1.16904
7484.997	-3.95056	6.08456	-4.49837	3.08411
7489.002	-0.66010	2.84216	-4.42099	2.65680
7492.997	-0.17960	3.45623	-4.88468	3.03483
7496.996	-2.89564	5.71843	-4.31361	2.18529
7501.029	-4.13665	5.67355	-4.03105	2.36823
7505.004	0.75784	3.26813	-3.45114	2.90059
7509.008	-4.00877	6.10017	-3.93455	2.04891
7512.998	2.84452	3.49408	-2.33393	0.88780
7517.004	-0.39455	3.18033	-2.60666	1.32876
7521.003	-0.33742	4.48708	-3.30883	2.27254
7525.002	1.19681	5.15370	-3.79833	3.21147
7528.994	-0.48277	0.60580	-4.78693	1.73948
7533.002	-0.29064	3.28038	-2.66555	1.97090
7536.998	-3.42317	5.34629	-2.85710	3.02336
7541.000	-1.14275	1.48113	-3.82324	2.47138
7544.998	-4.16107	4.57912	-4.84154	2.31810
7549.001	-4.75331	5.30048	-2.65052	2.02339
7552.998	-3.30987	5.14292	-2.55470	1.70370
7557.005	0.90006	1.96503	-5.74876	2.83279
7560.997	-0.05524	4.96714	-5.21437	2.66938
7565.001	-0.17874	3.83914	-4.10236	3.52051
7569.011	1.53228	4.41211	-4.36187	2.76116
7572.997	0.49302	4.04796	-4.97997	3.16702
7577.002	-4.24520	4.36725	-2.96881	4.03682
7580.997	-4.13838	4.81940	-5.72662	2.48882
7585.000	-4.03070	4.42602	-4.17746	4.75178
7588.996	-3.22537	5.00048	-3.97180	4.22836
7593.002	0.60322	0.85194	-4.78715	3.26827
7596.999	-2.71822	4.99363	-3.34972	3.19054
7601.002	-2.87418	3.68049	-4.28323	2.60770
7604.997	-3.72541	5.18223	-3.09701	2.45435
7608.999	1.07383	3.87669	-5.72475	2.76922
7612.998	1.46836	5.02284	-2.66808	1.95875
7616.991	0.60791	4.62463	-3.03761	2.59932
7620.995	1.61805	3.57882	-2.89114	1.84375
7624.999	1.87527	0.69304	-2.81362	0.55385
7628.996	-3.80873	4.40717	-2.56275	1.88862
7633.015	-3.73636	3.03382	-4.55140	2.14336
7637.006	-3.97558	5.26475	-2.81152	2.59657
7641.012	-3.91660	5.04980	-2.77973	2.35869
7645.001	-3.95194	4.35130	-2.11175	2.07316
7649.001	-3.89545	4.37054	-2.10406	2.13802
7652.995	-6.29528	3.27046	-1.81647	1.11227
7657.032	1.97213	3.00452	-5.06942	3.15940
7660.995	-0.96554	1.41204	-4.84585	2.83495
7664.998	1.79105	3.20307	-3.94038	2.72618
7668.994	-3.80522	4.76581	-3.51683	2.04874
7672.999	-3.44520	5.36367	-4.05601	2.37491
7676.996	3.17646	2.60804	-4.14216	2.47324
7680.999	-3.82805	6.23489	-4.16334	2.33310
7684.998	-3.97676	5.39148	-5.15054	2.30376
7688.999	-2.13418	5.66379	-5.74841	2.64324
7693.006	0.26979	4.05660	-1.68027	2.86182
7697.000	-3.98082	5.63388	-2.24111	0.97139
7700.995	-3.52116	5.56296	-3.87532	2.08357
7705.024	-4.05026	5.50536	-3.02155	1.70255
7708.875	1.55693	3.66827	-2.95992	1.92143
7712.864	-2.44090	1.44076	-3.56393	2.91783
7716.873	-3.82418	5.30881	-6.31777	2.69932
7720.871	-2.63861	2.13789	-3.47156	3.18939
7724.872	-2.80436	5.80888	-4.86276	3.71767
7728.872	-2.68286	5.68812	-3.27813	1.66535
7732.873	-2.78463	5.44025	-3.27334	3.14087
7736.969	NaN	NaN	NaN	NaN
7744.873	1.95857	0.45310	-4.31521	6.14048
7748.867	2.27503	0.56920	-3.44918	3.29734
7752.874	-3.79593	5.77617	-3.76794	3.07780
7756.882	-3.90516	5.97856	-3.90400	3.33273
7760.872	-2.87586	2.70371	-3.54734	3.32216
7764.874	-2.93035	5.87119	-3.56549	2.55411
7768.876	-2.92804	6.56558	-3.87223	3.04877
7772.901	-3.21317	6.29718	-3.79692	1.40614
7776.882	-2.89223	5.19865	-4.22809	2.64016
7780.865	2.35231	3.21018	-3.52761	2.98325
7784.873	-4.71398	0.28896	-3.57088	1.69941
7788.868	-3.15112	1.61320	-3.46132	1.28866
7792.874	-3.28810	2.78028	-2.79127	2.02977
7796.870	-5.04614	6.06232	-3.26213	0.58976
7800.868	0.75538	2.42689	-2.77347	0.57005
7804.879	-0.67173	4.87095	-4.66593	1.31697
7808.867	0.87136	2.94948	-3.93552	1.83350
7812.873	-0.97527	1.96563	-4.03157	1.97811
7816.873	0.61742	2.19472	-4.07804	2.08234
7820.870	1.28070	1.94748	-3.85854	1.65305
7824.871	-0.04926	4.45853	-2.07970	2.17218
7828.863	1.96568	1.02615	-3.84194	1.62737
7832.867	-1.59777	4.30345	-4.39669	2.33170
7836.869	-0.60749	3.42320	-4.38176	0.14596
7840.885	1.88521	4.63829	-6.80056	2.55343
7844.870	3.38869	1.29774	-3.39963	2.54938
7848.868	0.41668	0.80919	-4.26037	2.84897
7852.875	-0.00355	2.10346	-6.55538	3.72370
7856.869	2.01555	1.65240	-4.35849	1.48311
7860.863	2.64698	3.05988	-4.42185	2.09020
7864.873	2.82699	4.30652	-5.72016	0.30330
7868.869	2.59415	4.32970	-5.77956	1.59006
7872.868	1.72272	4.89546	-6.86310	2.85359
7876.886	1.22896	2.95841	-4.63639	3.95867
7880.879	2.61397	2.38511	-6.36410	3.48933
7884.874	-2.29077	2.32017	-5.77713	3.95622
7888.867	3.09921	0.79173	-5.98346	1.95003
7892.867	2.40369	4.90966	-7.81980	-4.57703
7896.870	1.78634	3.53534	-6.09746	2.03086
7900.872	2.48854	2.98438	-6.77418	1.94143
7904.866	2.33063	3.33115	-6.66912	0.35098
7908.863	2.15698	0.38848	-4.85637	4.53888
7912.869	2.43501	0.42602	-5.65764	3.90831
7916.860	3.29290	0.39320	-3.60071	-1.77113
7920.865	7.84606	-6.92343	-3.53602	1.91035
7924.866	NaN	NaN	-6.56931	1.56734
7928.864	2.63698	14.10869	-4.45779	2.18138
7932.862	NaN	NaN	5.05383	-7.10094
7936.874	NaN	NaN	NaN	NaN
7940.870	NaN	NaN	NaN	NaN
7944.866	NaN	NaN	NaN	NaN
7948.870	NaN	NaN	NaN	NaN
7952.865	NaN	NaN	NaN	NaN
7956.880	NaN	NaN	NaN	NaN
7960.864	NaN	NaN	NaN	NaN
7964.861	NaN	NaN	NaN	NaN
7968.862	NaN	NaN	NaN	NaN
7972.865	NaN	NaN	NaN	NaN
7977.138	NaN	NaN	NaN	NaN
7980.867	NaN	NaN	NaN	NaN
7984.870	NaN	NaN	NaN	NaN
7988.861	NaN	NaN	NaN	NaN
7992.865	NaN	NaN	NaN	NaN
7996.866	NaN	NaN	NaN	NaN
8000.862	NaN	NaN	NaN	NaN
8004.876	NaN	NaN	NaN	NaN
8008.870	NaN	NaN	NaN	NaN
8012.868	NaN	NaN	NaN	NaN
8018.226	NaN	NaN	NaN	NaN
8028.867	NaN	NaN	NaN	NaN
8032.878	NaN	NaN	NaN	NaN
8036.867	NaN	NaN	NaN	NaN
8040.865	NaN	NaN	NaN	NaN
8044.867	NaN	NaN	NaN	NaN
8048.864	NaN	NaN	NaN	NaN
8052.860	NaN	NaN	NaN	NaN
8056.869	NaN	NaN	NaN	NaN
8060.871	NaN	NaN	NaN	NaN
8064.867	NaN	NaN	NaN	NaN
8068.862	NaN	NaN	NaN	NaN
8073.490	NaN	NaN	NaN	NaN
8080.869	NaN	NaN	NaN	NaN
8084.876	NaN	NaN	NaN	NaN
8088.895	NaN	NaN	NaN	NaN
8092.859	NaN	NaN	NaN	NaN
8096.861	NaN	NaN	NaN	NaN
8100.860	NaN	NaN	NaN	NaN
8104.862	NaN	NaN	NaN	NaN
8108.857	NaN	NaN	NaN	NaN
8112.886	NaN	NaN	NaN	NaN
8116.870	NaN	NaN	NaN	NaN
8120.861	NaN	NaN	NaN	NaN
8124.859	NaN	NaN	NaN	NaN
8128.857	NaN	NaN	NaN	NaN
8132.862	NaN	NaN	NaN	NaN
8136.858	NaN	NaN	NaN	NaN
8140.857	NaN	NaN	NaN	NaN
8144.867	NaN	NaN	NaN	NaN
8148.859	NaN	NaN	NaN	NaN
8152.858	NaN	NaN	NaN	NaN
8156.861	NaN	NaN	NaN	NaN
8160.865	NaN	NaN	NaN	NaN
8164.857	NaN	NaN	NaN	NaN
8168.856	NaN	NaN	NaN	NaN
8172.859	NaN	NaN	NaN	NaN
8176.860	NaN	NaN	NaN	NaN
8180.883	NaN	NaN	NaN	NaN
8184.871	NaN	NaN	NaN	NaN
8188.869	NaN	NaN	NaN	NaN
8192.859	NaN	NaN	NaN	NaN
8196.861	NaN	NaN	NaN	NaN
8200.861	NaN	NaN	NaN	NaN
8204.861	NaN	NaN	NaN	NaN
8208.861	NaN	NaN	NaN	NaN
8212.860	NaN	NaN	NaN	NaN
8216.859	NaN	NaN	NaN	NaN
8220.860	NaN	NaN	NaN	NaN
8224.858	NaN	NaN	NaN	NaN
8228.872	NaN	NaN	NaN	NaN
8232.860	NaN	NaN	NaN	NaN
8236.863	NaN	NaN	NaN	NaN
8240.860	NaN	NaN	NaN	NaN
8244.861	NaN	NaN	NaN	NaN
8248.885	NaN	NaN	NaN	NaN
8252.863	NaN	NaN	NaN	NaN
8256.897	NaN	NaN	NaN	NaN
8260.896	NaN	NaN	NaN	NaN
8264.860	NaN	NaN	NaN	NaN
8268.864	NaN	NaN	NaN	NaN
8272.869	NaN	NaN	NaN	NaN
8276.861	NaN	NaN	NaN	NaN
8280.859	NaN	NaN	NaN	NaN
8284.860	NaN	NaN	NaN	NaN
8288.884	NaN	NaN	NaN	NaN
8292.860	NaN	NaN	NaN	NaN
8296.855	NaN	NaN	NaN	NaN
8300.859	NaN	NaN	NaN	NaN
8304.861	NaN	NaN	NaN	NaN
8308.859	NaN	NaN	NaN	NaN
8312.859	NaN	NaN	NaN	NaN
8316.878	NaN	NaN	NaN	NaN
8320.880	NaN	NaN	NaN	NaN
8324.859	NaN	NaN	NaN	NaN
8328.855	NaN	NaN	NaN	NaN
8332.853	NaN	NaN	NaN	NaN
8336.856	NaN	NaN	NaN	NaN
8465.707	NaN	NaN	NaN	NaN
8515.439	NaN	NaN	NaN	NaN
8565.550	NaN	NaN	NaN	NaN
8615.555	NaN	NaN	NaN	NaN
8665.583	NaN	NaN	NaN	NaN
8715.546	NaN	NaN	NaN	NaN
8765.550	NaN	NaN	NaN	NaN
8815.669	NaN	NaN	NaN	NaN
8865.677	NaN	NaN	NaN	NaN
8933.387	10.33348	6.89116	13.59321	4.09039
8937.547	10.74851	7.77556	10.55176	6.40467
8941.108	10.48795	10.94901	11.46504	8.27989
8945.103	10.57253	11.81508	15.77035	-0.61712
8949.099	12.65035	7.92654	8.16041	10.37756
8953.097	10.72838	12.69907	13.63965	5.50094
8957.096	12.73177	6.84713	10.07117	10.33921
8961.102	10.14876	8.98994	15.70471	2.32543
8965.102	16.51381	4.70108	8.56651	10.93348
8969.103	12.92222	10.61394	15.73826	-0.46131
8973.100	10.53027	7.74287	8.70939	10.81699
8977.095	10.12272	12.77456	8.78510	6.33284
8981.096	15.79554	2.78593	12.12805	5.47932
8985.102	9.82872	11.72215	8.53853	12.30955
8989.096	8.28242	10.53876	9.79520	10.59823
8993.097	7.88843	14.06312	10.53269	6.68461
8997.096	10.40188	7.84471	8.36746	10.65707
9001.102	9.90460	4.07569	13.22857	5.67109
9005.102	7.93971	10.26402	9.51409	11.39954
9009.117	6.51532	10.55708	8.82768	11.45148
9013.106	9.58811	13.61200	5.58774	11.99870
9017.099	NaN	NaN	12.79352	11.62336
9021.094	NaN	NaN	13.40819	11.67697
9025.102	13.75544	9.85762	13.66130	12.81729
9029.098	NaN	NaN	14.04108	12.30758
9033.099	NaN	NaN	NaN	NaN
9037.095	NaN	NaN	NaN	NaN
9041.101	NaN	NaN	NaN	NaN
9045.097	NaN	NaN	NaN	NaN
9049.102	NaN	NaN	NaN	NaN
9053.100	NaN	NaN	NaN	NaN
9057.127	NaN	NaN	NaN	NaN
9061.099	NaN	NaN	NaN	NaN
9066.463	NaN	NaN	NaN	NaN
9077.103	NaN	NaN	NaN	NaN
9081.136	NaN	NaN	NaN	NaN
9085.279	NaN	NaN	NaN	NaN
9090.968	NaN	NaN	NaN	NaN
9095.272	NaN	NaN	NaN	NaN
9101.099	NaN	NaN	NaN	NaN
9105.097	NaN	NaN	NaN	NaN
9109.096	NaN	NaN	NaN	NaN
9113.099	NaN	NaN	NaN	NaN
9117.098	NaN	NaN	NaN	NaN
9121.097	NaN	NaN	NaN	NaN
9125.095	NaN	NaN	NaN	NaN
9129.096	NaN	NaN	NaN	NaN
9133.102	NaN	NaN	NaN	NaN
9137.098	NaN	NaN	NaN	NaN
9141.116	NaN	NaN	NaN	NaN
9145.099	NaN	NaN	NaN	NaN
9149.095	NaN	NaN	NaN	NaN
9153.103	NaN	NaN	NaN	NaN
9158.210	NaN	NaN	NaN	NaN
9169.098	NaN	NaN	NaN	NaN
9173.117	NaN	NaN	NaN	NaN
9177.102	NaN	NaN	NaN	NaN
9181.097	NaN	NaN	NaN	NaN
9185.093	NaN	NaN	NaN	NaN
9189.095	NaN	NaN	NaN	NaN
9193.096	NaN	NaN	NaN	NaN
9197.095	NaN	NaN	NaN	NaN
9201.099	NaN	NaN	NaN	NaN
9205.094	NaN	NaN	NaN	NaN
9209.535	NaN	NaN	NaN	NaN
9213.277	NaN	NaN	NaN	NaN
9217.104	NaN	NaN	NaN	NaN
9221.092	NaN	NaN	NaN	NaN
9225.098	NaN	NaN	NaN	NaN
9229.092	NaN	NaN	NaN	NaN
9233.092	NaN	NaN	NaN	NaN
9237.094	NaN	NaN	NaN	NaN
9241.100	NaN	NaN	NaN	NaN
9245.094	NaN	NaN	NaN	NaN
9249.094	NaN	NaN	NaN	NaN
9253.097	NaN	NaN	NaN	NaN
9257.108	NaN	NaN	NaN	NaN
9261.098	NaN	NaN	NaN	NaN
9265.093	NaN	NaN	NaN	NaN
9269.095	NaN	NaN	NaN	NaN
9273.092	NaN	NaN	NaN	NaN
9277.674	NaN	NaN	NaN	NaN
9281.430	NaN	NaN	NaN	NaN
9285.150	NaN	NaN	NaN	NaN
9289.095	NaN	NaN	NaN	NaN
9293.090	NaN	NaN	NaN	NaN
9297.098	NaN	NaN	NaN	NaN
9301.098	NaN	NaN	NaN	NaN
9305.089	NaN	NaN	NaN	NaN
9309.092	NaN	NaN	NaN	NaN
9313.094	NaN	NaN	NaN	NaN
9317.091	NaN	NaN	NaN	NaN
9321.112	NaN	NaN	NaN	NaN
9325.099	NaN	NaN	NaN	NaN
9329.092	NaN	NaN	NaN	NaN
9333.092	NaN	NaN	NaN	NaN
9337.089	NaN	NaN	NaN	NaN
9341.098	NaN	NaN	NaN	NaN
9345.310	NaN	NaN	NaN	NaN
9349.097	NaN	NaN	NaN	NaN
9353.096	NaN	NaN	NaN	NaN
9357.091	NaN	NaN	NaN	NaN
9361.092	NaN	NaN	NaN	NaN
9365.095	NaN	NaN	NaN	NaN
9369.091	NaN	NaN	NaN	NaN
9373.091	NaN	NaN	NaN	NaN
9377.095	NaN	NaN	NaN	NaN
9381.100	NaN	NaN	NaN	NaN
9385.096	NaN	NaN	NaN	NaN
9389.103	NaN	NaN	NaN	NaN
9393.090	NaN	NaN	NaN	NaN
9397.093	NaN	NaN	NaN	NaN
9401.106	NaN	NaN	NaN	NaN
9405.093	NaN	NaN	NaN	NaN
9409.097	NaN	NaN	NaN	NaN
9413.667	NaN	NaN	NaN	NaN
9417.544	NaN	NaN	NaN	NaN
9421.340	NaN	NaN	NaN	NaN
9425.088	NaN	NaN	NaN	NaN
9429.103	NaN	NaN	NaN	NaN
9433.094	NaN	NaN	NaN	NaN
9437.091	NaN	NaN	NaN	NaN
9441.090	NaN	NaN	NaN	NaN
9590.006	NaN	NaN	NaN	NaN
9657.499	NaN	NaN	NaN	NaN
9661.239	NaN	NaN	NaN	NaN
9665.087	NaN	NaN	NaN	NaN
9669.079	NaN	NaN	NaN	NaN
9673.090	NaN	NaN	NaN	NaN
9677.083	NaN	NaN	NaN	NaN
9681.084	NaN	NaN	NaN	NaN
9685.077	NaN	NaN	NaN	NaN
9689.087	NaN	NaN	NaN	NaN
9693.105	NaN	NaN	NaN	NaN
9697.093	NaN	NaN	NaN	NaN
9701.086	NaN	NaN	NaN	NaN
9705.085	NaN	NaN	NaN	NaN
9709.078	-4.14804	5.01389	-4.32180	3.10322
9713.092	2.59344	2.11320	-2.68787	2.43561
9717.090	2.48423	1.16402	-3.10653	2.25398
9721.086	2.34934	2.03102	-4.24793	3.94729
9725.085	-3.02410	4.63766	-4.79033	2.33605
9729.108	-2.94639	4.12655	-3.69850	1.46850
9733.084	2.53593	1.07258	-2.99039	3.46342
9737.085	-4.09878	4.38420	-5.26433	1.29940
9741.086	3.16070	1.99884	-8.05974	-2.66085
9745.088	2.98166	0.90304	-2.37069	2.63481
9749.083	-3.62845	4.06364	-5.13592	2.67426
9753.089	-3.44481	4.60245	-3.77688	3.23177
9757.107	-3.57508	4.85838	-2.40104	4.29402
9761.086	-3.64439	3.93926	-4.76384	2.59397
9765.088	-3.57538	4.11804	-3.47045	5.12556
9769.085	-1.59757	0.94352	-3.06320	5.35101
9773.091	-3.78182	3.90857	-2.54866	5.44284
9777.090	-3.50845	4.00548	-4.01497	4.75190
9781.084	-3.79183	1.91441	-2.75294	2.73319
9785.088	-3.07728	4.43973	-4.11268	2.57278
9789.082	2.75554	1.19719	-5.78880	2.82531
9793.084	-3.73819	5.06655	-3.42317	3.15478
9797.087	-3.16042	4.59691	-3.82101	2.38786
9801.092	2.69433	0.53866	-3.89646	3.37374
9805.082	-3.19553	4.11681	-2.44229	0.70055
9809.088	-3.04212	5.19091	-4.11676	1.35217
9813.086	2.50063	0.30173	-2.87274	0.70804
9817.087	-2.87450	4.87435	-3.19479	-3.57282
9821.087	-3.98901	5.12169	-4.11127	4.33815
9825.085	-2.93713	4.85179	-3.43190	0.49866
9829.087	2.44950	4.01182	-4.37320	-0.70224
9833.083	-2.92733	4.81189	-4.32103	2.28033
9837.088	-2.46736	1.48687	-4.53961	1.44457
9841.090	2.47256	1.10539	-4.13066	0.17530
9845.088	-3.21733	5.06911	-4.58074	2.07210
9849.082	-2.84257	5.03382	-3.91603	2.36188
9853.087	2.58784	0.74594	-4.82565	2.49654
9857.088	2.45963	1.88200	-1.02484	2.16137
9861.088	-3.00153	4.95438	-4.74878	5.06602
9865.087	2.98453	1.27439	-1.45879	-0.55277
9869.086	2.46550	0.39838	-1.45257	0.55166
9873.082	2.83212	0.19081	-4.84928	2.53115
9877.083	-3.01566	5.00472	-2.35169	0.92708
9881.094	2.26690	0.05030	-4.52974	5.19311
9885.082	-3.21948	4.99125	-4.92642	2.53758
9889.089	-2.60540	4.67416	-2.51792	1.27315
9893.085	2.63041	2.37095	-1.97515	2.28824
9897.082	-4.92661	4.93883	-4.91479	7.04391
9901.087	-3.22611	4.77620	-2.86534	1.39718
9905.083	-1.30965	0.37872	-4.61842	2.81567
9909.087	2.64696	1.11360	-4.78385	3.56524
9913.078	-4.80369	5.70525	-5.01199	3.20901
9917.086	-3.70455	5.22178	-3.33737	1.39985
9921.086	-3.13741	5.49540	-4.64867	-1.38042
9925.091	-2.74583	5.09779	-4.83264	1.44743
9929.084	-3.01061	4.98172	-4.54040	1.25223
9933.132	-3.25065	5.13323	-4.70185	3.50882
9937.091	-3.25768	5.04183	-4.80406	3.62704
9941.112	-3.28424	5.77492	-4.89392	1.18987
9945.087	2.88960	-0.03946	-4.67786	3.53204
9949.081	-1.82242	1.01370	-4.79891	1.74229
9953.081	-2.69903	4.03156	-5.11078	1.22184
9957.082	-2.96611	5.15113	-3.24835	0.98270
9961.084	-3.20951	5.26287	-4.46640	-0.54917
9965.083	3.17032	0.48534	-4.48226	4.28146
9969.081	3.06204	-0.49976	-4.45636	1.28053
9973.083	-7.99150	4.36758	-3.53441	3.58348
9977.085	-7.96390	4.84667	-7.11775	4.45544
9981.082	-7.89121	4.36311	-7.54435	4.31236
9985.097	-8.55530	3.71969	-6.50832	2.52043
9989.084	-7.90065	4.13089	-6.79890	1.95424
9993.085	-8.23534	3.76087	-3.17143	1.04937
9997.085	-13.21213	-0.88333	-4.41341	-3.11087
10001.075	-8.30352	1.87274	-10.58809	2.32035
10005.097	-11.95178	1.11780	-11.13403	1.56741
10009.105	-8.85623	1.45327	-10.76750	2.80378
10013.080	-8.16634	1.80371	-7.33586	1.36972
10017.084	-9.65879	1.08173	-6.97810	1.48382
10021.078	-7.89150	1.32650	-9.19176	1.08511
10025.084	-12.00763	1.89708	-11.22346	1.84191
10029.081	-8.62025	2.04016	-10.96138	1.97131
10033.083	-10.98499	4.61344	-11.28906	1.03584
10037.078	-5.62269	5.00492	-11.09360	1.75348
10041.084	-7.45531	1.79885	-10.82399	1.51620
10045.081	-9.15260	2.00229	-10.86366	2.15128
10049.085	-12.15841	3.56787	-8.03363	0.72663
10053.080	-7.63118	2.67784	-10.22303	2.23412
10057.085	-8.87169	2.46341	-11.23356	0.06110
10061.082	-7.67067	1.69553	-11.02426	1.28627
10065.084	-9.23531	1.13862	-8.00243	2.03718
10069.081	-11.08502	2.01249	-11.00859	1.91983
10073.083	-8.78755	2.54721	-9.51039	2.48078
10077.076	-7.60878	3.63215	-9.28502	1.92379
10081.084	-8.95334	2.62450	-11.11822	0.17465
10085.082	-9.01280	2.44877	-5.98967	-1.30028
10089.091	-12.43585	2.80169	-10.70320	2.07935
10093.078	-11.43686	1.12224	-10.38096	0.83362
10097.098	-9.29679	5.94290	-9.41955	0.74955
10101.083	-8.87203	1.15714	-10.19029	2.49247
10105.080	-7.61480	1.19465	-10.48507	1.86707
10109.080	-7.79481	0.98624	-5.74561	-0.04166
10113.083	-11.27324	2.15561	-10.69700	2.62593
10117.081	-9.11392	2.33994	-10.31792	2.53544
10121.091	-9.19902	4.91368	-9.99659	2.68378
10125.097	-7.30634	3.91186	-6.26373	1.17019
10129.087	-9.25743	1.28852	-6.76293	0.82517
10133.086	-9.25673	0.99262	-10.47566	0.72861
10137.112	-9.25004	1.41947	-10.09989	2.95811
10141.086	-14.23979	1.68472	-10.07998	3.05952
10145.079	-13.63196	1.95742	-6.51280	1.72387
10149.079	-9.32132	0.89529	-6.82038	1.19764
10153.081	-7.64639	1.00468	-10.80426	1.18599
10157.077	-10.03720	1.16967	-5.88223	0.38676
10161.080	-13.02460	1.28080	-9.92827	2.39566
10165.079	-9.68918	0.83249	-10.31078	1.40161
10169.081	-9.86938	1.45352	-6.69777	-1.07200
10173.081	-10.67643	1.51897	-6.22493	0.96524
10177.077	-8.67131	0.71714	-10.13051	1.13886
10181.076	-11.45567	1.83156	-10.04059	1.97501
10185.077	-10.59618	1.34113	-5.14798	-1.90506
10189.076	-11.55028	6.41466	-6.14918	0.07787
10193.076	-9.13456	1.18698	-10.37566	1.85410
10197.100	-10.25963	0.85414	-9.95485	2.23139
10201.086	-8.23697	1.39603	-9.11639	5.00521
10205.087	-10.85593	1.83764	-6.09354	-0.99398
10209.081	-11.69564	3.70310	-6.33052	-1.70549
10213.081	-11.88931	1.49682	-6.37594	0.41880
10217.086	-9.26609	1.35151	-6.40780	-0.03926
10221.080	-12.37037	1.83370	-6.66751	1.90791
10225.074	-12.28517	1.58972	-6.48115	0.57692
10229.077	-9.58731	1.51953	-6.65343	0.60789
10233.079	-12.93578	4.23283	-6.69434	0.63052
10237.081	-13.01748	2.92420	-9.09667	0.87582
10241.074	-9.86953	2.44536	-9.31929	2.78009
10245.080	-9.42122	3.35599	-6.84725	2.76161
10249.077	-9.34135	2.34561	-6.91359	2.35459
10253.081	-9.30960	1.98704	-6.79931	1.44167
10257.097	-9.56448	2.02539	-6.87951	1.68171
10261.089	-11.41845	2.26622	-6.90131	0.91853
10265.073	-12.63114	1.78881	-6.58087	-0.98083
10269.080	-9.88889	1.70881	-7.15335	1.37883
10273.084	-9.57189	2.08107	-9.72802	2.69982
10277.085	-9.39711	1.83645	-7.57851	3.34206
10281.077	-9.13698	2.69641	-6.40491	1.24846
10285.081	-9.47891	2.17582	-14.10221	0.26946
10289.074	-9.51874	1.54372	-7.26742	0.23525
10293.081	-10.90868	1.93944	-6.57722	1.85941
10297.082	-9.35213	1.48262	-9.46594	3.20490
10301.083	-10.89291	1.37976	-7.14360	0.86574
10305.078	-12.35557	2.10479	-12.15910	2.46275
10309.081	-9.88694	2.11644	-6.55444	0.39775
10313.075	-12.01931	1.58742	-6.52164	0.33260
10317.081	-9.71365	1.65154	-9.61363	1.19076
10321.082	-9.66680	1.34460	-9.97392	1.16628
10325.074	-11.77803	1.89265	-10.01602	1.28492
10329.102	-10.70263	1.76712	-9.90079	1.19103
10333.075	-11.90939	1.72499	-9.96455	1.47689
10337.088	-11.36257	1.68949	-9.96400	1.42135
10341.109	-9.84537	1.87751	-5.99821	0.93966
10345.088	-10.03014	2.03917	-8.55115	1.43962
10349.079	-10.43090	2.17847	-6.93014	1.54949
10353.076	-9.54626	1.78403	-8.09370	1.39818
10357.075	-10.87194	1.60143	-10.36692	2.13591
10361.072	-10.47199	1.29978	-10.44830	1.43697
10365.079	-9.88379	1.59867	-7.74864	1.24340
10369.076	-9.39564	1.96030	-7.91392	1.37184
10373.077	-10.11798	1.38156	-10.43208	1.96933
10377.072	-9.74195	1.19887	-10.68619	1.17057
10381.079	-9.54551	0.85872	-6.39204	1.23788
10385.072	-9.38098	1.63111	-6.38663	1.20378
10389.079	-12.08952	1.86470	-8.46942	1.69073
10393.074	-9.18676	2.51606	-8.54003	2.20391
10397.076	-9.59382	4.96886	-9.39880	2.05835
10401.078	-11.06141	1.25315	-6.32145	0.77345
10405.075	-5.77074	1.06705	-6.70993	1.27840
10409.074	-8.18473	0.36232	-6.12136	1.15709
10413.076	-3.43346	-0.94333	-3.28402	0.86108
10417.076	-0.63699	2.83459	-2.89079	0.44336
10421.069	6.59160	-3.13496	-2.48490	0.57338
10425.077	6.79679	-3.24699	-2.82529	0.87686
10429.073	7.42080	-4.47275	-2.69170	0.53963
10433.078	0.86183	1.52583	-2.15398	0.92331
10437.071	1.25356	0.99206	-2.03841	0.77997
10441.078	6.41670	-3.38273	-2.67519	0.72685
10445.091	7.70273	-2.25394	-2.80459	0.62761
10449.078	7.26005	-2.84276	-2.65656	0.57752
10453.079	7.44313	-4.15826	-1.30819	1.09744
10457.073	7.56930	-2.50964	-2.17822	1.62129
10461.077	7.98530	-2.72918	-2.22185	2.21482
10465.074	3.58682	0.38043	-2.10263	1.65078
10469.085	6.89798	-2.81282	-2.16367	1.38684
10473.074	6.71872	-3.95360	-2.16518	1.32941
10477.073	6.95401	-4.31198	-2.17405	1.30823
10481.073	6.82513	-4.68212	-2.46763	0.48037
10485.073	1.28318	-0.20644	-2.64889	-0.24463
10489.070	3.43415	-0.90713	-0.22740	1.07116
10493.077	2.90626	0.01985	-0.43964	0.07479
10497.073	-0.12632	1.90855	-2.25565	0.52760
10501.068	6.25115	0.22503	-2.30538	3.23400
10505.080	6.62388	-0.28124	-2.04765	2.00965
10509.077	6.19790	-0.77462	-1.84528	1.95686
10513.071	5.72534	-1.07814	-1.23295	1.28650
10517.077	7.08431	-4.45272	1.18626	0.21669
10521.075	5.87405	-1.88980	-2.58752	0.88736
10524.951	3.14684	-2.75958	-0.82761	0.09305
10528.942	3.09193	-0.97044	-1.46077	2.00741
10532.953	6.97998	-2.85820	-2.46174	3.09508
10536.948	7.15122	-2.05712	-1.15409	2.76606
10540.951	6.14953	-0.52714	0.41442	1.64638
10544.968	7.02656	-2.40304	-1.86794	1.63483
10548.951	5.86379	-2.91096	-1.08703	1.12353
10552.985	3.74483	-0.85667	-2.21452	2.76549
10556.948	6.90923	-1.43204	-1.27978	0.63752
10560.952	0.86126	3.33577	-0.88096	-0.00713
10564.943	6.54972	-0.59106	-2.43548	0.13861
10568.946	7.40208	-1.82002	-1.09157	1.45101
10572.950	6.82070	-3.16835	-1.47987	3.19524
10576.941	5.11081	-1.48189	-1.29100	2.61282
10580.950	0.91671	1.65902	-1.33210	3.13204
10584.947	0.82865	2.39739	-3.99966	0.37921
10588.946	6.46956	-1.50533	-0.00640	0.78968
10592.947	4.74057	-0.93613	-1.43349	2.29213
10596.953	2.35727	-1.84955	-1.41152	2.57427
10600.945	5.56628	0.49710	-0.94827	2.48699
10604.945	1.80891	2.47419	-2.96653	-1.12523
10608.945	1.82941	1.68420	-3.94238	1.78817
10612.987	1.89729	-1.40429	-2.18719	3.08211
10616.945	3.85239	-1.13520	1.08455	2.32974
10620.949	4.52323	1.86696	-0.67521	3.07814
10624.945	2.06800	0.83093	-0.80704	1.42139
10628.947	2.25276	2.33744	-1.44413	0.42945
10632.945	-0.60344	1.48196	-0.87669	2.04537
10636.950	2.44187	0.61242	-1.14159	1.72868
10640.946	3.38076	1.28758	-3.91536	-0.25512
10644.949	1.09564	1.88786	-1.22826	1.81078
10648.943	2.08409	1.13682	-1.46757	2.04484
10652.950	2.04374	-0.27878	-1.90009	2.16527
10656.945	1.35849	-0.65238	1.03459	-0.23451
10660.947	4.53916	0.89603	-1.32059	1.36005
10664.942	0.28019	2.16194	-1.33455	0.24301
10668.946	1.93673	2.14370	-1.44488	1.72371
10672.946	0.33201	0.56671	-1.15295	1.81974
10676.952	1.54579	-0.79009	-1.26679	1.20449
10680.945	-0.86426	0.20858	-1.05793	2.51867
10684.950	3.95752	2.14461	-0.55399	1.57025
10688.944	0.79481	-0.29744	-0.30982	1.29959
10692.947	1.67169	-1.01371	-0.67104	1.31753
10696.947	2.06441	-1.00146	-1.15173	2.95150
10700.946	2.03809	2.26522	-0.72903	1.17674
10704.938	0.88706	0.10097	-0.59372	0.92816
10708.949	0.43810	1.02571	-0.76990	1.05568
10712.947	0.80816	0.88303	-1.14568	0.97146
10716.945	4.06532	-1.59456	-1.02697	0.81338
10720.943	0.25694	-0.04597	-1.00742	0.99106
10724.948	2.46751	1.34444	-1.19745	4.23921
10728.945	0.06123	1.21479	-3.58482	0.72860
10732.948	-0.09041	1.67977	0.19569	0.77648
10736.938	4.32599	0.54431	-3.57577	0.72360
10740.943	0.50277	2.06300	-0.68367	1.21289
10744.946	-1.20618	1.64137	-1.53230	0.93595
10748.946	0.25431	1.23939	-1.43359	1.33997
10752.946	4.28804	1.39997	-1.46055	0.72872
10756.963	-0.27135	0.03941	-2.07997	0.46181
10760.952	-0.12913	3.86067	-1.87656	1.08822
10764.949	3.67534	0.29318	2.57253	-0.17017
10768.952	3.53491	1.51244	-0.62838	2.25751
10772.978	0.77491	3.79950	-1.81543	1.57723
10776.942	3.50301	5.19319	-1.61701	-0.51361
10780.944	3.37789	-5.57679	2.03811	-0.12633
10784.945	3.14345	-3.05862	7.55827	-0.40068
10788.940	3.44446	-7.68580	7.59180	0.05621
10792.944	5.25842	-1.06679	5.69708	0.45602
10796.954	5.49173	-2.18896	6.17600	-0.02545
10800.951	6.17558	-3.26414	5.44776	-0.03389
10804.949	6.12475	-2.74801	0.63995	-0.64554
10808.942	6.13542	-2.74362	3.36433	0.14931
10812.946	5.22158	-2.44800	3.87497	0.25134
10816.973	5.64014	-3.04578	4.05629	0.10403
10820.948	6.06762	-2.77034	3.15926	-2.41859
10824.945	6.32478	-2.94012	3.85980	-0.20920
10828.941	5.45147	-2.84573	4.18351	0.09940
10832.947	6.25939	-2.51105	3.99304	0.34979
10836.942	5.85784	-2.57605	3.70023	0.91537
10840.946	6.19856	-2.79917	3.83594	-0.11447
10844.944	5.91307	-2.79875	3.49263	0.94674
10848.950	5.29875	-2.62078	3.35996	1.91491
10852.942	5.78499	-2.76589	3.54925	-2.49950
10856.944	5.55907	-2.91683	3.84792	0.21501
10860.940	5.57798	-2.74295	3.84854	-0.52478
10864.946	6.94685	-6.29257	3.87309	-0.30690
10868.942	4.68378	-2.97896	3.67267	1.51328
10872.945	5.93168	-2.37800	0.35841	-0.92071
10876.940	5.72873	-2.22364	3.40759	-0.66287
10880.946	5.71667	-2.78455	3.28810	-0.78072
10884.988	6.02089	-2.63307	4.04322	-0.88793
10888.959	6.11498	-2.38897	5.89510	-1.22712
10892.942	5.53092	-1.94143	3.74758	0.87672
10896.939	3.54035	-2.93388	3.05664	1.71469
10900.947	5.92402	-3.08785	3.61500	-0.58463
10904.946	7.79281	-2.83080	4.06695	-0.62809
10908.942	6.23861	-2.33569	3.57617	-0.93491
10912.935	6.21625	-1.62964	4.49625	0.04947
10916.939	5.63019	0.45654	3.21233	1.84813
10920.943	4.56562	0.01486	2.52305	1.41893
10924.941	4.75704	-1.15259	3.84253	0.99158
10928.944	4.64665	-3.97659	3.45316	1.00997
10932.941	5.11410	-2.74596	3.46966	0.03299
10936.942	4.61834	-2.07791	3.96115	-1.49548
10940.943	5.11859	-2.14559	3.56531	-1.95988
10944.944	6.37986	-2.40544	-0.52796	-3.88648
10948.941	4.76616	-2.34219	3.27217	-1.15548
10952.950	6.27920	-2.16731	3.29218	-0.34381
10956.944	4.97270	-1.83085	3.48259	-0.21296
10960.944	5.93600	-1.52165	1.83690	-0.45574
10964.944	7.00470	-1.66150	4.24186	0.55342
10968.948	8.83289	-3.28595	3.16260	1.19414
10972.942	7.02553	-0.86517	3.51384	1.73376
10976.940	8.41461	-1.75412	3.15402	1.89330
10980.942	7.13905	-1.65283	3.26525	2.12517
10984.940	6.47201	0.86463	3.50098	2.02507
10988.965	6.21674	0.19634	3.54586	1.85149
10992.940	6.63703	-2.36454	3.42376	1.86578
10996.935	6.44118	-2.24723	3.16174	1.80145
11000.943	6.22770	0.77951	3.42453	2.08283
11004.945	7.13947	-1.00867	3.53636	1.61720
11008.948	5.81432	-0.34164	3.11762	-1.40683
11012.942	5.78566	-1.03700	3.42082	-0.94225
11016.940	5.73035	-1.61871	2.90240	-1.13380
11020.942	5.83380	-1.81970	3.16938	-1.11316
11024.942	5.38582	-1.48463	3.58494	-1.04409
11028.936	5.56726	-1.70600	2.82885	1.52942
11032.941	3.28684	-3.11169	3.33362	-0.20873
11036.939	4.00196	-2.05167	3.33315	-0.15862
11040.941	3.57701	-1.38914	3.50667	1.74797
11044.937	6.06932	-2.09496	3.86650	-0.39893
11048.939	7.17656	-3.28503	2.66729	1.44581
11052.944	5.58538	-1.56297	2.48426	-0.94689
11056.942	8.33858	-2.06339	2.15011	-0.27690
11060.936	5.44264	-1.84537	-0.44336	1.23001
11064.943	-6.26221	-1.47943	-2.91465	1.32819
11068.942	-2.77933	3.29884	-4.85428	5.13749
11072.933	-5.81432	0.17567	-7.69705	4.44374
11076.942	-6.53098	3.02087	-7.94182	4.29277
11080.940	-9.00678	0.23455	-9.57257	2.17554
11084.937	-6.95795	1.01264	-8.89945	1.59674
11088.957	-9.93034	1.38541	-9.49774	0.84237
11092.946	-12.85114	2.59173	-7.32417	0.57446
11096.946	-12.56881	2.91471	-9.38624	-0.49446
11100.937	-10.70150	3.07692	-8.37264	0.24658
11104.940	-10.46390	3.08301	-14.38346	-0.17429
11108.936	-9.19179	2.81330	-10.00906	0.66118
11112.941	-9.36595	2.14471	-10.28911	-0.26973
11116.938	-9.84840	1.81762	-12.44893	0.82364
11120.942	-9.50631	1.03449	-10.05394	0.76660
11124.936	-9.70572	0.96929	-8.16382	0.43689
11128.937	-9.41690	0.22663	-8.66918	0.03754
11132.936	-8.33085	2.27798	-8.93312	0.00798
11136.947	-10.31367	3.29825	-12.40716	0.34575
11140.938	-10.34761	7.16802	-9.32069	-0.44500
11144.936	-7.30925	2.78575	-10.54313	0.83942
11148.938	-9.95988	1.86392	-10.00654	0.18013
11152.939	-10.33565	1.54630	-12.02209	-0.34196
11156.978	-8.13361	1.45566	-12.73259	0.13874
11160.944	-10.12010	1.15335	-9.93121	0.81627
11164.942	-13.08265	1.33590	-8.88656	1.24544
11168.938	-9.74805	0.63440	-9.11271	0.93224
11172.940	-9.76437	0.06739	-9.90229	1.62825
11176.941	-9.64200	-0.05179	-12.68427	0.00945
11180.942	-9.64031	0.33616	-12.48253	-0.16430
11184.939	-13.37315	1.35021	-12.60233	0.81103
11188.940	-10.09484	1.44195	-11.81211	1.27132
11192.950	-10.11187	1.31775	-9.09323	0.28624
11196.939	-9.62692	1.45910	-9.29435	0.32576
11200.977	-9.51635	1.32778	-10.46921	1.40378
11204.935	-9.92620	1.24097	-12.23789	1.54451
11208.936	-9.43358	1.23074	-12.62663	0.93170
11212.938	-9.95435	0.08735	-12.68843	0.28332
11216.938	-10.36516	0.64343	-11.00027	1.01733
11220.944	-13.70779	0.61080	-9.36005	1.85468
11224.935	-9.22663	1.60666	-9.71592	1.77371
11228.941	-10.37361	0.99607	-10.37851	1.43651
11232.937	-10.58277	1.14376	-9.26208	0.56990
11236.938	-10.15098	0.92234	-10.51424	1.20485
11240.933	-10.61620	0.95647	-9.91806	1.37243
11244.939	-10.73442	0.95581	-9.88102	1.65332
11248.936	-10.81975	0.94414	-10.11481	1.62290
11252.938	-11.07575	0.86887	-10.39074	1.10360
11256.949	-13.16400	0.90247	-10.12505	1.88481
11260.942	-11.01311	0.82996	-10.09973	2.02674
11264.934	-12.48568	0.99741	-10.75438	2.02778
11268.939	-10.81858	0.97538	-11.74903	1.27942
11272.935	-9.51170	0.94235	-11.75488	2.06227
11276.938	-9.89607	0.94546	-10.90246	2.14445
11280.930	-12.54959	0.85240	-10.98796	2.36518
11284.939	-13.23403	0.90501	-11.12154	2.61267
11288.934	-10.48267	0.74929	-11.23793	2.47351
11292.985	-11.41249	0.59131	-10.64465	1.11768
11296.932	-11.48249	1.01159	-11.47813	2.36151
11300.947	-12.16928	1.31288	-10.69664	1.29124
11304.935	-11.65496	1.24989	-10.83486	1.03952
11308.937	-10.15523	1.51090	-10.56380	1.24109
11312.935	-11.01161	1.44258	-10.33622	1.00101
11316.934	-10.09191	1.58107	-11.02851	1.38673
11320.932	-10.33454	1.37602	-10.82282	2.23800
11324.936	-10.82938	1.50237	-11.10376	1.69717
11328.934	-12.85484	0.37889	-11.01187	2.23872
11332.933	-11.51075	1.50651	-9.42827	-1.57200
11336.937	-11.60806	1.46559	-10.45970	0.98659
11340.936	-11.81403	1.00523	-10.27600	0.88854
11344.941	-11.87028	1.15888	-11.46583	1.35447
11348.931	-10.98602	0.26328	-11.78878	1.17267
11352.937	-11.09236	0.14624	-11.43016	1.28363
11356.934	-11.30314	-0.88241	-10.16262	-1.59343
11360.936	-11.18167	0.05190	-11.69909	1.80094
11364.936	-11.19273	0.41239	-12.46398	1.19400
11368.932	-11.62532	-0.03064	-13.91070	1.16464
11372.939	-11.54070	0.21963	-13.00410	0.95202
11376.809	-11.58077	0.44197	-13.68825	1.30366
11380.811	-11.66277	0.10652	-12.91616	1.34237
11384.814	-11.67305	0.67770	-9.60430	0.81884
11388.815	-11.60037	0.49748	-9.47138	0.54350
11392.820	-10.90482	0.06671	-12.49356	1.12005
11396.894	-10.42130	0.01657	-12.76347	1.13096
11400.813	-10.16060	0.18156	-12.47231	1.25287
11404.810	-11.64973	-0.02757	-12.23680	1.53226
11408.804	-11.91106	0.10567	-12.07559	1.34380
11412.811	-11.84218	-0.14249	-11.76723	1.13689
11416.807	-11.84705	-0.05141	-11.85378	1.17324
11420.811	-12.00462	0.01558	-12.13213	1.40980
11424.804	-11.83983	0.02622	-11.85749	1.24958
11428.805	-11.83907	0.04059	-11.88159	1.31995
11432.814	-11.88440	0.03696	-11.64466	1.36100
11436.810	-11.78928	0.53107	-11.36682	1.35222
11440.805	-11.77192	0.76699	-11.30457	1.37713
11444.809	-11.82659	0.70165	-11.62151	1.45090
11448.810	-11.92576	1.16163	-11.83862	1.36491
11452.801	-11.17500	0.97751	-10.78139	1.73308
11456.809	-12.89376	1.24158	-10.65597	1.76459
11460.807	-11.27550	1.24991	-12.41836	1.68598
11464.811	-11.33884	1.20044	-10.33180	1.69280
11468.804	-11.13587	1.12617	-10.39940	1.67437
11472.814	-10.94777	1.18564	-12.22032	1.78331
11476.809	-11.11769	1.04886	-12.35237	1.79023
11480.809	-11.66998	0.72202	-11.48694	-1.92530
11484.804	-11.18993	0.39404	-10.37902	-2.72744
11488.810	-11.08096	0.20818	-9.81949	-1.15588
11492.806	-11.11540	-0.00380	-10.01207	2.09794
11496.853	-11.29560	0.44824	-11.57905	1.73277
11500.806	-11.18902	0.04939	-12.47813	1.07527
11504.831	-11.18198	0.36329	-11.78875	1.83151
11508.814	-11.07706	0.61634	-13.04116	0.09524
11512.806	-11.77596	1.24919	-11.05397	1.61119
11516.814	-10.44156	0.69844	-12.94884	1.73829
11520.803	-10.83273	0.34901	-12.23253	-0.30948
11524.810	-10.49037	0.49978	-12.00163	1.94480
11528.806	-10.54567	0.80473	-12.49720	2.00086
11532.809	-10.61634	0.33043	-9.51896	3.13680
11536.803	-11.28586	0.54630	-11.89157	2.00223
11540.809	-13.28952	0.38892	-12.89161	1.93046
11544.806	-10.76082	0.71834	-9.12798	1.77188
11548.809	-13.39783	0.82342	-11.12539	2.04677
11552.803	-12.75668	0.70632	-10.81147	1.71589
11556.813	-10.31405	0.48178	-9.27992	2.06613
11560.807	-10.43313	0.35257	-9.81465	2.42736
11564.815	-10.41290	0.47283	-10.24887	2.36025
11568.809	-10.18692	0.71608	-11.85478	2.28697
11572.810	-11.77508	1.18965	-11.80904	2.41569
11576.807	-11.72541	0.94669	-12.47340	2.11968
11580.809	-13.10956	1.05187	-11.61797	1.40180
11584.804	-11.52827	1.18394	-12.27740	2.30124
11588.808	-12.30550	1.42088	-10.67878	2.42741
11592.807	-12.05528	0.44716	-7.93243	2.36030
11596.809	-9.95570	0.67447	-8.45597	1.40136
11600.811	-9.38644	-0.88370	-4.78632	0.75784
11604.807	-6.58572	1.54349	-3.32429	2.61714
11608.808	0.85895	-1.56977	0.06415	1.05063
11612.803	-1.58889	0.66304	-1.01672	1.86241
11616.809	3.49475	-1.52515	1.48587	1.91749
11620.805	3.72027	-1.43709	-0.11245	2.34407
11624.850	3.73270	0.58981	0.28299	2.27072
11628.802	3.52954	-1.84330	0.73345	1.02675
11632.830	3.67195	-3.06948	0.49014	1.20583
11636.808	6.41241	-3.53505	0.93485	2.21658
11640.807	0.66141	-1.37229	-0.25220	0.71280
11644.807	-0.10619	-1.63376	0.91827	2.04088
11648.801	0.96321	-1.56089	1.55804	1.92842
11652.802	2.73365	-1.77256	1.30012	2.23251
11656.804	2.58251	-0.76014	1.98122	2.20690
11660.805	1.80558	-2.76601	1.79857	2.58231
11664.799	3.13088	-1.68294	1.19978	0.34751
11668.802	3.54578	-4.69172	-3.14103	2.41534
11672.804	1.91578	-1.54299	-0.59776	0.98892
11676.801	2.78708	-0.21124	-0.72972	2.02212
11680.808	2.00063	-0.51581	-0.40604	2.22072
11684.809	4.34329	-1.18906	0.73702	1.77014
11688.802	2.15219	-5.20022	2.23402	-0.38566
11692.805	1.97555	-0.22895	2.35880	-0.08802
11696.805	3.84439	-0.32258	1.58951	-0.55140
11700.835	2.52847	-1.48063	1.83350	-0.17043
11704.810	0.53426	-1.42139	1.67201	1.22805
11708.800	2.49865	-0.35190	0.70342	2.22269
11712.806	2.19251	-0.20061	1.79651	0.24330
11716.801	2.29262	-0.14118	2.54781	-0.29881
11720.806	0.01712	-1.56305	1.59199	-0.02616
11724.808	2.18592	1.23300	1.64032	-0.21900
11728.801	0.18663	-5.37867	1.24173	-0.32895
11732.801	0.30307	1.54540	1.77300	-0.38366
11736.802	0.03988	-0.24355	0.49240	1.71275
11740.803	2.29654	-0.89274	0.47329	3.05550
11744.806	2.24146	0.86211	0.30493	2.11300
11748.796	3.23472	-0.69637	0.39966	0.20227
11752.801	0.72958	-0.26216	0.91473	1.66069
11756.802	1.77687	-1.38619	-1.53225	0.76916
11760.800	0.37849	-1.66988	0.50359	1.28757
11764.811	0.01985	0.78571	0.57543	-0.04855
11768.806	2.28940	3.09771	0.10359	0.08546
11772.802	5.71436	5.03009	-0.99278	0.61537
11776.804	0.53245	0.56237	0.06232	0.87000
11780.799	-0.48535	-1.32552	0.86587	1.20191
11784.802	3.55295	-1.73044	-0.22723	1.73897
11788.802	4.99930	-3.14022	0.19608	2.05746
11792.800	10.37361	-7.12535	0.14379	0.85129
11796.804	3.94648	-1.54488	0.25726	1.66409
11800.802	-0.04599	-0.62143	0.48086	0.00231
11804.803	1.49046	-0.77762	1.42977	0.52210
11808.811	0.11580	-1.17003	0.23222	1.85155
11812.804	-3.27113	-3.67969	0.09245	1.31337
11816.805	-0.79962	-4.00460	0.14285	1.86345
11820.808	2.93921	-1.66363	0.19695	1.79575
11824.803	4.51267	-2.04570	-0.09361	2.32562
11828.804	3.74347	2.01740	-2.97329	-0.16550
11832.824	1.20819	-3.75529	-1.06776	2.75783
11836.798	-1.41789	-0.74836	-4.12759	1.73893
11840.798	2.33385	-1.77505	-5.13090	2.73480
11844.805	-5.47756	1.46782	-5.20954	0.85102
11848.805	-7.37607	1.80873	-10.09414	1.58795
11852.803	-6.82731	0.46562	-13.78513	-1.95798
11856.796	-8.82827	0.86303	-15.68074	0.28242
11860.804	-10.30531	0.07237	-16.31555	-1.96089
11864.799	-10.76599	0.55821	-10.34105	1.42681
11868.803	-10.50342	1.40692	-10.01274	0.89154
11872.798	-12.52502	1.10861	-6.54820	1.18965
11876.802	-11.54587	0.84588	-10.42850	0.81801
11880.800	-9.46215	0.95543	-9.73764	0.82711
11884.803	-9.46959	1.03646	-10.23622	1.14083
11888.809	-9.35145	1.01012	-11.95983	-1.42037
11892.802	-9.24530	1.03076	-9.69255	0.92894
11896.799	-9.10577	1.02699	-9.04439	1.34787
11900.799	-9.24808	1.06125	-9.84667	4.20651
11904.795	-8.98235	1.00801	-6.43033	4.15095
11908.798	-8.87154	1.01160	-9.11044	3.99284
11912.803	-8.89308	0.56707	-13.05449	0.98561
11916.799	-8.84334	0.82230	-13.35541	1.07334
11920.803	-8.78871	0.72708	-11.91588	-0.47972
11924.797	-9.01099	0.51665	-10.07341	1.09497
11928.804	-8.76392	0.38122	-9.90616	-0.90395
11932.804	-8.38517	0.79247	-11.71385	-0.78805
11936.801	-7.07046	0.83920	-12.22886	0.94165
11940.793	-7.63769	0.96823	-8.32123	-1.31542
11944.805	-8.22458	1.06040	-9.79231	0.75553
11948.801	-6.85373	1.22145	-11.32292	-1.63222
11952.794	-8.90582	1.37868	-11.56564	0.81919
11956.803	-9.34867	0.51342	-7.42427	0.49532
11960.800	-9.66523	0.75898	-6.96448	-0.04213
11964.802	-7.26237	0.86800	-6.66278	0.50909
11968.796	-7.68584	1.32543	-6.53382	2.70727
11972.846	-7.85490	1.40045	-8.18091	3.89685
11976.811	-10.29923	2.40625	-16.87214	1.64433
11980.797	-12.51402	2.63563	-16.56880	3.74416
11984.798	-12.58640	4.11495	-6.30588	11.12051
11988.801	-15.70406	5.02433	-14.42607	9.76283
11992.796	-18.86921	13.65701	-19.99366	-12.07743
11996.800	-19.78030	-12.09323	-19.99370	-12.07743
12000.796	-19.87640	-12.08613	-19.99370	-12.07743
12004.804	-19.91334	-12.08340	-19.99370	-12.07743
12008.797	-19.93299	-12.08194	-19.99370	-12.07743
12012.815	-19.94529	-12.08102	NaN	NaN
12016.808	-19.95376	-12.08040	NaN	NaN
12020.794	-19.95996	-12.07993	NaN	NaN
12024.799	-19.96474	-12.07958	NaN	NaN
12028.802	-19.96856	-12.07930	NaN	NaN
12032.798	-19.97167	-12.07906	NaN	NaN
12036.795	NaN	NaN	NaN	NaN
12041.224	NaN	NaN	NaN	NaN
12044.942	NaN	NaN	NaN	NaN
12048.805	NaN	NaN	NaN	NaN
12052.794	NaN	NaN	NaN	NaN
12056.830	NaN	NaN	NaN	NaN
12060.799	NaN	NaN	NaN	NaN
12064.793	NaN	NaN	NaN	NaN
12068.792	NaN	NaN	NaN	NaN
12072.800	NaN	NaN	NaN	NaN
12076.795	NaN	NaN	NaN	NaN
12080.793	NaN	NaN	NaN	NaN
12084.795	NaN	NaN	NaN	NaN
12088.797	NaN	NaN	NaN	NaN
12092.794	NaN	NaN	NaN	NaN
12096.803	NaN	NaN	NaN	NaN
12100.799	NaN	NaN	NaN	NaN
12104.815	NaN	NaN	NaN	NaN
12109.968	NaN	NaN	NaN	NaN
12114.167	NaN	NaN	NaN	NaN
12118.043	NaN	NaN	NaN	NaN
12122.069	NaN	NaN	NaN	NaN
12126.023	NaN	NaN	NaN	NaN
12130.036	NaN	NaN	NaN	NaN
12134.190	NaN	NaN	NaN	NaN
12136.819	NaN	NaN	-15.23697	11.73617
12140.811	NaN	NaN	NaN	NaN
12144.795	NaN	NaN	NaN	NaN
12148.794	NaN	NaN	-20.03496	7.51493
12152.799	-18.80806	10.17672	-17.96842	0.42326
12156.795	-19.98601	-12.07800	-17.01850	0.31861
12160.798	-16.95965	0.93338	-15.42687	-10.02222
12164.802	-19.97077	2.78934	-16.67111	-1.46774
12168.803	-18.30736	1.56061	-18.06869	-1.59570
12172.791	-18.56487	2.29514	-17.30817	-2.07897
12176.812	-18.34880	2.36918	-17.52988	-1.92070
12180.801	-18.47224	0.59460	-20.31842	-3.12044
12184.800	-15.13152	0.54040	-19.08528	-3.10462
12188.794	-17.76516	0.35231	-20.10778	-3.50981
12192.798	-18.00375	0.62824	-17.54120	-3.86098
12196.797	-17.47464	0.60230	-17.70838	-4.01350
12200.796	-16.85984	1.15382	-17.50065	-2.73477
12204.791	-14.62466	2.66888	-17.94182	-2.59686
12208.793	-14.37489	1.37920	-17.42902	-3.12804
12212.798	-14.17866	-1.99008	-16.88450	-2.62375
12216.794	-14.29126	-0.12712	-14.01725	-2.65938
12220.795	-13.56810	-0.10860	-16.64143	-2.55402
12224.800	-13.79005	-0.53079	-14.96721	-2.52431
12228.673	-14.18848	0.68047	-14.44131	-2.08180
12232.671	-13.52088	-0.62708	-15.25559	-2.73287
12236.664	-14.44031	-0.16185	-14.59714	-1.79181
12240.669	-13.75460	-0.43834	-14.75444	-2.49320
12244.667	-13.59553	-0.47986	-15.15168	-2.36335
12248.668	-13.42200	-0.47835	-15.52495	-1.55387
12252.672	-14.07854	-0.39166	-16.40854	-4.07856
12256.707	-14.67082	-0.11241	-15.11826	0.63223
12260.671	-15.38184	1.80709	-17.74274	-2.34893
12264.666	-14.43275	3.11121	-17.15725	0.28159
12268.678	-18.37116	-0.15798	-20.53560	0.14872
12272.671	-20.86595	1.90715	-23.07700	0.72711
12276.668	-23.45188	1.61634	-20.20353	-12.06172
12280.665	-20.18318	-12.06325	-20.12542	-12.06759
12284.671	-20.10533	-12.06909	-20.08896	-12.07032
12288.668	-20.07221	-12.07157	-20.06772	-12.07190
12292.670	-20.05377	-12.07295	-20.05375	-12.07295
12296.682	-20.04195	-12.07383	-20.04378	-12.07369
12300.673	-20.03367	-12.07445	-20.03629	-12.07425
12304.672	-20.02753	-12.07490	-20.03261	-12.07453
12308.675	-20.02276	-12.07526	-20.02762	-12.07490
12313.709	-20.02609	-12.07501	NaN	NaN
12317.537	NaN	NaN	NaN	NaN
12321.459	NaN	NaN	NaN	NaN
12324.677	NaN	NaN	NaN	NaN
12328.668	NaN	NaN	NaN	NaN
12332.663	NaN	NaN	NaN	NaN
12336.762	NaN	NaN	NaN	NaN
12340.671	NaN	NaN	NaN	NaN
12344.669	NaN	NaN	NaN	NaN
12348.668	NaN	NaN	NaN	NaN
12354.547	NaN	NaN	NaN	NaN
12357.029	NaN	NaN	NaN	NaN
12364.665	NaN	NaN	NaN	NaN
12368.664	NaN	NaN	NaN	NaN
12372.663	NaN	NaN	NaN	NaN
12376.669	NaN	NaN	NaN	NaN
12380.677	NaN	NaN	NaN	NaN
12384.663	NaN	NaN	NaN	NaN
12388.668	NaN	NaN	NaN	NaN
12392.670	NaN	NaN	NaN	NaN
12396.679	NaN	NaN	NaN	NaN
12400.663	NaN	NaN	NaN	NaN
12404.665	NaN	NaN	NaN	NaN
12408.665	NaN	NaN	NaN	NaN
12412.670	NaN	NaN	NaN	NaN
12416.666	NaN	NaN	NaN	NaN
12420.668	NaN	NaN	NaN	NaN
12424.667	NaN	NaN	NaN	NaN
12428.664	NaN	NaN	NaN	NaN
12432.668	NaN	NaN	NaN	NaN
12436.672	NaN	NaN	NaN	NaN
12440.673	NaN	NaN	NaN	NaN
12444.668	NaN	NaN	NaN	NaN
12448.672	NaN	NaN	NaN	NaN
12452.671	NaN	NaN	NaN	NaN
12456.662	NaN	NaN	NaN	NaN
12460.669	NaN	NaN	NaN	NaN
12464.665	NaN	NaN	NaN	NaN
12468.668	NaN	NaN	NaN	NaN
12472.693	NaN	NaN	NaN	NaN
12476.673	NaN	NaN	NaN	NaN
12480.665	NaN	NaN	NaN	NaN
12484.663	NaN	NaN	NaN	NaN
12488.658	NaN	NaN	NaN	NaN
12493.296	NaN	NaN	NaN	NaN
12500.663	NaN	NaN	NaN	NaN
12504.682	NaN	NaN	NaN	NaN
12508.664	NaN	NaN	NaN	NaN
12512.660	NaN	NaN	NaN	NaN
12516.672	NaN	NaN	NaN	NaN
12520.663	NaN	NaN	NaN	NaN
12524.660	NaN	NaN	NaN	NaN
12528.662	NaN	NaN	NaN	NaN
12532.661	NaN	NaN	NaN	NaN
12536.673	NaN	NaN	NaN	NaN
12540.664	NaN	NaN	NaN	NaN
12544.660	NaN	NaN	NaN	NaN
12548.656	NaN	NaN	NaN	NaN
12552.668	NaN	NaN	NaN	NaN
12556.657	NaN	NaN	NaN	NaN
12560.664	NaN	NaN	NaN	NaN
12564.656	NaN	NaN	NaN	NaN
12568.657	NaN	NaN	NaN	NaN
12572.663	NaN	NaN	NaN	NaN
12576.659	NaN	NaN	NaN	NaN
12580.656	NaN	NaN	NaN	NaN
12584.698	NaN	NaN	NaN	NaN
12588.660	NaN	NaN	NaN	NaN
12592.664	NaN	NaN	NaN	NaN
12596.660	NaN	NaN	NaN	NaN
12600.685	NaN	NaN	NaN	NaN
12604.662	NaN	NaN	NaN	NaN
12608.665	NaN	NaN	NaN	NaN
12612.663	NaN	NaN	NaN	NaN
12616.666	NaN	NaN	NaN	NaN
12620.659	NaN	NaN	NaN	NaN
12624.656	NaN	NaN	NaN	NaN
12628.654	NaN	NaN	NaN	NaN
12632.661	NaN	NaN	NaN	NaN
12636.670	NaN	NaN	NaN	NaN
12640.664	NaN	NaN	NaN	NaN
12644.671	NaN	NaN	NaN	NaN
12648.664	NaN	NaN	NaN	NaN
12652.664	NaN	NaN	NaN	NaN
12656.660	NaN	NaN	NaN	NaN
12660.669	NaN	NaN	NaN	NaN
12664.665	NaN	NaN	NaN	NaN
12668.656	NaN	NaN	NaN	NaN
12672.656	NaN	NaN	NaN	NaN
12676.653	NaN	NaN	NaN	NaN
12680.660	NaN	NaN	NaN	NaN
12684.661	NaN	NaN	NaN	NaN
12688.697	NaN	NaN	NaN	NaN
12692.663	NaN	NaN	NaN	NaN
12696.659	NaN	NaN	NaN	NaN
12825.500	NaN	NaN	NaN	NaN
12875.370	NaN	NaN	NaN	NaN
12925.375	NaN	NaN	NaN	NaN
12975.387	NaN	NaN	NaN	NaN
13043.108	3.69321	1.39186	1.69378	2.04541
13047.109	3.37952	1.86760	0.67985	2.07400
13050.783	4.00480	1.97305	0.98040	3.36746
13054.775	4.47669	2.29981	1.15409	3.92845
13058.773	4.62510	1.86672	1.06421	3.47018
13062.778	2.99849	2.15103	0.79645	4.12396
13066.775	3.05177	2.28190	1.06791	1.98111
13070.770	2.59676	5.48450	1.14146	2.13318
13074.781	3.05860	2.26191	1.26984	2.34665
13078.780	3.38884	1.94526	-2.73308	0.78702
13082.775	2.98171	2.06822	1.25426	2.27506
13086.770	2.86200	2.01180	1.16649	3.01407
13090.777	4.39930	4.51878	1.10095	3.14180
13094.776	4.83656	-0.91211	0.98663	3.01631
13098.776	3.17361	2.13269	-3.26834	-0.22804
13102.778	3.02239	3.49346	1.60119	1.52766
13106.776	-3.37724	-4.06218	1.07014	4.28041
13110.774	2.51391	-4.83589	1.20576	4.38141
13114.774	-1.14553	-6.82687	1.49659	3.45750
13118.776	1.60112	-5.52179	1.31930	3.54258
13122.775	0.02876	-6.19762	1.48047	3.19564
13126.769	-2.57491	-6.12837	1.55998	3.55853
13130.775	3.05756	1.59660	2.44769	3.41659
13134.771	2.95530	1.78787	-0.33866	1.36247
13138.777	2.37862	1.48181	2.27050	2.77688
13142.777	2.66840	1.01532	1.72185	2.73977
13146.771	3.55159	1.21563	-1.86166	-1.09385
13150.777	2.62556	1.05948	1.96040	2.37258
13154.773	2.84695	1.00522	1.72418	1.29741
13158.775	2.97185	1.17496	1.50554	2.87048
13162.775	3.13321	0.89088	1.80281	3.39235
13166.777	2.60473	1.89681	1.92674	1.62783
13170.774	2.06721	1.02507	1.27743	2.21422
13174.773	3.44822	2.29103	1.21921	2.91649
13178.769	2.56711	1.57562	0.28950	0.78003
13182.783	2.79773	0.83579	1.92971	2.04467
13186.775	2.45227	1.32175	0.98065	3.70459
13190.818	2.02339	2.07345	1.63388	2.80266
13194.781	2.15415	1.94595	0.95095	3.46901
13198.778	2.22902	2.00260	0.75905	4.00968
13202.778	2.01779	1.18393	0.88520	3.79402
13206.773	2.52998	1.92636	-2.29760	1.73699
13210.781	3.01007	1.84774	1.75109	2.16520
13214.778	2.42322	1.39021	0.61265	3.51096
13218.781	2.44274	1.43535	0.17457	2.53575
13222.772	2.75074	1.61586	1.44359	1.73220
13226.780	4.11518	1.40275	-3.74236	-0.77027
13230.778	3.38991	3.00674	1.00156	4.44657
13234.772	3.35855	1.72804	0.14543	4.48571
13238.778	2.36237	1.58638	1.04250	3.92590
13242.777	3.10953	3.36003	1.89473	3.57978
13246.777	5.74387	1.81698	2.34815	2.86421
13250.779	6.02030	1.90181	1.79869	3.48719
13254.790	5.52136	1.83771	1.55214	3.71515
13258.790	3.64429	4.90957	1.40137	4.37962
13262.774	3.91099	2.62341	-0.70270	4.39576
13266.773	3.99363	3.49697	-0.41331	3.12052
