time (ms)	lx (deg)	ly (deg)	rx (deg)	ry (deg)
0.000	-2.47994	-0.50065	-1.89352	1.16374
3.996	4.89634	-0.44839	-1.90646	1.13210
8.004	-2.12634	-1.72374	-1.86417	1.08083
11.995	-1.75766	-1.99652	-1.85859	1.08973
15.996	-2.46310	-0.45838	-1.88120	0.99740
19.991	-1.20683	0.17239	-1.84039	0.95450
23.991	-1.04359	-0.61782	-1.83479	0.93690
27.995	-1.06659	-0.65873	-1.76157	0.96149
31.991	-1.06810	-0.35659	-1.69458	1.04265
35.881	-0.92460	-2.13693	-1.65354	1.06665
39.873	-1.18559	-0.04114	-1.61716	1.16781
43.870	-1.16555	-1.15027	-1.53461	1.19397
47.873	-1.37173	-1.82512	-3.83601	1.22241
51.874	-1.28638	-2.05214	-3.82257	1.30552
55.870	-2.34969	-2.31450	-3.65015	1.27293
59.864	-0.75474	-1.94951	-3.66884	1.35200
63.862	-1.61729	-2.37414	-3.85451	1.36023
67.868	-1.92748	-2.11330	-3.51164	1.33113
71.865	-1.96595	-0.27141	-2.71327	1.38342
75.866	-1.06704	-0.37495	-1.54177	1.75451
79.900	1.82990	-1.17728	-1.19648	2.02496
83.861	-1.17560	-1.94146	-1.53833	0.31241
87.865	-0.71866	0.41052	-1.58009	2.20480
91.865	-0.52461	-0.50825	-1.89307	2.61717
95.869	-0.72134	0.66749	-1.62837	2.52148
99.865	0.61042	-2.07522	-1.58827	2.41412
103.859	-0.11064	-1.41368	-1.76143	1.41368
107.866	-0.47378	-0.48364	-1.67320	1.67784
111.862	0.50716	-0.09932	-1.69921	1.76685
115.865	0.36161	-1.00865	-1.83977	-0.16938
119.867	-1.82467	-0.20286	-1.69200	1.60635
123.861	-4.33177	-1.24394	-1.73214	1.29450
127.862	-1.29353	-0.14590	-2.30256	-0.15804
131.859	-1.23161	-0.38969	-1.73375	1.35038
135.865	-3.00344	-0.75428	-1.67174	1.45309
139.861	-1.34934	-0.34995	-1.73162	-0.14364
143.864	-1.39651	-0.40904	-1.59948	1.39426
147.868	-1.75069	-0.78978	-2.09259	0.98342
151.863	-1.88864	-0.59231	-1.52074	1.07978
155.863	-1.70435	-0.67097	-1.49919	1.08945
159.900	-1.64722	-0.44153	-2.28977	1.14525
163.867	-1.60132	-1.48174	-1.55043	1.15021
167.863	-2.15182	-0.28636	-1.46229	1.19086
171.870	-1.81339	-1.38825	-2.30789	1.18211
175.867	-0.61064	-2.86620	-2.13494	1.13182
179.868	-1.17198	-1.89125	-1.64952	1.04349
183.861	-1.55953	-2.28159	-1.58934	1.15091
187.870	-1.04081	-3.80652	-2.68271	0.71099
191.869	0.12476	-0.06528	-1.93123	1.07173
195.869	2.28328	0.14980	-1.72525	1.07041
199.862	2.94478	-0.64172	-4.38025	1.14183
203.870	1.76757	0.16661	-3.97015	1.23933
207.866	2.38769	-0.92723	-3.00801	-0.21442
211.868	0.98797	-0.12057	-1.61099	-0.15152
215.873	0.19725	0.04778	-1.68587	1.15965
219.866	1.97260	-0.03261	-3.35795	-0.54788
223.871	1.92956	-1.82300	-1.55383	1.23011
227.867	1.45852	-0.24240	-1.60464	0.95119
231.862	0.97308	-0.44850	-1.54857	0.89338
235.868	0.74985	-0.11566	-1.59903	1.15140
239.866	0.13595	-0.96438	-1.54807	1.24273
243.867	-0.01561	-1.51170	-5.76888	1.43827
247.864	1.49706	-1.88900	-5.79455	0.74986
251.874	0.20420	-0.44494	-1.46204	1.02977
255.866	0.68325	-1.95289	-1.52082	1.17407
259.866	1.05384	-1.86500	-1.67757	0.99312
263.861	0.17516	-2.36017	-1.64732	1.05807
267.869	0.44830	-0.53900	-1.67749	1.01998
271.866	0.37951	-0.02723	-1.63182	0.96913
275.867	-0.80620	-1.56681	-1.74595	1.11283
279.892	0.65838	0.96983	-4.69098	0.97870
283.869	0.18020	1.28272	-1.88935	0.58888
287.866	-0.91795	-0.44627	-2.48272	0.67905
292.051	NaN	NaN	NaN	NaN
299.870	2.13963	-0.25800	-1.55370	0.61469
303.862	2.02183	-0.84873	-1.82001	0.54545
307.859	1.76363	-0.15258	-1.51524	0.60785
311.868	1.61007	-0.24688	-1.46884	0.70947
315.864	1.51754	-0.27148	-1.39559	0.69114
319.866	1.78188	-0.03939	-1.11792	0.87607
323.867	2.21125	-0.21794	-1.32213	0.69255
327.864	2.08124	-0.29101	-1.30645	0.85045
331.883	2.15713	-0.30282	-1.08882	0.84113
335.865	2.11051	-0.36771	-1.00633	0.98743
339.873	2.43327	-0.48473	-0.89996	0.99841
343.863	2.88544	-0.61176	-1.05937	2.23483
347.878	2.63551	-1.03520	-0.82049	1.00688
351.866	2.40399	-0.40997	-0.86654	3.23594
355.866	2.42582	-0.62606	-0.62543	1.91492
359.860	1.94268	-3.56355	-0.70057	1.11841
363.867	2.61783	-0.63761	-0.61096	0.94636
367.864	2.58447	-0.81878	-0.41750	0.82452
371.865	2.61325	-0.71723	-0.64618	0.72188
375.859	0.20013	-2.19937	-0.66950	0.35586
379.867	1.71174	-1.59831	-0.29858	0.40043
383.863	1.03937	-1.47676	-0.59776	0.84712
387.864	1.53969	-0.93160	1.58763	-0.18319
391.863	7.51169	-6.14696	-0.57734	0.47771
395.865	5.52229	-0.86760	-0.40023	0.31659
399.861	-0.00295	-0.58103	-0.54543	-0.28190
403.865	1.16357	-1.91598	-0.60312	-0.42017
407.859	1.31726	-1.65629	0.46376	0.13841
411.863	1.31530	-3.20879	1.39941	0.53575
415.865	6.14923	-1.99252	-0.84029	0.66963
419.869	1.09348	-1.30335	-1.09224	0.21972
423.865	0.53624	-0.47007	-0.24862	0.60229
427.859	0.33087	0.48906	-0.73697	-0.48627
431.864	0.94835	-3.95588	0.13794	-0.61738
435.863	1.47216	-1.89219	-0.70332	0.61641
439.858	1.08941	0.33398	-1.53099	0.62607
443.865	-0.06718	0.97653	-0.78218	-0.37642
447.863	0.89823	-0.60426	0.06951	-0.18078
451.864	2.23288	-1.30173	-0.34692	0.17474
455.856	0.80486	0.47071	-0.92162	0.40871
459.870	-0.36417	0.25303	-0.81079	0.40258
463.862	0.02854	-0.56610	-0.34618	-0.05690
467.863	2.14900	-3.53247	-0.33955	0.31958
471.856	0.54156	0.17925	-0.73367	0.28229
475.865	2.69965	-1.15633	-0.84456	1.10685
479.863	0.30252	-4.06366	0.21087	0.76590
483.872	2.77456	-3.82849	-0.06572	0.34157
487.867	-0.07780	-2.85486	-0.20405	0.85305
491.864	-0.81660	0.00894	0.01730	1.64057
495.874	2.94604	-0.40115	0.27361	0.90837
499.863	-0.27299	-1.41615	-0.40331	0.17083
503.861	1.96085	-0.24065	0.16352	0.64600
507.866	-0.95750	0.10311	0.69079	0.95080
511.856	2.85121	-1.89236	1.55388	0.21256
515.864	4.10932	-3.22680	-0.57379	1.08324
519.860	0.06485	-0.37942	-0.40259	0.75746
523.856	2.39180	-0.22702	-0.08388	0.13105
527.864	-0.27778	-0.48076	0.03847	0.00825
531.859	3.81249	-2.74873	-0.06157	0.18018
535.861	0.58870	-3.63525	-0.24135	0.12815
539.863	1.60853	-0.38456	-0.93281	0.41293
543.859	-0.25974	-0.21723	-0.42509	0.42006
547.857	0.27791	-0.32087	-0.19239	0.56396
551.864	2.48596	-3.47163	0.84203	0.83525
555.861	0.70067	-0.35673	-0.10940	0.93283
559.855	0.38308	-0.36328	-0.18209	0.32333
563.868	4.37798	-0.52203	0.12111	1.21424
567.864	0.04765	-0.16815	-0.03115	2.30845
571.860	0.72064	-0.31807	0.37846	2.12661
575.861	0.97685	-0.31934	0.76342	1.23289
579.855	1.29923	0.77055	1.87069	1.11092
583.862	1.71828	-1.30541	1.06284	1.02561
587.860	4.56858	-0.92573	-0.11433	1.01650
591.866	1.50507	-1.12985	0.06371	1.05853
595.857	1.48692	-1.52968	0.38891	0.74410
599.859	1.67849	-0.83824	0.56471	0.79250
603.860	1.95815	-1.35656	0.31543	0.96536
607.854	5.66170	-3.43741	0.31076	0.83362
611.861	5.98643	-2.08113	0.03628	0.98085
615.860	1.55060	-1.22413	0.27130	0.81320
619.861	0.18345	-1.27055	-0.12610	0.78416
623.863	0.52873	-1.30038	0.20239	1.04841
627.859	0.28476	1.09404	0.06902	0.96187
631.864	5.45936	-1.49298	0.03470	0.94408
635.854	1.23449	-1.07651	0.25155	0.53036
639.862	1.29243	-1.43984	0.24602	1.11953
643.859	0.69618	1.92842	0.22264	1.17415
647.860	1.10115	2.26321	0.27123	1.08522
651.856	1.13538	-1.39339	0.31970	0.93776
655.860	0.11458	-0.82034	0.29262	0.28447
659.863	-1.15590	1.07254	0.39169	0.69888
663.856	0.73151	-0.35176	0.49783	0.77668
667.866	0.18070	1.79304	0.62536	1.00007
671.859	1.24027	1.50864	0.55543	0.76798
675.859	0.38740	-0.46297	0.50500	0.61614
679.853	1.25277	0.14578	0.43857	0.93988
683.862	0.34615	0.38485	0.68136	0.72946
687.865	1.44589	-0.64674	0.61493	0.58400
691.862	1.15875	-0.85611	2.37084	0.43485
695.856	0.17293	-0.17551	2.09888	0.64952
699.862	0.18976	0.53794	0.57640	1.07067
703.859	0.03909	-0.63723	0.82610	1.26811
707.861	1.60997	-0.41464	0.42765	1.12773
711.853	-0.41023	-0.58819	0.37410	0.77374
715.885	4.10471	-4.81332	0.57377	0.72592
719.863	0.59940	0.17863	0.68364	0.75971
723.862	2.73120	0.04505	0.77072	0.67243
727.857	2.14312	1.05575	0.65124	0.58531
731.857	0.20465	0.40349	0.54007	0.57285
735.855	-0.24128	0.93230	0.62952	0.12712
739.859	-0.02569	1.07713	0.20241	-0.43823
743.857	1.38679	0.67835	0.14781	0.63599
747.858	-0.03149	1.25217	0.29376	0.55781
751.851	0.73278	1.13859	0.18983	0.56835
755.858	0.75146	1.06040	0.13526	0.55002
759.858	1.40693	0.89065	2.42624	0.66756
763.857	0.47358	1.06572	2.38350	0.66404
767.855	-0.56203	1.40418	1.78808	0.64626
771.859	-0.46495	0.77939	2.04921	0.62235
775.856	1.27825	0.76412	1.51305	0.57407
779.857	-1.12596	0.64128	0.19546	0.62721
783.851	3.74444	0.13087	0.53833	0.74975
787.856	1.58988	0.10390	0.15568	0.68801
791.857	7.94270	-0.30032	-0.05286	0.73927
795.851	1.77263	-0.02173	0.48398	0.75365
799.858	1.24932	0.96336	0.50009	1.56569
803.857	1.68010	-1.87684	0.22172	1.07067
807.856	-1.15339	-0.10554	-1.01060	2.49929
811.854	-0.76263	4.70379	-1.45314	6.58859
815.859	-3.08787	3.85395	-4.27429	4.85419
819.857	-3.80181	4.75020	-4.30282	7.11607
823.869	-3.48281	6.15714	-5.08069	9.59794
827.857	1.60843	2.90079	-4.90191	7.60287
831.850	-7.16339	6.12295	-4.88961	8.81057
835.859	-6.70183	6.84317	-5.08542	9.29168
839.862	-6.91319	6.83950	-4.88658	7.89668
843.856	-5.93662	3.95763	-4.70407	3.31052
847.859	-5.35160	6.65865	-5.10861	7.50819
851.855	-5.98768	5.97788	-5.31362	7.82876
855.857	-6.65593	6.18003	-5.48265	7.79543
859.852	-6.85657	6.44087	-5.41962	7.45477
863.859	-8.21329	8.28922	-5.52969	7.76673
867.856	-5.36068	6.75533	-5.64845	7.28726
871.856	-5.26261	6.73963	-5.78784	7.66229
875.850	-4.53791	6.65371	-6.13603	7.69488
879.856	-4.73246	6.68194	-6.28069	7.27326
883.856	-5.10113	6.19910	-6.57967	7.27081
887.735	-5.32257	5.57012	-6.52574	7.62934
891.732	-5.29132	6.58861	-6.94291	7.54906
895.856	-5.09620	7.08861	-6.33159	7.10292
899.730	-5.16785	8.05698	-6.10298	6.95771
903.727	-5.13624	7.66117	-6.19591	6.89622
907.735	-4.92528	7.53743	-6.23447	7.21923
911.731	-5.03588	6.83071	-6.01675	7.47701
915.724	-5.13190	5.25104	-5.92726	7.87434
919.733	-5.33795	7.03062	-6.30291	8.25361
923.730	-5.31893	6.68731	-5.32314	8.00469
927.726	-5.96200	5.42701	-3.74708	7.88458
931.733	-6.40479	6.02383	-5.41071	6.99418
935.757	-6.25016	6.63296	-5.61463	6.93379
939.723	-5.24732	6.39467	-5.67214	6.95423
943.732	-5.84343	6.84050	-5.43826	6.90984
947.729	-5.03560	6.40698	-5.53677	6.99613
951.730	-4.20805	5.88645	-5.56291	7.04518
955.723	-4.10404	6.58898	-5.62365	7.19954
959.731	-4.10895	6.28050	-5.62490	7.31826
963.731	-4.34033	6.13239	-5.55261	7.50042
967.728	-4.44859	6.31315	-5.72861	7.25959
971.733	-5.12952	6.72325	-5.88122	7.48600
975.732	-5.65422	6.66129	-6.42231	7.25965
979.727	-4.94962	6.27529	-6.00334	7.17805
983.728	-5.12031	6.69261	-6.59422	7.38958
987.723	-6.39611	5.79067	-6.35888	7.37774
991.730	-5.22298	5.93812	-4.73515	7.51708
995.728	-5.54998	6.41620	-5.83569	7.40443
999.729	-3.28659	6.52716	-6.57867	6.66481
1003.722	-4.44827	6.31854	-6.10171	6.47275
1007.727	-5.42387	6.71860	-6.10306	6.13079
1011.733	-3.64625	6.78636	-6.43488	6.19517
1015.723	-4.24692	6.28557	-6.09881	6.80221
1019.730	-3.99232	6.24052	-5.31652	6.46482
1023.728	-4.78580	6.40779	-5.68718	6.75886
1027.729	-5.29725	6.49152	-5.95744	6.92811
1031.730	-5.29108	6.47126	-6.03861	6.53773
1035.731	-5.14941	6.44935	-5.98567	6.61178
1039.728	-5.04747	6.43790	-6.21814	6.68239
1043.731	-5.30596	6.61737	-6.14329	6.75310
1047.731	-5.33849	6.54270	-5.80983	6.83544
1051.729	-4.67108	6.71309	-6.12936	6.84589
1055.723	-4.79980	6.76912	-5.72138	7.24503
1059.730	-5.28042	8.73967	-6.23822	8.49171
1063.725	-5.86450	8.66407	-6.42317	10.72377
1067.722	-6.25460	7.78473	-6.15870	10.52761
1071.729	-8.98385	8.35745	-9.75594	10.84822
1075.727	-8.74612	8.28781	-10.04068	11.28604
1079.727	-9.19609	7.35680	-9.73627	11.25541
1083.721	-9.19977	8.36549	-10.13210	11.35649
1087.731	-7.51200	8.79536	-10.06949	10.53276
1091.725	-7.50425	9.06349	-9.95331	10.79350
1095.728	-8.14035	8.44756	-10.01703	9.82839
1099.731	-7.99357	8.60731	-9.76546	10.28887
1103.724	-8.53003	8.28019	-10.11738	10.67927
1107.730	-8.86415	8.39634	-10.17317	10.26641
1111.727	-9.00382	8.45977	-10.25170	10.50082
1115.727	-8.85385	8.41808	-10.27640	10.12578
1119.723	-9.48147	8.13630	-10.25841	10.22323
1123.725	-7.93841	8.59283	-10.15329	10.02967
1127.727	-8.04647	8.53434	-10.08296	9.73020
1131.725	-8.14103	8.56051	-10.18255	9.54330
1135.735	-8.33039	8.42213	-10.28316	9.69019
1139.726	-8.70260	8.91450	-10.14179	9.54369
1143.727	-8.28984	8.48782	-10.40031	9.75341
1147.721	-8.36807	8.66990	-10.23348	9.46414
1151.729	-8.93384	8.75014	-10.40793	9.12996
1155.726	-8.90352	8.75457	-10.34662	9.38794
1159.757	-9.31890	8.86082	-10.41671	9.78258
1163.728	-8.96896	8.87601	-10.32366	9.40463
1167.724	-8.78350	8.91219	-10.40528	9.00003
1171.715	-8.62641	9.01624	-8.73407	8.86823
1175.724	-8.88467	8.88278	-8.31044	9.19902
1179.723	-8.94358	9.23214	-9.13562	10.08723
1183.720	-8.83028	9.01726	-9.49849	10.07076
1187.714	-8.91609	9.06449	-10.42168	9.87069
1191.723	-8.99692	9.05059	-10.30387	10.15076
1195.719	-9.46657	9.19609	-10.29685	10.63148
1199.721	-7.52935	8.95897	-10.47463	10.46547
1203.714	-8.61686	9.04927	-10.37282	9.71391
1207.726	-8.84121	8.69727	-10.15612	8.86766
1211.720	-7.28332	8.89551	-10.40805	9.20825
1215.721	-7.79853	8.59846	-9.89571	8.87945
1219.724	-8.43962	8.66669	-10.13369	8.51836
1223.719	-7.98885	8.65339	-10.03621	9.24696
1227.726	-8.05891	8.50513	-9.92716	9.37738
1231.724	-8.66809	8.48222	-10.08392	9.68077
1235.723	-9.36319	8.55988	-10.02261	10.58186
1239.715	-9.76191	8.51640	-10.18983	10.02051
1243.723	-8.48653	8.06729	-10.14475	9.96218
1247.718	-8.77327	8.47234	-10.38689	10.15703
1251.719	-9.19157	8.33670	-10.01084	9.98008
1255.714	-8.88046	9.64511	-10.12419	8.82246
1259.721	-8.37604	7.78864	-10.17271	8.97264
1263.717	-8.04484	7.79390	-10.08683	8.78978
1267.718	-7.86944	7.41949	-10.16685	8.48725
1271.713	-8.69004	7.99891	-10.21579	9.36517
1275.722	-8.05336	8.28391	-10.27792	9.01995
1279.718	-9.01728	7.95665	-10.29748	8.61901
1283.719	-9.24199	8.03607	-10.27994	9.01880
1287.724	-9.54607	7.98615	-10.33055	9.11185
1291.717	-10.03000	7.63054	-10.30785	9.56126
1295.720	-9.53733	8.07710	-10.32164	9.13227
1299.735	-10.53185	9.44104	-10.32750	9.23678
1303.719	-9.40045	8.13819	-10.28034	9.23328
1307.722	-10.07680	9.38090	-10.06580	9.66930
1311.718	-9.81489	8.18822	-10.12205	9.51450
1315.719	-9.24723	8.18852	-10.22101	9.75706
1319.714	-9.31820	8.51565	-10.06970	9.62572
1323.718	-9.10603	8.33796	-9.81048	9.70547
1327.719	-8.72801	8.26699	-10.11875	9.70679
1331.715	-9.24776	8.22900	-10.00988	9.66568
1335.722	-9.48777	8.28378	-9.96956	9.71268
1339.717	-8.71644	8.33723	-10.07338	9.57418
1343.749	-8.04292	8.17494	-10.24060	9.65152
1347.719	-8.14930	8.18706	-9.94318	9.75511
1351.723	-9.06090	8.26230	-10.16084	9.55978
1355.722	-8.52513	8.26437	-10.24156	9.48508
1359.716	-9.32465	8.18869	-10.10648	9.66485
1363.725	-9.15207	8.72448	-10.24283	9.55763
1367.737	-9.33106	8.97938	-10.35179	9.39819
1371.723	-9.19609	8.71490	-10.23928	9.40155
1375.716	-9.46520	9.67264	-10.26122	9.34819
1379.719	-9.54964	9.40736	-10.40490	9.40915
1383.718	-9.29263	10.29917	-10.16363	9.28646
1387.722	-8.92127	8.98039	-10.13328	9.25273
1391.714	-8.93128	9.53169	-10.05575	9.24596
1395.717	-8.59441	9.20287	-10.23178	9.20439
1399.710	-8.32976	8.78913	-10.15165	9.24532
1403.718	-8.24507	8.29938	-10.02682	9.32349
1407.716	-8.12310	8.27917	-9.90337	9.45381
1411.716	-8.05239	8.30433	-9.98239	9.30636
1415.719	-7.91222	8.02158	-9.89210	9.33642
1419.715	-8.21930	8.01389	-9.97640	9.59951
1423.712	-8.00099	8.12007	-10.13515	9.76602
1427.723	-8.03806	8.09660	-10.07949	9.38904
1431.713	-8.19829	7.88384	-10.11890	9.82922
1435.731	-8.17804	7.89871	-10.09537	9.65930
1439.718	-8.41854	7.96433	-10.22493	9.81714
1443.710	-8.50969	7.93477	-10.09222	9.84106
1447.717	-8.38175	7.66179	-10.10834	9.79246
1451.714	-9.16071	8.00716	-10.13588	9.76761
1455.717	-8.84736	7.80451	-10.16718	9.76010
1459.711	-9.05717	7.82851	-10.19183	9.89556
1463.723	-9.32818	7.80206	-10.27984	9.82326
1467.714	-9.65978	8.65076	-10.13111	9.86870
1471.727	-9.92858	8.17637	-9.55876	9.77100
1475.740	-9.89559	8.20497	-9.93157	9.69161
1479.720	-9.59515	8.57745	-10.05438	9.42691
1483.721	-9.53154	9.31299	-8.96470	9.75558
1487.716	-9.20456	9.90129	-8.89591	9.68782
1491.723	-9.31825	9.30174	-10.02723	9.55870
1495.721	-9.15756	9.69857	-9.93949	9.38311
1499.722	-8.90306	9.77971	-10.10158	9.40632
1503.786	-8.48287	8.74123	-10.05173	9.03366
1507.717	-8.73216	9.03082	-10.17644	9.05347
1511.731	-8.82061	9.84576	-10.15461	9.22953
1515.722	-8.87658	9.38969	-10.30495	9.03043
1519.716	-8.98501	8.68536	-9.93959	9.02789
1523.721	-8.26991	8.84016	-10.22488	9.18319
1527.720	-8.77553	9.39788	-10.13982	9.31175
1531.716	-8.37696	8.72087	-10.17916	10.67294
1535.728	-8.21342	8.15385	-10.33000	9.88050
1539.713	-7.90226	8.25328	-10.39587	9.36365
1543.710	-7.83656	8.15355	-10.45116	9.41653
1547.718	-8.04830	7.97192	-10.40358	9.38574
1551.717	-8.53020	8.25555	-10.55879	10.44872
1555.712	-8.59951	8.25221	-10.08260	9.89041
1559.720	-9.08401	7.96636	-10.27720	9.86017
1563.712	-8.91466	7.70457	-10.10704	9.78280
1567.714	-9.54604	8.34482	-10.23272	9.98949
1571.714	-9.16721	7.86381	-9.98986	10.20134
1575.714	-9.41537	7.88743	-10.31470	10.01214
1579.713	-9.48825	7.72511	-10.49071	9.95447
1583.716	-9.87921	8.13510	-10.29200	10.08723
1587.714	-10.13070	7.70588	-10.34091	10.37949
1591.714	-10.45896	7.77045	-10.51587	10.32889
1595.711	-10.38528	7.75662	-10.50726	10.37527
1599.716	-10.09309	7.83337	-10.39213	10.26106
1603.719	-9.57599	8.26358	-10.33430	10.36525
1607.710	-9.84997	7.79156	-10.34352	10.81460
1611.716	-9.78426	7.85171	-10.27508	10.74328
1615.713	-7.16820	7.90286	-10.38778	10.74695
1619.713	-9.71059	7.90048	-10.45836	10.97156
1623.716	-8.50207	7.93097	-10.57721	11.49312
1627.711	-9.55101	8.88466	-10.53250	11.11204
1631.712	-7.16036	8.26937	-10.02747	10.68745
1635.712	-8.53770	8.47709	-10.16879	10.67618
1639.716	-9.23065	8.54909	-9.73887	10.80283
1643.717	-9.26019	9.12356	-8.26908	10.49007
1647.712	-8.41514	8.51135	-7.77758	10.46827
1651.713	-8.44890	9.12247	-7.53944	10.52927
1655.707	-8.15878	8.37785	-9.92562	7.50540
1659.716	-8.83999	8.62794	-9.77291	8.05547
1663.712	-7.49917	8.89424	-9.92880	9.53148
1667.707	-8.43787	9.76011	-10.33795	8.98225
1671.719	-8.61271	9.49616	-10.22964	8.92251
1675.712	-8.21485	8.42632	-10.49591	9.23200
1679.713	-8.21259	8.46571	-10.39074	9.06073
1683.707	-8.12897	8.74580	-10.40449	9.70570
1687.717	-8.31299	8.63532	-10.57124	9.66364
1691.712	-8.28879	8.50062	-10.38689	9.34595
1695.711	-8.23729	7.94973	-10.55581	9.54987
1699.715	-8.94053	8.32433	-10.64825	9.95112
1703.711	-8.25343	8.20116	-10.51899	10.84765
1707.713	-8.41179	8.14265	-10.47801	10.34204
1711.716	-9.04125	8.19472	-10.33598	10.33144
1715.712	-9.48893	8.21126	-10.40202	10.61945
1719.719	-9.53472	8.38388	-9.96494	10.82285
1723.711	-9.32767	7.99110	-10.11577	10.55958
1727.706	-9.71327	8.35871	-10.29500	10.62818
1731.714	-9.74429	8.35734	-10.26749	10.24955
1735.712	-9.49958	8.41783	-9.94628	10.49600
1739.588	-9.58499	8.63763	-10.23851	10.15589
1743.587	-9.43453	8.64272	-9.90359	10.05491
1747.595	-9.75878	8.59021	-10.12188	10.21299
1751.588	-9.73590	8.08591	-10.17401	10.06563
1755.584	-10.07581	7.56276	-10.31806	10.30348
1759.586	-9.71249	8.23831	-10.18772	10.18248
1763.580	-9.72759	8.57937	-10.34655	10.27281
1767.631	-9.87965	7.44977	-9.97387	9.79635
1771.593	-9.87570	8.14967	-10.12763	10.11199
1775.595	-9.96925	8.22310	-10.22988	10.98666
1779.588	-10.19106	8.25079	-10.26855	10.40550
1783.579	-10.03455	7.99858	-10.18041	9.80628
1787.588	-10.19539	7.64792	-10.32395	10.24037
1791.585	-10.26369	7.66603	-10.28508	10.20865
1795.580	-10.27107	8.09504	-10.36826	10.55224
1799.586	-10.18637	8.04114	-10.35414	10.55348
1803.585	-10.21478	8.06949	-10.51827	10.20424
1807.599	-10.49063	7.89853	-10.35966	10.08093
1811.582	-9.35348	8.03453	-10.18736	10.22933
1815.587	-10.22257	8.26639	-10.32611	10.26705
1819.583	-10.07986	8.26138	-10.19183	9.73087
1823.580	-10.35733	7.88273	-10.07658	9.91035
1827.590	-10.37811	7.88883	-10.09248	10.17556
1831.586	-10.26701	7.84737	-9.88957	10.23494
1835.586	-10.25110	8.18288	-9.72882	10.09097
1839.579	-10.14032	6.54853	-9.90657	10.09658
1844.033	-10.56845	7.83479	-9.78435	10.01435
1847.594	-10.24310	6.71022	-9.95767	10.22081
1851.589	-10.53274	7.73604	-9.76172	9.70813
1855.585	-10.47516	7.64856	-9.98092	9.94776
1859.587	-10.59359	7.72503	-9.83274	10.14168
1863.580	-10.51568	7.00850	-9.28690	9.57504
1867.587	-10.69208	7.52323	-9.18419	9.24478
1871.583	-10.99358	7.23679	-9.83105	9.91651
1875.584	-10.95114	8.14262	-10.11546	9.86354
1879.580	-10.40442	7.93683	-10.30687	9.87616
1883.589	-10.40718	7.99613	-9.99789	9.39978
1887.584	-9.95998	7.94722	-10.29522	9.51475
1891.589	-10.15028	8.15608	-10.47487	9.65297
1895.579	-10.59253	8.25778	-10.55296	9.56722
1899.586	-9.92490	8.15509	-10.70521	9.76962
1903.583	-10.25471	7.17009	-7.38175	9.79260
1907.584	-9.70167	8.20124	-7.31399	9.95565
1911.590	-9.68809	8.14682	-7.66746	9.96050
1915.585	-9.55811	8.15318	-7.57444	9.85396
1919.585	-9.58743	8.11995	-7.51669	9.99485
1923.586	-9.43771	7.34414	-7.73421	10.16008
1927.582	-9.54385	8.22278	-7.93140	10.32650
1931.587	-9.58161	8.09975	-8.13806	10.45292
1935.579	-9.59182	8.05390	-8.14689	10.56099
1939.586	-10.40444	7.89626	-8.95344	10.26366
1943.583	-9.09529	8.15578	-9.39948	10.49443
1947.584	-9.50641	8.24796	-7.72987	10.58327
1951.578	-9.40992	8.39814	-7.79546	10.63453
1955.586	-8.99256	8.55951	-7.97437	10.56266
1959.582	-9.73844	8.64036	-8.49717	10.64543
1963.579	-8.75589	8.67956	-9.27837	10.55702
1967.586	-9.18591	9.36117	-9.59221	10.50834
1971.582	-8.78134	8.77969	-9.50175	10.28063
1975.579	-8.72680	8.29239	-9.69262	10.14766
1979.584	-8.99126	8.18848	-9.78438	10.17470
1983.580	-9.04657	8.53950	-9.62774	10.05972
1987.585	-9.05969	8.12996	-9.20511	9.98680
1991.579	-9.23848	8.52979	-9.26389	9.93349
1995.582	-9.68267	8.32109	-9.32514	9.97761
1999.576	-9.97585	8.29129	-9.36440	9.91475
2003.583	-9.76437	7.99439	-9.43474	10.00581
2007.581	-10.46613	7.71195	-9.62784	10.27360
2011.576	-10.90664	8.17660	-9.36505	9.81814
2015.590	-10.28943	7.23881	-9.43564	10.07552
2019.594	-10.14518	5.60068	-9.41706	10.42544
2023.587	-10.12231	8.71186	-9.30907	10.21125
2027.583	-9.99816	7.55994	-9.38182	10.18969
2031.577	-10.02297	8.23676	-9.39767	10.49553
2035.582	-10.03722	7.42858	-9.53296	10.49995
2039.582	-9.82084	8.18268	-9.55152	10.64168
2043.576	-9.62837	8.22246	-9.68226	10.43506
2047.993	-9.82484	7.47343	-9.57602	10.57720
2051.584	-9.66769	7.81984	-9.54715	10.62058
2055.577	-9.71011	8.15234	-9.64111	10.80448
2059.583	-9.57358	7.96521	-9.56817	10.58949
2063.579	-9.24984	7.30261	-9.71645	10.73851
2067.575	-9.34568	6.87105	-9.56928	10.59154
2071.583	-8.93234	7.18383	-9.52997	10.37195
2075.580	-9.13069	8.46081	-9.64285	10.29175
2079.584	-8.94791	8.58435	-9.45261	10.10245
2083.580	-8.62062	8.38713	-9.59986	10.02179
2087.586	-8.97634	7.68770	-9.55886	10.08121
2091.583	-8.60669	7.76011	-9.49675	9.89447
2095.582	-8.66532	7.05324	-9.58972	9.90212
2099.584	-9.04485	8.11413	-9.52437	10.16794
2103.577	-9.04810	7.87990	-9.62340	9.90285
2107.579	-8.56945	7.78679	-9.50759	9.79129
2111.575	-8.73991	8.19044	-9.55140	9.71170
2115.616	-8.77817	8.15326	-9.69819	10.07003
2119.590	-8.82582	8.13100	-9.68158	9.82449
2123.586	-8.90739	8.23824	-9.66501	10.01816
2127.580	-8.79802	7.51511	-9.70926	10.20732
2131.587	-8.55037	8.12357	-9.73132	10.57294
2135.583	-8.29606	8.25317	-9.79154	10.68137
2139.590	-9.04004	8.50639	-9.82814	10.57440
2143.579	-8.71851	7.79687	-9.83371	10.63504
2147.587	-8.57879	8.12254	-9.82508	10.70748
2151.583	-9.23500	8.47870	-9.84886	10.93964
2155.584	-9.23311	8.30529	-9.78896	10.86849
2159.579	-9.25760	7.91303	-9.77375	10.94218
2163.598	-8.99070	7.55344	-9.75830	10.97588
2167.585	-9.65283	8.29649	-9.81281	11.01697
2171.579	-9.57592	8.28532	-9.80975	11.03889
2175.587	-9.32166	7.96947	-9.76582	10.92628
2179.582	-9.33562	7.81292	-9.76129	10.86049
2183.626	-9.87047	7.72508	-9.55567	10.58587
2187.593	-9.61896	7.86366	-9.43755	10.35801
2191.583	-9.49769	7.41953	-9.49938	9.66376
2195.585	-9.27772	7.83909	-9.63800	10.06731
2199.579	-9.30969	7.95235	-8.30566	9.48438
2203.586	-8.89012	8.25380	-7.70426	9.53931
2207.583	-7.85904	8.09290	-7.28876	9.21193
2211.585	-6.81647	7.91402	-7.37607	9.22913
2215.578	-9.17885	8.24692	-7.26280	9.42654
2219.586	-9.48977	8.04491	-8.53023	9.67143
2223.603	-9.33311	8.71225	-8.93861	9.91322
2227.584	-9.29033	7.83414	-9.45785	9.76786
2231.576	-9.60278	7.85740	-9.36689	9.80300
2235.578	-9.57638	7.56498	-9.53451	9.65603
2239.572	-9.30136	8.30028	-9.19578	9.85727
2243.580	-9.44650	8.10106	-9.21694	9.89190
2247.576	-8.80059	7.83304	-8.91982	9.76828
2251.609	-8.50780	8.20225	-9.67193	10.13412
2255.585	-8.50459	7.61431	-8.17824	9.84342
2259.581	-7.99693	7.90615	-7.69290	9.77367
2263.584	-8.60511	8.07611	-9.24561	9.80971
2267.576	-9.72653	7.91121	-8.08166	9.76581
2271.585	-9.83970	7.57000	-8.55035	10.02435
2275.581	-9.00232	8.54714	-9.45530	10.88727
2279.583	-9.04824	8.69240	-9.65623	11.18343
2283.585	-8.98724	8.57658	-9.63595	10.68731
2287.580	-8.67876	8.09040	-9.03106	10.42151
2291.582	-8.61737	8.52578	-9.51696	9.96160
2295.578	-8.80769	9.09760	-8.70330	10.02216
2299.584	-9.25238	8.29811	-9.02513	10.19082
2303.583	-9.32816	9.00197	-9.15899	10.31190
2307.588	-9.18855	8.99129	-9.02363	10.33455
2311.577	-9.18378	8.75414	-9.28586	11.25066
2315.587	-9.07678	9.14548	-9.26882	11.30269
2319.590	-9.00879	8.87052	-5.93006	10.36753
2323.587	-8.92178	8.61995	-8.59230	10.41090
2327.577	-8.93941	8.77267	-8.87980	9.08187
2331.581	-11.62901	6.22643	-8.52690	9.57761
2335.576	-11.89709	9.20140	-8.84227	9.35536
2339.583	-8.82921	8.55427	-8.46393	9.68293
2343.581	-8.89531	8.22822	-8.60162	9.85883
2347.582	-9.09488	8.54024	-8.77007	10.09833
2351.584	-8.94787	7.58879	-9.01869	9.79368
2355.580	-8.86849	8.15528	-8.84627	9.84034
2359.581	-8.82645	8.25656	-8.91650	10.22188
2363.575	-8.81448	8.09201	-8.51285	9.92145
2367.584	-8.91405	8.28409	-8.41388	10.01432
2371.579	-8.93685	9.18177	-8.53324	10.12394
2375.582	-10.76896	8.65855	-8.35048	10.30110
2379.575	-9.79040	8.45079	-8.31355	9.93802
2383.611	-9.05011	8.44996	-8.20075	10.20015
2387.586	-9.02721	8.33844	-7.76262	10.05819
2391.583	-8.87607	8.82294	-7.92697	10.53956
2395.580	-9.15592	8.87264	-7.88899	10.23045
2399.574	-9.27796	8.86989	-9.83592	10.00976
2403.583	-9.29746	8.78475	-9.65134	9.59442
2407.579	-9.00189	8.77984	-7.81663	9.45996
2411.576	-8.83692	8.80604	-7.71403	9.62981
2415.583	-10.53967	8.91800	-9.07070	9.85888
2419.578	-9.25216	9.07333	-9.34026	9.72190
2423.574	-9.89369	8.70520	-9.61537	9.70000
2427.581	-9.12052	8.93153	-9.42245	9.56921
2431.588	-7.32260	8.68284	-9.17827	9.50245
2435.579	-9.46097	9.50344	-9.47570	9.24779
2439.572	-10.06768	8.62587	-9.18349	9.44816
2443.582	-9.18547	9.13514	-8.71686	9.88662
2447.578	-10.02942	9.19472	-9.19440	10.92121
2451.580	-10.35611	9.01329	-8.90936	10.81242
2455.581	-9.56397	8.66136	-8.89034	10.03529
2459.579	-9.63356	8.84879	-8.72372	10.35088
2463.579	-10.03722	8.63169	-9.34159	10.92376
2467.582	-10.92512	8.06288	-9.66385	9.35846
2471.583	-10.39674	8.62476	-9.94558	9.85455
2475.574	-9.92338	8.53221	-9.66590	9.15875
2479.573	-9.77536	8.97680	-8.54027	8.80071
2483.581	-10.95868	8.81594	-9.39458	9.65047
2487.579	-10.07442	8.79891	-9.41426	9.91887
2491.579	-10.82845	9.27197	-9.32287	9.67549
2495.572	-10.16302	8.88225	-9.40091	9.41726
2499.581	-9.35882	8.51728	-10.03840	9.55824
2503.578	-8.82058	8.84719	-10.37645	9.80995
2507.579	-9.04919	8.29130	-10.00305	9.77646
2511.572	-9.10531	8.35010	-9.09369	9.64500
2515.584	-10.35844	8.60573	-9.59858	9.18827
2519.577	-11.22277	7.84899	-9.84655	9.72996
2523.581	-11.10178	8.69977	-10.04713	10.63700
2527.580	-10.78271	8.94316	-6.99221	9.86242
2531.577	-11.10570	8.60897	-9.46853	9.57289
2535.580	-10.60721	8.73593	-9.62480	9.98112
2539.577	-10.10586	8.27606	-10.09795	10.01317
2543.577	-10.46361	8.61250	-8.53935	9.99744
2547.572	-10.35690	8.65031	-9.46206	10.15657
2551.580	-10.46088	8.92479	-9.60060	10.28167
2555.582	-10.19063	8.63629	-9.56820	9.56300
2559.578	-10.12676	8.70540	-9.79204	10.09356
2563.578	-9.88003	8.48158	-9.40987	9.70239
2567.576	-9.77541	9.11498	-8.99305	9.83191
2571.578	-9.76698	8.97795	-9.24187	9.30667
2575.572	-9.46696	8.68336	-6.55866	9.45499
2579.581	-9.56349	8.44308	-9.30189	9.30797
2583.577	-9.17195	8.52739	-9.08329	9.21785
2587.578	-9.60434	8.99356	-8.63212	9.32124
2591.577	-9.64632	8.04394	-9.01920	9.45166
2595.456	-8.99603	8.44194	-9.23558	9.14639
2599.495	-8.86122	8.26646	-9.38293	9.24827
2603.452	-8.98862	8.14943	-9.87191	9.45880
2607.453	-9.38781	8.06358	-9.36457	9.70035
2611.449	-9.81284	8.50510	-8.94992	9.25594
2615.452	-8.56537	7.89390	-9.43989	9.30866
2619.445	-9.11005	8.40957	-9.60876	9.42156
2623.450	-9.20233	7.88140	-9.76748	10.12270
2627.451	-9.02096	8.15088	-8.67415	10.14453
2631.445	-9.73482	8.61886	-9.31363	9.19475
2635.453	-10.06354	7.55547	-9.63076	9.58306
2639.450	-10.11933	8.69642	-9.07341	9.79350
2643.452	-9.68549	8.25832	-9.78375	8.26569
2647.445	-10.21870	8.63788	-9.57976	9.47574
2651.453	-10.52130	7.73851	-9.41112	9.83840
2655.450	-10.48140	8.28097	-9.20190	9.87091
2659.451	-10.76319	8.30702	-9.68648	9.11849
2663.448	-10.88566	8.32903	-9.54204	9.58979
2667.450	-11.01742	7.06584	-9.16644	9.61002
2671.445	-9.10223	7.91777	-9.19287	9.17335
2675.453	-9.67680	7.88478	-9.27163	9.31141
2679.449	-10.74563	8.92368	-9.12466	8.90631
2683.451	-9.96756	8.40231	-9.42496	8.95944
2687.452	-10.08238	8.33081	-8.97140	9.13366
2691.449	-10.48838	8.55212	-7.97412	8.88508
2695.445	-10.13135	8.87390	-9.29862	9.72388
2699.453	-10.74185	8.70446	-9.29749	10.11403
2703.449	-11.40283	8.70055	-8.75720	8.82264
2707.451	-10.58661	8.78051	-8.84094	10.27064
2711.444	-9.68028	8.45933	-9.21430	10.52510
2715.452	-8.86662	8.85945	-9.48384	9.23964
2719.448	-9.48381	8.71962	-9.26046	10.77645
2723.444	-9.91300	9.12440	-8.54008	11.12305
2727.462	-10.25571	9.30008	-9.24300	10.71007
2731.453	-10.19442	8.94727	-9.47650	10.93596
2735.448	-10.58215	9.30593	-6.26689	9.86858
2739.450	-10.08743	11.17291	-9.57025	11.67822
2743.444	-12.26524	9.40091	-9.59339	11.45357
2747.453	NaN	NaN	-9.42752	11.70167
2751.448	-14.90433	14.01135	NaN	NaN
2755.450	NaN	NaN	NaN	NaN
2759.444	NaN	NaN	NaN	NaN
2763.452	NaN	NaN	NaN	NaN
2767.459	NaN	NaN	NaN	NaN
2771.465	NaN	NaN	NaN	NaN
2775.451	NaN	NaN	NaN	NaN
2779.471	NaN	NaN	NaN	NaN
2783.453	NaN	NaN	NaN	NaN
2787.456	NaN	NaN	NaN	NaN
2791.619	NaN	NaN	NaN	NaN
2796.639	NaN	NaN	NaN	NaN
2800.439	NaN	NaN	NaN	NaN
2804.383	NaN	NaN	NaN	NaN
2808.622	NaN	NaN	NaN	NaN
2812.346	NaN	NaN	NaN	NaN
2816.317	NaN	NaN	NaN	NaN
2820.244	NaN	NaN	NaN	NaN
2824.334	NaN	NaN	NaN	NaN
2828.622	NaN	NaN	NaN	NaN
2832.442	NaN	NaN	NaN	NaN
2836.235	NaN	NaN	NaN	NaN
2840.130	NaN	NaN	NaN	NaN
2844.068	NaN	NaN	NaN	NaN
2848.347	NaN	NaN	NaN	NaN
2852.401	NaN	NaN	NaN	NaN
2856.540	NaN	NaN	NaN	NaN
2860.816	NaN	NaN	NaN	NaN
2866.020	6.00496	6.58604	13.36861	5.40823
2868.813	5.43590	6.47206	NaN	NaN
2871.527	4.36375	6.02992	2.81298	11.56689
2875.453	4.25978	5.99067	NaN	NaN
2879.445	3.69706	3.51239	11.71261	14.38381
2883.437	3.15760	5.02989	2.89978	8.27390
2887.444	0.87552	5.68424	3.56349	8.00032
2891.442	3.42747	4.22347	4.41618	8.39599
2895.446	3.92433	4.00545	3.68915	8.87622
2899.435	4.32360	4.66850	4.33925	8.67926
2903.444	3.93836	3.60522	4.08641	9.13299
2907.442	4.09905	3.00416	4.10500	8.48296
2911.448	3.94031	3.38019	4.22466	8.06956
2915.445	8.50792	3.66953	4.11634	7.93687
2919.441	3.21159	6.82241	3.15451	7.46677
2923.437	4.18072	6.72896	3.04115	8.81725
2927.443	3.33030	6.48842	3.22151	8.87159
2931.439	2.20775	5.76201	4.10974	8.20356
2935.447	3.55926	6.69004	4.40463	7.79825
2939.442	3.40405	5.07522	3.83846	7.80977
2943.439	2.63925	3.93756	3.60885	8.28271
2947.435	2.80555	3.57080	2.78639	8.72930
2951.443	2.96532	5.35727	3.40850	8.20745
2955.440	3.29726	6.87165	3.67947	8.30914
2959.441	3.03633	6.29185	3.25162	7.87227
2963.442	4.16218	5.66006	3.95046	7.71012
2967.446	4.12419	5.14012	4.23821	7.69802
2971.441	3.77827	4.69686	4.03796	6.53751
2975.440	3.42831	4.41587	4.71654	6.16125
2979.442	3.29973	4.16947	4.20746	7.89280
2983.442	3.50019	4.11185	4.04885	7.60778
2987.436	3.44725	4.35174	3.64546	7.88275
2991.446	3.28303	4.32361	3.40467	7.86261
2995.439	3.73416	4.26366	3.36832	7.87805
2999.440	5.17218	4.26411	3.68975	7.65209
3003.441	4.45562	4.13508	4.15961	8.19351
3007.466	4.50209	4.05001	4.09068	7.84609
3011.442	4.16932	3.90003	4.37191	7.63061
3015.448	3.77693	3.82669	4.32128	7.79514
3019.490	3.69163	3.89379	4.09895	7.77191
3023.447	3.76080	3.83469	3.88283	7.76960
3027.445	3.12546	3.94515	3.60114	7.64747
3031.438	3.64281	3.91044	3.93359	7.69370
3035.442	3.47544	4.10244	4.28424	7.66419
3039.444	3.24236	4.53992	4.53112	7.58169
3043.442	3.75815	4.41810	4.12725	7.92382
3047.439	2.37810	4.12884	1.62986	8.62234
3051.433	3.73356	5.43754	3.73448	7.43545
3055.442	1.27185	5.80950	1.40931	7.79144
3059.442	0.54689	7.06820	1.40777	8.31853
3063.438	0.80858	7.84246	1.47548	8.21716
3067.443	0.56950	7.93590	1.47020	8.77306
3071.461	0.17278	8.00764	1.87788	8.66115
3075.440	1.24709	6.37407	1.72956	8.95846
3079.447	0.54056	6.58920	1.50068	9.14192
3083.443	0.77714	7.09638	1.60933	9.13010
3087.446	0.68099	7.72028	0.99482	9.36402
3091.439	0.14404	7.15724	1.20931	8.92567
3095.446	-0.62938	7.71246	1.65756	8.05977
3099.448	0.53411	7.70705	1.78131	8.81760
3103.441	-0.51882	6.87737	1.96286	8.73088
3107.446	1.11440	7.42865	1.75255	9.05350
3111.443	0.30434	6.94140	1.60806	9.39498
3115.444	-0.07748	7.13186	1.42330	9.39328
3119.440	0.67903	7.44584	1.08855	8.83536
3123.455	0.57451	7.03008	1.72237	8.29551
3127.441	0.31260	7.23193	1.67963	8.13270
3131.439	0.10746	7.06838	1.24193	8.83162
3135.442	-0.50800	7.10125	1.80414	9.09372
3139.459	-0.53461	7.56010	1.56727	9.65340
3143.452	0.66613	6.89558	1.73844	8.51646
3147.449	0.26815	6.95469	1.74305	8.37097
3151.441	0.29059	6.89013	1.66252	8.38746
3155.433	1.03141	6.98601	1.52689	9.20391
3159.451	0.15623	7.18226	1.72019	9.23661
3163.438	0.84585	7.29504	1.59192	9.41710
3167.441	0.55637	6.91681	1.26979	9.80420
3171.437	0.13583	6.84706	1.96766	8.24584
3175.438	-0.11071	6.31962	1.42856	7.98785
3179.430	-0.08818	6.82740	1.25399	8.17948
3183.443	-0.01524	6.89714	1.66534	8.17226
3187.438	0.09175	7.66029	1.36099	8.29697
3191.438	-0.00566	7.62903	1.51797	8.37911
3195.433	1.50083	7.94518	1.77838	8.57178
3199.438	1.62257	7.45195	1.86337	8.42490
3203.437	-0.23001	7.51365	1.71890	8.48492
3207.462	-0.06336	6.41002	1.85730	8.64525
3211.439	-0.09691	6.96790	1.81828	8.67253
3215.447	0.01566	6.89538	1.66547	8.75546
3219.442	0.26316	6.72224	1.55916	8.88120
3223.452	0.29987	6.54594	1.73006	8.93458
3227.441	0.18112	6.27749	1.79130	9.10497
3231.430	0.29850	6.64717	1.69190	9.22050
3235.438	0.22413	6.38227	1.80033	9.29953
3239.435	0.38273	6.51849	1.78265	9.37154
3243.436	0.33580	6.55527	1.72741	9.34376
3247.429	0.39668	6.40199	1.70963	9.33461
3251.437	0.44316	6.39675	1.77960	9.34022
3255.435	0.46348	6.39109	1.77293	9.20129
3259.436	0.42197	6.56783	1.98455	8.98333
3263.435	0.56419	6.63539	1.84679	8.73976
3267.437	0.49910	7.09214	2.07997	8.58534
3271.434	0.52503	7.71020	1.93437	8.73085
3275.438	0.35829	7.78262	2.06072	8.45062
3279.437	0.10632	7.74831	2.28665	8.42571
3283.429	0.07085	7.05713	2.18116	8.48148
3287.439	0.24872	7.36875	2.23950	9.14339
3291.438	0.72049	7.25013	2.21018	8.94254
3295.431	-0.37360	7.49266	2.12972	8.83890
3299.441	-0.13411	7.65742	2.07782	8.43617
3303.435	-0.15360	7.77054	1.90673	8.42634
3307.435	-0.21457	7.77264	1.98631	8.25951
3311.430	-0.25627	7.87183	1.03213	8.91769
3315.437	-0.18640	7.62867	1.39830	9.24647
3319.433	-0.27098	7.37639	1.11335	8.99249
3323.430	0.47909	7.74403	1.18770	8.64396
3327.437	-0.01328	7.84067	1.59038	8.21414
3331.433	0.44398	8.00690	1.00752	8.66014
3335.435	0.69300	7.92014	1.32959	8.84881
3339.428	0.82575	7.80716	1.40388	9.00866
3343.439	0.15116	7.94543	1.67308	8.53543
3347.441	0.40958	7.57696	1.80610	8.59407
3351.436	0.88542	6.20715	1.45758	9.34678
3355.437	0.38626	7.43412	2.16699	9.17998
3359.438	0.60151	7.86480	1.45083	8.56214
3363.435	0.24115	7.60301	1.60680	8.20371
3367.434	0.23145	7.62819	1.36179	9.76254
3371.439	0.11684	7.70365	1.43262	9.01415
3375.434	0.12496	7.67868	1.38099	8.67337
3379.435	-0.22577	7.45568	1.45730	9.24856
3383.428	1.13896	7.82995	1.60509	9.58050
3387.436	0.40085	9.44724	1.55653	9.28824
3391.434	0.14744	7.55962	1.97319	8.81162
3395.430	1.60340	7.42670	1.75875	8.50024
3399.436	-0.50170	7.51740	2.28549	9.77953
3403.431	-0.04529	7.83545	1.22397	9.42281
3407.435	-0.81483	7.59468	1.26917	9.00336
3411.438	-0.87106	7.45594	1.82105	8.82437
3415.433	0.25905	7.36151	1.73576	8.72283
3419.429	1.30766	7.91895	2.17688	9.84945
3423.432	1.41635	7.79254	3.95518	9.36738
3427.433	3.88838	7.41181	8.01367	8.91983
3431.429	7.20687	6.90910	7.29711	8.34908
3435.440	7.88227	7.08699	7.48773	8.56806
3439.456	10.59102	5.38789	11.61254	6.78710
3443.434	10.81509	3.10336	15.28503	4.24970
3447.427	13.93361	2.46541	16.89450	3.80073
3451.310	14.29743	3.32979	15.17427	3.11947
3455.305	16.28613	1.62172	17.08832	3.26641
3459.306	16.62683	1.73656	18.91209	2.63275
3463.301	16.59519	1.87129	14.59991	3.96580
3467.308	14.79192	2.14626	15.91392	3.26333
3471.309	14.02078	0.79860	18.77329	1.86223
3475.306	17.15816	0.94340	18.83489	2.24015
3479.309	16.39692	1.62902	16.41528	3.18061
3483.311	14.21106	2.01130	16.98893	2.37013
3487.307	9.44291	-2.88121	18.69276	2.17449
3491.301	16.27456	1.70816	16.08541	3.65080
3495.313	14.09238	1.78892	16.43877	3.58201
3499.306	14.66759	1.40340	16.52729	1.74986
3503.307	16.06284	0.93122	15.53831	1.99474
3507.301	14.85918	1.50689	16.41535	2.12382
3511.308	14.51632	1.44939	16.72963	2.17829
3515.305	16.70638	0.66852	14.22743	2.46929
3519.310	14.50132	1.69241	16.10633	2.63233
3523.321	14.54605	1.72115	16.04751	2.71060
3527.304	16.01060	0.34459	14.45332	3.29123
3531.304	14.75319	1.34994	14.51507	3.49353
3535.306	14.83191	1.56128	15.84040	3.47861
3539.306	16.03469	1.00148	14.90558	3.73145
3543.305	16.27099	1.36359	14.37184	3.90911
3547.305	14.61778	1.58105	15.59146	3.65564
3551.306	15.46182	1.45708	14.38689	4.04608
3555.308	15.43236	1.80890	14.15906	4.41140
3559.305	14.91131	1.74514	15.02015	4.43366
3563.306	16.84775	1.41266	14.26797	4.76804
3567.307	16.43382	1.55124	13.92260	4.88537
3571.306	14.83587	1.97161	14.18759	4.13177
3575.305	16.07618	1.94156	14.37296	3.74186
3579.304	16.19668	2.30310	13.97987	3.98652
3583.300	14.58343	1.63068	14.06502	3.77781
3587.308	16.77869	2.18578	13.87873	4.05384
3591.305	16.04920	2.83230	14.01973	4.16255
3595.305	14.11503	3.56204	14.09981	4.32228
3599.309	15.09786	3.30403	13.85959	4.64519
3603.302	15.01494	4.42966	14.38053	4.75993
3607.310	14.32418	4.12966	13.62385	5.02721
3611.299	14.29832	4.76690	14.17245	4.17842
3615.307	15.03098	1.73623	14.67678	4.13416
3619.305	13.96627	3.08229	14.31496	3.79181
3623.308	14.91471	1.94538	14.32129	3.83288
3627.308	14.13612	2.14543	13.97033	3.67069
3631.305	14.77526	1.72367	14.12945	3.37959
3635.304	15.48234	1.80942	14.43394	3.48485
3639.307	14.45942	1.83663	14.58777	3.30923
3643.303	14.71696	1.64887	14.38854	3.41023
3647.310	15.29210	1.80238	13.51112	3.82270
3651.299	14.52084	2.13013	14.05175	3.61681
3655.307	15.07361	1.94276	13.96538	3.52920
3659.335	15.42373	1.78095	14.44248	3.41687
3663.299	15.43681	1.37129	14.40009	3.51960
3667.304	14.60772	2.03715	14.49164	3.32277
3671.303	15.45189	1.53377	14.58659	3.38908
3675.304	14.89810	2.04012	14.46091	3.53453
3679.297	14.84577	2.15619	14.35861	3.49783
3683.307	14.95672	2.26180	14.44355	3.33867
3687.304	14.65418	3.03937	13.86539	3.95044
3691.298	14.99067	3.61294	13.88579	3.78250
3695.304	15.04385	2.62174	13.59954	5.06020
3699.297	15.76270	3.54148	13.58571	4.89580
3703.305	15.37508	3.91952	13.61194	5.13011
3707.331	16.51602	-0.15798	13.46702	5.22574
3711.310	15.07019	4.00019	13.63799	5.19106
3715.304	15.03483	3.76032	13.58500	4.99855
3719.310	15.20182	3.47776	13.54999	4.74513
3723.318	15.79540	3.22072	13.61208	4.38404
3727.308	15.64607	1.38810	13.60988	4.20591
3731.305	15.70689	0.34465	13.68178	3.86858
3735.303	14.31824	2.60865	13.85154	3.02713
3739.297	14.04953	2.63582	14.10095	3.31096
3743.304	14.40398	3.63905	14.10415	3.50817
3747.306	15.51845	3.59970	13.91472	4.21847
3751.304	15.48257	3.74611	14.05509	5.25816
3755.299	15.49483	3.17708	13.98774	4.84340
3759.304	15.77883	3.00445	13.94995	4.98684
3763.300	16.10207	1.86333	14.08477	4.32897
3767.302	15.37356	1.87853	14.26954	4.19071
3771.296	14.04993	2.94042	14.34694	3.78554
3775.305	14.29909	2.31668	14.38260	3.45445
3779.301	14.01949	3.63257	14.40221	3.42458
3783.302	15.24080	3.36961	14.33609	3.35743
3787.309	15.01631	2.54620	14.61236	4.34763
3791.301	15.19158	3.26139	14.39147	4.65658
3795.302	14.88023	3.53508	14.50495	4.06380
3799.296	14.39345	3.61808	14.41950	4.49138
3803.303	14.57246	2.97034	14.57613	3.84862
3807.303	14.87557	3.59628	14.54528	3.66448
3811.302	14.71415	3.55914	14.64129	3.18596
3815.302	14.76417	3.25366	13.03136	5.20620
3819.333	14.81101	3.07015	13.97061	4.71981
3823.311	15.09677	2.23021	13.84897	4.32041
3827.304	15.41926	3.57689	13.99447	4.64907
3831.298	14.80600	3.66730	13.50741	4.51909
3835.304	15.91578	1.68353	13.25355	4.72350
3839.300	14.81678	2.19819	13.76511	4.54649
3843.301	15.82476	3.52254	14.04082	3.60246
3847.296	14.69288	2.11284	13.55674	4.24072
3851.306	14.95341	2.02902	13.41324	2.41642
3855.300	14.56376	-0.01770	13.21587	3.14904
3859.301	15.23653	-0.30149	13.22065	1.23805
3863.304	14.63418	-0.35343	14.02024	0.65332
3867.300	14.06324	-2.61907	12.90230	2.16437
3871.331	14.01041	-1.18806	13.60911	-1.59226
3875.294	13.60528	-2.98240	13.11213	-0.13710
3879.302	12.85676	-3.53816	13.08439	-1.65526
3883.302	12.64640	-3.61372	13.17141	-2.53565
3887.322	11.80930	-4.28402	12.22561	-3.45381
3891.331	12.30516	-5.01444	12.36859	-4.68409
3895.305	10.70071	-5.21873	11.59401	-5.21072
3899.312	7.91984	-5.77059	11.19989	-4.41724
3903.299	10.09453	-6.72697	10.23430	-5.32804
3907.307	8.85647	-4.74782	10.73119	-5.28885
3911.303	11.15441	-6.66032	9.07525	-5.16950
3915.300	8.35753	-9.38130	9.42709	-5.84257
3919.308	8.85061	-9.77846	12.69023	-5.47667
3923.305	8.32704	-11.40695	10.75775	-5.29509
3927.300	8.13128	-13.77291	9.97922	-5.17508
3931.306	8.47937	-9.68601	9.83754	-5.47147
3935.304	9.59028	-9.71090	11.24146	-5.25698
3939.310	9.96578	-11.59767	9.63833	-5.51671
3943.300	9.32151	-13.70451	9.41054	-5.57098
3947.307	10.56558	-10.45809	9.26795	-5.27341
3951.303	10.55483	-10.98541	9.40663	-5.29952
3955.337	7.54818	-9.91441	9.90087	-5.07304
3959.308	8.83898	-13.19311	9.72390	-4.91808
3963.306	8.45543	-13.70208	9.75868	-4.12085
3967.303	8.53423	-14.63836	9.79279	-4.77562
3971.304	9.71799	-10.73465	9.53554	-5.20267
3975.313	10.63943	-11.10798	11.69331	-4.87209
3979.298	10.57438	-13.03230	11.37068	-4.84245
3983.297	10.89406	-13.61085	9.36957	-4.81936
3987.293	11.50196	-14.34537	9.30433	-4.72253
3991.300	-19.99372	-12.27980	9.48410	-4.94442
3995.301	15.14736	-7.73769	9.21790	-4.52701
3999.299	14.69954	-7.90069	9.08065	-4.47583
4003.294	15.76295	-5.73050	9.05013	-4.48626
4007.300	15.20355	-8.09620	9.12411	-5.08663
4011.298	14.39268	-8.31361	9.19304	-5.25565
4015.294	10.23524	-6.48480	11.44413	-4.96151
4019.300	8.64395	-5.93561	10.80189	-4.79447
4023.319	9.89142	-6.11926	11.27381	-5.03063
4027.296	13.89271	-8.64761	11.52055	-4.60048
4031.300	12.33679	-6.33587	11.40970	-4.09411
4035.301	12.09973	-6.80881	11.44399	-4.01828
4039.293	11.44654	-5.89135	11.38037	-4.20182
4043.300	13.09918	-6.57110	8.90226	-4.27843
4047.297	11.58932	-6.13400	9.17911	-3.79773
4051.298	13.08687	-6.88185	9.28499	-3.78844
4055.293	11.74718	-6.41273	9.15101	-3.70245
4059.299	10.40699	-6.23139	8.86245	-3.74077
4063.297	10.90573	-6.23651	8.52656	-4.09462
4067.292	11.66242	-6.62641	8.77751	-3.71497
4071.300	11.45896	-6.31606	8.32160	-3.70396
4075.297	6.91987	-6.39188	8.54200	-3.65053
4079.297	11.04061	-6.39888	8.53836	-3.65189
4083.291	11.00508	-6.51301	8.62411	-3.84428
4087.303	11.02968	-6.29824	8.70827	-3.88540
4091.302	7.86422	-6.46864	8.66763	-3.95651
4095.331	10.70931	-6.48583	8.55782	-3.95807
4099.292	7.99861	-6.87629	8.55459	-4.59414
4103.298	10.57783	-3.35749	9.63428	-5.17961
4107.293	9.85773	-6.25706	9.23149	-4.30481
4111.296	7.84006	-7.79544	8.75264	-5.31937
4115.290	7.97035	-7.28662	8.77589	-7.09479
4119.301	10.77950	-8.64692	8.91359	-7.44464
4123.294	10.34946	-9.36147	10.18668	-8.27443
4127.291	6.46721	-9.28605	9.76020	-4.80707
4131.301	4.97379	-10.89717	9.35438	-5.32438
4135.296	5.88753	-9.72731	11.77123	-8.74944
4139.295	9.85813	-11.11810	11.79154	-9.06362
4143.296	6.49678	-11.07859	10.70850	-8.52176
4147.302	7.78487	-10.72963	10.18469	-8.62547
4151.294	9.05645	-9.20050	8.82521	-8.84118
4155.296	7.33691	-9.17805	10.23243	-10.28090
4159.307	4.63947	-10.83522	10.39736	-10.98551
4163.303	9.40646	-9.62579	10.64362	-11.64979
4167.294	4.67838	-11.20296	10.39074	-8.30924
4171.295	14.29033	-11.28925	10.22370	-8.22730
4175.290	14.50695	-12.94322	10.26179	-8.51532
4179.301	10.62845	-9.81975	8.41230	-8.33848
4183.295	9.78917	-9.20196	10.09080	-9.16745
4187.295	9.13719	-9.79755	10.21983	-10.61551
4191.289	4.91797	-9.51202	10.36122	-11.35113
4195.297	7.98126	-9.72212	10.34924	-12.25118
4199.293	2.14845	-13.14619	10.21938	-12.72222
4203.294	7.26950	-11.29433	10.12455	-7.67842
4207.294	15.53273	-12.85177	9.97368	-7.92125
4211.297	10.06434	-9.60328	9.81530	-8.53308
4215.293	14.11871	-11.22657	9.63858	-8.54467
4219.296	10.68825	-9.44606	8.04711	-9.65844
4223.299	11.05189	-10.63334	9.53615	-10.46142
4227.305	8.46089	-8.69590	9.71703	-10.50975
4231.300	8.98530	-9.32122	9.79730	-10.88745
4235.288	9.12057	-9.41528	9.64048	-11.13970
4239.296	9.73923	-9.48687	9.52787	-10.96424
4243.293	9.28664	-9.28088	9.33454	-11.24340
4247.295	10.10964	-9.95409	9.38368	-11.64294
4251.293	10.75576	-10.65401	9.40306	-12.00967
4255.299	10.18481	-10.16508	11.85740	-9.21748
4259.292	9.76743	-9.99245	11.98838	-9.14489
4263.294	10.01070	-10.48907	11.49030	-9.33526
4267.288	9.75818	-10.52344	11.77789	-9.25116
4271.302	9.19595	-10.71783	11.83619	-9.12008
4275.298	9.89530	-10.43067	11.93923	-9.94330
4279.295	9.84023	-10.47000	11.88634	-9.22910
4283.292	9.82799	-10.70140	11.80064	-9.25668
4287.292	11.63937	-10.83547	11.82559	-9.74137
4291.294	9.93545	-10.99061	11.86652	-9.26139
4295.319	9.89651	-10.74470	11.97712	-9.63769
4299.292	10.34977	-10.76473	11.86262	-9.66028
4303.302	9.68373	-10.71612	11.93660	-9.88961
4307.173	10.02456	-10.66793	11.95358	-9.85937
4311.174	10.23031	-10.71154	11.92907	-10.06467
4315.170	9.99857	-10.61889	11.83160	-10.11651
4319.180	10.38605	-10.55676	11.79979	-10.44389
4323.173	10.56411	-10.37151	11.95249	-10.30164
4327.169	10.53538	-10.27239	11.83424	-10.27051
4331.176	10.77028	-10.18664	11.87765	-10.24499
4335.171	11.00745	-10.22721	11.61025	-10.45505
4339.174	10.84322	-10.12676	11.64985	-10.26935
4343.166	10.91940	-10.20330	11.69050	-10.27430
4347.175	11.29135	-10.05880	11.59473	-10.21195
4351.172	11.04377	-10.00537	11.48997	-10.34740
4355.173	10.91961	-10.06698	11.35334	-10.13325
4359.175	11.16320	-8.26929	11.23750	-10.12188
4363.173	10.89779	-8.01988	11.14221	-9.90043
4367.167	11.24765	-8.08454	11.19722	-9.89940
4371.175	11.34416	-7.86551	10.38202	-9.90454
4375.171	9.37047	-7.48459	17.29412	-9.56159
4379.172	4.88217	-8.91127	11.38509	-10.12450
4383.166	10.83972	-7.79635	9.64627	-9.24827
4387.175	11.29758	-8.03318	6.72063	-8.12669
4391.170	4.90166	-3.28297	4.49854	-3.96091
4395.172	6.11437	-3.90160	3.67776	-4.15936
4399.167	1.41407	-3.34432	0.33784	-3.35788
4403.208	4.81544	-3.05944	-1.02982	-3.17055
4407.180	-1.62009	-1.41071	-3.36542	-0.21388
4411.171	-2.74051	-0.41944	-3.02361	-0.28720
4415.169	-3.69269	0.26523	-4.57041	-0.13567
4419.166	-3.74543	1.06973	-4.74614	1.70227
4423.167	-4.42528	1.64560	-4.81993	2.00222
4427.174	-4.72852	1.60608	-4.63218	1.70925
4431.171	-2.30878	1.59939	-4.25613	1.74981
4435.171	-4.82666	3.67896	-3.80033	1.72721
4439.164	-5.32764	1.98946	-4.92760	1.79538
4443.178	-3.72148	1.32421	-5.66863	1.48419
4447.160	-4.22051	1.76277	-5.11472	1.53991
4451.168	-4.89099	1.41173	-4.80507	1.79462
4455.164	-1.39205	-2.23825	-5.09271	1.92844
4459.166	-4.30169	1.81338	-4.53438	2.02835
4463.160	-5.00420	1.71487	-4.87658	1.93880
4467.168	-5.35246	1.85123	-4.57852	1.82215
4471.165	-4.53990	2.40427	-5.85853	1.74198
4475.166	-5.41254	1.86204	-4.42881	2.10777
4479.170	-6.79356	1.78925	-3.86222	1.90343
4483.169	-0.98497	1.16522	-5.70662	2.04474
4487.171	1.14841	-2.07532	-5.16502	1.50712
4491.161	-4.96962	1.87567	-4.09624	1.55163
4495.168	-4.20395	1.75032	-5.66184	2.05332
4499.190	-5.88557	1.83492	-4.77764	1.99503
4503.171	-4.94359	2.01424	-3.97415	1.96733
4507.172	-5.04715	1.99113	-5.18806	1.83184
4511.194	-6.02575	1.95341	-5.64157	1.50771
4515.172	-4.32005	2.03886	-4.59206	1.91426
4519.169	-6.02119	2.07523	-4.68683	2.11466
4523.174	-5.50122	2.06596	-5.51627	1.34314
4527.176	-4.02596	1.12480	-5.48401	1.87005
4531.162	-5.21087	1.68218	-4.58952	2.29879
4535.169	-3.55167	2.18018	-4.81276	1.98483
4539.167	-2.61169	1.78278	-5.38636	2.65146
4543.162	-5.51666	2.32849	-5.21740	2.82896
4547.163	-2.28834	1.28597	-4.58257	2.60878
4551.158	-5.49064	1.89531	-4.53887	2.72664
4555.166	-5.90175	2.14578	-4.56328	2.88675
4559.166	-3.94532	1.30424	-4.48409	2.94488
4563.171	-4.26911	1.11158	-4.60062	2.92872
4567.164	-4.46435	2.19903	-4.52848	2.71889
4571.159	-2.90463	1.41310	-4.47647	2.80317
4575.167	-5.06407	2.32567	-4.90700	2.65963
4579.176	-3.99818	2.58484	-4.63089	2.71255
4583.160	-4.74210	2.42039	-4.54952	2.62674
4587.161	-5.34890	2.00795	-4.39965	2.87449
4591.162	-2.93488	2.17267	-4.15554	2.54640
4595.158	2.15950	-1.75236	-4.44928	2.86459
4599.166	-4.99856	1.52260	-4.52740	2.34105
4603.162	-4.13604	1.41825	-4.92509	2.54959
4607.157	-4.26699	1.69727	-4.24823	2.55146
4611.169	-4.70372	2.08564	-4.54180	2.41976
4615.162	-3.59216	2.13905	-4.64529	2.38643
4619.162	-4.73047	1.86480	-4.42210	2.54158
4623.168	-5.10856	1.95880	-5.21373	2.38578
4627.164	-4.13530	2.17238	-4.52427	2.45719
4631.162	0.39549	0.87048	-4.85435	2.45894
4635.163	-4.96462	2.73630	-5.17115	2.09248
4639.164	-4.38334	2.35615	-4.64374	2.94260
4643.162	-0.81779	2.35448	-8.34723	2.73814
4647.159	-1.91053	3.25108	-11.90112	6.44113
4651.176	1.96241	8.48108	NaN	NaN
4655.161	NaN	NaN	15.97273	14.66531
4659.167	NaN	NaN	NaN	NaN
4663.166	NaN	NaN	NaN	NaN
4667.166	NaN	NaN	NaN	NaN
4671.164	NaN	NaN	NaN	NaN
4675.160	NaN	NaN	NaN	NaN
4679.165	NaN	NaN	NaN	NaN
4683.169	NaN	NaN	NaN	NaN
4687.164	NaN	NaN	NaN	NaN
4691.164	NaN	NaN	NaN	NaN
4695.190	NaN	NaN	NaN	NaN
4699.163	NaN	NaN	NaN	NaN
4703.695	NaN	NaN	NaN	NaN
4707.399	NaN	NaN	NaN	NaN
4711.170	3.06528	14.13856	NaN	NaN
4715.166	NaN	NaN	NaN	NaN
4719.160	NaN	NaN	NaN	NaN
4723.165	NaN	NaN	NaN	NaN
4727.165	NaN	NaN	NaN	NaN
4731.161	NaN	NaN	NaN	NaN
4735.176	NaN	NaN	NaN	NaN
4739.162	NaN	NaN	NaN	NaN
4743.228	NaN	NaN	NaN	NaN
4747.348	NaN	NaN	NaN	NaN
4751.455	-21.19937	13.54661	NaN	NaN
4755.732	-23.33551	13.79341	-20.03686	6.21675
4760.080	-20.00218	-12.07679	-20.02560	-12.07505
4764.286	-21.74959	13.14257	-20.02538	-12.07506
4768.602	-20.00645	-12.07648	-22.41868	5.06284
4773.642	-20.00492	8.28319	-20.02815	-12.07486
4777.888	-19.95001	8.18077	-23.12006	5.50592
4782.139	-19.96904	13.35438	-20.03062	-12.07467
4786.234	-20.12325	12.99711	-20.02946	-12.07476
4790.409	-19.68410	5.99563	-20.16302	4.43378
4794.664	-20.00621	8.14600	-20.31187	4.73185
4798.753	-18.73335	5.99183	-19.91667	5.60483
4803.046	-18.36590	6.44243	-19.74933	6.62909
4807.465	-17.70086	5.15045	-20.29936	5.88577
4811.833	-17.47629	6.12399	-20.17369	5.83367
4816.107	-17.55221	5.87938	-18.13741	6.38934
4820.371	-19.00630	5.16620	-18.38591	5.72165
4824.610	-19.07801	3.13767	-21.27115	4.63596
4828.874	-20.19737	0.95158	-21.24146	5.81455
4833.045	-20.92216	-2.73723	-20.11651	-12.06826
4837.071	-22.77706	0.99435	-20.04260	-12.07378
4842.123	-21.82404	1.06351	-21.27393	4.07180
4846.077	-22.99225	1.23957	-20.28323	1.44974
4849.857	-19.96154	-12.07982	-23.40496	1.54885
4853.418	-19.97239	-12.07901	-20.12999	-12.06725
4856.940	-19.97851	-12.07856	-21.79064	3.32578
4860.541	-19.98263	-12.07825	-20.89548	2.37967
4864.196	-20.02451	-12.07513	-21.78078	2.81160
4867.633	-20.06299	-12.07226	-21.90009	-0.73768
4871.182	-20.01833	-12.07559	-22.13104	-4.77952
4875.170	-11.75217	-7.12962	-20.25073	-12.07509
4879.163	-19.99635	-12.07723	-18.33330	-2.91262
4883.182	NaN	NaN	-20.15759	-12.08110
4887.178	NaN	NaN	-20.09279	-12.08184
4891.167	-11.71166	-8.62695	-20.07230	-12.08089
4895.191	NaN	NaN	-20.06746	-12.08076
4899.177	NaN	NaN	-20.05257	-12.08029
4903.174	NaN	NaN	-20.00659	-12.08256
4907.162	NaN	NaN	-20.00312	-12.08193
4911.612	-8.81496	-9.17649	-20.00091	-12.08140
4915.559	-19.99372	-12.07740	-19.99973	-12.08091
4919.538	NaN	NaN	-19.98919	-12.07776
4923.540	NaN	NaN	NaN	NaN
4927.507	NaN	NaN	NaN	NaN
4931.502	NaN	NaN	NaN	NaN
4935.450	NaN	NaN	NaN	NaN
4939.357	NaN	NaN	NaN	NaN
4943.337	NaN	NaN	NaN	NaN
4947.307	NaN	NaN	NaN	NaN
4951.292	NaN	NaN	NaN	NaN
4955.377	NaN	NaN	NaN	NaN
4959.528	NaN	NaN	NaN	NaN
4963.515	NaN	NaN	NaN	NaN
4967.378	NaN	NaN	NaN	NaN
4971.331	NaN	NaN	NaN	NaN
4975.482	NaN	NaN	NaN	NaN
4980.291	NaN	NaN	NaN	NaN
4984.288	NaN	NaN	NaN	NaN
4988.222	NaN	NaN	NaN	NaN
4992.178	NaN	NaN	NaN	NaN
4996.136	NaN	NaN	NaN	NaN
5000.022	NaN	NaN	NaN	NaN
5003.989	NaN	NaN	NaN	NaN
5007.956	NaN	NaN	NaN	NaN
5011.937	NaN	NaN	NaN	NaN
5016.248	NaN	NaN	NaN	NaN
5020.403	NaN	NaN	NaN	NaN
5024.552	NaN	NaN	NaN	NaN
5028.503	NaN	NaN	NaN	NaN
5032.497	NaN	NaN	NaN	NaN
5036.440	NaN	NaN	NaN	NaN
5040.350	NaN	NaN	NaN	NaN
5044.174	NaN	NaN	NaN	NaN
5049.169	NaN	NaN	NaN	NaN
5053.101	NaN	NaN	NaN	NaN
5057.066	NaN	NaN	NaN	NaN
5061.171	-7.01345	-11.36363	NaN	NaN
5065.412	-7.52644	-12.59940	NaN	NaN
5069.501	-19.99372	-12.02820	NaN	NaN
5073.479	-19.99372	-12.02863	NaN	NaN
5077.523	-19.99372	-12.02927	NaN	NaN
5081.435	-19.99372	-12.03017	NaN	NaN
5085.453	-19.99372	-12.03126	NaN	NaN
5089.435	-19.99372	-12.03256	NaN	NaN
5093.464	-19.99372	-12.03403	NaN	NaN
5097.573	-19.99372	-12.03566	NaN	NaN
5101.475	-19.99372	-12.03740	NaN	NaN
5105.526	-19.99372	-12.04683	NaN	NaN
5109.506	NaN	NaN	NaN	NaN
5113.481	NaN	NaN	NaN	NaN
5244.005	NaN	NaN	NaN	NaN
5311.446	-3.78469	-0.62878	-4.63112	0.88162
5315.329	-2.19549	-0.17292	-5.39079	1.02709
5319.168	-1.87939	0.09716	-5.19039	0.83823
5323.155	-1.62006	0.30510	-4.24986	0.92013
5327.149	-3.65643	0.33009	-3.97721	0.98344
5331.151	-3.70606	0.47252	-4.15487	1.00610
5335.150	-3.72390	0.42997	-3.82939	1.13218
5339.152	-3.72457	0.59468	-3.86190	1.20567
5343.149	-3.32963	0.44734	-4.17825	1.37520
5347.150	-3.08547	0.59941	-4.49756	1.43867
5351.157	-1.52960	0.60655	-4.54683	1.61729
5355.155	2.48750	0.44199	-4.98632	1.50598
5359.149	-3.56497	0.49921	-4.81596	1.62772
5363.145	-4.07935	0.53539	-4.84777	0.89660
5367.152	-3.90242	0.53432	-4.72056	0.31988
5371.149	-3.58124	0.45511	-4.48742	0.83090
5375.149	-2.71981	0.61594	-3.45020	0.06853
5379.148	-2.90483	0.40402	-3.62944	-0.01691
5383.150	-5.03615	0.43067	-2.94084	-0.05442
5387.155	-4.89587	0.44673	-2.88950	-0.09163
5391.149	-4.60431	0.36819	-2.67603	-0.21774
5395.149	-4.64544	0.27452	-4.02638	-0.18442
5399.160	-4.33120	0.27471	-3.03583	-0.14075
5403.147	-3.92524	0.30245	-5.19229	0.00267
5407.150	-3.91138	0.35270	-5.60027	0.02043
5411.152	-3.68774	0.31270	-5.59833	0.15753
5415.147	-3.37388	0.33756	-5.56271	0.33801
5419.145	-3.71189	0.31189	-5.40043	0.37207
5423.151	-3.44473	0.39269	-5.05664	0.14770
5427.151	-3.51926	0.38634	-4.31891	-0.31910
5431.150	-3.31645	0.34078	-3.52425	-0.76726
5435.147	-3.24865	0.40806	-3.40195	-0.77105
5439.156	-3.45588	0.39103	-4.55468	-0.86250
5443.149	-2.98178	0.42439	-4.78277	-0.67354
5447.147	-3.17975	0.49109	-4.14567	-1.14616
5451.149	-3.29852	0.44264	-4.28330	-1.19354
5455.149	-3.24944	0.37747	-4.38968	-0.75865
5459.146	-4.55196	0.30047	-4.83237	-0.34130
5463.150	-3.17336	0.10904	-3.95607	0.41029
5467.148	-3.87974	-0.15183	-3.43716	2.11161
5471.161	-2.41276	0.06691	0.00844	2.49450
5475.152	-1.92976	0.26700	0.28071	2.20904
5479.154	0.37233	0.93703	0.97653	2.40664
5483.152	1.55896	0.12788	2.64819	4.33342
5487.150	3.53753	1.64128	2.56661	2.83442
5491.150	4.45071	2.01727	3.03311	3.79859
5495.149	6.61396	1.46382	3.48091	5.43619
5499.146	3.52840	3.79466	3.75931	5.18039
5503.148	3.31294	3.69503	3.99541	5.56619
5507.149	3.42737	2.90153	4.90085	4.71691
5511.147	3.39705	1.87909	3.49193	3.06518
5515.146	3.20993	2.25411	3.24778	4.61560
5519.181	3.30611	3.00722	3.29157	4.67955
5523.162	3.59745	2.45486	3.68023	4.77698
5527.173	4.30430	2.59893	3.64442	4.98237
5531.153	3.51619	3.13630	3.54477	4.92014
5535.149	4.09599	3.40876	3.41560	5.28367
5539.149	4.12478	3.39390	3.40601	5.58555
5543.151	3.97923	3.62584	3.24610	5.78104
5547.146	3.59372	3.70969	3.27056	4.96192
5551.146	3.63478	3.37018	3.44434	5.38131
5555.142	4.07942	3.72526	3.55187	4.55099
5559.148	4.40197	3.87159	3.35076	4.63891
5563.152	3.98002	4.09161	3.41995	5.11043
5567.147	4.31077	4.16933	3.34707	5.15720
5571.142	3.93801	4.17754	3.70897	5.64795
5575.150	3.20367	4.06067	3.46085	5.57221
5579.149	3.70336	2.44335	3.47282	6.05067
5583.146	4.67843	2.35462	3.31215	6.44544
5587.149	4.42666	3.01983	2.99252	5.70717
5591.150	3.48471	3.76466	3.63764	5.06975
5595.146	3.06699	4.26206	3.70589	4.97933
5599.142	3.53827	2.58297	3.32169	4.96253
5603.149	3.59847	2.74152	3.75939	5.14138
5607.196	4.64381	3.13146	3.42529	5.31721
5611.143	4.20116	2.97095	3.69086	5.74954
5615.148	3.85503	3.39815	3.84058	5.73199
5619.145	3.07837	3.64489	3.51807	6.03815
5623.142	3.74125	3.04713	3.56761	6.18769
5627.150	4.12475	3.04803	3.37381	5.27138
5631.147	3.77142	3.14214	3.70186	5.32622
5635.146	3.94537	3.34064	4.05478	5.26601
5639.142	3.32882	3.28037	3.71888	4.69971
5643.147	3.45529	3.49159	3.93322	4.85716
5647.150	4.14401	3.45904	3.58578	5.09336
5651.151	3.81185	3.82086	3.88196	4.94131
5655.146	3.55236	3.52358	3.61688	5.14926
5659.147	3.43007	3.66235	4.14246	5.08591
5663.148	3.65223	3.36038	3.61275	5.08071
5667.148	3.96807	3.35100	4.05493	4.99784
5671.144	4.67244	3.30860	3.86400	4.92928
5675.185	3.79999	3.32396	3.61411	5.05642
5679.142	2.87700	2.91051	3.75445	5.09142
5683.148	3.46239	2.67882	3.68342	5.13936
5687.147	3.98548	2.22333	3.78570	5.09429
5691.148	3.53325	2.17498	3.73129	5.10587
5695.147	3.34259	2.77709	3.70482	5.19622
5699.144	2.92282	2.35753	3.77953	5.07939
5703.141	3.16931	4.60528	3.70255	5.07251
5707.139	3.84021	4.24685	3.74879	4.97995
5711.146	4.53221	4.13218	3.72778	4.99532
5715.143	3.77463	3.42670	3.64291	4.69795
5719.140	3.71879	2.74892	3.71112	4.59390
5723.163	3.11492	3.52193	3.65833	4.77619
5727.144	3.57861	3.28146	3.65907	5.32800
5731.145	3.77019	2.56374	3.74001	4.90259
5735.151	4.22977	2.21617	4.38544	4.68754
5739.147	3.97385	2.52582	4.11893	5.42045
5743.143	3.64419	2.43381	4.46796	5.38541
5747.139	3.62417	4.10392	3.70893	6.43572
5751.145	3.78321	3.70488	3.96681	7.42884
5755.142	4.26282	3.82600	4.88444	8.26798
5759.143	4.48623	4.17505	4.56861	10.76106
5763.138	8.38308	6.74394	NaN	NaN
5767.145	5.57763	14.44886	21.90345	13.45440
5771.146	NaN	NaN	NaN	NaN
5775.143	NaN	NaN	NaN	NaN
5779.136	NaN	NaN	NaN	NaN
5783.145	NaN	NaN	NaN	NaN
5787.160	NaN	NaN	NaN	NaN
5791.859	NaN	NaN	NaN	NaN
5795.720	NaN	NaN	NaN	NaN
5799.475	NaN	NaN	NaN	NaN
5803.151	NaN	NaN	NaN	NaN
5807.146	NaN	NaN	NaN	NaN
5811.145	NaN	NaN	NaN	NaN
5815.150	NaN	NaN	NaN	NaN
5819.212	NaN	NaN	NaN	NaN
5823.152	NaN	NaN	NaN	NaN
5827.147	NaN	NaN	NaN	NaN
5831.145	NaN	NaN	NaN	NaN
5835.147	NaN	NaN	NaN	NaN
5839.143	NaN	NaN	NaN	NaN
5843.146	NaN	NaN	NaN	NaN
5847.185	NaN	NaN	NaN	NaN
5851.145	NaN	NaN	NaN	NaN
5855.151	NaN	NaN	NaN	NaN
5860.522	NaN	NaN	NaN	NaN
5864.155	NaN	NaN	NaN	NaN
5867.839	NaN	NaN	NaN	NaN
5871.513	NaN	NaN	NaN	NaN
5875.188	NaN	NaN	NaN	NaN
5879.159	NaN	NaN	NaN	NaN
5883.146	NaN	NaN	NaN	NaN
5887.402	NaN	NaN	NaN	NaN
5891.170	NaN	NaN	NaN	NaN
5895.156	NaN	NaN	NaN	NaN
5899.315	NaN	NaN	NaN	NaN
5903.319	NaN	NaN	NaN	NaN
5907.581	NaN	NaN	NaN	NaN
5911.158	NaN	NaN	NaN	NaN
5915.144	NaN	NaN	19.85548	14.15199
5919.138	19.37387	-10.12346	NaN	NaN
5923.143	3.62249	3.86318	-3.58106	14.76449
5927.141	3.10572	1.44749	-6.74802	7.61738
5931.143	-1.42156	11.77538	-1.94528	0.02647
5935.136	-1.90440	6.84806	1.95601	-8.43077
5939.147	-3.23375	8.24536	-2.15115	-5.89164
5943.145	-1.96677	4.99967	-3.54346	-7.96989
5947.141	10.74695	-1.46975	-0.25629	-1.96627
5951.138	2.79278	-1.18790	7.00111	-2.23773
5955.142	3.77318	-2.47947	-1.60097	-1.30948
5959.145	4.69352	-1.33889	-2.47883	-3.30995
5963.141	4.87939	-0.98638	0.64675	-4.00825
5967.138	5.47400	-1.81278	8.91856	-1.44341
5971.144	5.25404	-1.44078	3.92929	-2.55354
5975.138	5.43447	-2.50831	-2.03933	-6.67880
5979.142	4.73293	-1.64611	-0.14198	-6.17351
5983.143	5.57200	-4.86201	1.84352	-3.97648
5987.140	3.18197	-2.68572	3.19385	-4.59570
5991.140	2.74318	-4.33812	3.99576	-8.42765
5995.161	5.47717	-5.08984	4.07950	-8.40164
5999.141	5.58749	-4.42092	2.19331	-5.29074
6003.143	4.43949	-5.04547	2.64292	-5.03022
6007.139	3.75872	-5.77848	3.17344	-5.33747
6011.138	4.18642	-5.96177	2.13205	-5.38967
6015.141	2.91349	-5.60129	2.03709	-5.28962
6019.138	2.64911	-5.73495	2.16114	-5.34038
6023.142	4.91408	-7.44799	2.14674	-5.42473
6027.144	5.91676	-6.17187	2.04101	-5.64357
6031.140	4.34778	-8.13883	2.19390	-5.45904
6035.138	3.33065	-5.80726	2.31393	-5.43662
6039.143	3.53162	-5.03494	2.07016	-5.65023
6043.138	1.08135	-6.65496	2.21093	-5.79744
6047.137	3.40887	-5.32660	2.03442	-5.88802
6051.137	5.70070	-5.28528	2.03628	-5.88450
6055.141	4.25253	-4.86052	2.12488	-5.69314
6059.136	4.42294	-7.36576	2.25927	-5.77589
6063.164	4.36256	-5.46371	2.26968	-6.01956
6067.142	1.07259	-8.34039	2.23781	-5.99491
6071.139	4.28145	-5.96864	2.24081	-6.12265
6075.136	6.29386	-7.41920	2.38658	-6.21601
6079.135	8.85991	-7.77395	2.27966	-6.19332
6083.141	3.91595	-7.12100	2.34022	-5.89778
6087.139	2.62328	-7.17931	2.23030	-5.92751
6091.139	2.89770	-7.41547	2.46223	-5.76645
6095.137	6.15458	-6.75354	2.46833	-6.38890
6099.145	4.06678	-5.72781	2.38643	-5.67717
6103.144	3.30349	-6.87279	2.35637	-6.06236
6107.142	2.70946	-6.51710	2.46647	-6.39548
6111.141	1.58604	-4.19693	2.49476	-6.50202
6115.170	3.21228	-4.55662	2.46092	-6.37741
6119.136	3.52442	-4.56564	2.35769	-6.33112
6123.139	2.22889	-4.37446	2.50863	-6.02991
6127.137	3.92643	-2.86665	2.38494	-5.63619
6131.016	3.38600	-4.49462	2.41774	-5.62772
6135.016	3.82427	-5.89722	2.37652	-5.83343
6139.010	4.93469	-4.00478	2.32295	-5.61834
6143.009	2.62620	-4.22513	2.46169	-5.08349
6147.010	2.72924	-6.05944	2.45530	-5.53154
6151.018	4.24544	-5.09773	2.52733	-4.22881
6155.011	7.19991	-5.75902	2.63658	-5.28186
6159.025	3.02091	-1.40534	2.49020	-4.23293
6163.014	3.24229	-5.06921	2.51958	-3.91839
6167.008	5.54152	-4.51539	2.58041	-3.87647
6171.009	3.81026	-5.42040	2.78788	-5.38856
6175.013	3.87947	-4.98150	2.75747	-4.86740
6179.010	2.91403	-5.40022	4.44857	-5.05114
6183.012	6.61396	-4.15157	2.69175	-4.41337
6187.009	4.38257	-0.23525	2.86024	-5.09190
6191.018	1.40217	-4.46382	2.81479	-4.97460
6195.015	1.06299	-5.29623	2.83291	-4.83247
6199.013	4.09155	-5.04622	2.81499	-4.90624
6203.012	5.32338	-2.32151	2.99086	-4.82112
6207.010	1.62234	-4.32978	2.86549	-4.34919
6211.008	1.69800	-5.19485	2.87566	-4.37664
6215.013	4.35871	-6.17648	3.16483	-4.24573
6219.009	5.82496	-5.13872	2.99893	-4.29597
6223.015	1.27500	-5.35740	3.52588	-3.90874
6227.009	1.64141	-4.29106	3.04910	-3.23382
6231.008	4.20393	-5.56863	3.01821	-4.20720
6235.018	6.11952	-5.81606	2.86041	-3.99379
6239.012	4.48068	-3.66492	3.22035	-3.95276
6243.036	2.99074	-3.70375	3.54227	-4.00901
6247.016	1.74600	-6.23129	3.48019	-3.91380
6251.013	4.31632	-6.27029	3.01705	-4.02746
6255.011	8.24733	-7.29426	3.16409	-4.07793
6259.010	4.17717	-4.06763	3.07117	-4.67448
6263.008	1.68513	-4.40353	3.44028	-4.95821
6267.033	2.31976	-6.29990	2.92146	-4.80868
6271.019	4.14285	-5.17923	3.64150	-4.64206
6275.016	5.80776	-6.05905	3.49011	-4.44549
6279.010	7.59402	-4.59050	3.14813	-4.45262
6283.011	4.77801	-6.26888	2.98836	-4.16249
6287.013	0.14248	-6.12170	3.08156	-4.26356
6291.008	2.75183	-6.30004	3.76275	-2.82094
6295.008	4.08673	-6.36025	4.23769	-4.24083
6299.033	7.17055	-6.28490	3.10126	-4.21055
6303.012	3.68008	-6.24805	1.13913	-4.74799
6307.011	3.56588	-6.30318	3.86366	-4.21026
6311.007	2.71468	-6.42559	3.40556	-4.05352
6315.046	1.96120	-6.44784	4.06930	-3.81522
6319.012	2.58883	-6.20889	4.73431	-3.56283
6323.023	4.17993	-6.45970	2.87888	-4.01788
6327.016	4.04199	-6.43808	2.81848	-4.05227
6331.007	6.50758	-6.68743	3.71696	-4.39386
6335.039	6.92716	-6.64427	3.47989	-5.32633
6339.018	4.23505	-6.56253	3.30139	-4.12807
6343.007	3.39273	-6.40469	3.37692	-4.56647
6347.008	2.81773	-5.92517	2.37865	-6.00584
6351.012	4.16048	-5.80307	3.94125	-4.40570
6355.006	2.85160	-3.42515	4.06308	-4.43639
6359.009	1.85703	-2.48275	3.45475	-4.04253
6363.006	4.87572	-5.28414	3.20320	-4.07020
6367.010	2.58192	-4.85079	3.92971	-4.24208
6371.007	2.88522	-3.84774	4.44294	-3.83098
6375.005	1.55380	-2.81164	3.46125	-1.84742
6379.008	2.56912	-5.09492	4.53591	-3.95876
6383.012	2.84591	-4.95691	4.81493	-3.93240
6387.007	2.87544	-5.37337	4.80813	-3.80961
6391.005	3.12091	-5.19831	5.10852	-3.94563
6395.011	3.66100	-4.18721	4.42896	-3.27008
6399.007	4.01739	-4.45708	4.99014	-3.76187
6403.013	4.98305	-4.97701	5.03797	-3.60085
6407.007	4.49265	-4.96634	5.09099	-3.66154
6411.010	4.08397	-6.09100	5.14734	-3.59955
6415.005	4.66524	-5.94625	5.13053	-3.46813
6419.011	4.41045	-5.45524	3.46832	-3.15488
6423.007	4.99251	-5.24082	3.92823	-2.98654
6427.007	4.46275	-5.30931	3.51431	-1.96757
6431.005	5.15421	-5.33134	3.39841	-2.06369
6435.010	4.63378	-5.58129	3.44068	-2.79534
6439.010	4.71819	-5.51112	3.33799	-1.96828
6443.015	4.85236	-5.36545	3.26356	-2.34496
6447.005	4.53307	-4.40776	3.17240	-1.70389
6451.011	4.83489	-5.78551	2.13472	-1.02865
6455.006	4.54656	-5.49326	2.80919	-1.85958
6459.005	5.32808	-5.20538	2.72991	-2.25154
6463.002	5.44505	-5.43619	3.00908	-1.20942
6467.009	9.58338	-6.71568	2.67432	-2.11041
6471.011	5.98280	-5.30280	2.72986	-2.44732
6475.010	9.57430	-5.48266	2.78060	-2.58842
6479.008	9.46474	-5.53794	2.72781	-2.56121
6483.009	5.11026	-5.53642	2.71694	-2.86273
6487.010	4.86248	-5.75148	2.64797	-2.59623
6491.006	2.87750	-5.76687	2.57863	-1.38258
6495.005	0.84282	-3.00984	2.68145	-2.69719
6499.004	2.30162	-5.00711	0.72766	-2.05631
6503.008	2.73506	-0.60464	0.81746	-0.78687
6507.005	2.10548	-1.96747	0.60416	-0.06883
6511.006	1.33678	-1.79869	0.47763	1.78830
6515.007	0.77732	-0.29120	1.50495	2.48893
6519.008	0.99273	-0.51314	1.67566	2.49601
6523.006	0.13322	0.17861	0.13660	2.70582
6527.010	-0.78809	0.39667	-0.45738	3.34090
6531.011	-0.92594	0.04244	0.03839	3.01628
6535.009	-1.39344	0.25249	-0.17553	3.44073
6539.009	-0.93594	0.27889	0.10897	3.31675
6543.010	-0.66645	0.47368	-0.08977	3.54413
6547.003	-0.90862	0.74045	0.19271	3.88591
6551.003	-1.37156	0.76094	1.12772	3.18506
6555.006	-1.33793	1.11456	-0.11870	2.34420
6559.006	-1.31741	0.68746	-0.17142	2.02636
6563.004	-1.38441	0.70177	-0.38514	3.11917
6567.008	-1.02012	0.31911	-0.80009	3.44952
6571.005	-0.30607	0.59473	-0.08411	3.53571
6575.005	-0.19410	0.87012	-0.28691	2.61516
6579.005	-0.40308	1.26456	-0.51386	2.58608
6583.000	-0.17864	1.65156	-0.33918	3.07441
6587.007	0.39847	1.26305	-0.35318	2.95336
6591.003	0.31116	0.59285	-0.59116	2.38885
6595.003	-0.23999	-0.09959	-0.73312	2.57318
6599.026	-0.01648	0.33032	-0.42643	3.20880
6603.010	-1.38280	0.58506	0.31689	2.98947
6607.011	-1.64288	1.07552	3.41325	2.72959
6611.012	-0.65752	2.25879	-0.40326	2.26483
6615.005	-1.21090	1.39832	-0.69786	2.52881
6619.002	0.02822	2.02893	-0.70709	3.01306
6623.007	-0.99095	2.25832	-0.56277	3.28899
6627.003	-0.17280	1.54114	-0.43209	2.38966
6631.005	-1.31290	2.33377	-0.51207	2.93602
6635.008	-0.55530	2.03251	-0.10629	2.43839
6639.003	-0.36253	0.03399	-0.82352	2.71378
6643.004	-1.42253	1.65272	-0.28793	2.64683
6647.001	-1.48037	1.64032	-0.48331	3.38858
6651.010	-1.14647	2.53749	2.58920	2.57002
6655.005	-1.51276	2.14968	-0.36176	1.90447
6659.001	-0.06815	1.57588	-0.43921	1.89720
6663.009	-0.83999	1.78000	-0.99908	2.25862
6667.004	-1.47828	2.00990	-1.47397	2.57405
6671.003	-1.11139	1.13914	-1.04640	1.87855
6675.032	-1.45333	1.60236	-0.59089	2.40572
6679.012	-1.11008	0.84892	-0.96849	2.32025
6683.001	-1.60037	0.91180	-0.46435	2.27159
6687.001	-0.36015	1.75722	-0.29133	2.44280
6691.005	4.83264	1.50056	-0.38663	3.01656
6695.002	-1.05880	1.73032	-0.69392	3.98464
6698.999	-0.89068	1.79964	0.00236	2.46860
6703.005	-1.09207	1.86153	-0.61208	2.16199
6707.004	-1.10718	0.78029	-0.26820	2.27657
6711.002	-0.65853	0.46292	-0.16816	2.33288
6715.001	-0.84046	1.94265	-0.66593	2.46811
6719.003	-0.60593	1.71364	-0.64024	3.35060
6723.003	-0.66193	2.10818	0.67573	2.45489
6727.008	0.19368	1.97754	4.13127	2.57680
6731.003	-0.23549	1.62446	0.08870	2.21382
6735.006	-0.81138	1.48244	-0.43760	2.68046
6739.042	-0.88386	1.04047	-0.59163	2.79054
6743.068	-1.17929	0.78507	0.04959	2.88545
6747.015	-1.02082	1.91130	0.06090	2.86676
6751.002	-1.25905	1.96636	-0.62029	2.82535
6755.000	-1.28080	1.92830	-0.45974	3.05990
6759.000	-1.00159	1.95008	-0.47011	2.87844
6763.004	0.23976	1.76483	-0.67928	2.97784
6767.003	-0.29203	1.36911	-0.61171	3.03195
6771.001	-0.55565	1.75216	-0.63352	3.38985
6775.003	-0.49021	1.99257	1.48687	3.05825
6779.004	-0.86116	1.98532	1.37139	3.06073
6783.003	-1.29732	2.29658	-0.34648	2.68468
6786.999	-0.90661	1.47781	-0.18668	2.93317
6791.004	-1.24436	1.07939	-0.45788	3.28785
6795.001	-1.55393	0.72797	-0.40735	3.70523
6799.001	-1.53709	0.80624	-0.01685	3.37008
6802.999	-1.52794	1.12743	1.28164	2.92024
6807.000	-0.29528	0.16872	-0.21713	1.85425
6811.033	-0.99690	0.43287	-0.15561	2.07846
6815.014	-1.81939	2.20302	-0.42256	2.38738
6819.004	-1.94627	1.65654	-0.24411	2.93638
6823.004	-1.95837	1.20348	-0.53905	3.51288
6827.000	-2.01521	0.51904	-0.52602	3.73610
6831.001	-2.11792	1.35623	-0.32506	3.46525
6834.998	-1.80814	1.11416	0.27240	2.99786
6839.004	-0.46860	0.69130	-0.13243	0.74729
6843.001	-2.23174	-1.20960	-0.31032	1.41887
6847.021	-2.07925	1.34393	-0.26173	2.25107
6851.009	-2.18349	1.20490	-0.22428	2.29422
6855.004	-2.20339	1.60060	-0.14824	3.10582
6859.004	-2.21563	1.07891	-0.10101	3.03571
6863.011	-2.10094	1.29169	-0.05346	3.42589
6867.008	-2.02039	1.08441	0.90173	2.55960
6870.999	-2.06270	1.23237	-0.25453	2.59905
6874.999	-2.09978	0.68246	-0.64570	2.81537
6879.030	0.94445	-2.69909	-0.26790	1.71853
6883.004	-2.17874	2.20172	-0.08885	1.74434
6886.999	-2.24475	1.21830	-0.18482	2.05855
6890.998	-2.20359	1.00157	-0.45373	2.24703
6894.998	-2.06446	1.17287	0.00127	2.61520
6899.006	-1.98916	1.21031	0.28361	2.70487
6903.001	-2.27974	0.17535	-0.08244	3.10410
6907.046	-1.50673	1.21263	-0.48587	3.56606
6911.011	-2.41975	-0.91946	0.16638	2.92249
6915.000	-1.93115	1.25347	0.09716	2.46661
6918.999	-1.39130	1.27383	0.90403	2.16659
6923.002	1.28928	1.66599	-0.54927	2.41308
6927.000	-6.04630	1.05929	-0.61399	2.61936
6931.000	1.43439	0.98695	-0.60838	2.41846
6934.998	-1.87884	1.07591	-0.39576	2.40078
6939.001	-3.31314	4.84530	-0.29900	2.13616
6943.007	-2.57214	0.49890	-0.13471	1.96750
6947.027	-2.04946	1.56440	-0.39276	1.68604
6951.003	-2.88888	0.81622	-0.53788	1.92957
6954.999	-1.27544	1.03318	-0.45348	1.86312
6959.000	-2.72506	-1.45889	-0.52064	1.85546
6962.997	-2.05623	1.55073	-0.44852	1.62383
6967.001	-1.54616	1.27131	-0.48644	1.66824
6970.995	-1.99406	0.66436	-0.66154	1.64835
6974.997	-2.52760	1.04162	-0.53448	1.58252
6979.000	-1.96933	0.40465	-0.69980	1.28710
6983.004	-1.63427	1.19687	-0.63347	1.23243
6986.880	-2.42973	0.26401	-0.59672	1.26519
6990.874	-0.01571	1.00147	-0.73543	1.27576
6994.875	0.07636	1.92640	-0.87324	1.49853
6998.875	-1.75411	0.96050	-0.98844	1.87134
7002.870	-2.04961	1.29600	-0.83565	1.88373
7006.876	-1.98479	1.31350	-0.73268	1.86541
7010.871	-2.20429	2.72023	-0.23400	2.01085
7014.903	-1.91900	2.33793	-0.05127	1.87338
7018.878	-1.80851	1.83893	-0.47090	2.62389
7022.879	-1.75880	1.70521	-0.66945	3.41370
7026.872	-1.46437	1.52942	-0.60387	3.21181
7030.875	-1.10745	0.98635	-0.47021	2.95250
7034.897	-1.28879	2.05611	-0.56997	3.02248
7038.879	-0.48249	1.42302	-0.49552	2.83597
7042.870	-1.48533	1.08276	-0.66484	2.51449
7046.870	-1.77710	0.87204	-0.47435	2.24834
7050.874	-1.38354	2.07707	-0.56555	1.78259
7054.872	-1.54678	1.50625	-0.53557	2.18892
7058.872	-1.86454	1.82523	-0.67744	2.21734
7062.875	-1.66205	1.62114	-0.48006	2.09904
7066.871	-1.87074	1.13674	-0.02839	2.52892
7070.873	-1.58646	1.36314	-0.42236	3.17730
7074.873	-1.57153	1.10876	-0.67265	3.04891
