time (ms)	lx (deg)	ly (deg)	rx (deg)	ry (deg)
0.000	-2.69829	0.74212	-4.30307	-0.72344
3.999	-2.54972	0.91796	-3.39470	-0.11517
7.995	-2.37880	0.54979	-3.61021	-0.86079
12.001	-1.36360	0.69264	-3.44218	-1.16170
15.999	0.28731	0.73295	-3.58554	-0.56400
20.000	-2.68532	0.77358	-3.39958	-1.06470
23.996	-2.08186	0.51735	-3.53587	-0.95426
28.001	-2.28118	0.31253	-3.55577	-1.27438
32.006	-1.55125	0.56042	-3.47379	-1.36966
36.001	-2.94941	-0.03417	-3.54168	-1.35811
39.997	-1.82113	-3.38083	-3.68985	-0.74666
44.036	-0.74489	-3.46670	-3.64763	-1.15234
48.011	-2.66726	0.15122	-3.69706	-1.39456
52.018	2.99747	-3.26712	-3.75020	-1.73930
55.996	-2.15584	0.12813	-3.85054	-2.75155
59.996	2.92436	-3.06225	-2.87690	-0.78432
63.993	-2.08838	-0.01679	-2.80545	-0.98766
68.003	-4.75765	4.83875	-3.48823	-0.12027
72.002	-3.65556	4.62085	-2.81808	-0.25308
76.000	-8.04321	0.22845	-3.04979	-1.35633
79.994	-2.25707	-1.86156	-2.90379	-2.48634
84.000	-1.76331	-0.25041	-2.10228	-2.57726
87.999	1.79832	-6.29453	-3.50479	-2.52576
91.996	-4.10913	-0.67514	-2.82325	-1.87681
95.995	-1.93631	-0.46155	-5.00241	-0.61849
99.998	-2.47791	-1.13514	-3.57679	-2.76052
104.016	4.40465	-5.39368	-3.56094	-1.14187
108.009	-4.31884	-0.90833	-4.08172	-1.17643
111.996	-1.14776	-1.12373	-3.16020	-2.20477
116.003	-1.78857	-0.76009	-3.84256	-1.80490
119.998	-1.86087	-0.92901	-3.45114	-1.58735
123.995	-1.69039	-0.84891	-2.73226	-1.89796
127.997	-3.70183	-0.72935	-3.96928	-0.98898
131.995	-2.62108	-1.11129	-4.12320	-2.10151
135.997	-3.93016	-0.68610	-1.52523	-1.86118
139.995	-2.14367	-0.59636	-3.85610	-2.04143
143.995	-3.84362	-1.09533	-3.44481	-0.31995
147.994	-4.60717	-0.53650	-1.45452	-1.48760
152.000	-3.59023	-0.27816	-3.33077	-0.15088
156.000	-2.35060	-0.45698	-4.41292	-1.37002
159.996	-2.00656	-4.53149	-4.53149	-1.16343
163.995	-0.39139	-1.49423	1.55154	-2.50985
167.996	-1.06642	-3.84500	-3.82504	-1.00898
171.996	-0.36511	-2.41054	-3.82388	-0.67406
176.000	0.10131	-2.52711	-4.54678	0.33812
179.994	1.53170	-3.41412	-0.21713	-0.62957
184.001	-0.12027	0.09828	-4.62705	1.39313
187.998	2.19794	-4.16325	-3.21641	1.36392
191.992	4.41048	-2.81872	1.41759	1.46615
196.004	0.27734	1.02848	-0.90696	2.09525
200.000	-0.91061	1.24424	0.83411	1.54771
203.998	-0.52389	1.18812	-2.05965	-0.30649
207.992	1.92513	-0.43252	-2.00705	1.79247
211.992	-0.43996	1.43748	-2.01717	1.83595
215.997	1.10388	0.96333	-0.81999	1.30323
219.993	2.04433	0.54445	-1.72669	1.88759
223.994	2.58403	1.40324	-0.89217	1.46997
227.994	3.50286	0.95110	-0.00144	1.34591
231.999	4.73106	-4.98646	-0.85734	2.10453
235.995	-0.03683	1.85950	0.40164	1.46488
240.004	-0.95477	1.63001	0.67260	1.67330
244.003	-0.51046	1.81237	0.50865	1.75075
247.998	-0.58501	2.16746	-2.05581	0.93283
251.995	1.76172	1.49467	-2.18111	1.54120
255.999	3.51567	-1.43241	-1.98497	0.71596
259.994	2.76574	0.56531	-1.34001	0.59615
263.998	2.64624	0.79398	-0.24708	0.94897
267.992	0.85089	1.49119	-1.63298	1.47243
272.052	-0.79925	0.62902	-0.15707	1.41271
275.998	2.28680	-1.58168	-1.02987	1.17273
279.996	-0.25349	0.65578	0.96666	0.89474
283.994	2.16211	-1.14239	-1.41395	1.17089
287.995	2.36497	-1.37888	-0.51657	-0.16400
291.996	1.93415	-0.15929	0.72920	1.25249
296.000	1.79460	-0.38656	0.12183	1.28175
299.992	1.15679	0.27202	0.08373	-0.36826
303.990	1.58282	0.30307	-1.26048	0.98627
307.994	1.02816	0.17506	-0.54888	0.86964
311.991	1.35998	-0.23515	-0.77129	-0.68405
315.994	1.33793	-0.15765	-0.92741	0.17576
319.996	1.67511	-0.46186	-1.49825	0.06233
323.996	1.73336	-0.84991	-1.46740	0.11586
327.995	2.09477	-2.64088	-1.44108	-0.29094
331.994	5.21757	-4.08359	-1.54773	-0.29743
335.993	5.70895	-6.21868	-1.55499	-0.40528
339.989	1.66063	0.16118	-1.74638	-1.02340
343.992	1.05902	0.04693	-1.07520	0.12119
347.991	0.78151	0.17087	-0.85969	-0.05367
351.994	-0.01971	0.06332	-0.90778	2.41507
355.995	1.39540	0.09624	-1.37322	0.35412
359.998	1.53002	-1.41968	-1.41149	-0.18671
363.997	-0.13933	0.50800	0.78429	0.19999
367.994	6.27030	-2.87194	-1.42843	0.07202
371.991	1.20239	-0.01990	1.41762	0.39371
375.990	1.28085	-0.88344	-1.33631	0.13139
379.994	1.39217	0.01878	-1.30270	0.98877
383.994	0.68139	0.43557	3.60877	0.38759
387.997	0.67608	0.23975	0.23606	0.48884
391.994	0.72231	0.13497	-1.28656	0.37264
395.991	0.94187	0.21596	-1.64196	0.37439
399.991	0.50215	0.44246	-1.76708	0.36128
403.995	1.36670	-0.83506	-1.49825	0.39099
408.002	0.58320	0.26937	-1.64362	0.41133
411.990	0.90508	-0.91677	-1.78768	-0.05417
415.997	0.71965	0.09941	-1.90175	-0.03492
419.992	1.23414	-0.02104	-1.54343	0.31559
423.989	0.87557	-0.20602	-1.29491	0.09522
427.991	0.88721	-0.31855	-1.37731	0.39421
431.990	4.00134	-5.37220	-1.36471	-2.32350
436.009	0.60446	-0.00942	-1.24362	-0.31444
439.998	0.75657	-0.30047	-1.09244	0.23172
443.991	1.33232	-0.13032	-1.27321	0.23914
448.000	0.64717	-0.21041	-1.25917	0.45278
451.995	0.41199	-0.31682	-1.26875	0.75951
455.995	0.67923	-0.15338	-1.21933	1.17277
459.990	0.54287	-0.08441	-1.24632	2.17845
463.991	0.63382	0.30933	-1.17155	2.45643
467.992	0.28255	0.12116	-0.76615	0.70688
471.990	0.32347	0.11018	-0.22107	1.57421
475.991	3.30591	-0.68387	-1.29779	-0.14714
480.009	0.44381	-0.33659	-1.36910	1.44463
483.993	-0.45532	0.43943	-0.41906	0.46903
487.997	0.13496	-0.18197	-1.58946	0.28513
491.991	-0.77310	0.66343	-1.33944	1.37988
495.990	0.40095	0.14357	-1.51911	0.45114
499.992	-0.87505	1.02301	-0.87163	1.06856
503.989	-0.65575	0.71701	-1.78381	2.07949
507.991	0.12302	-0.10807	-1.91288	1.22002
511.994	-0.15258	-0.11217	-1.72381	0.33615
515.989	1.61996	-2.73691	-1.86915	0.30074
519.995	0.45805	0.26819	-1.72679	0.22818
523.992	-0.24634	0.15595	-1.86610	0.38416
527.990	2.60126	-1.42726	-1.72768	0.26899
531.993	2.89173	-2.28344	-0.83436	0.56472
535.989	-1.36963	0.65667	-0.48165	0.94181
539.996	2.38392	-1.56035	4.05826	0.29585
543.990	2.26262	-2.30616	-1.41380	0.14505
547.987	0.60099	-0.31136	-1.40522	1.21311
551.992	2.04909	-0.25908	-0.32017	0.46349
555.987	-0.53245	0.31706	-1.33562	0.15802
559.988	2.57382	-0.09242	-0.90904	0.28461
563.987	0.57823	-0.09015	-1.71898	0.64800
567.993	2.49714	-0.34465	-0.74494	0.60786
571.995	1.66881	-0.69979	-1.62740	0.76522
575.994	1.41888	-0.89541	-0.32771	1.15909
579.989	0.31044	-0.37934	-0.36047	-0.05986
583.993	1.50011	-0.14417	1.93655	1.71605
588.051	1.33215	-3.24143	-0.60545	0.89065
591.989	1.12340	-0.02629	0.69568	0.13341
595.990	0.73987	0.15246	1.85450	1.70450
599.989	0.50860	-0.87499	-0.50240	0.86666
603.988	1.48101	-1.57253	-0.66766	-0.77020
607.993	0.35521	-0.70147	1.05808	1.29683
611.994	-0.40934	-0.93966	-0.48639	0.96564
615.997	-0.20968	-0.88798	-0.97536	-1.14081
620.014	-0.85754	-0.26103	-0.85071	1.80919
623.998	-1.16543	0.19873	-0.24244	0.68384
627.988	2.51368	-3.33616	0.86726	1.08913
631.990	-1.43577	-0.62332	-0.68759	-0.26758
635.986	-0.50351	-0.75224	-0.58424	1.44944
639.991	0.05028	-0.90284	-2.57776	0.17114
643.988	3.25357	-1.21517	-2.32206	1.02130
647.991	-0.36032	-0.25013	-2.40642	0.43372
651.985	5.21565	-1.74457	-2.63665	0.66723
655.993	4.72869	-2.24668	-2.39584	1.14816
659.990	0.17027	-0.87802	-1.58314	0.94124
663.986	0.46222	-0.33657	-0.26649	-0.01975
667.990	4.97736	-2.43351	0.00156	0.60227
671.985	0.41264	-1.05259	-0.48103	0.39220
675.985	0.51381	-0.61392	2.82920	0.37052
679.987	-0.44582	0.09318	-0.64843	0.30130
683.989	-0.72637	-0.60491	-1.59529	2.18633
687.986	-1.21097	0.31678	-1.74318	-0.51470
691.989	-1.21169	-0.63590	-0.19035	-0.65114
695.992	0.56716	0.13055	-0.30019	0.08098
699.985	0.49954	-0.21511	-0.88666	0.22466
703.987	0.45051	-0.66360	-1.00035	-0.61592
707.985	0.33270	-0.29823	-1.41147	0.20022
711.991	-0.50145	-0.08940	-0.73168	0.16918
715.987	3.21696	-1.40300	-1.12526	0.42021
719.984	2.67633	-0.76509	-1.08378	-0.19863
723.984	0.57774	-0.36605	-0.51788	0.58090
727.995	0.28590	-0.75345	3.64476	-0.00382
731.989	0.20730	-0.62744	-0.68166	0.29901
735.987	0.24522	-0.59663	3.86395	0.11335
739.989	0.52145	-0.77499	-0.65111	0.22812
743.988	0.44845	-0.90555	-1.56241	0.29184
747.986	4.43271	-1.83425	-0.98648	0.11171
751.860	0.66670	-0.55512	-1.37131	0.29072
755.859	0.40780	0.29311	-1.02781	0.63375
759.863	-1.59306	-0.48823	-1.85661	0.00797
763.859	-1.13427	0.56119	2.12275	-0.02294
767.859	-1.13236	0.82912	-0.83277	1.34956
771.864	0.55237	-0.02231	-1.16912	0.34023
775.861	-1.63678	0.64137	-1.80147	-0.45905
779.863	4.74816	-5.93278	3.29505	0.43842
783.863	0.55101	-0.16894	-1.15389	0.55112
787.868	-0.36097	0.32981	-0.43251	0.32991
791.862	0.56250	-0.71139	1.99121	1.35731
795.863	-1.70192	0.30511	-0.96817	0.08887
799.858	0.63717	-0.16069	1.40415	-0.16743
803.860	-0.24339	0.03449	-1.19529	0.30741
807.859	0.38045	0.10253	-0.78077	0.52793
811.863	0.95239	0.11280	1.53999	0.34947
815.859	0.85957	-2.40176	-1.25111	0.62277
819.859	0.92698	-0.28871	-0.40740	0.55912
823.859	-0.00027	-0.22021	-0.09473	0.25435
827.867	0.67732	0.16906	0.58521	0.44422
831.858	4.94802	-0.57646	-4.56471	0.68536
835.859	5.58009	-0.21051	-4.38563	0.39017
839.858	4.94196	0.25742	7.83339	3.37437
843.861	7.51281	-3.53568	2.83912	6.74831
847.858	-1.48463	3.91583	NaN	NaN
851.860	NaN	NaN	NaN	NaN
855.866	NaN	NaN	NaN	NaN
859.864	NaN	NaN	NaN	NaN
863.863	NaN	NaN	NaN	NaN
867.863	NaN	NaN	NaN	NaN
871.861	NaN	NaN	NaN	NaN
876.624	NaN	NaN	NaN	NaN
883.861	NaN	NaN	NaN	NaN
887.857	NaN	NaN	NaN	NaN
893.391	NaN	NaN	NaN	NaN
903.862	NaN	NaN	NaN	NaN
907.858	NaN	NaN	NaN	NaN
911.869	NaN	NaN	NaN	NaN
915.860	NaN	NaN	NaN	NaN
919.860	NaN	NaN	NaN	NaN
926.248	NaN	NaN	NaN	NaN
935.857	NaN	NaN	NaN	NaN
940.034	NaN	NaN	NaN	NaN
944.245	NaN	NaN	NaN	NaN
947.856	NaN	NaN	NaN	NaN
951.856	NaN	NaN	NaN	NaN
955.869	NaN	NaN	NaN	NaN
959.860	NaN	NaN	21.87018	13.64913
963.859	NaN	NaN	NaN	NaN
967.856	22.28789	-6.20546	NaN	NaN
971.861	10.59275	-7.61909	11.38466	-1.91108
975.858	19.71107	-7.51038	-2.35799	6.18414
979.907	1.49460	-7.71742	2.56097	-12.88958
983.857	18.26767	-7.56045	-3.28165	-6.10725
987.857	17.95970	-8.65043	-0.86860	-6.45235
991.860	0.05232	-4.51022	-1.36042	-5.50836
995.860	4.34028	-4.36247	0.51805	-7.22590
999.864	-0.45852	-4.40551	10.94545	-1.57761
1003.859	2.25699	-3.85299	-2.20153	-7.46809
1007.860	3.17225	-3.90778	11.08029	-1.53227
1011.860	8.43841	-3.64439	0.98263	-4.78929
1015.857	6.46672	0.93998	4.55946	-1.70265
1019.859	2.32372	1.20171	5.56460	-2.03188
1023.910	-19.99372	-12.07736	NaN	NaN
1031.861	4.04890	-6.29749	5.10209	-4.44839
1035.866	5.62242	-4.21137	6.49379	-2.18583
1039.865	5.13378	-3.93799	5.94632	-3.75738
1043.856	3.29345	-2.06086	6.15671	-4.05146
1047.854	3.21577	-3.05803	6.06733	-2.29339
1051.857	7.23838	-5.87696	5.69902	-3.44921
1055.855	6.71275	-5.94675	5.35362	-3.80756
1059.855	6.89081	-6.10693	6.08195	-4.09321
1063.853	6.99238	-6.08190	5.32486	-2.26007
1067.858	6.75438	-5.90643	5.27648	-2.65119
1071.855	7.46411	-4.76571	5.29683	-3.41406
1075.861	9.91276	-5.99055	5.64444	-3.67433
1079.860	9.74858	-5.97488	6.24759	-4.37070
1083.858	6.44503	-5.35256	5.58311	-4.66816
1087.853	6.85515	-4.44582	6.14901	-3.32677
1091.859	6.79300	-5.72114	6.19118	-2.91239
1095.854	6.87284	-5.49033	6.06230	-2.55731
1099.857	6.07798	-5.55699	5.95380	-2.19370
1103.858	7.04269	-4.88845	5.84750	-2.45259
1107.857	6.57411	-4.95581	6.01540	-2.86962
1111.856	6.33733	-5.67027	6.21090	-2.75550
1115.859	6.95543	-6.53236	6.19545	-2.82582
1119.859	6.69344	-5.37053	6.16692	-2.73779
1123.856	6.54999	-4.86195	5.70273	-2.40659
1127.853	7.27245	-5.46504	6.06767	-2.73055
1131.854	6.96631	-6.02355	6.01348	-2.79910
1135.860	9.32722	-6.61948	5.92292	-2.75991
1139.855	6.90684	-5.72960	5.99433	-1.50230
1143.855	7.52269	-5.38290	5.98734	-1.90909
1147.853	6.14116	-5.14177	6.18068	-1.06408
1151.857	9.76382	-4.18916	6.29867	1.23943
1155.855	8.63260	-3.62091	7.21303	0.41228
1159.860	5.61195	-5.83062	8.35529	0.81608
1163.860	9.05734	1.80655	8.61297	2.45247
1167.855	8.65712	-3.33001	6.95433	3.00565
1171.857	8.43853	2.20039	7.12097	2.66604
1175.851	8.94927	2.23739	7.50164	2.40382
1179.859	9.05006	2.24684	8.03791	1.85821
1183.853	12.76418	-3.35543	8.86808	2.72027
1187.856	8.63071	-2.06091	8.11642	3.39972
1191.851	12.79321	-4.03664	8.98232	4.22059
1195.855	9.39929	-4.48903	7.53737	4.21465
1199.857	10.31422	-4.55371	7.79746	4.48543
1203.859	8.25805	-6.49408	6.66342	4.75737
1207.857	9.28050	-5.87657	7.44391	4.69330
1211.860	8.40907	-7.08050	6.99859	5.06809
1215.853	8.50027	-6.72824	7.81792	3.03517
1219.856	8.52416	-6.93363	6.88842	3.85593
1223.855	9.45517	-10.97683	7.49832	4.13416
1227.858	11.05156	-11.79445	7.87640	4.47079
1231.888	8.92076	0.07119	7.28251	3.41303
1235.853	9.29749	2.96621	8.06560	3.79448
1239.854	9.20847	2.62780	6.83996	5.29942
1243.856	9.02924	2.63096	7.57125	3.30111
1247.859	9.16765	1.37180	8.16892	5.00388
1251.852	9.89954	2.52471	7.37309	2.97497
1255.854	9.13736	2.26741	8.65698	4.22418
1259.849	9.12498	1.52631	7.50073	4.13914
1263.855	6.08411	1.95169	7.68883	4.74316
1267.851	8.99085	0.79043	7.83527	3.85001
1271.858	9.14612	2.10636	7.18662	4.70202
1275.853	7.33230	1.87299	7.02604	3.06893
1279.855	8.96397	1.43295	7.75724	4.82372
1283.856	9.04936	2.27529	7.74418	3.74724
1287.857	8.10554	0.66410	7.68091	4.07809
1291.851	8.38644	1.59333	8.01742	4.53034
1295.851	8.78765	1.88398	7.19688	4.02246
1299.854	8.87895	1.87219	7.58149	3.71796
1303.853	8.35814	2.26784	7.94752	4.44722
1307.851	8.63554	0.54916	9.17488	4.73269
1311.855	9.00537	1.76976	7.80903	5.60421
1315.851	8.69164	1.18823	7.31184	4.44450
1319.852	9.37267	2.08294	7.69768	4.27318
1323.847	9.01196	1.20672	7.70806	3.54754
1327.859	9.10112	1.03130	7.91056	3.72828
1331.852	9.53378	1.56889	7.54844	4.94937
1335.866	9.34457	-2.42979	7.71221	4.94265
1339.853	11.07747	1.06048	7.86232	5.03394
1343.851	11.40570	2.27318	7.67414	4.45034
1347.850	8.27832	-2.63812	7.65132	3.92871
1351.852	9.68271	-2.66939	7.89376	4.17647
1355.854	9.99888	-2.75171	8.05949	4.88337
1359.855	16.19563	0.89959	7.65439	3.91032
1363.852	11.44478	0.83980	7.99652	3.49581
1367.857	7.49673	-2.90605	7.67672	5.19016
1371.849	11.60492	0.81976	7.61660	4.40998
1375.854	6.16368	-2.86786	7.81637	2.72216
1379.850	7.09192	-3.54831	7.78024	5.27985
1383.849	11.81627	0.97680	7.54093	4.23753
1387.853	11.67222	1.17131	7.89267	3.81385
1391.850	9.00944	2.32901	7.74530	5.59342
1395.852	8.41835	2.02810	7.53742	5.04748
1399.848	10.73912	1.42267	7.80494	4.38609
1403.848	14.17542	0.95046	7.75556	5.11337
1407.858	12.39942	1.13482	9.93499	3.40222
1411.859	14.80997	-2.74040	7.22602	5.28571
1415.852	10.75981	2.18745	7.50652	5.34161
1419.856	7.32370	1.78205	7.64981	4.84039
1423.850	10.32525	-2.79942	7.57342	5.15657
1427.851	13.62732	0.93306	7.52193	5.08178
1431.849	18.14039	-4.35777	7.67548	5.40055
1435.848	9.13702	2.05657	7.72056	5.19134
1439.851	13.81996	2.02281	7.49390	4.79979
1443.848	10.15653	2.03894	8.80439	4.12769
1447.849	10.06087	2.58146	7.71754	4.56351
1451.858	9.66438	1.59367	7.23499	4.88479
1455.851	9.97113	1.66612	7.25382	4.87671
1459.906	7.08451	0.25402	7.61185	5.44287
1463.857	9.28163	1.88297	7.24866	4.76327
1467.847	8.27662	2.11997	7.23667	4.57876
1471.851	8.96278	2.18952	6.95641	5.61574
1475.854	9.41467	2.08660	9.68124	4.27483
1479.859	9.83520	1.53735	9.79838	4.36379
1483.854	8.12510	2.93005	7.10773	4.84759
1487.850	9.78710	2.28372	7.37978	5.22010
1491.853	10.01643	1.59112	7.17174	4.84790
1495.849	9.87704	2.44701	7.40816	4.81310
1499.851	9.72534	2.19904	8.08003	4.95744
1503.849	9.81595	2.03288	7.41853	4.87296
1507.849	9.89670	2.18072	8.74554	4.05765
1511.850	9.79905	1.43246	7.72568	4.73194
1515.849	13.59232	1.65531	7.71998	4.52414
1519.846	6.25943	0.39079	7.63296	4.76022
1523.846	8.92585	2.19719	8.69455	3.90298
1527.849	11.07255	0.96072	7.97296	3.64924
1531.846	11.79382	1.01489	7.90392	3.69177
1535.850	9.20228	1.20301	8.28687	3.81385
1539.850	9.33026	0.89112	8.09457	4.79597
1543.854	7.39786	0.40829	8.64602	4.17316
1547.848	8.51693	0.64355	8.29292	3.80601
1551.849	6.73627	1.08302	8.43161	4.83326
1555.846	5.38024	2.37644	8.34220	5.30271
1559.854	11.83536	0.60039	8.78539	4.23997
1563.849	8.78556	-1.88412	8.58932	3.47383
1567.846	5.16154	2.68482	8.38899	5.10486
1571.847	11.95384	0.55190	8.22832	4.95400
1575.853	5.62225	0.10760	7.89617	5.24665
1579.849	6.57982	1.30522	4.76825	5.22206
1583.846	6.09906	1.69959	4.81924	5.24664
1587.851	7.97775	1.27319	2.84890	5.49428
1591.847	5.04078	1.41561	2.02083	5.20449
1595.848	4.21281	2.55789	2.18545	5.72079
1599.845	4.94627	2.38889	1.56895	5.65582
1603.721	3.52128	1.97199	1.40316	5.62625
1607.727	6.45130	2.02472	1.53892	5.13742
1611.727	4.82010	1.99780	1.54485	5.40069
1615.723	4.42407	2.07698	1.70341	5.74418
1619.721	2.93069	1.84399	1.40539	5.61567
1623.724	4.58523	1.89270	3.99684	5.21626
1627.732	4.58903	1.91362	1.89345	5.85189
1631.722	5.33957	1.87396	1.49351	5.89338
1635.724	3.97118	1.99814	4.08950	1.89506
1639.719	5.02068	0.88795	2.05613	4.94496
1643.725	4.51965	2.29270	1.44416	5.05227
1647.723	2.90277	1.93806	1.60295	5.42867
1651.723	4.23209	1.84382	0.59774	5.61158
1655.720	4.16080	2.18545	1.06113	5.56981
1659.724	3.55424	2.02686	0.74503	4.66272
1663.754	4.01156	1.94867	0.79074	4.50891
1667.730	4.12046	1.92360	0.66297	5.04305
1671.724	3.08523	1.53591	3.31210	4.87378
1675.717	3.79994	1.87100	0.48783	4.19720
1679.722	5.91450	-1.15988	0.76253	4.63357
1683.721	3.59636	2.60713	0.79781	4.95855
1687.718	0.47133	2.09363	0.62359	5.26869
1691.724	4.28227	1.09664	0.95023	5.17240
1695.723	3.89538	1.47255	1.01097	5.09144
1699.723	3.20060	1.76830	0.83568	4.38088
1703.718	2.31832	2.88530	1.00536	4.75308
1707.728	5.25382	0.89777	1.30161	5.20428
1711.720	3.81624	1.61768	0.98928	5.12985
1715.722	2.07886	2.84766	1.56848	4.51884
1719.721	2.24101	1.20855	1.70254	5.10695
1723.720	2.39696	0.93291	1.95297	3.91048
1727.726	3.67057	1.48870	1.28214	5.49027
1731.724	3.78726	3.07793	1.86417	4.75271
1735.720	2.53216	1.62282	1.75022	5.64763
1739.721	3.62000	1.52905	1.37903	4.52754
1743.722	3.62936	2.62555	1.81220	3.96789
1747.725	3.98215	2.20940	1.63331	5.87633
1751.717	2.76913	1.69427	1.73380	4.93490
1755.723	3.45225	2.39876	1.51539	4.41817
1759.719	3.77790	2.58940	2.04701	5.01340
1763.719	4.20175	1.62373	2.07021	5.32959
1767.715	4.21496	1.95060	1.16538	4.49636
1771.723	3.86128	2.88876	1.94466	4.96900
1775.717	3.33948	1.85340	2.13125	6.92345
1779.721	3.51396	2.44859	2.41712	6.06160
1783.716	4.32508	2.15005	6.82087	7.07797
1787.727	3.65759	2.92495	6.60208	5.45152
1791.723	4.00739	1.90033	5.15074	6.80083
1795.753	3.66258	2.59699	2.47412	4.47446
1799.721	3.00326	2.93870	1.12683	4.03650
1803.719	2.19053	1.62272	2.22470	4.94141
1807.717	2.34389	1.61429	1.86285	5.25795
1811.734	3.87322	2.91137	1.40723	5.33877
1815.722	3.94918	3.46214	1.44066	4.63528
1819.716	4.10150	2.61298	1.44703	6.10276
1823.723	2.52292	3.16374	1.04272	7.13099
1827.718	1.62825	5.10460	0.05797	7.38791
1831.724	1.43143	6.52780	1.69364	8.02892
1835.719	1.52444	6.78338	0.67223	9.10524
1839.723	0.94723	5.93493	0.49604	9.20635
1843.721	0.40812	5.77669	-0.01420	8.20320
1847.719	2.19873	5.65785	0.76734	7.66030
1851.717	0.16342	7.76232	0.89773	7.11153
1855.719	-0.00861	6.86146	0.52458	9.30833
1859.718	0.17372	5.96076	0.62873	9.30548
1863.715	-0.00826	5.96767	0.23805	8.81080
1867.721	-0.31801	8.46609	0.29498	8.20837
1871.721	-0.42867	7.75206	0.24068	7.82706
1875.718	-0.54567	7.10505	0.03162	7.44084
1879.719	-0.24023	6.44761	-0.07353	9.97529
1883.718	-0.08828	6.29321	-0.23601	9.63194
1887.715	1.12038	6.04846	-0.14762	9.54120
1891.717	0.74104	6.52460	0.01228	9.57322
1895.719	-0.40080	6.26566	-0.00913	9.35294
1899.719	-0.94281	7.08015	-0.11808	9.58789
1903.717	-1.14719	7.27285	-0.07458	9.37831
1907.715	-1.17332	6.81798	-0.14064	9.55783
1911.718	-0.88758	7.70527	-0.16124	9.60039
1915.732	-1.20695	6.82882	-0.29843	9.62484
1919.722	-1.23059	7.55365	-0.37797	9.87865
1923.717	0.14434	6.38954	-0.36586	9.46376
1927.717	0.28203	6.15560	-0.19345	8.29617
1931.715	0.42284	6.60103	-0.09202	8.28029
1935.720	-0.41929	7.13770	-0.08041	9.08671
1939.715	-0.39695	7.14721	-0.20998	9.35245
1943.718	-0.77305	7.49058	-0.27488	9.58363
1947.719	-0.12823	7.77074	-0.20800	7.27666
1951.716	-0.24795	7.45540	-0.20249	7.98121
1955.725	0.18487	5.83310	-0.26614	8.82893
1959.717	-0.13253	7.05925	-0.25962	9.58168
1963.717	-0.04760	7.13779	-0.21157	7.46346
1967.715	1.76120	6.61087	-0.07083	8.47902
1971.718	2.13475	4.46802	-0.18921	9.06932
1975.716	-0.19561	7.00885	-0.13806	7.08976
1979.777	NaN	NaN	NaN	NaN
1987.722	0.84161	7.00296	-0.19817	7.28422
1991.719	3.59780	6.28324	-0.33764	9.00666
1995.722	3.29226	6.69921	-0.24902	9.82481
1999.720	1.57925	6.64892	-0.53113	8.81861
2003.719	3.98156	8.16212	-0.38767	10.02347
2007.715	1.27309	6.40485	-0.37628	8.73397
2011.742	2.36116	8.09295	-0.35749	9.83714
2015.770	3.35306	5.48335	-0.36459	8.61480
2019.716	1.58850	6.95173	-0.46041	9.90476
2023.716	1.44748	5.50998	-0.39799	8.37372
2027.715	3.67220	6.35382	-0.19204	9.68433
2031.716	3.40212	6.21659	-0.48676	8.52778
2035.712	1.23419	6.28509	-0.33980	9.70097
2039.723	0.20373	7.87042	-0.49145	8.53987
2043.716	3.47144	5.73335	-0.37248	9.78633
2047.714	0.37338	6.90444	-0.40698	9.40542
2051.712	1.54505	5.95018	-0.48180	8.69445
2055.716	0.15660	7.08232	1.49237	9.70233
2059.712	1.20497	5.94203	0.05609	10.19957
2063.713	-0.37060	6.48411	0.30126	9.49839
2067.713	0.48880	5.93038	-0.82076	9.91541
2071.716	-0.27992	5.71453	1.03034	9.00771
2075.712	0.77203	7.21786	-0.57650	10.03811
2079.714	0.10848	6.05640	-0.48110	11.45792
2083.728	-0.07289	6.84281	-0.75119	12.78731
2087.719	0.77283	7.23307	-0.58726	10.48552
2091.713	0.60352	6.63316	-1.17706	11.59695
2095.713	0.24661	7.12911	-0.64558	9.98382
2099.716	0.26106	7.28886	-1.14042	10.62608
2103.712	0.37730	7.55538	-1.35737	11.16821
2107.713	2.98237	6.70228	2.46639	11.17234
2111.713	0.83488	6.36994	-0.32466	9.95818
2115.716	1.04039	6.71886	-0.46654	9.45030
2119.712	2.52996	6.55600	-0.34298	7.70207
2123.722	4.49931	6.41624	-0.44887	6.96638
2127.714	3.79717	6.07205	-0.34791	7.41849
2131.715	3.70181	5.64826	-0.30699	7.19390
2135.712	3.76584	5.13071	-0.29734	7.51173
2139.713	3.33824	5.25671	-0.20643	7.58177
2143.713	6.16137	5.11768	-0.18688	8.06798
2147.710	5.89947	4.79775	-0.31943	7.99827
2151.723	6.01468	4.85397	-0.39866	8.43903
2155.715	2.98195	4.95838	-0.28850	8.24026
2159.715	2.63797	4.81853	-0.26398	8.19642
2163.716	2.57523	4.52318	-0.24018	8.11094
2167.722	2.55770	4.71848	-0.11404	7.95414
2171.711	2.50390	4.62410	-0.11302	7.96691
2175.713	2.73798	4.38712	-0.13352	8.10595
2179.715	2.64317	4.41453	-0.08093	8.05820
2183.714	2.74346	4.45991	-0.11096	8.05217
2187.714	3.64271	4.63858	-0.02554	8.01820
2191.709	3.49290	4.70822	0.04633	8.08502
2195.710	3.57496	4.90622	0.07413	8.03761
2199.712	2.22669	4.63126	0.18973	7.97208
2203.719	1.03382	4.94486	0.05001	8.01749
2207.715	1.07718	5.56158	-0.08411	8.00788
2211.715	2.11133	5.37221	-0.40914	7.93019
2215.712	0.77412	4.47480	-0.10220	7.15265
2219.730	1.87503	4.40281	-0.17685	7.11331
2223.717	0.65446	5.09141	-0.21507	7.44389
2227.712	0.63193	5.45314	0.00385	7.72765
2231.714	1.91229	4.92265	-0.08197	7.09031
2235.709	3.01447	4.68348	0.19087	6.78285
2239.712	3.59112	4.66074	-0.29396	6.54014
2243.710	1.66088	5.70579	-0.42720	6.68269
2247.714	1.24104	5.37392	-0.23026	7.12704
2251.713	1.88544	5.55848	-0.33451	8.25799
2255.712	2.53444	5.00665	0.80674	6.77904
2259.712	2.08498	4.29300	1.84247	6.77966
2263.712	2.53080	4.36709	-0.32426	6.92397
2267.715	2.46352	5.22183	0.13910	6.94622
2271.711	2.12102	5.83445	-0.10977	7.13288
2275.713	2.54824	5.33249	-0.29064	7.05543
2279.707	2.36584	5.70634	1.11876	6.83224
2283.714	1.73812	6.17977	0.24450	7.11297
2287.728	2.48403	5.82245	1.13390	7.05347
2291.711	0.36161	4.80329	0.84545	6.39927
2295.713	2.50303	4.12577	0.21475	6.95117
2299.710	2.52059	4.98759	-0.17194	6.83774
2303.712	3.07931	5.37656	0.05810	6.98811
2307.709	2.02202	5.62676	0.19514	6.93619
2311.713	-0.00536	6.00562	-0.08512	7.16249
2315.711	0.07373	5.27863	0.24078	7.35673
2319.709	2.73610	4.48604	0.26771	7.68782
2323.712	1.18808	5.74220	0.12982	7.68325
2327.711	2.34453	6.02889	0.32109	6.69567
2331.713	-0.02971	6.29672	0.93820	6.22474
2335.712	0.30851	5.83369	0.80980	7.13892
2339.709	0.35593	5.95101	1.46774	7.12383
2343.711	1.71132	6.33619	-0.49584	7.04102
2347.708	0.46991	6.42338	0.36151	7.10088
2351.709	0.51810	6.47814	0.35107	7.23951
2355.713	-0.24073	6.11059	2.88831	7.31499
2359.710	0.90242	6.38249	-1.20678	7.00851
2363.712	0.75789	6.36792	-0.09689	6.96031
2367.709	0.17025	6.44616	0.71027	7.03081
2371.716	0.68394	6.16305	1.60367	7.06296
2375.709	4.01060	5.94794	-1.13655	7.32242
2379.712	0.38062	6.18918	-0.26984	7.17189
2383.710	0.07460	6.30755	1.19100	7.39390
2387.708	3.67786	4.72355	0.51659	7.09456
2391.712	3.57088	5.46664	-1.30933	7.32523
2395.709	0.70451	6.05498	-0.41993	7.19288
2399.711	2.33710	4.25659	-0.23634	7.01655
2403.728	3.29651	5.09338	0.46227	7.07179
2407.719	2.84853	5.12960	1.68652	7.19476
2411.712	0.64345	5.60302	1.85564	7.51069
2415.715	0.56592	5.54499	1.84592	12.68543
2419.712	1.38535	5.55676	2.64359	12.51380
2423.707	1.06441	6.18900	2.27902	7.12563
2427.713	0.91195	5.15957	1.01950	12.82932
2431.710	1.69426	6.37450	-0.52515	7.55359
2435.707	0.66392	6.57483	0.21306	7.94433
2439.708	0.62265	5.19171	0.11143	7.83670
2443.744	1.43647	5.70219	0.01720	7.74686
2447.708	2.94745	6.61707	-0.23584	8.10486
2451.708	0.15126	6.04981	0.62853	8.05363
2455.710	0.94316	6.67573	-0.17531	8.24378
2459.589	0.18906	7.20925	-0.69156	8.22033
2463.591	-0.33384	6.53675	-0.37817	8.16718
2467.584	0.04929	6.39706	-0.52758	8.18674
2471.580	1.56536	6.37591	-0.56932	8.06463
2475.581	2.37062	7.33882	-0.30793	7.80031
2479.615	-0.18688	5.87513	-0.31709	7.89183
2483.593	1.74757	6.05978	-0.51624	8.16455
2487.582	2.16196	6.56002	-0.14057	7.84864
2491.587	-0.13054	5.93666	1.78146	8.04474
2495.585	0.54297	6.44669	-0.45532	8.13170
2499.578	-0.29352	6.74762	0.20465	8.01700
2503.589	0.24924	6.80341	0.05348	8.46590
2507.582	-0.05921	6.69800	0.78469	8.32347
2511.583	0.35432	6.90541	-0.54912	8.20606
2515.583	0.44698	6.14210	0.87840	8.07792
2519.586	-0.05306	5.83047	0.62367	7.18808
2523.579	0.29796	6.85265	0.34129	7.30842
2527.583	-0.13647	6.79569	0.17501	8.02126
2531.582	0.04073	6.69319	0.33923	7.67364
2535.584	0.16166	6.33104	-0.34824	8.10633
2539.579	0.17434	6.70324	0.30545	8.21859
2543.587	-0.26187	6.58270	-0.65935	8.32331
2547.582	-0.06433	6.47136	0.05979	8.27339
2551.580	0.12950	6.52416	0.32781	8.59911
2555.585	0.00844	6.48326	1.15054	8.27549
2559.581	-0.40489	6.41521	-0.10490	8.06638
2563.586	-0.08495	6.69427	-0.03494	8.23233
2567.581	-0.17879	6.43990	0.22192	7.32340
2571.579	0.07604	6.67846	0.28845	7.26026
2575.580	-0.55957	6.70320	0.08584	8.19199
2579.578	-0.10592	6.51782	-0.04867	7.96649
2583.587	-0.23897	6.92826	-0.28788	7.81521
2587.580	0.36052	6.85677	-0.17549	8.10131
2591.580	-0.07890	6.82042	0.00727	8.27870
2595.583	-0.44142	6.41563	-0.22822	7.92804
2599.583	0.54118	6.16230	0.85937	6.60477
2603.585	0.85357	2.57437	1.96598	5.60017
2607.581	3.14303	3.83651	0.95624	5.98115
2611.581	2.62244	2.96652	1.74310	4.70404
2615.581	0.98926	2.37808	1.88331	3.92532
2619.581	1.56397	1.76844	2.23112	4.36016
2623.581	2.51264	0.96901	1.70202	4.49506
2627.589	3.02930	1.09381	5.72224	3.93992
2631.583	2.81050	1.70364	1.30025	3.92803
2635.576	2.88334	2.08915	1.73239	3.94891
2639.584	2.52607	1.86010	1.65892	3.31787
2643.579	1.87374	1.78788	1.87151	3.59746
2647.638	1.66363	0.47943	1.77895	3.93862
2651.583	2.14273	0.18149	1.70033	3.98427
2655.576	2.53310	-0.07140	1.66068	3.72302
2659.580	2.95700	0.21004	1.74280	3.58629
2663.577	3.50432	0.54567	1.92151	3.90281
2667.589	3.77523	0.64943	1.96075	3.73598
2671.579	2.81382	1.45454	1.78002	2.84908
2675.581	2.74878	1.22635	1.77558	2.93822
2679.576	2.47160	1.03201	1.88750	3.57344
2683.598	1.47275	1.13414	1.92842	3.92017
2687.587	1.62011	1.54959	1.87619	4.17208
2691.580	2.21521	1.86199	1.92404	3.91697
2695.583	2.53954	-0.17911	2.04416	3.73450
2699.577	2.71089	0.13552	2.44685	3.97931
2703.578	2.31601	-0.33685	2.12186	3.41932
2707.585	2.40994	0.09953	1.92233	2.77604
2711.581	2.43910	0.07396	1.97664	2.87294
2715.581	2.65112	0.36002	1.92656	3.03791
2719.578	2.65599	0.17942	2.13916	2.92166
2723.576	3.17757	0.60462	1.92052	3.29752
2727.580	3.34860	0.72181	2.08664	3.32469
2731.580	3.12118	0.51338	1.96712	3.39871
2735.579	3.51503	0.54514	2.17095	3.40572
2739.575	3.84073	0.44082	1.88033	3.58775
2743.582	4.16680	0.43920	1.63269	3.43670
2747.579	3.97205	0.41083	1.80320	3.49223
2751.584	4.00104	0.48969	1.40651	3.47149
2755.576	4.21829	0.23424	1.72386	3.31685
2759.575	3.88075	0.45661	1.88886	3.20322
2763.577	3.98309	2.48925	1.81813	3.15605
2767.579	3.60497	2.40560	1.91990	2.68119
2771.579	3.81679	0.63341	4.01796	3.06359
2775.575	4.52340	0.47439	4.21587	3.41148
2779.575	4.43211	0.39178	4.37026	3.45434
2783.579	4.49484	0.15248	1.77975	3.86883
2787.576	4.41479	0.21703	2.21940	3.67029
2791.581	4.33554	1.88735	1.98407	3.73459
2795.578	2.92517	1.52389	2.06882	3.10760
2799.576	4.17862	0.94648	1.92763	3.66814
2803.574	4.09520	0.51694	1.96856	3.99203
2807.580	4.18613	0.11839	1.94124	3.93221
2811.576	4.09905	-0.50556	1.97964	3.95436
2815.577	3.90491	1.80977	1.96362	4.16372
2819.575	3.96390	1.82854	2.24418	4.01208
2823.577	3.57562	1.14748	2.22696	3.93985
2827.578	3.70640	0.30986	2.23048	3.90037
2831.578	3.37583	-0.05976	2.48128	3.97516
2835.584	3.09453	-0.41531	3.06028	3.91254
2839.578	1.84947	-0.53083	2.87967	3.84966
2843.580	2.61763	0.63900	2.93260	4.07127
2847.577	1.87865	1.73455	2.52101	4.11329
2851.578	1.58177	1.06334	2.38521	4.10514
2855.580	1.85147	1.31430	2.20077	3.95897
2859.612	1.54495	0.51328	2.48673	3.17430
2863.574	1.78223	-0.20061	2.66253	2.98486
2867.575	1.41789	-0.04668	3.35889	3.55632
2871.573	1.20164	-0.33583	3.60160	3.17260
2875.579	1.34586	-0.23128	3.87057	2.52009
2879.577	1.70931	-0.28012	3.00027	3.78652
2883.571	1.35819	0.39874	2.37585	4.85393
2887.579	1.85341	0.95012	4.04737	3.59564
2891.574	4.33836	1.19715	2.12117	3.81824
2895.577	4.29789	0.89461	3.99825	4.70364
2899.575	4.29490	0.60018	4.82257	4.22916
2903.574	5.73394	-0.27348	6.52515	3.69880
2907.575	7.78207	-0.50342	8.10513	3.39116
2911.577	8.36664	-1.70791	8.34443	3.07128
2915.571	9.19798	-0.68969	9.01043	2.56915
2919.580	10.07430	-0.24723	9.00501	2.23453
2923.576	10.05950	0.12285	9.22668	2.13868
2927.574	9.94739	-0.31397	8.89850	2.49075
2931.577	10.64230	-0.58674	9.00348	2.77927
2935.575	10.78578	-0.50010	9.04384	2.54599
2939.575	10.99805	-0.92302	8.69906	2.71124
2943.572	10.81827	-1.40201	8.38342	2.50973
2947.577	10.48250	-2.48165	8.49110	2.38358
2951.574	9.86269	-0.82134	8.37264	1.98999
2955.576	9.84806	-0.15177	8.58621	1.72181
2959.575	10.10059	-0.11603	9.16059	1.79534
2963.582	9.95526	-0.27696	9.17742	1.59190
2967.572	10.65148	-0.30450	8.69355	1.95490
2971.577	10.69668	-0.60079	8.93300	1.99292
2975.573	10.36708	-0.61964	9.36112	2.34721
2979.577	10.77732	-0.62177	9.18627	2.06435
2983.576	11.29978	-0.77357	8.40222	3.19194
2987.573	10.94813	-1.54766	8.52671	3.19937
2991.572	10.16694	-1.86280	8.54023	3.53037
2995.576	10.46697	-0.85423	8.49156	3.49162
2999.577	10.39287	-1.66492	8.60761	3.31293
3003.573	10.14249	-1.24344	8.53253	3.19420
3007.571	11.13604	-1.53704	8.53280	3.40997
3011.577	11.37252	-1.62059	8.45261	3.18959
3015.576	10.62962	-1.68373	8.32373	2.91792
3019.575	10.40502	-1.65502	8.24434	2.88426
3023.571	10.71710	-1.75623	8.16980	2.96012
3027.576	9.75697	-1.60275	8.15275	2.93063
3031.572	9.93111	-1.50887	8.17267	2.54761
3035.577	10.32426	-1.29644	8.10902	2.68539
3039.576	10.93770	-1.02923	8.10720	2.50645
3043.580	11.12498	-0.31094	8.06424	2.71691
3047.578	10.40000	-0.46791	8.03226	2.88790
3051.575	10.11851	0.00560	7.99308	2.85828
3055.570	9.68317	0.19858	8.04862	3.00319
3059.577	9.70890	-0.73302	7.98520	3.11025
3063.573	9.49972	-1.79169	7.97746	3.24441
3067.575	9.73817	-1.50143	8.02076	3.18019
3071.568	9.75854	-1.37637	7.92410	3.30015
3075.577	10.18738	-0.18037	8.06973	2.93870
3079.574	10.25682	-0.11466	8.09988	2.62847
3083.602	10.05734	0.34858	7.90577	3.08283
3087.568	9.73851	0.37728	7.71681	3.69072
3091.575	9.75382	-0.19381	7.91161	3.29919
3095.571	9.71300	-0.83765	7.97045	3.19493
3099.574	10.37928	-0.63001	7.84218	3.05929
3103.571	10.37109	-0.18902	7.86167	3.16638
3107.575	9.66887	0.25275	7.87078	2.91371
3111.571	9.14948	0.47429	7.67119	3.06694
3115.573	9.44397	0.61382	7.71567	3.22593
3119.571	9.79742	-0.17469	7.66924	3.08827
3123.577	10.16459	-1.08715	7.86403	3.00478
3127.579	9.51411	-0.31484	7.81283	3.20010
3131.571	9.07361	-0.06527	8.10518	3.29643
3135.571	8.91359	0.54360	11.00077	2.82580
3139.568	8.70459	0.93324	9.41677	2.76713
3143.574	8.85257	0.72259	9.27704	3.31327
3147.571	9.98042	-1.30243	9.69405	3.26472
3151.569	10.47271	-0.81337	7.87012	3.22410
3155.573	9.99436	-0.07209	7.91702	3.51500
3159.570	9.80886	0.48026	8.38427	3.66003
3163.571	10.14540	1.20267	9.54332	3.04299
3167.578	9.63696	-1.08141	9.28226	3.29122
3171.568	10.01070	-0.99672	9.37419	3.49543
3175.574	10.18615	-0.33905	8.62028	3.31951
3179.568	5.63410	1.05930	8.62494	3.42440
3183.570	10.11639	0.75456	7.98452	3.80646
3187.569	9.85500	0.87763	9.38066	3.10611
3191.571	9.91881	-0.86437	9.42327	3.17575
3195.568	9.94443	-0.67095	9.51515	3.43044
3199.566	10.83302	-0.20045	7.97863	3.58617
3203.574	10.01631	0.02584	8.05278	3.47687
3207.574	10.21409	0.04593	8.27504	3.46048
3211.573	9.85934	0.98710	7.75980	3.05660
3215.569	10.22082	0.77454	7.56191	3.27700
3219.570	10.11151	-0.65901	7.56861	3.42233
3223.571	10.01936	-1.32761	7.44672	3.87849
3227.574	9.79795	-0.87616	7.73031	3.49711
3231.574	9.67425	-0.25426	7.59380	3.77424
3235.571	10.20414	-0.28538	7.20726	3.58256
3239.572	9.75594	0.02260	7.00311	3.33673
3243.571	10.23096	0.37228	7.11012	3.34125
3247.591	10.35419	0.46070	7.39523	3.08427
3251.582	10.51048	0.72579	7.25299	3.14906
3255.572	10.77313	0.50183	7.46377	3.33786
3259.571	10.93394	0.14019	7.50161	3.37749
3263.568	11.35258	0.19476	7.43354	3.22835
3267.571	10.98533	0.65677	7.71530	3.10782
3271.568	11.27417	0.48987	7.67945	3.10926
3275.572	11.37841	0.31213	7.93610	2.89147
3279.566	11.80298	0.23171	7.71952	2.83611
3283.574	11.60499	-0.10087	7.83329	2.88995
3287.569	10.86672	0.52090	7.73197	2.82453
3291.625	11.45887	0.03982	9.46425	2.92793
3295.572	11.15040	-0.48847	9.83443	2.90306
3299.601	10.16100	-0.38168	9.44032	2.88987
3303.570	9.90161	-0.32750	7.38048	3.25048
3307.571	10.26622	-0.55769	7.24840	3.31608
3311.448	10.49807	-0.93610	7.24412	2.98832
3315.444	10.10629	-0.06997	7.09094	2.93103
3319.443	10.20296	0.01186	7.44401	2.86626
3323.441	10.30168	0.11884	7.12811	2.84841
3327.444	9.88485	-0.14130	10.24430	2.76974
3331.441	10.30425	0.14828	7.17475	3.50596
3335.446	10.00969	0.87937	7.39486	3.48352
3339.447	10.26456	0.21258	7.19666	2.97120
3343.445	7.79585	2.29046	7.09348	3.37752
3347.441	5.31504	2.23312	4.60979	3.73651
3351.442	4.62217	2.20448	1.44076	3.80055
3355.443	3.99124	2.92235	1.17051	3.69100
3359.441	0.36335	2.51905	0.82161	3.56713
3363.445	-1.22685	0.59103	-0.69513	3.80246
3367.444	-3.31326	0.79320	0.76665	3.59082
3371.444	-2.54100	0.56805	-0.49944	3.43225
3375.444	-2.31567	0.43204	-1.07356	3.51272
3379.446	-2.65434	0.26118	-2.52763	3.08556
3383.448	-2.98807	0.17435	-1.01692	3.45914
3387.442	-2.84791	0.03154	-0.25651	3.43306
3391.443	-6.18120	-0.61352	-0.38454	3.16765
3395.439	-6.40697	-1.15917	-1.75783	2.63565
3399.445	-2.76517	2.66471	-1.77137	3.70665
3403.442	-5.20794	2.50921	-1.75840	4.07891
3407.443	-6.39810	2.34377	-1.62688	4.90953
3411.439	-7.36835	1.82316	-0.49513	3.43000
3415.441	-6.49884	5.58434	-1.13660	3.41091
3419.440	-6.96895	1.42895	-0.55729	2.90247
3423.449	-8.20517	4.33874	0.00414	2.47431
3427.441	-6.58352	4.29763	-0.80297	3.22121
3431.443	-8.36338	4.08649	-0.99807	4.94148
3435.439	-6.48482	3.63912	-0.97556	2.93155
3439.444	-7.94046	7.81043	-1.27956	3.72756
3443.439	-8.88155	7.07196	-1.11122	2.41727
3447.445	-8.63777	7.17546	-1.04816	3.57985
3451.441	-9.01130	6.47487	-1.12911	5.28650
3455.442	-8.84477	6.73140	-1.09825	3.30253
3459.439	3.68920	0.91845	-1.11837	3.73822
3463.448	-1.22911	0.56852	-1.21544	3.03488
3467.442	2.03422	1.26372	0.21234	3.55708
3471.442	-1.26587	0.84975	-0.90964	3.32689
3475.440	0.03164	0.85018	-1.14253	4.30170
3479.457	0.73186	0.76204	-0.94914	3.56139
3483.445	-0.93405	0.75316	-0.54312	3.39177
3487.447	0.66744	0.63937	-1.21273	3.02983
3491.442	-1.12621	0.81084	-0.67419	2.58159
3495.443	0.34851	0.35787	-0.82530	3.59641
3499.440	-0.34543	0.62032	1.50802	3.15432
3503.470	-1.35876	0.80985	-0.73732	2.49811
3507.443	0.59913	0.76062	-0.99737	4.27692
3511.445	-1.43999	0.82110	-1.04513	3.93346
3515.444	-0.40221	0.93194	-0.89465	3.70258
3519.440	-0.14017	0.63435	-1.06061	3.43870
3523.438	-1.73269	0.84460	-0.85766	2.58386
3527.442	0.56220	0.73235	1.04290	3.69422
3531.441	-0.01539	1.03086	-0.94805	3.52263
3535.439	-0.10644	1.07097	-0.69126	3.05264
3539.438	0.57173	0.61158	-1.11043	3.23828
3543.460	-2.00514	0.89464	-0.89500	3.82399
3547.451	0.65650	0.81691	-1.00377	3.70478
3551.438	0.07155	0.82508	-0.84602	3.30052
3555.441	-0.13099	0.94587	-0.96246	3.23417
3559.438	-0.02777	0.52738	-0.80880	2.98499
3563.440	-2.20609	1.56856	-1.11896	3.26197
3567.436	0.53897	0.47670	0.11309	2.75997
3571.442	-0.32980	0.93758	-0.94006	3.65185
3575.439	-0.05423	0.39447	-1.18158	3.15479
3579.440	0.00472	0.75147	-0.89289	3.24261
3583.440	-0.46763	1.36036	-0.66310	3.06851
3587.441	-0.27106	1.09153	-0.76913	1.69397
3591.447	-1.34083	1.63446	-1.06438	3.11763
3595.439	0.77387	1.42356	-0.98276	3.51255
3599.440	-0.00109	1.63058	-1.07954	3.99202
3603.436	0.57458	1.76357	-1.18331	3.58305
3607.438	0.22060	1.62012	-1.02136	3.32247
3611.439	0.73131	0.55226	-1.04724	2.72558
3615.441	-0.41661	1.58116	-0.91952	2.91405
3619.438	0.65099	1.01785	-0.98179	1.85784
3623.439	0.33496	1.71688	-1.03689	3.56704
3627.441	0.25237	1.61833	-0.13985	3.18114
3631.442	0.74511	1.53980	-1.00392	3.48215
3635.437	0.10126	1.33582	-0.81657	2.88930
3639.436	0.22358	1.33166	-1.22920	1.84300
3643.440	-1.64508	0.34265	-2.62400	2.17601
3647.435	-0.59635	-0.53990	-1.57448	1.92543
3651.441	-2.07336	-0.53349	-2.66152	1.81644
3655.440	-0.87113	-1.02237	-2.76785	1.10791
3659.435	-2.47658	-2.53444	-2.83596	0.45802
3663.440	-1.75939	-2.27622	-2.99794	-0.04774
3667.438	-1.90361	-2.32248	-3.27084	0.95336
3671.443	-2.69257	-2.08475	-2.95035	-0.37708
3675.442	-1.94954	-1.11365	-3.07221	0.16387
3679.437	-2.30249	-1.81088	-2.99453	0.15854
3683.440	-2.56161	-1.48669	-3.06595	-0.23208
3687.435	-2.13014	-1.18739	-3.02225	0.16397
3691.440	-2.82999	-1.38214	-3.03665	-0.11070
3695.452	-2.45901	-1.06215	-3.08498	-0.22096
3699.439	-2.36034	-0.62105	-3.19709	-0.05304
3703.436	-2.26554	-1.01262	-3.19793	-0.09981
3707.439	-2.47630	-0.89026	-3.18903	-0.39729
3711.442	-2.76351	-0.90197	-3.09842	-0.23406
3715.461	-2.37288	-0.69336	-3.46491	0.22534
3719.474	-2.20369	-1.27123	-3.01054	-0.41229
3723.436	-2.93636	-1.40833	-3.24026	-0.51384
3727.439	-3.06075	-1.49513	-3.12215	-0.17952
3731.438	-2.13338	-1.51678	-3.47000	0.14937
3735.438	-2.36386	-1.78989	-2.59089	-0.49676
3739.437	-2.86329	-2.13260	-3.31818	-0.38726
3743.434	-3.18858	-2.07974	-3.54284	-0.57077
3747.439	-2.65040	-0.91960	-3.73554	0.12783
3751.438	-2.19482	-0.88500	1.54083	-1.77764
3755.438	-2.53620	-1.13005	-2.74638	-0.03363
3759.435	-2.22384	-1.38112	-3.12331	-0.51122
3763.438	-2.97453	-1.13299	-3.37433	-0.31374
3767.436	-2.92054	-1.36375	-3.56601	0.03162
3771.437	-2.90770	-1.04881	-3.69832	-0.01004
3775.433	-3.41931	-0.97774	-3.76460	0.19931
3779.437	-2.88269	-0.74843	-3.33755	-0.90107
3783.434	-2.96364	-0.80123	-3.92208	-0.32882
3787.435	-2.88225	-0.58818	-3.78155	0.25333
3791.437	-3.07048	-0.91988	-3.61930	0.13831
3795.440	-3.04650	-0.96500	-2.15440	-0.59239
3799.434	-3.15100	-0.87000	-1.48692	-0.28743
3803.437	-3.06687	-0.68753	1.17145	-0.04104
3807.454	-2.89349	-0.69364	1.04508	0.05367
3811.442	-2.79575	-0.84569	1.00608	0.02544
3815.437	-2.79533	-1.24002	0.96035	0.23228
3819.434	-2.87500	-0.89312	0.98474	0.43116
3823.433	-2.82152	-1.06618	1.03481	0.68447
3827.440	-2.92475	-0.65687	1.09582	1.07371
3831.435	-2.71270	-1.15131	-0.62871	0.34565
3835.436	-2.47571	-1.50986	-2.84088	-0.01075
3839.437	-2.74331	-1.75484	-2.74913	0.13085
3843.438	-3.24553	-1.36361	-3.29580	0.54499
3847.435	-2.66999	-1.68955	-3.36409	0.23487
3851.438	-2.90710	-1.64230	-1.30580	-1.41515
3855.436	-2.99948	-1.66401	-3.55847	0.73504
3859.432	-2.97522	-1.00285	-4.03441	0.85122
3863.432	-2.87544	-1.00036	-3.48813	1.12512
3867.435	-1.84686	-0.64698	-1.66485	0.61652
3871.433	-2.69572	-0.57316	0.21631	-0.15210
3875.433	-3.14395	-0.69596	-1.81671	0.18103
3879.441	-3.15973	-0.69779	-1.52541	0.60762
3883.434	-2.96299	-0.76029	-3.90071	0.85527
3887.431	-3.08137	-0.59351	-2.42034	0.73692
3891.433	-2.71671	-0.50502	-2.47296	0.54988
3895.436	-2.32781	-0.24421	-2.51542	0.31975
3899.434	-2.44239	-0.43629	-2.42604	0.70212
3903.436	-3.38981	-0.43536	-2.80191	0.18307
3907.431	-2.26242	-0.48340	-4.15016	0.65989
3911.437	-2.58734	-0.33179	-3.13872	0.29930
3915.438	-2.21028	-0.01117	-3.44681	0.21942
3919.440	-3.18769	-0.32995	-2.89366	0.32161
3923.442	-2.79357	-0.31771	-2.91099	0.51650
3927.439	-2.52864	-0.31153	-4.04295	0.31963
3931.487	-2.29421	-0.24693	-3.22896	0.57919
3935.436	-2.39111	-0.21384	-2.82407	0.01117
3939.431	-2.49444	-0.21089	-0.32069	0.65881
3943.434	-2.52312	-0.05094	-0.22430	0.88565
3947.431	-0.79461	-0.25140	2.75395	1.76088
3951.434	0.58630	-0.08814	3.23586	3.81238
3955.437	5.10536	-0.07242	7.41795	2.52620
3959.433	9.25439	-0.15652	7.47668	1.28788
3963.439	7.43937	-0.39165	7.46324	1.73859
3967.430	9.15389	-0.18758	7.48090	2.37715
3971.435	9.08012	-0.13064	7.13058	2.54534
3975.432	9.35005	-0.04180	7.75570	2.77925
3979.435	8.81574	-0.14999	7.84481	2.50020
3983.437	7.92950	-0.28766	7.49871	2.57634
3987.430	8.98445	-0.16202	8.33496	2.59375
3991.436	7.78448	-0.27045	7.61799	2.88944
3995.430	9.16731	-0.14420	7.73460	2.61947
3999.433	8.91030	-0.30905	6.74168	2.67060
4003.434	9.19053	-0.15398	7.53188	2.81074
4007.438	7.62165	-0.46049	7.69756	2.60275
4011.441	9.11469	-0.28039	8.21322	2.76498
4015.434	5.70726	-2.16331	8.13157	2.35688
4019.431	8.74937	-0.53397	8.79647	2.54779
4023.430	8.96433	-0.85862	7.24823	2.38113
4027.430	8.95133	-0.57783	6.59674	2.69372
4031.429	9.20110	-1.08282	6.82547	2.11579
4035.433	7.85417	-1.23531	7.03130	2.30786
4039.429	7.15486	-1.21012	7.22275	2.18614
4043.435	8.48350	-1.24391	7.08392	2.26461
4047.436	8.70738	-0.16334	6.82814	2.75232
4051.433	8.32774	-0.93828	8.11919	2.30086
4055.433	8.81835	-1.12896	9.21309	2.03815
4059.430	8.88414	-1.22228	7.61821	2.13880
4063.430	8.70827	-1.22154	6.79197	2.70277
4067.432	9.27225	-1.09184	7.98807	2.25878
4071.432	9.22037	-0.48300	7.15266	2.73484
4075.435	8.56020	-1.05217	7.40296	2.54198
4079.430	7.90740	-1.50631	7.11753	2.85829
4083.432	8.79492	-0.95560	7.23628	2.84357
4087.433	8.78854	-1.18603	7.63872	1.94974
4091.436	9.32925	-1.06924	8.07752	2.39355
4095.432	8.37378	-1.43119	7.73572	2.90450
4099.429	9.49081	-1.30912	8.34699	2.41529
4103.430	8.37577	-1.25384	7.47534	2.71484
4107.430	9.37056	-1.10798	7.81225	2.37074
4111.428	8.53433	-1.35122	7.43342	2.79473
4115.433	9.13037	-1.29328	7.48283	3.14556
4119.432	8.51768	-1.24957	7.45806	2.22334
4123.433	9.44056	-1.02699	7.35632	2.94198
4127.436	8.57789	-1.32204	8.69804	2.36982
4131.439	9.39975	-1.22872	8.21257	2.52221
4135.430	8.75085	-1.02249	10.07555	2.24182
4139.428	8.17819	-0.90271	7.19539	2.73647
4143.429	8.70008	-0.39224	8.28046	2.41450
4147.428	8.55306	-0.65417	9.84060	2.20075
4151.431	9.43755	-0.71304	7.00196	3.03980
4155.429	9.84004	0.09279	8.36664	2.55511
4159.458	9.37187	-0.45616	9.29234	2.18669
4163.429	9.53661	-0.22854	9.20847	2.07346
4167.303	9.56619	-0.36226	7.05410	2.53493
4171.305	10.06645	-0.40651	8.63922	2.10130
4175.307	9.35522	-0.38580	8.57219	2.35590
4179.308	7.96694	-0.54023	9.35145	1.99168
4183.301	9.54571	-0.71796	7.67435	2.01370
4187.307	9.52323	-0.82303	8.41733	2.22059
4191.302	7.92931	-0.53836	6.93841	3.63776
4195.308	9.38342	-0.64258	7.78621	2.77485
4199.307	9.24767	-0.54915	7.52840	2.73069
4203.305	9.51942	-0.67928	7.62192	3.01685
4207.301	9.49615	-0.43333	7.13920	2.91012
4211.299	9.33202	0.02366	7.69266	2.65158
4215.304	8.96302	0.79025	7.23660	2.69294
4219.308	9.38102	0.61466	7.61312	2.73280
4223.302	9.02517	0.67960	7.82988	2.74125
4227.307	9.20927	-0.14538	7.79174	2.75912
4231.310	9.20308	0.17673	7.70019	2.75249
4235.304	9.36621	0.41636	7.68878	2.51786
4239.305	9.13008	0.47529	7.71593	2.65170
4243.302	8.91379	0.48044	8.01939	2.69190
4247.304	9.10550	0.60543	7.60956	2.87502
4251.301	9.40453	0.32328	8.21293	2.62626
4255.305	9.17360	0.17525	12.09963	1.12739
4259.305	9.28446	-0.34284	8.73048	2.13922
4263.304	9.01578	-1.16917	7.47819	2.52401
4267.299	8.90986	-0.55413	7.68859	2.45162
4271.306	9.26824	-0.82689	7.71533	2.54793
4275.301	9.71927	-1.20270	7.97125	2.78066
4279.303	8.80391	-1.19354	7.68891	2.34668
4283.299	8.87573	-1.02266	7.65758	2.28511
4287.305	8.88809	-1.08590	8.19978	2.19878
4291.301	9.03120	-1.16638	9.02721	1.89383
4295.301	9.11888	-1.19368	7.97936	1.58404
4299.311	9.06591	-1.18118	8.00029	1.99620
4303.304	9.41354	-1.23904	7.59541	2.33949
4307.304	9.17031	-1.14699	7.12051	2.40112
4311.297	8.33615	-0.64048	6.80181	2.39755
4315.303	9.65040	-1.40335	6.09064	2.30082
4319.302	8.40288	-1.26820	6.69635	2.33996
4323.298	7.84442	-1.12867	7.25318	2.57162
4327.301	10.67155	0.13067	7.58995	3.25229
4331.300	14.22643	-1.45262	6.47818	4.13110
4335.300	9.57450	0.57345	7.29731	3.60730
4339.303	9.62852	0.28470	7.19737	3.92542
4343.305	9.61872	0.83737	7.37394	4.51787
4347.301	9.79086	0.94346	6.54800	4.89919
4351.303	9.49245	0.97453	6.68053	4.90771
4355.302	11.68469	1.92414	7.14907	4.69555
4359.301	9.63915	3.98620	7.06857	4.63316
4363.300	9.70786	3.33755	7.16383	4.38468
4367.303	9.76927	2.87378	7.24041	4.46017
4371.333	9.88285	3.27490	7.39684	4.52178
4375.300	10.05529	2.99466	7.26034	4.72495
4379.303	10.02025	2.85272	7.05098	4.50133
4383.303	10.23546	2.13172	7.49786	4.33214
4387.301	10.26706	1.73316	7.58795	4.39874
4391.302	10.00774	2.16715	7.02722	4.60321
4395.297	10.32503	1.90700	7.24217	4.59484
4399.303	10.30375	1.97795	7.49517	4.43379
4403.301	10.28976	2.39898	7.65556	4.47034
4407.297	10.39001	2.65172	8.21208	4.42737
4411.302	14.74901	0.98131	8.51702	4.39901
4415.299	10.56092	2.80017	9.02370	4.43360
4419.305	10.33447	3.48067	7.32038	4.65012
4423.300	10.32049	2.93736	7.79490	4.52607
4427.306	10.24752	3.03507	7.41575	4.59700
4431.300	10.13746	2.90690	7.83142	4.57945
4435.302	10.14501	2.86135	8.67083	4.58671
4439.299	10.07793	2.83795	8.19710	4.67236
4443.301	9.97994	2.69854	9.29299	4.64744
4447.297	10.02562	1.59694	11.95394	4.60447
4451.301	10.55922	1.86245	9.56487	4.73434
4455.298	9.94664	2.28269	7.46597	4.80670
4459.299	10.05582	2.08204	7.50051	4.71905
4463.299	10.08852	1.66134	8.33156	4.67085
4467.304	9.98357	2.26428	8.08552	4.73817
4471.305	10.34590	2.80789	8.67699	4.80780
4475.299	9.99407	2.11150	9.99065	4.90798
4479.309	10.67231	3.24975	8.91873	5.03422
4483.305	10.14999	3.57175	7.14037	5.28452
4487.300	9.97072	3.70348	7.07104	5.25827
4491.357	11.03141	2.47909	8.33345	5.23310
4495.308	10.07379	3.02840	7.93211	5.26075
4499.298	10.06860	3.25484	7.53613	4.50835
4503.301	9.86404	3.36639	7.66307	4.41657
4507.301	10.62521	3.16645	7.74418	4.88554
4511.305	10.33320	3.37508	7.51222	5.00866
4515.302	10.03226	3.04694	7.67518	5.19934
4519.303	10.24783	3.04687	7.03853	5.19434
4523.298	9.99409	3.30625	7.22114	5.37250
4527.299	10.07134	3.41540	7.59054	5.42899
4531.300	11.01364	3.35696	7.83451	5.38132
4535.299	10.25538	3.45415	7.70838	4.46829
4539.295	10.40243	3.30497	7.88580	4.42065
4543.299	10.31669	3.52417	8.48440	4.52550
4547.296	10.74391	3.60845	8.77296	5.07339
4551.302	10.88939	2.75714	9.04231	4.77436
4555.304	10.77021	3.69841	6.98910	5.36058
4559.299	10.77706	3.91105	8.12481	5.07307
4563.300	10.47739	3.59706	7.89013	4.97459
4567.296	10.53814	3.84598	7.58893	4.60683
4571.317	10.86529	3.24510	7.64206	4.73206
4575.298	11.32097	3.68822	7.58220	4.72792
4579.295	10.79169	3.78434	8.13176	4.84665
4583.295	10.49145	3.39617	7.47766	4.89302
4587.298	10.21834	3.44759	7.59768	4.87553
4591.301	11.14973	3.29915	7.66053	4.86012
4595.300	10.58649	3.35036	7.59249	4.90229
4599.297	10.53312	3.20851	7.70889	4.94251
4603.302	9.93713	3.20150	7.59363	4.77366
4607.302	9.69873	2.83319	7.73799	4.69429
4611.297	10.44153	1.87646	6.95445	4.97338
4615.294	10.96179	1.45499	7.66833	5.18142
4619.300	10.32246	2.87902	7.78652	5.12616
4623.302	10.86926	3.07319	8.25766	5.11544
4627.298	10.60692	3.07449	8.43484	5.20293
4631.295	10.48135	2.95194	7.79244	6.03521
4635.304	10.46299	2.90705	8.14811	5.37507
4639.295	10.44816	2.52819	8.10005	5.51762
4643.299	9.85671	2.35175	8.46922	5.50948
4647.293	9.57594	1.74463	8.46315	5.55467
4651.297	10.76743	2.75259	8.33800	5.54624
4655.297	10.82184	2.90115	8.42386	5.51285
4659.294	10.98004	2.61727	9.37607	4.44332
4663.295	11.57046	2.18442	8.80832	5.34143
4667.340	11.18487	2.41856	10.40380	5.08580
4671.298	13.38754	1.00082	10.44789	4.76015
4675.298	13.61919	-0.37447	10.72299	4.90272
4679.304	13.42230	-0.67519	11.42873	4.42522
4683.296	13.31307	-0.41415	12.08383	4.35776
4687.298	13.46141	0.78002	8.64585	4.77165
4691.292	13.09073	0.74528	9.73205	4.78145
4695.300	12.96390	0.19842	10.57574	4.29812
4699.295	13.41554	-0.40242	11.28813	4.06375
4703.296	13.50546	-0.60908	12.20764	4.20810
4707.294	13.61677	-0.81774	10.62468	2.91061
4711.294	12.76930	0.39940	10.70749	3.20973
4715.304	13.56718	0.26289	9.98942	4.12018
4719.299	13.29615	0.41688	9.79089	4.24823
4723.296	13.04111	0.50730	10.31758	4.03152
4727.299	13.78354	0.18752	10.56529	4.11820
4731.294	13.73282	0.51349	10.26463	4.46300
4735.326	13.84745	0.77033	10.82064	3.89700
4739.296	13.47655	0.97375	11.14309	4.25978
4743.293	13.37975	1.56067	10.50273	4.02916
4747.294	13.29716	1.59559	9.99573	4.24162
4751.294	13.05785	2.73547	10.15444	4.17928
4755.297	13.58177	1.12390	10.17026	4.15411
4759.299	13.59117	0.10045	10.28859	4.20683
4763.301	14.02421	-0.43669	10.25348	4.23404
4767.295	14.41939	0.13378	10.07504	4.57148
4771.297	13.48655	0.54104	11.45534	4.07955
4775.293	13.75252	1.25523	9.64369	4.60548
4779.293	13.42542	1.26710	9.16068	4.42560
4783.295	13.07634	1.40290	9.79971	4.58205
4787.295	12.56583	1.66076	10.17281	4.53463
4791.291	13.36391	1.71110	9.98333	4.13119
4795.296	13.56277	1.90795	9.97026	4.43012
4799.300	13.04780	2.91783	10.42574	4.53441
4803.326	13.50260	1.35924	10.19673	4.62882
4807.295	12.76704	1.60218	10.03036	4.62810
4811.292	13.25670	0.65863	9.49958	4.58446
4815.295	13.15501	0.57476	9.96109	4.56452
4819.293	13.33224	0.57830	10.46484	4.40490
4823.293	13.42336	0.80412	10.72043	4.44248
4827.291	13.64462	0.77512	10.03674	3.40321
4831.293	13.31138	0.51745	10.87086	2.86458
4835.291	13.52114	0.90053	10.25317	3.71299
4839.294	13.00094	1.45832	10.36519	4.23347
4843.294	13.03875	1.28446	10.05666	4.23664
4847.294	12.96809	1.53479	10.25641	4.20227
4851.291	13.27511	1.21742	9.96511	4.32170
4855.295	13.52233	1.38115	9.90515	4.92141
4859.296	12.46869	1.70895	9.94358	4.60783
4863.293	12.52797	1.70570	9.74593	4.92226
4867.294	12.52168	1.70899	11.24060	3.55095
4871.292	12.59377	1.79932	9.54624	4.50440
4875.292	12.23301	1.84786	9.94948	4.29730
4879.291	12.49559	1.85969	10.32950	4.26140
4883.300	12.91630	1.83891	10.58572	3.82515
4887.292	13.55062	1.79740	10.91361	3.64292
4891.294	13.88142	1.79473	12.88145	3.31684
4895.290	13.25011	1.76246	10.31763	3.58991
4899.290	12.66932	1.57191	11.58101	3.39893
4903.293	13.55848	1.65526	9.29558	3.87826
4907.289	13.11262	1.43880	10.25860	3.80211
4911.290	12.95190	0.59516	10.50808	4.10919
4915.292	13.23194	0.53486	10.45281	4.56724
4919.289	13.42202	0.05820	9.67119	4.87666
4923.295	13.86200	0.96280	10.24536	4.91831
4927.296	13.90057	1.48870	10.32582	4.38987
4931.292	12.84359	1.68901	10.93071	4.18238
4935.289	12.86452	1.80766	10.08431	4.49532
4939.299	13.71413	1.43038	12.25763	4.57530
4943.296	13.78660	1.00915	9.64379	5.22896
4947.291	13.42077	1.06106	9.79508	5.16553
4951.293	13.56690	0.73958	9.74793	4.84815
4955.289	13.90515	-0.03732	10.01339	4.75126
4959.293	13.73533	1.31834	9.90742	4.45728
4963.290	13.07620	1.76134	9.86459	4.88403
4967.297	12.93943	1.88543	9.49666	5.44218
4971.290	13.86048	1.42288	9.83233	5.04603
4975.294	13.86397	1.28407	10.03618	4.85567
4979.293	14.03012	1.24555	10.17954	4.75023
4983.291	14.25653	1.04881	10.25877	4.44437
4987.292	14.37045	0.48941	10.49287	3.46946
4991.292	14.54444	-0.05835	10.26011	3.53856
4995.292	13.49906	0.38541	11.08108	4.06602
4999.288	13.16562	0.27448	11.60430	4.05443
5003.289	11.82668	0.85526	11.28214	4.66657
5007.292	12.67714	1.27727	10.84377	4.19117
5011.326	14.02153	2.22056	11.03650	4.37206
5015.292	13.01927	2.58150	10.93722	4.23444
5019.165	12.80907	2.61953	10.93325	4.22183
5023.162	13.08432	2.60058	11.05806	4.11840
5027.167	12.78243	2.57632	10.88542	4.12510
5031.163	12.97672	2.63863	11.10099	4.19760
5035.168	12.82059	2.59639	11.00924	4.29813
5039.160	12.77183	2.63607	10.97564	4.44763
5043.171	12.77665	2.67563	10.85784	4.45984
5047.160	12.79253	2.65235	10.75663	4.52199
5051.163	12.72740	2.71526	10.64432	4.51638
5055.167	12.61935	2.72780	10.36898	4.54978
5059.175	12.64113	2.57967	9.36544	4.56714
5063.164	12.78335	-0.43258	11.12085	4.49080
5067.162	12.68068	-0.08526	12.49673	4.61496
5071.165	12.99352	-0.30474	10.76276	4.48757
5075.194	13.22159	-0.18237	10.51048	4.55209
5079.169	13.13654	0.22074	9.83014	4.60433
5083.164	13.38369	0.38391	10.26735	4.58237
5087.164	13.74226	0.60427	9.08365	5.19146
5091.162	13.21343	1.43905	9.41559	4.33083
5095.169	12.42115	1.91654	7.35144	5.56590
5099.165	11.89929	1.65363	6.96783	4.33736
5103.167	8.33853	2.29949	4.02576	6.21143
5107.163	5.08488	3.10802	2.81333	4.61683
5111.164	5.12627	2.76532	2.26822	5.83009
5115.167	5.31337	3.50336	1.82936	4.61601
5119.162	3.50986	3.35979	1.42714	5.04265
5123.163	2.56785	3.75832	1.70031	5.65710
5127.161	3.67942	3.36895	1.63618	5.50814
5131.161	3.96298	2.63055	1.77910	5.07599
5135.167	3.60081	1.61123	2.10364	5.27554
5139.168	5.22660	1.23750	2.03236	5.32078
5143.186	4.36696	2.67069	2.19075	5.35017
5147.167	3.53011	2.37576	1.87071	5.47179
5151.162	3.72299	2.09429	1.30761	5.55320
5155.164	3.67843	1.91451	1.86992	5.52145
5159.159	4.38622	2.54511	1.39527	5.70275
5163.163	4.40058	3.24326	1.48875	5.68277
5167.163	3.90192	2.91822	1.68550	5.71912
5171.167	3.59550	2.75655	1.83372	5.93741
5175.161	3.97044	3.31507	1.50663	5.98034
5179.166	4.36089	3.01570	2.08101	5.72846
5183.161	4.54688	3.18276	1.87056	5.81424
5187.159	3.26406	2.13637	1.43337	5.79363
5191.161	4.48680	1.05120	2.71184	5.67420
5195.165	4.29036	1.18979	4.37261	5.37318
5199.158	4.93711	0.79178	2.16905	5.25113
5203.166	4.28841	1.56632	2.27392	5.45100
5207.162	3.64894	1.46554	2.15827	5.25036
5211.167	4.81291	1.22558	3.26218	5.22646
5215.167	6.09481	1.24001	2.09747	5.76382
5219.168	4.90432	1.69250	1.96325	5.88682
5223.168	4.13559	1.24450	1.71216	6.29457
5227.206	4.42762	1.28630	2.02636	5.95193
5231.160	4.54772	1.19124	2.53699	6.08452
5235.165	5.59607	1.34641	3.06706	5.54026
5239.158	4.69583	1.48351	2.42961	5.41073
5243.159	3.60788	1.49058	1.89739	5.26548
5247.162	3.44285	1.30860	2.32409	5.34875
5251.162	4.61144	1.26701	2.48359	6.21326
5255.158	5.77942	1.27581	4.84925	6.11116
5259.163	4.46616	1.21950	2.69965	5.76447
5263.166	3.31759	1.29979	3.44728	5.12064
5267.166	3.89802	3.14313	2.73494	5.33095
5271.156	3.23086	3.46303	2.67509	5.90078
5275.164	4.38198	3.18162	2.79560	5.26859
5279.158	5.01221	3.40693	2.65681	6.19898
5283.163	3.88488	3.27681	2.91965	6.06969
5287.158	2.99114	3.41448	2.70225	5.41467
5291.160	4.21844	2.83607	2.86529	4.97875
5295.161	2.99166	2.25692	2.46248	5.98275
5299.159	3.19019	2.25261	2.57129	5.94798
5303.167	4.56592	2.72278	2.26968	6.17395
5307.160	4.14325	2.79831	2.06713	6.12570
5311.161	2.99982	2.62608	2.14739	5.66515
5315.159	3.16975	2.34292	2.04121	6.34833
5319.159	3.43687	2.29527	1.72743	6.82184
5323.158	6.05074	2.09609	2.24076	6.01250
5327.163	4.97622	1.78120	2.73016	5.80037
5331.158	4.58155	1.52813	1.93879	6.25848
5335.162	3.94722	1.38929	2.12585	6.05417
5339.159	3.81770	1.26092	2.27573	5.53122
5343.157	3.92766	2.47721	4.49080	5.14422
5347.168	3.57582	2.65414	3.11428	5.34529
5351.164	3.36658	2.00789	1.91598	6.89590
5355.161	5.33089	1.01913	2.30714	5.45208
5359.167	4.57603	1.43314	2.51165	5.07766
5363.158	4.09424	0.90351	2.44630	3.30496
5367.161	2.98641	-0.64927	3.87388	2.71167
5371.158	2.69289	0.06004	3.73821	2.93801
5375.162	2.79647	0.71015	3.10903	2.58404
5379.159	2.23491	0.10761	2.16751	2.50248
5383.158	2.57615	0.37362	2.70027	4.85718
5387.161	2.59866	-0.31253	2.49932	4.80389
5391.160	4.90094	-0.29128	2.15095	2.90562
5395.161	4.35430	-1.23932	2.86138	3.14003
5399.156	3.80829	-1.30993	4.01584	2.42947
5403.160	3.17571	-0.10354	4.17260	1.74430
5407.157	2.68435	-0.45934	2.75222	2.61369
5411.160	2.30598	-0.67107	3.82776	2.87178
5415.167	2.72848	-1.17494	3.60902	2.26932
5419.161	3.56349	-0.24064	4.09626	2.46206
5423.157	3.25768	-0.31703	1.97837	3.28266
5427.157	3.49260	-0.48642	1.95673	2.75926
5431.167	3.80132	-1.28404	2.69601	2.62789
5435.159	3.68631	-1.65625	2.86581	2.50384
5439.156	3.57552	-0.11525	2.27838	2.46878
5443.156	3.23049	-0.05423	2.82892	2.35820
5447.215	2.78149	-0.91148	4.07893	2.49694
5451.163	3.35672	-1.46171	5.76084	2.25124
5455.156	3.35323	-0.09201	2.19497	2.92334
5459.156	3.81204	-1.16519	2.65443	2.70929
5463.159	3.86729	-1.29252	2.51393	2.68499
5467.157	3.07147	-1.31124	2.66531	2.16707
5471.163	3.25520	0.74083	4.24016	3.70136
5475.153	2.63482	-0.07601	4.23293	2.72031
5479.179	3.19553	-0.48392	4.45836	2.64408
5483.167	2.99804	-1.54129	4.42957	2.39249
5487.158	2.71082	-0.95896	2.48014	2.69061
5491.161	3.22745	-0.38906	2.82625	2.59567
5495.157	3.84535	-0.55691	2.56632	2.86456
5499.161	2.98740	-1.17184	2.54098	2.88497
5503.156	2.53957	-0.77332	2.10900	2.72780
5507.154	2.40825	0.88174	2.28752	2.63266
5511.161	3.55738	-0.56000	2.09618	2.76449
5515.158	2.69406	-0.83244	2.32568	2.61659
5519.157	3.63342	-1.34853	2.24136	2.48290
5523.156	3.14246	-1.61123	4.71733	2.35425
5527.154	3.42814	0.77227	4.30075	1.97442
5531.158	3.11831	0.40272	4.90035	2.27392
5535.155	3.09084	-0.06191	2.27154	2.67256
5539.157	2.61117	-0.60371	2.22188	2.41316
5543.157	1.12546	-1.22278	2.24718	2.03077
5547.156	3.65905	-1.14998	2.35585	2.06880
5551.157	2.80511	-1.56373	2.27089	2.01057
5555.165	2.72830	-1.74822	2.72484	2.08249
5559.156	3.20491	-2.10371	3.16320	1.98924
5563.160	3.30374	-0.54449	2.99502	2.05979
5567.155	3.86299	-0.65856	2.98052	2.40346
5571.154	3.45156	-0.44346	2.56513	2.04150
5575.154	6.27692	0.51353	2.37766	1.92673
5579.153	3.92067	0.26273	2.36391	1.92295
5583.156	4.31210	1.00564	2.25290	1.81923
5587.154	3.97884	-0.38963	1.97280	1.78924
5591.153	3.78486	-0.28598	2.43523	1.99930
5595.164	3.83967	-0.33446	2.03727	1.80373
5599.155	3.94211	-0.09750	2.14367	1.66222
5603.157	3.89434	-0.26800	2.24002	1.60773
5607.155	3.94641	-0.42777	2.28913	1.65459
5611.154	3.79262	-0.80297	2.18337	1.64238
5615.154	3.87621	-0.89424	2.44019	1.60673
5619.152	3.96819	-1.19726	2.80791	1.57017
5623.155	4.01937	-1.60297	4.25907	1.71319
5627.155	4.00112	-1.79280	5.42523	1.68243
5631.156	3.94310	-2.33312	2.95005	1.62443
5635.160	3.80001	-0.60945	3.42141	1.51532
5639.163	2.17574	-0.85984	2.55745	1.89974
5643.155	2.37850	-1.14935	2.86559	1.68129
5647.153	3.55978	-0.37300	2.98421	1.65639
5651.215	3.25557	-0.85002	2.89695	1.82346
5655.162	2.24728	-0.17811	3.17999	1.96346
5659.150	2.50152	-0.75200	1.59859	2.05183
5663.157	2.57461	-0.90186	2.52456	2.14787
5667.154	2.39460	-0.65365	2.73100	2.07898
5671.151	2.50038	-1.11385	2.70406	2.07100
5675.154	3.03375	-1.12504	2.82120	1.79167
5679.161	2.74440	-1.28989	3.60563	2.17248
5683.152	3.75254	-1.48514	3.87514	2.02053
5687.152	2.58348	-0.41021	2.44720	2.09725
5691.155	2.18580	-0.45989	2.59512	1.97017
5695.159	2.66169	-0.66092	2.48832	1.45718
5699.152	1.94726	-0.49197	2.60723	2.12666
5703.155	2.14597	-0.80872	4.21876	1.80174
5707.150	2.40260	-0.51374	4.72253	2.04364
5711.150	3.50771	-0.93574	2.49280	1.92530
5715.152	3.68248	-1.14226	2.78171	2.07116
5719.158	3.60838	-1.69542	3.09923	1.85728
5723.154	3.41147	-2.19730	2.35642	3.60698
5727.150	2.28076	-0.62985	2.39698	1.82601
5731.154	3.03078	-0.43308	2.23006	1.63917
5735.151	1.75714	-0.40730	2.54762	1.74790
5739.156	1.93653	-0.43493	3.42856	1.80389
5743.155	2.54843	-0.40883	3.65010	1.77148
5747.154	2.89953	-1.33888	4.08555	1.99855
5751.150	3.29327	-1.11099	4.25401	1.81520
5755.149	3.74034	-2.03328	2.93262	1.74122
5759.157	3.91618	-2.22144	3.34611	1.65220
5763.158	2.33680	-2.12442	3.09359	1.49303
5767.153	2.62316	-0.35807	2.64852	1.67681
5771.150	3.64783	-0.39132	1.95173	2.47716
5775.150	1.60543	-0.12636	2.98208	2.68077
5779.154	1.58172	0.02149	3.30035	2.36741
5783.154	2.33839	-0.00839	2.98361	2.37581
5787.149	3.41090	0.09684	3.01541	1.78727
5791.156	3.56279	0.01885	3.13279	2.08842
5795.152	2.62600	-0.33466	3.75734	3.31189
5799.149	2.79803	-0.54467	2.26108	2.63199
5803.159	2.94490	-0.50334	2.90463	2.98108
5807.152	3.44434	-0.55560	3.54962	3.33886
5811.154	3.45235	1.65868	8.17524	2.08755
5815.152	7.44108	-0.05369	8.78529	2.05302
5819.152	8.55226	0.12827	8.68145	3.32152
5823.151	8.98714	-0.39896	8.69641	1.86003
5827.150	10.89468	-0.86545	9.35604	2.41590
5831.154	10.65568	-1.43695	9.30636	2.63087
5835.153	10.67955	-1.14379	9.03164	3.25083
5839.154	10.84810	-0.93363	8.70148	3.38249
5843.150	11.06724	-1.17341	8.64776	3.27338
5847.155	11.18155	-1.32129	8.76314	3.15946
5851.158	11.05825	-1.45313	8.83440	3.50004
5855.150	11.27469	-1.37382	8.78917	3.95149
5859.150	11.48837	-1.27149	9.71871	3.08616
5863.185	12.05751	-1.48191	8.72374	3.25157
5867.148	11.14510	-1.33632	8.62205	3.23577
5871.148	11.23432	-1.01466	8.75005	3.07384
5875.024	11.39852	-0.91068	9.15713	3.12684
5879.026	11.27094	-1.02784	8.79329	2.95836
5883.023	11.23573	-1.13041	9.31293	2.68575
5887.023	11.28641	-0.86095	9.06579	2.71962
5891.028	12.18578	-0.89472	9.13139	2.79618
5895.029	11.45682	-0.65967	9.04360	3.02026
5899.024	11.18377	-0.71283	9.15132	2.83339
5903.027	11.14199	-0.51003	8.94259	2.96806
5907.021	11.16695	-0.50009	8.34737	3.04176
5911.027	10.89111	-0.25041	8.80432	3.29189
5915.026	11.14072	-0.54716	8.87411	3.51808
5919.025	11.32781	-0.36323	8.77422	3.80983
5923.027	11.89449	-0.33392	8.81751	3.79054
5927.025	11.24953	-0.11947	8.81222	3.72534
5931.022	10.86234	-0.00395	8.66726	3.60064
5935.027	11.04809	0.06890	8.57236	3.76642
5939.031	11.35391	0.09195	8.66673	3.75477
5943.022	11.09422	0.14697	8.52751	3.85291
5947.023	10.85959	0.01406	8.10214	3.94460
5951.021	10.99740	-0.25285	8.73077	3.98850
5955.025	11.12209	-0.11506	8.69447	3.92459
5959.024	12.04882	-0.39145	8.72163	3.84389
5963.022	12.28675	-0.70620	8.76590	3.74754
5967.027	11.02923	-0.60710	8.71031	3.60867
5971.023	11.54787	-0.93352	8.76312	3.51174
5975.030	11.27276	-0.75296	8.70628	3.59645
5979.023	11.18855	0.43651	8.94440	3.24999
5983.024	11.22250	-0.86516	8.69052	3.19867
5987.026	11.21632	-1.07923	11.72772	1.05385
5991.022	11.13683	-1.85873	8.91883	0.18983
5995.025	11.34108	-4.34604	11.71556	-3.37171
5999.022	11.30078	-6.91099	9.06569	-4.44716
6003.025	11.22869	-5.67813	9.71700	-4.16322
6007.017	7.22331	-7.87935	9.75900	-7.30539
6011.027	7.11882	-8.18604	9.62454	-6.40400
6015.031	11.43743	-10.85443	9.46126	-7.76279
6019.027	17.94605	-13.83499	7.94248	-10.50361
6023.022	17.39422	-10.26222	9.77471	-11.04536
6027.027	14.39972	-12.76406	11.91412	-10.75432
6031.026	10.90389	-10.58850	12.48130	-11.55782
6035.022	12.42179	-12.02684	12.56321	-12.59687
6039.022	10.29310	-10.46761	11.95866	-12.84668
6043.029	11.80095	-12.51462	12.47151	-13.32877
6047.024	13.19270	-12.07310	12.38152	-12.96652
6051.021	6.09874	-12.05695	9.53313	-11.27823
6055.022	12.24287	-12.46711	9.53542	-11.91488
6059.028	11.30085	-10.59834	9.31803	-12.66112
6063.027	10.51120	-11.15174	9.46020	-11.36249
6067.021	10.58229	-11.68618	9.50115	-11.32175
6071.021	2.84333	-12.42818	9.43363	-11.01331
6075.021	15.11755	-12.27455	11.69688	-10.59817
6079.024	13.11102	-10.90876	11.55397	-10.84183
6083.021	10.51460	-11.97789	9.47889	-10.86550
6087.045	9.99209	-12.22563	9.63199	-6.36386
6091.025	10.97282	-11.96945	9.22054	-11.32448
6095.020	10.15158	-10.62059	8.57107	-10.72509
6099.031	10.67876	-9.61737	9.20794	-9.76798
6103.021	11.46051	-10.30184	9.95213	-10.74778
6107.020	10.50148	-11.40894	10.26340	-9.13049
6111.018	10.60804	-11.77485	10.58690	-9.95976
6115.024	12.07818	-11.71934	10.91535	-10.42107
6119.019	11.19129	-11.55987	11.18575	-11.04629
6123.021	10.66481	-11.71228	10.71501	-8.35934
6127.021	11.12842	-11.24977	11.28877	-9.02231
6131.017	11.75653	-11.63322	8.66799	-11.20330
6135.024	11.56338	-10.46230	10.45505	-10.13589
6139.020	9.94987	-11.61967	9.63918	-9.57299
6143.023	11.31228	-10.52994	9.85286	-9.75472
6147.019	11.19688	-9.37824	10.39640	-10.41886
6151.017	13.32338	-9.86258	9.22936	-9.74572
6155.021	13.24473	-10.42395	8.75528	-9.43130
6159.017	13.39635	-10.70955	10.11348	-9.12000
6163.020	2.20324	-11.15449	10.72534	-9.73602
6167.029	6.51069	-11.14376	10.82574	-10.08303
6171.017	8.72275	-11.80065	11.16664	-10.31686
6175.023	8.55282	-8.88510	10.39957	-9.67862
6179.019	12.38221	-11.55924	10.07762	-10.44775
6183.027	8.81414	-9.27821	9.12350	-8.81851
6187.017	-19.99372	-11.66339	9.42984	-7.39892
6191.017	10.55677	-11.14623	7.55498	-8.14747
6195.029	3.54344	-11.23384	3.88107	-8.25167
6199.021	8.46862	-5.74184	4.71802	-7.72421
6203.019	4.40184	-3.97640	3.57520	-6.27999
6207.026	3.94068	-8.13135	1.90968	-14.20605
6211.019	-1.23362	-7.96503	0.13789	-10.91096
6215.014	-3.98309	-9.83285	-3.11675	-9.52103
6219.022	0.60024	-9.08252	-3.49122	-8.94149
6223.025	-3.76742	-6.74328	-5.62704	-8.57412
6227.031	-6.51851	-9.50308	-5.58252	-7.50415
6231.021	-4.01060	-4.84330	-5.47864	-8.28563
6235.024	-6.20153	-9.03059	-5.75566	-7.87806
6239.018	-6.07074	-10.61493	-5.42828	-8.71436
6243.020	-6.79432	-9.05154	-5.41153	-8.68231
6247.016	-7.26964	-8.92515	-5.54813	-9.69719
6251.023	-6.50744	-8.01679	-5.00135	-8.75558
6255.018	-3.51458	-4.74762	-5.53068	-8.44991
6259.021	-1.23900	-10.39236	-5.68743	-8.80380
6263.015	-3.47616	-8.24162	-5.50690	-10.21463
6267.022	2.26490	-13.12502	-5.57596	-8.57184
6271.020	-4.00820	-7.77606	-5.85465	-9.00049
6275.017	-6.43932	-10.71317	-5.82911	-9.04078
6279.016	-5.61527	-10.33799	-5.47306	-9.10404
6283.017	-2.98876	-8.60905	-6.32632	-6.46572
6287.019	-4.00359	-6.91697	-5.75912	-9.50708
6291.017	-2.52426	-7.14318	-4.70451	-6.43642
6295.018	-4.93354	-7.69416	-5.29154	-9.06427
6299.052	-4.58331	-6.69014	-5.00174	-9.16996
6303.022	-1.99984	-8.65866	-5.51076	-6.76359
6307.068	1.92032	-13.36916	-4.75758	-9.22615
6311.022	-2.34042	-7.38435	-6.22260	-7.33545
6315.018	-3.57172	-9.15300	-5.15135	-8.95012
6319.017	-2.42478	-6.92793	-5.96525	-7.93651
6323.013	-2.85784	-8.94892	-4.98544	-9.18072
6327.019	-2.85279	-8.97121	-5.98120	-8.78902
6331.015	-3.03494	-7.05320	-5.07611	-7.55580
6335.015	-5.17311	-8.13296	-5.97509	-8.41274
6339.022	-5.29100	-8.74673	-5.14503	-9.09444
6343.020	-5.81066	-9.20203	-5.73610	-6.10743
6347.021	-3.01811	-6.64027	-4.73934	-7.76907
6351.047	0.83662	-13.24962	-5.58975	-8.86968
6355.021	1.02350	-9.12521	-5.30692	-6.07006
6359.016	-2.95426	-9.08834	-4.60969	-7.76130
6363.015	-2.76208	-9.18514	-5.60870	-10.10745
6367.013	-1.65649	-7.06300	-7.85814	-6.98251
6371.018	-2.57645	-9.67948	-4.48717	-8.68388
6375.016	-1.56595	-9.18656	-5.68180	-6.19319
6379.014	-2.15703	-9.26794	-5.99753	-7.81640
6383.018	-2.24738	-5.14561	-5.56151	-6.09999
6387.017	-2.65126	-8.68027	-5.79619	-7.77943
6391.016	3.51016	-9.77612	-6.01562	-5.73530
6395.020	-2.68752	-11.18648	-5.69173	-8.09482
6399.016	-3.13254	-7.58995	-5.07141	-7.12515
6403.019	-6.25154	-10.04856	-5.60509	-7.13835
6407.029	-19.99372	-11.86477	NaN	NaN
6415.023	-2.26051	-9.88651	-5.73652	-8.26919
6419.016	0.53567	-11.86068	-5.87472	-9.82705
6423.020	-6.34258	-10.26927	-4.10614	-8.10155
6427.015	-2.91953	-8.49101	-4.73830	-7.56207
6431.021	-3.98995	-7.93170	-5.38636	-7.92373
6435.054	-1.98507	-7.97293	-10.36867	-8.87161
6439.019	-5.96340	-8.05333	-5.37008	-9.83116
6443.020	0.09230	-5.28023	-3.48781	-8.39606
6447.015	-4.83834	-8.63887	-2.71221	-9.99339
6451.017	-3.24184	-9.56132	-5.42889	-8.67940
6455.013	-6.47215	-8.19889	-5.77514	-7.08774
6459.018	-6.38523	-10.53658	-6.43518	-8.61526
6463.015	-6.34314	-10.39069	-5.70993	-8.65074
6467.013	-4.63353	-8.05310	-0.15372	-11.93818
6471.014	-1.10224	-7.98511	-5.67543	-9.23502
6475.019	-6.18205	-9.65726	-5.25055	-6.81755
6479.030	-3.68218	-5.84422	-7.00265	-9.42755
6483.044	2.51391	-12.04978	-5.87147	-8.58789
6487.028	-6.60255	-9.34860	-5.08288	-8.46104
6491.016	-3.53229	-7.37930	-1.68173	-8.69812
6495.018	-1.31330	-8.31450	-5.60399	-6.37861
6499.010	-4.73572	-10.58942	-6.98338	-9.35209
6503.041	-1.87969	-7.06033	-5.53601	-8.01393
6507.045	-2.91809	-8.24881	-4.62902	-8.32771
6511.013	-4.61576	-8.08015	-6.36204	-6.49780
6515.020	-2.93101	-7.44168	-5.25736	-7.92797
6519.011	-4.81710	-8.11332	-5.44190	-8.06138
6523.017	-1.53731	-7.31924	-5.54329	-7.71803
6527.011	-1.95554	-6.89219	-4.41763	-7.89896
6531.016	-2.52144	-7.51374	-8.67342	-8.62342
6535.010	-2.13765	-5.60705	-4.93287	-7.32076
6539.018	2.70047	-8.70372	-3.80004	-6.77934
6543.018	-2.21623	-6.55025	-6.42761	-7.89520
6547.013	3.62267	-9.44695	-5.27872	-7.73119
6551.016	-2.73380	-7.78016	-4.21111	-7.97297
6555.014	2.71817	-9.66395	-3.99549	-6.48088
6559.020	-2.05824	-6.95079	-2.20481	-6.01041
6563.011	-4.84809	-8.69593	-3.81555	-6.11286
6567.018	-2.25154	-9.16360	-4.06597	-3.37530
6571.032	-4.24833	-8.46604	-5.14045	-7.56113
6575.017	-0.48115	-10.68040	-10.52394	-8.60155
6579.012	-3.96772	-2.79440	0.25654	-9.97472
6583.014	-5.23526	-7.76520	-5.21757	-6.76076
6587.012	-4.42195	-8.09049	-1.79924	-8.63164
6591.013	-5.22598	-7.83658	-4.02277	-8.91951
6595.012	-3.68992	-8.43716	-7.95813	-8.97001
6599.020	-1.67591	-7.56123	-4.18753	-7.55828
6603.013	-7.16889	-10.61167	-2.44529	-3.58229
6607.014	4.12189	-10.34442	-1.36501	-6.70161
6611.010	3.33525	-5.26647	0.75270	-7.43302
6615.012	-1.43587	-8.22713	6.92276	-9.06037
6619.029	3.75850	-4.01483	7.14944	-9.17097
6623.013	11.94973	-12.56659	10.98494	-11.50364
6627.014	7.36174	-7.70349	6.93193	-8.82673
6631.009	12.77129	-9.64334	10.06001	-9.13945
6635.017	7.22490	-9.05858	7.18794	-7.95051
6639.035	6.87523	-8.81243	7.29521	-7.73519
6643.025	3.85548	-8.17820	-19.99372	-11.84451
6647.015	4.81399	-8.27337	-19.99372	-11.94875
6651.008	6.00798	-8.24208	-19.99372	-11.99004
6655.015	6.37589	-6.87458	-19.99372	-12.01227
6659.013	7.27482	-7.86583	0.65513	-12.66162
6663.010	9.07215	-8.75114	-0.98601	-13.25473
6667.017	12.89956	-13.20429	-19.99372	-12.08571
6671.011	12.94061	-12.75898	-19.99372	-12.08475
6675.013	1.40095	-8.04148	-19.99372	-12.08403
6679.008	2.23749	-8.04284	8.63034	-9.40498
6683.020	12.63194	-12.31084	2.63903	-13.18354
6687.012	4.39057	-7.37534	5.94840	-10.83009
6691.013	1.19378	-8.43791	5.70514	-7.58772
6695.014	-1.05414	-9.12333	3.97054	-9.87407
6699.012	13.02978	-14.42851	5.94278	-9.69523
6703.010	4.93625	-9.00489	9.95938	-9.60909
6707.038	6.66004	-9.15396	0.47721	-9.96662
6711.013	6.45655	-9.17657	7.24144	-9.67325
6715.010	9.59380	-8.09177	4.25169	-7.43372
6719.016	13.71390	-14.31735	3.99694	-5.99514
6723.016	4.57231	-6.29114	5.54816	-7.71591
6727.047	13.43660	-11.84867	-1.63958	-2.04690
6730.901	6.93071	-6.13578	6.07228	-7.41474
6734.885	4.60902	-8.79076	5.66455	-7.07970
6738.887	5.07345	-7.86812	4.82227	-7.83032
6742.882	7.81162	-6.79411	-0.61558	-0.64365
6746.889	-19.99372	-11.89219	7.49010	-6.77242
6750.884	7.71801	-5.45280	13.80460	-11.47562
6754.887	8.59594	-10.55932	10.66184	-11.13114
6758.881	7.94674	-9.78481	8.06514	3.02365
6762.889	4.90853	-6.47504	5.29425	4.56739
6766.882	4.65276	-7.46651	9.85614	-10.09596
6770.891	5.34867	-8.32053	7.29523	-11.10340
6774.887	4.51874	-7.83452	4.49879	6.46806
6778.887	4.37073	-7.85776	6.96061	5.87192
6782.883	5.20022	-7.97254	8.08440	9.35927
6786.889	7.80782	-10.28905	3.94910	-6.39106
6790.885	8.04411	-8.59285	3.72556	-4.57084
6794.884	12.71621	-12.54726	3.78452	12.60612
6798.884	7.87323	-7.72738	1.96819	13.23393
6802.884	7.74995	-4.14266	0.91316	13.70284
6806.882	10.52151	-9.29486	-2.18104	13.32822
6810.887	13.38555	-14.01184	-19.99372	-11.99083
6814.887	1.05714	-8.03810	NaN	NaN
6818.886	3.48232	-8.28322	NaN	NaN
6822.882	4.71550	-7.75964	NaN	NaN
6826.887	5.66725	-8.59628	NaN	NaN
6830.883	9.22591	-9.33200	NaN	NaN
6834.886	6.63906	-8.72331	NaN	NaN
6838.879	7.47224	-5.00745	NaN	NaN
6842.909	8.17940	-7.84926	NaN	NaN
6846.888	6.01419	-7.73805	NaN	NaN
6850.882	16.79802	-12.11753	NaN	NaN
6854.890	8.85729	-7.40922	NaN	NaN
6858.880	17.15478	-8.00079	NaN	NaN
6862.888	18.98992	-11.16491	NaN	NaN
6866.883	-19.99372	-11.86535	NaN	NaN
6870.885	-19.99372	-11.93375	NaN	NaN
6874.880	-19.99372	-11.96969	NaN	NaN
6878.886	-19.99372	-11.99190	NaN	NaN
6882.883	-19.99372	-12.00709	NaN	NaN
6886.884	-19.99372	-12.01822	NaN	NaN
6890.879	-19.99372	-12.02673	-13.61372	14.25020
6894.885	-19.99372	-12.04908	-13.51098	11.71607
6898.884	-19.99372	-12.05281	-8.54680	10.97264
6902.887	-19.99372	-12.05587	-12.49642	10.32690
6906.881	20.30264	-11.99486	-12.53611	5.99405
6910.892	-19.99372	-12.04020	-18.46465	5.66836
6914.886	-19.99372	-12.04046	-17.81160	5.23225
6918.882	-19.99372	-12.04087	-21.00520	5.18189
6922.882	22.32235	-12.06461	-19.96823	5.18816
6926.883	-19.99372	-12.07972	-12.25927	0.01348
6930.882	-19.99372	-12.08037	-19.76898	0.50044
6934.880	-19.99372	-12.08097	-17.79939	0.30762
6938.886	-19.99372	-12.08151	-18.50762	0.51133
6942.887	-19.99372	-12.08202	-20.35767	0.57945
6946.912	-19.99372	-12.08245	-19.98590	-12.07801
6950.880	-19.99372	-12.11207	-19.98831	-12.07783
6954.885	-19.99372	-12.11087	-19.99740	-12.07715
6958.881	13.02191	-10.46957	-19.99751	-12.07714
6962.883	-19.99372	-12.10980	-19.97974	-12.07846
6966.877	-19.99372	-12.07566	-19.99157	-12.07758
6970.886	-19.99372	-12.07568	-19.99228	-12.07753
6974.881	-19.99372	-12.07573	-20.01574	-12.07578
6978.891	-19.99372	-12.07575	-23.42748	-11.76070
6982.885	-19.99372	-12.07579	-20.02806	-12.04446
6986.882	-19.99372	-12.07586	-19.99372	-12.04962
6990.879	-19.99372	-12.07590	-19.99372	-12.04993
6994.879	-19.99372	-12.07597	-19.99372	-12.05036
6998.884	-19.99372	-12.07604	-19.99372	-12.05089
7002.881	NaN	NaN	-19.99372	-12.05154
7006.882	NaN	NaN	-19.99372	-12.05228
7010.877	NaN	NaN	-19.99372	-12.05313
7014.882	NaN	NaN	-19.99372	-12.05402
7018.884	NaN	NaN	-19.99372	-12.05500
7022.887	NaN	NaN	NaN	NaN
7026.881	NaN	NaN	NaN	NaN
7030.878	NaN	NaN	NaN	NaN
7034.880	NaN	NaN	NaN	NaN
7038.880	NaN	NaN	NaN	NaN
7042.884	NaN	NaN	NaN	NaN
7046.884	9.62509	-12.67529	NaN	NaN
7050.879	-19.99372	-12.09736	NaN	NaN
7054.884	-19.99372	-12.09723	NaN	NaN
7058.880	19.90094	-12.13978	NaN	NaN
7062.886	8.03978	-13.24418	NaN	NaN
7066.877	-19.99372	-12.15075	NaN	NaN
7070.883	12.36523	-12.65608	NaN	NaN
7074.879	-19.99372	-12.16910	NaN	NaN
7078.882	-19.99372	-12.16722	NaN	NaN
7082.878	-19.99372	-12.16497	NaN	NaN
7086.883	-19.99372	-12.16238	NaN	NaN
7090.879	-19.99372	-12.14252	NaN	NaN
7094.880	-19.99372	-12.14024	NaN	NaN
7098.877	-19.99372	-12.13777	NaN	NaN
7102.887	7.61221	-13.72157	NaN	NaN
7106.881	-19.99372	-12.10861	NaN	NaN
7110.877	-19.99372	-12.10779	NaN	NaN
7114.877	-19.99372	-12.09127	NaN	NaN
7118.881	8.04579	-13.89194	NaN	NaN
7122.880	-19.99372	-12.10582	NaN	NaN
7126.877	-19.99372	-12.10529	NaN	NaN
7130.879	-19.99372	-12.10462	NaN	NaN
7134.880	-19.99372	-12.10384	NaN	NaN
7138.880	23.36609	-13.30898	NaN	NaN
7142.878	-19.99372	-12.11027	NaN	NaN
7146.887	6.08738	-12.84723	NaN	NaN
7150.878	10.54099	-8.87495	NaN	NaN
7154.877	9.11465	-12.40759	NaN	NaN
7158.878	8.17697	-11.33750	NaN	NaN
7162.878	10.15283	-3.95231	NaN	NaN
7166.908	5.24498	-6.36363	NaN	NaN
7170.874	8.25202	-6.28475	NaN	NaN
7174.881	-1.38577	-7.39723	NaN	NaN
7178.876	4.71277	-6.61865	NaN	NaN
7182.893	0.76456	-6.41878	NaN	NaN
7186.884	4.67069	-9.58327	NaN	NaN
7190.874	-1.87666	-7.71256	NaN	NaN
7194.882	-6.69818	-9.57974	NaN	NaN
7198.877	4.43774	-7.88295	NaN	NaN
7202.879	-2.83001	-7.81724	NaN	NaN
7206.873	-1.10874	-6.40947	NaN	NaN
7210.880	-2.93381	-7.93807	NaN	NaN
7214.877	3.97573	-7.39059	NaN	NaN
7218.877	-1.76009	-7.24122	NaN	NaN
7222.875	3.88468	-7.44039	NaN	NaN
7226.884	-5.49728	-7.17609	NaN	NaN
7230.884	-0.70558	-10.33094	NaN	NaN
7234.875	1.17418	-6.82550	NaN	NaN
7238.877	-1.07629	-7.72411	NaN	NaN
7242.876	3.27455	-7.80343	NaN	NaN
7246.876	0.24331	-5.59414	NaN	NaN
7250.880	-1.60935	-7.78490	NaN	NaN
7254.881	4.17423	-8.59580	NaN	NaN
7258.876	-4.33532	-7.96829	NaN	NaN
7262.876	1.11792	-4.62730	NaN	NaN
7266.875	-2.36866	-8.40538	NaN	NaN
7270.879	-4.80428	-8.19197	NaN	NaN
7274.879	-4.64268	-9.00908	NaN	NaN
7278.874	-1.89245	-8.26344	NaN	NaN
7282.872	-0.94247	-0.53660	NaN	NaN
7286.879	-4.24263	-10.46134	NaN	NaN
7290.875	-1.61483	-8.32497	NaN	NaN
7294.876	-1.41149	-6.15387	NaN	NaN
7298.875	-3.19452	-5.69278	NaN	NaN
7302.877	-1.14977	-7.20587	NaN	NaN
7306.875	5.01411	-9.73045	NaN	NaN
7310.879	-2.81189	-7.61400	NaN	NaN
7314.875	-2.02963	-8.25404	NaN	NaN
7318.879	-1.99364	-8.79818	NaN	NaN
7322.876	-1.55328	-7.43633	NaN	NaN
7326.875	4.18867	-8.81431	NaN	NaN
7330.880	-2.51888	-7.49345	NaN	NaN
7334.876	3.82583	-8.00863	NaN	NaN
7338.875	-1.46363	-4.21580	NaN	NaN
7342.872	6.19398	-5.46657	NaN	NaN
7346.875	2.51125	-4.38638	NaN	NaN
7350.876	6.25863	-10.17418	NaN	NaN
7354.881	3.75818	-9.45475	NaN	NaN
7358.878	3.83878	-8.89679	1.89766	-8.21056
7362.875	-1.57357	-9.99925	-7.77522	14.12356
7366.873	-1.85661	-4.89083	-4.98204	-8.00267
7370.875	-5.35057	-10.45504	-3.72430	12.72340
7374.874	-1.25061	-6.94673	1.12559	9.20499
7378.875	-1.34596	-7.67322	0.34479	10.92750
7382.871	2.04180	-6.50870	2.06505	6.93500
7386.946	0.51659	-2.49127	4.04322	7.46832
7390.880	1.02635	-3.09800	4.36804	3.41586
7394.878	-1.40415	-8.91413	-4.44835	3.54020
7398.873	1.38892	-5.43233	6.99003	-0.29632
7402.873	-4.73752	-13.27602	-3.09745	-1.45786
7406.872	2.46761	-5.27337	0.37065	-1.36279
7410.876	1.65887	-7.34151	4.33525	-1.19542
7414.869	1.75676	-8.46585	4.40179	-5.99607
7418.878	6.15848	-4.90607	-4.14870	-8.30492
7422.874	-4.23584	-7.69762	-3.00876	-8.67487
7426.873	-4.45439	-5.16283	-10.16435	-5.36635
7430.873	-7.23022	-8.81194	-3.78000	-4.57763
7434.876	-4.38186	-4.84772	-8.37541	-5.91912
7438.878	-6.43221	-6.71377	-10.73186	-8.12736
7442.873	-3.84616	-9.00103	-19.31583	-13.69698
7446.875	-8.03927	-6.34597	-12.25434	-6.74605
7450.871	-13.48341	-11.20173	-8.28038	-8.64186
7454.904	-6.87680	-7.70568	-7.95689	-7.50526
7458.873	-7.86634	-6.70334	-3.35404	-8.60067
7462.872	-11.74556	-9.06746	-4.36836	-14.42013
7466.876	-7.49415	-5.97402	-11.70683	-6.47932
7470.876	-7.61487	-2.61230	-10.03561	-6.85466
7474.870	-8.03163	-4.33440	-7.89362	-6.04777
7478.904	-9.89639	-7.11517	-11.16980	-8.33653
7482.874	-8.20175	-6.08856	-11.52900	-8.11310
7486.869	-7.63072	-6.44474	-11.39463	-6.44694
7490.871	-10.20320	-7.62690	-8.06402	-6.26111
7494.873	-7.97030	-9.03819	-8.60565	-6.32313
7498.871	-13.66943	4.71179	-12.03052	-6.13089
7502.872	-7.26039	-6.25870	-10.70984	-6.57954
7506.871	-7.69332	-6.01779	-6.95467	-7.81562
7510.874	-8.38483	-6.06310	-10.08253	-6.17935
7514.871	-5.01164	-5.67196	-12.21366	-7.48253
7518.880	-8.22523	-6.39228	-8.30597	-8.81307
7522.891	-8.10231	-6.18163	-11.78321	-8.16637
7526.874	-8.46009	-6.17540	-9.03130	-7.20351
7530.867	-8.08365	-7.66254	-11.50951	-6.31840
7534.876	-7.70889	-5.32568	-11.89314	-6.01311
7538.872	-8.38012	-5.38299	-10.02206	-9.19698
7542.874	-4.98364	-9.08492	-9.47121	-7.64708
7546.874	-8.50632	-6.31241	-19.99372	-12.07722
7550.872	-8.49916	-5.42414	-13.80421	-6.94073
7554.874	-8.50605	-5.51047	-8.19975	-9.39605
7558.871	-7.93318	-7.23336	-7.71330	-7.71629
7562.880	-8.68538	-4.71030	-10.20286	-6.65031
7566.877	-8.63917	-7.33888	-19.99372	-12.07722
7570.875	-7.58190	-4.99126	-10.68039	-7.37017
7574.869	-8.61591	-5.17514	-12.37380	-9.55679
7578.876	-8.41442	-4.67428	-11.60732	-9.26641
7582.765	-8.91524	-6.77532	-4.53662	-7.78952
7586.746	-8.40385	-4.78164	-10.22421	-7.95532
7590.746	-8.22309	-5.53045	-7.08199	-9.61198
7594.748	-7.88877	-6.13428	-10.17601	-14.72435
7598.745	-8.57927	-6.27402	-10.13248	-7.47696
7602.746	-8.22438	-5.47722	-11.23258	-6.09060
7606.752	-9.77565	-4.38215	-10.52653	-6.29684
7610.746	-7.29919	-6.25611	-9.98701	-6.85246
7614.751	-7.31196	-4.21519	-12.31199	-8.75294
7618.746	-9.28393	-6.06192	-10.97210	-7.11515
7622.744	-9.21275	-6.08259	-19.99372	-12.09441
7626.747	-6.45596	-6.43060	-9.78684	-11.42752
7630.745	-3.75973	-8.35139	-9.68078	-10.97218
7634.746	-8.82693	-6.49435	-19.99372	-11.95295
7638.739	-9.09938	-5.70068	-10.37261	-11.45546
7642.748	-8.97099	-6.33364	-9.22700	-6.87014
7646.744	-8.70706	-6.96584	-8.29263	-7.06842
7650.753	-8.71678	-6.92800	-8.82204	-11.11403
7654.740	-8.98932	-5.74892	-9.61851	-12.07743
7658.750	-8.87016	-7.48061	-8.19275	-10.75585
7662.740	-8.48287	-7.13308	-8.77487	-7.51586
7666.748	-8.78086	-6.99201	-11.15874	-7.47481
7670.747	-9.02668	-5.53708	-10.02030	-6.93666
7674.743	-8.11245	-5.70692	-9.92574	-6.48361
7678.749	-8.33119	-5.95082	-7.88673	-6.19310
7682.744	-7.80808	-5.89909	-10.21899	-6.49160
7686.746	-9.60092	-5.94060	-7.90521	-6.02628
7690.744	-8.55190	-5.85092	-10.04013	-9.86761
7694.751	-8.32609	-6.16714	-9.93338	-7.18231
7698.744	-8.86699	-5.81903	-8.03531	-5.87884
7702.746	-7.54376	-6.61396	-10.55349	-6.76483
7706.740	-8.51984	-6.16845	-7.48963	-7.04658
7710.747	-7.22194	-5.11840	-10.52408	-7.01782
7714.743	-10.22142	-6.13913	-10.34122	-7.07184
7718.742	-9.43317	-6.90707	-10.76616	-6.31639
7722.744	-8.36657	-6.99106	-7.20223	-7.01930
7726.778	-8.57668	-6.38946	-10.71516	-5.80749
7730.745	-8.94549	-6.14914	-11.43910	-6.38944
7734.748	-9.36264	-6.43212	-8.22788	-7.37927
7738.740	-8.52316	-6.17918	-6.91953	-5.72859
7742.747	-8.75618	-6.53180	-7.66287	-5.38787
7746.747	-8.68431	-6.51115	-10.46150	-7.25738
7750.744	-7.23745	-5.85946	-8.19212	-5.69115
7754.742	-9.03307	-6.37815	-10.96368	-7.56667
7758.746	-8.23661	-6.79734	-10.75057	-9.00069
7762.744	-8.41140	-5.77222	-10.23315	-6.19162
7766.744	-7.80416	-6.67013	-7.28163	-5.30397
7770.740	-8.07365	-6.26430	-9.70022	-6.92065
7774.751	-8.83784	-6.62888	-10.36139	-8.23911
7778.745	-8.75138	-6.79942	-8.11121	-5.85596
7782.745	-9.26737	-6.37399	-6.68812	-4.61992
7786.739	-9.15023	-6.40126	-9.95938	-3.88605
7790.746	-9.80867	-6.98802	-12.39947	-6.87619
7794.744	-7.96161	-6.98560	-6.57869	-6.44269
7798.745	-9.37138	-7.08570	-7.81690	-5.15399
7802.803	-7.76411	-6.53184	-10.54576	-6.36919
7806.745	-9.05945	-8.43173	-7.73107	-7.02451
7810.739	-9.44605	-7.12206	-7.90440	-6.34235
7814.748	-9.20090	-6.90623	-10.67265	-6.42059
7818.743	-9.44407	-5.66920	-11.03547	-6.41922
7822.745	-9.45102	-8.52579	-7.59822	-8.45805
7826.740	-8.89761	-7.24417	-7.81425	-1.00103
7830.744	-8.01246	-7.12227	-8.05767	-6.01789
7834.738	-8.18923	-7.36711	-8.11637	-6.15637
7838.745	-8.87610	-7.23019	-8.33673	-9.71641
7842.740	-8.32854	-6.98590	-11.78024	-6.25370
7846.743	-8.73111	-7.23642	-8.51712	-7.11161
7850.740	-8.38044	-6.61536	-8.32415	-6.96204
7854.742	-8.01835	-6.53743	-11.94636	-6.96908
7858.747	-8.17430	-7.04154	-11.95584	-7.75986
7862.743	-7.67318	-6.39666	-8.53707	-7.45277
7866.744	-5.73709	-7.47844	-11.30925	-7.98562
7870.742	-8.14531	-7.50662	-11.42511	-7.45547
7874.737	-8.86413	-7.22948	-8.66481	-7.40331
7878.745	-8.05640	-8.25233	-8.81150	-7.43298
7882.740	-6.38043	-8.01255	-6.24085	-6.55563
7886.743	-8.05000	-7.25226	-12.44633	-8.63692
7890.736	-9.37039	-6.92372	-11.51147	-7.74298
7894.745	-9.92579	-8.26060	-8.97692	-9.06460
7898.749	-8.52663	-7.06643	-11.63016	-10.59812
7902.743	-6.02691	-6.55153	-11.55993	-8.49797
7906.738	-8.08691	-6.81708	-9.02166	-8.45794
7910.744	-6.06924	-7.53352	-7.78058	-8.62626
7914.741	NaN	NaN	-19.99372	-12.00470
7922.745	-7.76024	-7.19570	-11.42577	-7.56609
7926.740	-9.08481	-6.90425	-11.11642	-8.56508
7930.742	-8.08737	-7.37394	-11.28963	-9.73500
7934.741	-8.85642	-7.95330	-10.06405	-8.69732
7938.738	-8.98508	-8.82175	-9.69525	-12.55223
7942.742	-10.15446	-6.99191	-10.05620	-5.75517
7946.739	-9.53579	-6.66268	-11.80319	-8.67044
7950.747	-7.62448	-6.65387	-10.68470	-8.94846
7954.738	-8.47138	-6.28999	-9.62890	-8.78324
7958.739	-8.78762	-7.67792	-8.97809	-8.61842
7962.738	-7.97004	-8.03690	-8.96537	-9.85724
7966.741	-10.62348	-7.93381	-10.59620	-10.21550
7970.739	-10.48106	-7.59657	-10.77972	-9.70231
7974.738	-10.48843	-7.55622	-11.25481	-8.53286
7978.741	-10.57366	-6.64037	-10.17990	-8.86532
7982.747	-8.38257	-6.63055	-9.29224	-8.76047
7986.736	-9.97414	-5.72378	-7.82163	-8.68966
7990.745	-8.30340	-5.96121	-7.00685	-8.83339
7994.738	-7.97001	-5.58101	-9.27803	-8.55913
7998.743	-10.04713	-6.53660	-9.14554	-8.32456
8002.745	-8.19718	-6.57113	-11.14409	-8.34769
8006.741	-7.93026	-7.19238	-11.33154	-8.55415
8010.739	-8.58143	-6.50692	-11.79161	-8.52376
8014.740	-5.89510	-9.62127	-12.20783	-8.41022
8018.741	-9.83845	-6.61318	-12.17909	-8.54887
8022.765	-7.99878	-6.91276	-12.15151	-8.63522
8026.743	-8.00275	-6.99540	-11.96534	-8.57208
8030.741	-9.13753	-5.87908	-10.04100	-8.17598
8034.739	-8.52328	-7.21937	-10.85724	-8.69749
8038.738	-8.52282	-6.62911	-11.59737	-10.80360
8042.740	-8.08572	-7.35103	-11.47731	-9.95440
8046.739	-8.27401	-6.87881	-11.60763	-10.87788
8050.739	-10.50844	-6.51629	-7.48412	-7.99214
8054.736	-9.31905	-6.38357	-7.21616	-8.00969
8058.740	-9.28171	-6.57464	-7.13624	-7.87813
8062.736	-9.55261	-6.09027	-7.32385	-7.94811
8066.745	-9.28813	-6.07315	-7.44703	-8.01827
8070.740	-9.17403	-6.38077	-10.23997	-7.96736
8074.734	-8.51940	-6.18643	-10.05125	-8.71987
8078.743	-8.67374	-7.63197	-10.28258	-9.71137
8082.737	-8.42799	-7.20818	-10.39875	-9.49664
8086.740	-8.63517	-7.82506	-11.09547	-9.08495
8090.732	-8.92980	-7.44968	-11.24096	-9.42502
8094.742	-8.53727	-7.48405	-11.84751	-9.58000
8098.737	-8.26845	-7.46815	-11.55171	-9.25219
8102.738	-8.88096	-8.01916	-10.76949	-8.25106
8106.740	-8.37181	-7.63909	-11.56219	-8.96499
8110.742	-7.89493	-7.37821	-11.21369	-9.37816
8114.736	-8.08791	-7.63211	-11.20799	-9.25596
8118.735	-7.53040	-7.20506	-11.10206	-8.78994
8122.738	-7.44379	-8.45475	-7.88909	-9.11565
8126.739	-8.34633	-7.76458	-11.16746	-9.45823
8130.733	-10.16882	-7.38964	-11.16433	-9.82759
8134.736	-8.43554	-8.51463	-10.82962	-9.64375
8138.736	-9.77336	-8.32594	-10.88025	-9.54732
8142.737	-9.04166	-7.04951	-10.77493	-8.32176
8146.738	-9.06405	-6.37123	-10.66364	-7.97419
8150.739	-8.61023	-4.43374	-10.17894	-7.61892
8154.731	-9.05059	-4.18409	-13.72987	-11.69053
8158.740	-9.26019	-4.49922	-10.94471	-10.28091
8162.737	-7.19344	-3.97546	-10.91243	-9.85137
8166.739	-9.00176	-5.92065	-10.55723	-9.77958
8170.740	-9.87623	-7.00593	-8.92755	-7.46546
8174.739	-10.24300	-8.20537	-8.70633	-6.94906
8178.734	-10.67248	-8.35631	-10.92679	-6.85884
8182.735	-9.49890	-8.26031	-11.56934	-7.57569
8186.736	-9.54141	-7.54113	-12.26699	-9.42646
8190.739	-9.29461	-7.41469	-10.71873	-7.46481
8194.745	-9.19174	-7.18435	-10.27845	-8.20547
8198.735	-8.92931	-6.97146	-8.48083	-7.94818
8202.736	-8.75206	-7.35372	-8.24747	-8.75035
8206.736	-7.89216	-6.79116	-7.61236	-7.90452
8210.741	-8.45106	-5.92561	-9.57925	-7.60038
8214.736	-5.87666	-6.84733	-8.97135	-7.07720
8218.738	-2.24103	-6.71847	-18.56750	-8.79587
8222.736	-1.19844	1.36294	-18.40135	-3.54903
8226.737	-3.45841	8.51841	-19.82156	-12.08990
8230.776	NaN	NaN	-19.90316	-12.08404
8234.737	NaN	NaN	22.09896	13.47389
8238.734	NaN	NaN	-19.93354	-12.08183
8242.737	NaN	NaN	-19.94893	-12.08071
8246.736	NaN	NaN	-19.95843	-12.08000
8250.740	NaN	NaN	-19.96492	-12.07954
8254.878	NaN	NaN	-19.96963	-12.07919
8259.089	NaN	NaN	-19.97325	-12.07892
8263.109	NaN	NaN	-19.98851	-12.07781
8267.143	NaN	NaN	NaN	NaN
8272.162	NaN	NaN	NaN	NaN
8275.950	NaN	NaN	NaN	NaN
8279.473	NaN	NaN	NaN	NaN
8282.959	NaN	NaN	NaN	NaN
8288.357	NaN	NaN	NaN	NaN
8290.760	NaN	NaN	NaN	NaN
8298.739	NaN	NaN	NaN	NaN
8302.753	NaN	NaN	NaN	NaN
8310.739	NaN	NaN	NaN	NaN
8314.743	NaN	NaN	NaN	NaN
8318.737	NaN	NaN	NaN	NaN
8322.737	NaN	NaN	NaN	NaN
8326.759	NaN	NaN	NaN	NaN
8330.749	NaN	NaN	NaN	NaN
8334.745	NaN	NaN	NaN	NaN
8339.143	NaN	NaN	NaN	NaN
8342.784	NaN	NaN	NaN	NaN
8346.740	NaN	NaN	NaN	NaN
8350.733	NaN	NaN	NaN	NaN
8354.745	NaN	NaN	NaN	NaN
8358.785	NaN	NaN	NaN	NaN
8362.743	NaN	NaN	NaN	NaN
8366.874	NaN	NaN	NaN	NaN
8370.735	NaN	NaN	NaN	NaN
8374.732	NaN	NaN	NaN	NaN
8378.736	NaN	NaN	NaN	NaN
8382.918	NaN	NaN	NaN	NaN
8386.741	NaN	NaN	NaN	NaN
8390.734	8.39773	11.95809	NaN	NaN
8394.732	7.84849	-9.24233	NaN	NaN
8398.739	NaN	NaN	NaN	NaN
8402.730	7.28827	8.68737	7.74335	-5.09448
8406.738	7.93944	7.83009	-8.44013	0.80774
8410.734	4.00341	5.60329	-1.04094	-6.15122
8414.738	4.14268	3.94979	-4.80712	3.94826
8418.733	4.18173	6.34549	3.40005	-5.35148
8422.733	4.22088	5.90955	7.73614	-3.74913
8426.729	12.34455	3.53584	7.93284	-3.20335
8430.734	8.03497	3.31394	7.32968	0.36394
8434.636	4.00336	-0.73263	3.53696	3.64906
8438.606	6.48470	-0.56724	-1.23474	-6.00335
8442.604	3.92608	-4.62037	0.02819	-5.82713
8446.612	2.68487	-4.87491	0.06497	-5.52041
8450.610	4.51356	-1.01240	4.86936	2.77339
8454.606	7.34345	-5.77973	5.62016	2.82103
8458.609	7.18139	-5.59688	2.72533	-3.68219
8462.607	4.06192	-4.94990	2.11147	-3.60384
8466.607	2.18914	-3.61637	3.79457	-5.86823
8470.606	3.30492	-4.50867	3.53476	-5.26707
8474.642	1.09534	-4.68136	3.79366	-5.99942
8478.628	4.10164	-5.62115	2.95874	-3.89490
8482.609	7.21794	-6.80988	2.77842	-3.86650
8486.615	7.41841	-6.38575	2.90205	-4.63676
8490.605	5.47139	-4.45335	2.53560	-5.75635
8494.608	2.38640	-5.59052	2.95030	-5.35365
8498.602	1.92701	-5.09957	2.85259	-5.05279
8502.606	3.34010	-4.50807	3.22213	-4.72312
8506.602	7.58459	-4.53768	2.92379	-4.60995
8510.604	6.76383	-5.06285	3.02707	-4.35305
8514.604	6.03785	-5.15587	3.02692	-4.11672
8518.606	2.01159	-5.95540	3.05375	-3.73658
8522.604	-1.08180	-5.94081	3.14578	-2.39737
8526.603	3.97793	-4.58346	2.93069	-3.14627
8530.611	8.04214	-4.90593	2.98782	-5.30513
8534.604	7.66580	-5.12451	3.09092	-4.95160
8538.614	4.10994	-4.98437	3.15607	-2.68868
8542.602	3.84742	-4.98071	3.12705	-2.48011
8546.608	3.25669	-5.51586	3.18853	-2.43549
8550.601	3.28932	-5.40183	3.10916	-3.27642
8554.608	4.57524	-5.56053	3.21493	-4.61698
8558.606	7.51664	-5.96779	3.12484	-5.14599
8562.604	7.69300	-5.90369	3.18155	-4.84399
8566.602	7.03653	-5.88971	2.93980	-4.00080
8570.607	7.67733	-5.63051	2.98938	-4.79982
8574.605	4.12525	-5.82519	3.36263	-4.81954
8578.608	2.06904	-5.79603	3.75998	-5.20367
8582.600	2.68244	-5.38772	2.77275	-5.06640
8586.608	4.39503	-6.04842	2.77272	-5.04025
8590.606	6.05920	-6.24395	2.87334	-5.19591
8594.602	8.07857	-6.18323	3.03704	-5.39172
8598.604	7.78633	-7.32143	3.08599	-6.33816
8602.605	4.15087	-7.42266	2.45384	-5.01805
8606.607	1.90829	-6.03196	2.83808	-4.96761
8610.607	5.91771	-4.08111	2.62303	-5.10532
8614.657	8.73841	-5.12466	3.73826	-4.58590
8618.610	6.01677	-4.08807	3.75062	-4.38210
8622.602	5.54344	-6.84411	6.56537	-4.94205
8626.602	1.64920	-6.75456	2.30833	-4.76072
8630.603	1.53406	-3.92366	2.37424	-4.75843
8634.604	3.85338	-3.76603	2.77780	-4.88323
8638.599	4.36150	-7.50922	3.20879	-4.45152
8642.607	4.70493	-6.72105	3.24006	-4.57977
8646.602	5.61451	-4.13911	3.77038	-4.76078
8650.600	NaN	NaN	NaN	NaN
8658.609	4.18497	-4.40040	3.63095	-5.69863
8662.601	2.00956	-4.36683	3.25800	-5.16044
8666.610	4.27950	-3.92646	3.05630	-5.41111
8670.600	4.57246	-3.80618	2.98309	-5.22302
8674.607	4.72512	-4.39352	2.76076	-4.95128
8678.603	4.52178	-4.87489	3.05538	-5.18728
8682.604	8.16078	-8.69111	3.26215	-5.16477
8686.602	4.86956	-5.03975	3.49174	-4.83976
8690.602	4.63353	-4.79890	3.71152	-5.06657
8694.610	2.98319	-4.52059	3.11891	-4.84016
8698.604	4.21442	-4.50778	3.10859	-4.83560
8702.599	9.99053	-5.11118	3.50445	-5.08820
8706.606	3.98316	-6.92753	3.88344	-5.08058
8710.603	4.20588	-6.89448	3.61817	-4.93494
8714.604	4.46162	-4.75972	3.81874	-5.03252
8718.600	3.53399	-4.86510	3.86091	-4.90638
8722.601	3.91326	-5.10885	3.97597	-4.93856
8726.603	2.13668	-4.20449	3.90313	-4.78319
8730.602	3.91511	-5.26877	3.71122	-4.95862
8734.612	3.54220	-4.55281	3.76132	-4.98664
8738.601	3.80824	-4.21828	3.84572	-5.06304
8742.606	3.91138	-4.19316	3.98840	-5.07923
8746.775	4.74484	-4.90057	3.94908	-5.42043
8750.606	9.57766	-6.41271	4.04493	-5.67196
8754.597	10.52993	-8.36216	4.17319	-5.56506
8758.605	8.65659	-6.29222	4.13767	-6.63703
8762.602	6.14776	-8.43085	4.13544	-6.28222
8766.604	3.94347	-5.64668	4.24142	-6.52946
8770.596	3.94611	-5.96302	4.31242	-5.62219
8774.604	3.84668	-6.72049	4.13562	-5.64054
8778.606	2.57563	-6.02704	4.22367	-5.51148
8782.605	3.25639	-5.08649	4.08762	-5.49595
8786.597	3.91042	-5.31198	3.99440	-6.41987
8790.604	6.44275	-6.36617	3.77219	-5.82149
8794.602	10.26396	-8.16516	4.23041	-5.69839
8798.601	3.81113	-7.61404	3.89426	-4.81687
8802.599	4.28017	-5.99713	4.46662	-6.86643
8806.603	8.99888	-6.33058	4.37404	-6.91639
8810.599	8.71846	-8.45113	4.17680	-5.57488
8814.608	1.69651	-6.22470	3.88374	-5.02653
8818.605	2.88265	-6.51788	3.79603	-5.48322
8822.597	3.87996	-6.83056	3.39520	-5.35761
8826.606	4.48959	-6.10935	3.80792	-5.67334
8830.654	7.03719	-6.31867	4.52200	-5.33973
8834.604	7.46241	-7.27950	4.72381	-4.40337
8838.601	11.58265	-11.53031	5.26418	-5.13590
8842.600	5.12100	-6.88744	4.04147	-6.36557
8846.601	3.79848	-6.82328	4.03814	-5.17575
8850.595	4.91762	-6.70563	4.12631	-5.09840
8854.602	4.51899	-4.57437	4.65385	-5.31783
8858.597	4.69613	-6.00307	4.36802	-5.36302
8862.603	4.49849	-6.35305	4.28636	-5.13996
8866.602	4.13806	-6.77669	4.19109	-5.24186
8870.601	4.03394	-7.31307	3.88945	-5.26384
8874.600	3.92774	-7.09276	4.14900	-5.25895
8878.596	3.83855	-7.11899	3.81269	-5.56614
8882.639	3.72751	-6.50700	4.07839	-5.46352
8886.601	3.59187	-5.87766	4.33545	-5.15962
8890.596	3.60717	-6.51611	4.75861	-5.13737
8894.603	3.68589	-3.61999	4.79294	-4.89777
8898.598	3.57988	-4.56009	4.60720	-4.38467
8902.601	3.58549	-6.54356	4.65040	-3.99498
8906.599	3.50652	-6.69382	5.23849	-3.71311
8910.597	3.55399	-5.40521	5.09428	-3.86491
8914.601	3.67702	-4.85045	4.94992	-3.78300
8918.600	3.58383	-6.30656	4.64709	-3.53029
8922.605	3.64160	-5.61414	4.78040	-3.54131
8926.599	3.59065	-6.41873	4.84053	-3.53318
8930.601	3.67410	-5.64770	4.61004	-3.30042
8934.602	3.71562	-6.49707	4.36728	-3.39570
8938.598	3.60546	-5.99227	4.23362	-3.43889
8942.603	3.64541	-6.25510	4.08466	-3.51532
8946.597	3.55743	-6.12159	4.49149	-3.72657
8950.606	3.32503	-6.26123	4.31825	-3.98594
8954.598	2.83393	-6.14224	4.34465	-4.03787
8958.597	2.80360	-5.90481	4.28629	-4.15588
8962.600	4.23777	-6.19626	4.49016	-4.76333
8966.596	3.14731	-6.10122	4.50700	-4.59527
8970.595	3.65996	-5.94376	4.66874	-4.75112
8974.598	3.35451	-5.83830	4.56274	-4.75476
8978.599	3.41001	-6.55526	4.65434	-4.91239
8982.597	3.61117	-6.60895	4.64347	-4.99325
8986.601	3.07845	-6.50125	4.72598	-5.17748
8990.599	2.79612	-6.60638	4.63348	-5.36400
8994.596	3.43598	-6.88225	4.64751	-5.36492
8998.595	3.67870	-6.53966	4.62500	-5.13110
9002.596	4.72909	-6.28415	4.63385	-5.48140
9006.598	3.93438	-6.67783	4.54627	-5.66708
9010.598	5.93539	-6.70272	4.36631	-5.44137
9014.600	5.94330	-6.55579	4.19220	-5.68765
9018.599	4.89353	-6.68045	4.16238	-5.44750
9022.598	5.92211	-6.96684	4.29646	-5.48867
9026.606	6.64829	-6.83885	4.28481	-5.52406
9030.598	2.10999	-7.62385	4.38694	-5.92722
9034.596	4.92676	-6.83166	4.47891	-5.50989
9038.600	6.07366	-8.49713	4.81857	-6.09535
9042.597	4.81894	-4.42960	4.73204	-6.67020
9046.596	10.53240	-6.81648	5.25416	-6.99475
9050.596	5.67538	-7.01410	5.51078	-7.07452
9054.595	4.85810	-4.09225	5.35586	-7.33588
9058.596	4.17462	-4.28051	5.09913	-7.67977
9062.595	3.90264	-6.54792	5.36388	-7.71458
9066.601	4.10619	-7.18639	5.20260	-6.87322
9070.599	5.39377	-6.61789	5.48103	-6.90531
9074.600	4.69830	-6.45413	5.11632	-6.83204
9078.590	5.53835	-6.79508	5.15928	-7.00045
9082.600	2.97940	-7.74623	5.42134	-7.11391
9086.593	4.54804	-6.43352	5.45956	-7.21662
9090.599	4.24766	-6.70299	5.40774	-7.40578
9094.594	4.28301	-6.22698	5.05338	-7.09329
9098.595	6.52672	-6.23184	4.99558	-7.97660
9102.641	4.71437	-5.85699	5.32090	-6.76828
9106.595	2.92285	-6.17748	5.43283	-7.07063
9110.598	5.13653	-5.91241	5.45900	-7.56047
9114.595	4.32543	-6.13511	5.06900	-7.10109
9118.593	5.69050	-8.01683	5.34031	-7.06283
9122.596	5.55787	-6.11751	5.06131	-7.04023
9126.593	7.47378	-6.43505	5.19990	-7.28643
9130.595	7.22050	-6.49595	5.29797	-6.79007
9134.595	5.63156	-5.59822	5.41768	-7.36230
9138.596	4.99044	-6.93168	5.38654	-7.00036
9142.592	5.08301	-6.67373	5.36029	-6.63253
9146.598	4.79617	-5.89486	5.26130	-7.13875
9150.601	6.72222	-6.83201	5.22283	-7.47863
9154.602	7.68332	-5.83652	5.15175	-7.18768
9158.599	5.28089	-6.03569	5.08155	-7.07741
9162.596	5.77595	-6.04878	4.98522	-6.11472
9166.596	5.74325	-7.04886	4.96780	-6.48001
9170.595	6.10009	-6.88725	5.26418	-6.19643
9174.592	6.90779	-7.47576	5.29568	-6.90632
9178.598	7.20612	-8.12857	5.06141	-7.45145
9182.591	5.48794	-7.05781	4.96278	-8.46398
9186.598	4.49992	-6.47570	5.02061	-8.28293
9190.593	2.77178	-5.94456	5.21242	-7.92799
9194.624	5.19364	-6.10926	5.35726	-6.38458
9198.593	5.38786	-4.05205	5.17806	-7.01302
9202.596	7.51217	-3.11853	5.22045	-6.75941
9206.590	7.89744	-7.98513	5.08266	-7.30576
9210.598	7.54159	-6.77347	4.90595	-5.79488
9214.594	7.50898	-7.85599	7.05379	-6.35387
9218.596	6.63774	-7.50574	7.36972	-8.13472
9222.594	4.28604	-6.54481	5.47245	-7.44376
9226.603	2.60042	-4.66274	5.58813	-7.08347
9230.599	9.98718	-7.07353	5.28697	-6.91873
9234.599	7.32954	-6.53234	5.20206	-6.64166
9238.596	9.37151	-7.58970	5.24909	-7.02455
9242.594	7.42495	-4.51973	5.06703	-7.00211
9246.593	12.09610	-6.53721	5.42956	-7.40140
9250.596	5.91187	-5.30120	5.27491	-7.23074
9254.592	5.57026	-8.18042	5.10431	-6.13235
9258.594	7.06361	-8.49363	5.23177	-6.10045
9262.598	5.48135	-7.96554	5.36410	-7.40606
9266.593	9.42100	-7.49833	5.35414	-6.80363
9270.648	15.12178	-9.40575	5.15074	-7.23534
9274.596	8.05686	-9.61669	5.03014	-6.73113
9278.599	5.40299	-9.46048	4.98150	-6.71837
9282.595	7.42915	-4.69348	4.62515	-7.44286
9286.594	7.75064	-8.89227	5.17060	-7.68178
9290.467	5.58879	-7.56435	5.12585	-5.72600
9294.472	7.96755	-5.32185	5.38816	-6.14824
9298.467	8.72656	-4.41225	4.94152	-7.85662
9302.467	8.77936	-7.34017	5.07688	-6.77522
9306.469	6.52238	-5.77723	5.15921	-7.06523
9310.464	10.52005	-6.18741	5.12794	-6.65818
9314.466	8.41869	-4.18140	4.88535	-6.96966
9318.464	7.09644	-6.98472	5.08993	-6.10868
9322.473	10.61119	-4.78416	5.22355	-4.88081
9326.468	9.75572	-4.82851	5.60993	-8.87817
9330.465	6.28381	-7.98637	5.00620	-8.35362
9334.469	9.49806	-6.53951	5.49711	-7.83999
9338.462	10.57037	-5.79142	4.80574	-7.15130
9342.469	7.80492	-5.52503	5.12166	-6.75682
9346.466	5.61977	-6.04408	5.04582	-6.68451
9350.469	5.60578	-3.69105	5.19601	-5.32468
9354.469	9.64055	-5.47215	5.31563	-5.27625
9358.468	6.64973	-6.48376	4.80022	-5.02768
9362.469	10.56958	-5.50833	5.41337	-6.27527
9366.472	10.66963	-5.49248	5.14119	-6.11130
9370.462	9.85645	-5.66665	4.91210	-6.32999
9374.471	7.54932	-5.55962	5.48184	-6.80431
9378.465	3.99781	-5.66956	5.02354	-6.64857
9382.470	6.75448	-5.73131	4.74087	-7.19342
9386.469	11.21460	-1.06527	5.57488	-7.11163
9390.465	9.58480	-1.41714	5.98908	-7.09984
9394.467	10.03498	-7.20863	4.72238	-4.65074
9398.462	10.82612	-6.81354	4.94709	-6.52252
9402.465	10.49299	-5.53612	5.11740	-6.53028
9406.472	7.32524	-5.62386	4.68136	-6.77972
9410.465	5.65201	-6.79741	2.91841	-6.79463
9414.465	7.48754	-6.22805	4.51401	-6.69112
9418.469	3.65339	-6.60522	2.49701	-8.93056
9422.470	5.40806	-6.48486	9.69171	-7.76279
9426.492	6.15757	-6.59191	4.93216	-3.73415
9430.475	3.36631	-6.36801	4.73187	-3.71552
9434.466	2.89284	-6.00293	4.81441	-5.89179
9438.464	6.07646	-5.99514	4.68437	-6.28075
9442.467	5.46802	-5.89254	6.14109	-6.91191
9446.464	7.41419	-6.31698	4.65382	-6.72649
9450.468	6.97140	-5.66058	4.75706	-6.80602
9454.466	6.77680	-5.37433	4.64243	-6.57087
9458.467	6.12521	-6.51494	3.46432	-6.73059
9462.464	6.02180	-4.87886	4.59453	-6.31250
9466.464	5.71750	-5.13052	4.34475	-6.36102
9470.464	6.66778	-5.37289	3.07424	-6.37617
9474.466	6.20744	-5.16480	7.49707	-6.76536
9478.464	6.51890	-5.21666	4.55320	-5.85228
9482.475	6.56552	-5.85991	4.91388	-5.57292
9486.466	6.50089	-6.34235	5.50274	-6.22426
9490.469	5.99669	-6.61603	4.73150	-6.52732
9494.461	5.19059	-6.87035	4.19203	-5.10541
9498.466	4.73712	-6.86290	3.59782	-6.76221
9502.468	5.05572	-5.95953	4.75536	-8.41324
9506.459	3.87586	-5.20285	5.40931	-8.64663
9510.468	3.71204	-4.68783	5.58339	-7.78050
9514.463	3.31976	-5.99331	5.09278	-5.63929
9518.461	3.35813	-6.07563	4.72803	-5.16113
9522.462	3.50091	-6.32680	5.28195	-6.57667
9526.465	3.47569	-6.67637	3.57268	-6.51575
9530.468	3.15308	-6.90981	4.65008	-7.39514
9534.471	2.98198	-6.94605	4.56567	-7.22717
9538.462	4.12313	-6.69708	5.04331	-6.66363
9542.465	2.77671	-6.14499	5.07781	-7.47068
9546.501	2.84648	-6.78613	4.82668	-7.45762
