time (ms)	lx (deg)	ly (deg)	rx (deg)	ry (deg)
0.000	0.58250	-6.45131	-1.82911	-5.98792
3.987	-2.69037	-12.46808	-1.85244	-5.07268
7.977	-0.83575	-8.51798	-1.72394	-8.85169
11.979	0.36553	-8.05071	-1.66294	-7.61995
15.976	-2.63537	-9.64324	-1.83209	-4.83446
19.978	0.78407	-7.42483	-1.83033	-8.66096
23.992	-0.63841	-8.81742	-1.85048	-5.70773
27.981	0.91914	-9.07023	-1.72473	-9.14524
31.981	-1.77640	-9.05995	-1.92820	-5.34251
35.985	-0.58158	-7.99540	-1.85033	-8.69854
39.981	-0.72558	-8.91240	-1.54564	-9.04914
43.984	-0.27165	-8.00257	-1.55236	-6.19261
47.979	-0.04316	-8.40611	-1.84899	-7.11086
51.981	0.36422	-7.27943	-1.96997	-8.57504
55.980	-3.85941	-10.32275	-1.96613	-8.87420
59.983	0.66873	-6.68789	-1.68315	-8.75048
63.980	0.21765	-9.08181	-1.58480	-7.25546
67.876	-0.72526	-8.82697	-1.55241	-7.01459
71.981	-1.02556	-7.59939	-2.52262	-2.19453
75.988	-1.20576	-5.49350	-3.40551	-2.05010
79.981	-0.82307	-5.73689	-2.06173	-2.06098
84.003	-0.92745	-3.82099	-1.59941	-0.80621
87.988	2.80117	-3.22652	-0.97581	0.55940
91.981	-1.47908	-1.57146	-1.45842	1.96667
95.859	-1.20628	-0.40254	-2.26549	2.07389
99.858	-1.33981	-1.39249	-1.77913	2.28230
103.858	-1.83385	-1.48670	-1.98965	0.72971
107.850	-2.34959	-0.87329	-1.87723	1.62703
111.859	-1.30000	-1.04395	-2.98693	-0.38458
115.855	-1.31816	-0.85318	-1.94379	2.06281
119.861	-1.91838	-0.42738	-2.01025	0.44556
123.875	-1.22739	-0.72949	-2.51190	1.75638
127.857	-1.85038	1.12585	-2.00480	1.48499
131.855	-1.57461	0.97852	-2.47246	1.42264
135.854	-1.71670	-0.51999	-1.93797	1.06574
139.857	-2.08838	-0.03812	-1.88712	1.93476
143.851	-1.26654	-0.75635	-1.94674	0.88127
147.859	-2.08211	0.09926	-1.44505	1.45449
151.855	-1.16468	-0.86582	-2.05035	0.65579
155.857	-1.66076	-0.15805	-1.92181	2.11185
159.850	-1.71218	-0.19980	-1.84409	0.45238
163.870	-1.48463	0.43871	-1.71662	1.25444
167.859	-2.27880	1.06573	-1.69497	2.44652
171.849	-1.98564	0.07274	-0.87297	0.99499
175.855	-1.66762	1.04139	-0.38534	1.29005
179.853	-1.17292	0.36349	-0.41224	0.92928
183.895	-1.65195	1.02464	0.32913	1.46898
187.862	-1.54663	1.22567	0.81094	1.00676
191.855	-1.27825	1.11687	-1.56015	2.45561
195.857	-1.40842	0.24988	-1.55008	1.39102
199.852	-0.26937	0.79790	-1.22035	0.06825
203.855	-1.14769	1.20889	-1.05838	2.74671
207.854	-0.53066	0.99233	-1.28060	1.06343
211.862	-1.24044	0.99997	-1.19678	3.57261
215.853	-0.78776	1.10920	-1.05143	0.88029
219.855	-1.06193	1.05596	-1.14786	3.24191
223.852	-0.92879	1.36013	-0.45453	0.81567
227.855	-0.79938	0.80123	-1.19616	3.12294
231.852	-0.81707	1.54402	0.81173	1.03495
235.853	-0.71074	0.92357	-1.05265	1.50931
239.855	-0.89500	1.10296	2.48200	1.24167
243.853	-0.28900	0.26509	-0.88892	1.90795
247.855	-1.14365	1.07416	2.57191	1.27662
251.882	-0.56158	-0.04505	-0.74980	1.71942
255.860	-0.93835	0.61389	2.51433	1.48161
259.850	-0.51036	-0.51929	-0.75498	1.64248
263.857	-1.14392	0.71287	2.46654	1.61198
267.852	-0.21073	-0.28037	-0.74198	2.59293
271.855	-1.32287	0.99415	-0.81133	0.93040
275.850	-1.52288	0.06935	2.56748	1.63755
279.857	-1.68459	-0.25188	-0.73451	1.95548
283.876	-1.74204	1.17530	-0.74895	0.66853
287.851	-1.40795	0.41751	-1.85814	1.98904
291.861	-1.29588	-0.35112	-1.21204	2.15893
295.854	-0.84932	-0.47418	-0.74379	1.83197
299.852	0.16506	-0.69532	-1.22777	1.43585
303.849	0.73704	-0.58823	-1.69173	0.99388
307.856	0.55314	-0.59106	-1.31389	1.49462
311.852	-0.35124	-0.40938	-1.22057	1.16614
315.855	0.29518	-0.41507	-1.39433	1.50189
319.889	0.26882	-0.22737	-1.07128	1.44973
323.847	1.00293	-2.07100	-1.05054	1.88250
327.860	1.71913	-2.45651	-1.04513	2.18686
331.856	1.05746	-1.38071	-0.93996	3.03087
335.854	0.98365	-0.19205	0.09123	1.07358
339.852	1.91794	-3.07190	-1.15111	0.21763
343.854	2.16815	-1.71457	-1.12792	1.56272
347.862	2.18419	-0.31016	-0.70762	2.27719
351.854	6.57916	-0.06065	-0.17893	1.09397
355.849	1.88940	-1.66637	-0.89416	0.79905
359.874	6.37650	-0.36667	-0.86637	2.13470
363.852	5.96456	1.66288	-1.10259	0.91840
367.853	5.41258	-0.61057	-0.96246	1.17461
371.854	5.02684	1.18607	-1.03268	1.33769
375.854	5.89181	-1.39930	-1.09529	1.00347
379.851	5.85824	-0.03656	-1.14580	1.95329
383.848	3.66990	-1.14495	-1.01903	0.84234
387.850	3.51411	1.67973	-0.92262	2.41603
391.853	3.57496	-1.25777	-0.88165	-0.00894
395.852	1.83293	0.70222	-1.11757	1.61833
399.846	-0.44041	-0.10854	-0.93668	0.44918
403.853	-0.21750	-0.33180	-1.23821	1.16104
407.850	-0.49202	-0.02164	-0.84458	2.17364
411.848	-1.08068	-0.21073	-0.45959	1.17198
415.859	-1.68764	-0.33941	-0.97512	0.98577
419.853	-1.18396	-0.94249	-0.60880	1.01515
423.849	-0.44815	-0.42284	-0.59223	0.44648
427.850	1.06217	-0.37970	-0.63183	0.71709
431.849	2.05199	-0.82192	-0.96259	0.79953
435.852	1.95653	-0.85229	-1.17175	0.90509
439.846	0.85773	-0.61403	-0.89026	0.82585
443.853	1.29625	-0.87244	-1.05550	0.61598
447.849	-0.29329	-0.49572	-1.17694	0.53622
451.852	0.19777	-0.46884	-1.03744	0.89549
455.857	0.87188	-0.43967	-1.03630	0.85828
459.851	0.87356	-0.83942	-1.18172	0.58634
463.846	0.40514	-1.36385	-0.98737	0.95157
467.852	0.04705	-1.61365	-0.78372	1.19866
471.868	-2.87279	-4.06551	-0.66307	0.97919
475.851	-2.78228	-4.71020	-0.82751	0.43021
479.853	-3.83633	-1.37860	-0.43465	0.36455
483.849	-3.60450	-2.94078	-1.11390	1.86489
487.865	-3.15748	-4.80850	-0.91852	1.35110
491.851	-3.26678	-1.31017	-0.40879	0.16020
495.861	-3.16084	-2.14146	3.24244	1.02960
499.854	-2.81778	-3.95323	-0.63322	1.71683
503.850	-2.33802	-5.73802	-0.36442	1.09102
507.848	-2.04743	-2.12081	-1.09998	2.02116
511.853	-1.67620	-3.41750	-0.76144	1.51668
515.849	-1.29752	-4.11572	-0.94559	0.59526
519.852	NaN	NaN	-0.80736	0.80242
523.865	NaN	NaN	NaN	NaN
527.866	NaN	NaN	NaN	NaN
531.849	NaN	NaN	NaN	NaN
536.067	2.29248	-0.73726	2.71897	6.53427
539.853	2.43090	-0.25991	-0.00189	6.45164
543.851	1.45165	-0.79343	0.52863	6.11129
547.850	-0.49329	-0.48801	1.63985	5.72019
551.844	-0.31712	-0.71720	1.70162	5.77723
555.847	-0.18231	-0.77221	3.03779	5.49722
559.847	-0.03708	-0.83520	3.79989	5.26097
563.852	0.09612	-0.86389	3.90439	5.40926
567.842	0.39157	-0.82472	4.08523	5.37617
571.879	0.21281	-0.85646	4.16492	5.37263
575.848	0.12136	-0.89241	4.23192	5.32098
579.851	0.22249	-0.92415	4.58686	5.52363
583.848	0.24924	-0.94929	4.33828	5.70625
587.851	0.12662	-0.86535	-1.01069	6.75186
591.846	-0.30868	-0.91190	-0.75221	3.59751
595.850	-0.19033	-0.68548	-0.61982	4.65086
599.852	0.05284	-0.08252	0.02102	4.85626
603.847	2.97794	-0.69245	-0.03941	5.03949
607.847	1.41152	-0.79359	0.25825	5.79175
611.844	0.46892	-0.79070	0.35402	6.12183
615.851	-0.08061	-0.90476	0.45649	2.86613
619.845	-0.49932	-0.48204	0.53473	3.18150
623.849	0.54319	-0.60898	-0.07167	4.75048
627.854	3.01537	-0.63585	0.35223	5.30898
631.844	0.72513	-0.85729	0.25254	5.76313
635.851	-0.67553	-0.98130	0.44500	2.61234
639.843	-0.66166	-0.58079	-0.37179	3.13949
643.845	-1.33644	-0.32623	0.15799	4.38654
647.851	-0.18042	-0.94167	0.22974	4.92110
651.848	2.67548	-0.82543	0.27736	5.23658
655.842	1.59246	-1.42185	0.22445	5.38585
659.868	1.05195	-1.03418	0.03316	5.59200
663.857	0.77461	-1.19059	0.01536	5.81252
667.845	1.51358	-1.34881	0.03167	6.05044
671.849	1.31751	-1.59041	0.08354	6.23669
675.840	1.17815	-1.43585	-0.27307	6.26243
679.849	1.38066	-1.48360	-0.12240	6.16912
683.845	1.17078	-1.43464	-0.18626	6.08036
687.844	-2.61558	-1.55346	2.03533	5.88148
691.842	-0.20844	-1.29379	2.33430	5.64355
695.849	-0.51649	-1.47397	2.88344	5.07420
699.845	0.82855	-1.54084	1.61833	4.62629
703.853	0.88942	-1.79437	1.87213	4.13086
707.844	1.11348	-1.75243	0.78151	7.01591
711.849	-0.24500	-1.15907	-0.19457	6.60792
715.845	1.22231	-1.91470	3.77021	6.05387
719.849	1.62024	-1.73377	4.46909	5.38503
723.864	-0.06058	-1.75142	4.61800	7.81514
727.846	0.70424	-2.26690	4.82651	7.77617
731.854	-0.10456	-0.79512	1.58641	7.86054
735.845	-2.10059	-0.25346	2.38397	7.60033
739.844	-1.79475	-0.84959	2.02212	6.94377
743.842	-2.19683	-1.68441	3.08345	6.37862
747.852	0.19129	-1.79642	2.97017	9.57986
751.857	0.23445	-1.87525	2.67489	8.84333
755.847	2.04547	-1.95529	3.37811	8.24080
759.843	0.56193	-1.36752	4.08964	7.95191
763.847	0.37812	-0.94324	4.04011	10.73625
767.845	0.21547	-0.97617	4.29636	10.83938
771.844	0.28577	-1.51615	5.17427	10.67230
775.842	-1.93618	-1.24396	2.07056	10.57543
779.847	-0.88513	-1.48671	2.17802	10.54608
783.845	0.34898	-1.50536	3.13729	10.55596
787.871	0.33141	-1.55890	2.28346	10.53903
791.851	0.63665	-1.77693	3.66676	10.57646
795.844	0.76295	-1.83978	3.65621	10.48159
799.843	0.82436	-2.24659	4.21010	10.43782
803.846	0.49004	-0.68481	4.41805	10.29685
807.844	-0.44902	-0.82707	-1.26542	10.53820
811.842	-1.27445	-1.42036	1.46628	10.50009
815.840	0.34774	-1.59592	1.57267	10.49939
819.846	0.80024	-1.97515	1.15540	10.59434
823.855	0.51550	-2.07106	2.12823	10.60298
827.845	0.77278	-1.91119	2.62553	10.75858
831.852	0.64325	-2.26549	0.56235	10.92085
835.844	0.53704	-2.19341	0.52423	11.06624
839.842	0.62456	-1.86878	0.52458	11.17892
843.841	0.15563	-1.73560	2.41965	11.27521
847.846	-0.59754	-1.15499	2.65270	11.41958
851.842	0.22403	-1.51576	2.53786	11.56434
855.840	0.21472	-1.46587	2.82130	11.82655
859.847	0.17712	-1.05184	3.13219	12.01298
863.841	0.02266	-0.84426	-0.06884	10.53856
867.842	1.11990	-1.05788	-0.54478	10.40004
871.851	3.09710	-1.70402	-0.53754	10.85107
875.842	3.26050	-1.49475	3.13868	10.43886
879.841	1.95106	-1.30812	3.23566	11.08306
883.846	1.72974	-0.93658	3.52326	11.22153
887.841	-0.15677	-1.14450	-0.87443	9.22171
891.840	-0.21676	-0.79365	-0.57885	9.92910
895.839	1.55484	-1.15947	-0.87679	10.18317
899.846	1.73680	-0.96274	-0.99496	10.64473
903.841	1.21030	-0.82741	3.58482	10.84744
907.840	-0.44899	-1.42774	3.51367	11.12150
911.840	-0.69136	-1.09330	-0.65178	9.74441
915.848	-0.49753	-0.89804	-1.01042	10.34793
919.842	-0.66064	-1.06141	-1.02903	11.13024
923.844	0.98092	-1.04918	3.47240	11.45089
927.847	-1.73190	-0.70479	-0.85927	9.73340
931.843	-1.68915	-0.43767	-0.61776	10.67593
935.840	-1.86883	-0.98087	-2.28227	-0.29731
939.846	-1.64253	-0.79979	-5.38403	-0.21397
943.842	-1.31530	2.83860	-0.64449	2.28159
947.845	-0.08639	-0.70379	2.24393	7.73940
951.713	2.77404	-3.01981	NaN	NaN
955.720	NaN	NaN	NaN	NaN
959.722	NaN	NaN	NaN	NaN
963.720	NaN	NaN	NaN	NaN
967.716	NaN	NaN	NaN	NaN
971.718	NaN	NaN	NaN	NaN
975.719	NaN	NaN	NaN	NaN
979.734	NaN	NaN	NaN	NaN
983.716	NaN	NaN	NaN	NaN
987.713	NaN	NaN	NaN	NaN
991.711	NaN	NaN	NaN	NaN
995.722	NaN	NaN	NaN	NaN
1000.465	NaN	NaN	NaN	NaN
1004.281	NaN	NaN	NaN	NaN
1008.168	NaN	NaN	NaN	NaN
1012.346	NaN	NaN	NaN	NaN
1016.184	NaN	NaN	NaN	NaN
1020.327	NaN	NaN	NaN	NaN
1023.891	NaN	NaN	NaN	NaN
1027.916	NaN	NaN	NaN	NaN
1031.785	-4.43818	14.79009	11.94263	9.33683
1035.727	8.05287	6.22117	10.81374	7.98469
1039.720	5.06833	1.60237	9.49023	5.70730
1043.718	4.13268	0.93553	12.65160	9.51520
1047.713	3.88209	2.41313	NaN	NaN
1051.718	14.76440	-5.12985	9.97351	9.14411
1055.714	8.21434	-1.11597	12.55200	9.23183
1059.717	8.24806	0.92729	1.89917	2.87416
1063.712	8.77148	-1.00461	4.39942	2.97000
1067.732	8.66210	-2.95933	7.93837	3.00577
1071.715	10.41268	-1.94394	3.52816	0.75706
1075.719	10.16177	-1.19873	4.46364	2.64671
1079.713	6.61401	-1.57122	1.37349	2.38797
1083.720	7.33203	0.16335	1.56771	1.87211
1087.715	10.00129	-1.18553	-0.07212	-0.82533
1091.713	6.71495	-0.90766	0.67816	0.81044
1095.716	6.32257	-1.86217	3.28318	2.15924
1099.724	7.35815	-0.98559	2.38853	1.66105
1103.717	5.59442	-0.86450	2.61194	0.02490
1107.713	5.43064	-1.10662	2.82813	1.42297
1111.712	6.01093	-1.94003	4.09755	1.85495
1115.718	5.63913	-1.72472	4.34228	0.99461
1119.714	6.36410	-0.66336	3.78195	0.76342
1123.713	5.98375	-0.79007	2.73605	1.39612
1127.720	5.56512	-1.00308	2.95893	1.64064
1131.714	5.50904	-1.84660	3.55493	1.75296
1135.734	5.68403	-1.75657	3.72511	1.44908
1139.717	5.64488	-1.33330	3.99998	1.01130
1143.712	5.98638	-0.35476	4.07982	0.28216
1147.712	5.70089	-0.25933	6.02219	0.22075
1151.712	5.55477	-0.44713	7.12598	0.72663
1155.716	5.56482	-0.85413	6.43981	1.52629
1159.714	5.48887	-0.50481	3.89345	2.21506
1163.708	5.48553	-0.91377	3.66412	2.47235
1167.714	5.48263	-0.82245	4.05700	1.81899
1171.711	5.32392	-0.90808	7.37731	0.02203
1175.715	5.34235	-0.69641	7.47461	0.04834
1179.710	5.13973	-0.61158	4.30694	2.03647
1183.716	5.01329	-0.59853	5.05366	1.28019
1187.711	4.99150	-0.37498	4.51465	1.54055
1191.715	4.88651	-0.42577	4.65769	0.55712
1195.717	4.78370	-0.42749	3.78610	0.34001
1199.715	4.54627	-0.88757	3.47161	0.86741
1203.733	4.48300	-1.62948	3.37235	1.46540
1207.712	4.36853	-1.17436	4.29285	1.68994
1211.716	4.33979	-0.49887	4.59174	2.06878
1215.716	4.15759	-0.25178	4.70468	1.74213
1219.715	3.64442	-1.31396	3.84666	1.31896
1223.741	3.20785	-1.33993	4.00183	1.49481
1227.713	3.17079	-0.60591	4.12912	1.94227
1231.713	3.66582	0.12337	3.98813	1.68665
1235.708	3.88406	-1.82170	3.83967	1.54012
1239.714	3.85239	-0.53398	3.87826	1.83747
1243.711	5.25335	-1.09364	3.99778	1.54577
1247.711	5.50825	-1.71227	3.69123	1.84066
1251.720	5.21717	-4.69186	3.92719	1.65329
1255.710	5.37119	-3.53253	3.80221	1.28649
1259.712	6.47255	-1.89233	9.44590	1.47090
1263.708	5.57525	-1.49706	9.18748	2.25622
1267.710	5.46655	-0.39797	9.11733	3.68967
1271.708	5.84669	-1.03157	8.84181	1.24854
1275.714	4.98967	-2.10550	8.62016	1.80968
1279.708	5.15025	-1.47193	8.68875	-0.79658
1283.711	4.90676	-0.53305	8.65705	0.90170
1287.712	4.52789	-1.88090	5.92348	2.19444
1291.713	4.55334	-1.36741	8.23909	-0.96542
1295.714	4.29352	-0.62429	4.81214	1.32045
1299.708	4.81589	-0.73305	5.26192	1.17228
1303.712	3.90891	-0.68079	2.77772	-0.30702
1307.705	4.70818	-1.95236	2.75534	1.23778
1311.714	4.74853	-1.52549	3.83863	0.96598
1315.708	4.67256	-1.07165	4.01302	1.79084
1319.710	4.84755	-0.65258	3.28758	1.78497
1323.721	5.95452	-0.60038	3.46941	0.80401
1327.712	5.87869	-0.69102	3.49404	1.90132
1331.705	6.12134	-0.73249	3.38842	2.22217
1335.717	6.46544	-0.79251	3.48365	2.15018
1339.719	5.40548	-0.82184	3.54222	2.10271
1343.713	6.19562	-1.36432	3.31271	1.79058
1347.721	7.02101	-1.03602	3.33940	0.79459
1351.717	6.34304	-1.38410	3.72548	2.15171
1355.712	5.82144	-0.79505	3.71473	0.69698
1359.708	5.39888	-1.25612	3.55819	2.13522
1363.708	5.58474	-0.98754	3.56603	1.88851
1367.707	5.93627	-1.20606	3.26418	1.98649
1371.712	5.80246	-1.05350	3.49871	2.22236
1375.712	4.62983	-0.68550	3.72924	0.86387
1379.713	4.51430	-1.49565	3.84085	2.09398
1383.709	4.08769	0.45717	3.42458	1.92881
1387.705	4.88739	-0.78750	3.76650	1.19011
1391.707	5.57958	-1.60072	3.76841	2.12858
1395.707	5.06865	-0.18302	3.72079	1.30726
1399.708	4.95960	-0.57284	3.64808	1.77845
1403.707	5.50311	-1.57483	3.63436	1.93412
1407.707	5.76006	-0.30160	3.43734	1.50471
1411.712	5.15057	-1.08976	3.78820	2.71100
1415.715	4.74449	-1.16962	3.87687	1.68462
1419.714	4.64288	0.17758	3.93786	0.93254
1423.731	4.53601	-0.26438	3.71130	3.11773
1427.711	4.40562	-1.13295	3.72338	1.62016
1431.705	3.97659	-1.44219	3.65596	1.05861
1435.709	4.19882	0.28740	4.74691	1.47672
1439.705	4.15831	-1.12895	3.97499	2.12090
1443.711	4.85847	-1.48924	4.12137	1.70638
1447.706	5.78575	-1.62468	3.89340	1.79924
1451.710	5.29137	-0.90355	3.78422	3.86638
1455.705	3.22079	-0.36207	2.91535	1.23309
1459.715	2.75752	-0.68615	0.00390	1.88773
1463.709	-0.63456	-1.60702	-0.75905	1.15178
1467.709	-0.03405	-1.16295	-0.43740	1.33603
1471.704	-0.76320	-1.84532	-3.81909	2.24021
1475.704	-2.94173	-1.28515	-3.99361	1.46663
1479.709	-3.75751	-2.26517	-4.12424	1.22830
1483.704	-4.57268	-2.17204	-4.13549	0.03381
1487.711	-4.70158	-2.26220	-4.01339	0.47382
1491.720	-4.74612	-2.14885	-4.10300	0.46492
1495.715	-4.66435	-2.50911	-4.12322	0.64026
1499.709	-4.59125	-2.92115	-4.20558	0.69625
1503.715	-5.08084	-3.22009	-4.22143	0.72327
1507.707	-4.78269	-3.03282	-4.28330	0.74719
1511.709	-4.83558	-3.06177	-4.91799	-0.01867
1515.704	-4.23083	-2.91636	-5.06727	0.11126
1519.707	-4.59009	-2.54866	-4.97694	0.46846
1523.719	-4.26005	-2.35668	-5.05740	0.49887
1527.709	-4.19743	-1.90648	-5.18877	0.17984
1531.709	-4.11999	-0.91032	-5.24629	0.27727
1535.707	-4.06493	-2.52751	-5.35426	0.22269
1539.703	-4.09056	-2.74548	-4.89592	0.28281
1543.710	-4.06090	-3.11950	-5.09574	0.47078
1547.707	-3.96138	-2.68589	-5.35999	0.01113
1551.709	-4.02621	-2.33954	-5.41866	0.36689
1555.704	-3.96128	-1.88624	-5.39160	0.08377
1559.710	-3.94515	-1.29904	-5.14552	0.10818
1563.707	-3.92037	-1.46005	-4.62784	0.05122
1567.708	-3.97634	-2.43587	-4.68489	0.20070
1571.704	-4.08713	-2.94646	-4.64391	0.87366
1575.709	-4.13433	-2.57479	-3.10906	-0.04166
1579.706	-4.20454	-1.81190	-3.09273	-0.08665
1583.712	-4.33458	-1.64506	-3.92667	-0.66389
1587.703	-4.43172	-1.57934	-4.50281	-0.29707
1591.708	-4.58562	-1.88332	-4.30040	0.03439
1595.706	-4.59670	-1.68325	-4.35176	1.15084
1599.707	-4.36224	-1.83927	-4.66253	1.54558
1603.709	-4.55763	-1.72396	-3.54079	0.05707
1607.705	-4.54866	-1.88248	-4.67103	-0.27473
1611.707	-4.38186	-0.99512	-4.90060	-0.50776
1615.709	-2.67378	-1.44920	-5.06025	-0.35717
1619.702	-3.39639	-1.45919	-4.68099	-0.02274
1623.705	-3.72600	-2.32041	-4.68573	0.14295
1627.712	-3.82620	-1.87332	-3.76132	-0.42382
1631.708	-4.12582	-2.03759	-4.24083	-0.46193
1635.711	-4.02932	-2.12215	-4.32923	-0.26200
1639.706	-3.95014	-2.31971	-4.49016	-0.30872
1643.707	-3.67670	-2.38016	-4.44684	-0.38521
1647.734	-4.04710	-2.48992	-4.72586	-0.31847
1651.706	-4.30003	-2.42399	-4.71427	-0.37382
1655.703	-4.01895	-2.59744	-4.80455	-0.21404
1659.706	-4.36069	-2.86018	-4.74548	-0.32604
1663.708	-4.28167	-1.57278	-4.80140	-0.32277
1667.710	-4.21422	-1.48720	-4.76643	-0.45435
1671.702	-4.07537	-1.39470	-5.04203	-0.14802
1675.706	-4.39422	-2.41377	-5.08197	-0.18940
1679.702	-4.31257	-2.74893	-5.10492	-0.11091
1683.702	-4.53514	-0.86953	-5.16196	-0.25478
1687.707	-3.97983	-0.88548	-5.23957	0.72337
1691.705	-4.48266	-2.36256	-5.20792	-0.29119
1695.705	-4.48988	-2.83532	-5.31745	0.14145
1699.701	-4.21163	-0.65610	-5.30139	0.82863
1703.706	-4.58989	-1.24343	-5.02639	0.55196
1707.708	-4.99275	-2.32746	-5.63751	0.43693
1711.712	-4.30453	-0.23126	-5.33687	0.53870
1715.701	-1.55162	-0.44080	-5.33490	1.40936
1719.705	2.86898	-0.20527	-2.23811	1.17999
1723.702	3.93870	2.22058	0.42264	-0.93362
1727.707	1.76688	4.42660	-8.21964	10.90771
1731.700	1.58726	10.14335	NaN	NaN
1735.701	NaN	NaN	7.10367	14.65058
1739.701	NaN	NaN	NaN	NaN
1743.701	NaN	NaN	NaN	NaN
1747.779	NaN	NaN	NaN	NaN
1751.721	NaN	NaN	NaN	NaN
1755.708	NaN	NaN	NaN	NaN
1759.706	NaN	NaN	NaN	NaN
1763.705	NaN	NaN	NaN	NaN
1767.704	NaN	NaN	NaN	NaN
1771.701	NaN	NaN	NaN	NaN
1775.852	NaN	NaN	NaN	NaN
1779.700	NaN	NaN	NaN	NaN
1783.837	NaN	NaN	NaN	NaN
1788.076	NaN	NaN	NaN	NaN
1792.015	NaN	NaN	-10.66517	14.77707
1795.710	NaN	NaN	NaN	NaN
1799.702	NaN	NaN	NaN	NaN
1803.697	NaN	NaN	NaN	NaN
1807.575	2.47871	5.23583	NaN	NaN
1811.578	0.55354	5.54044	-11.46993	11.93162
1815.586	0.58173	-0.15512	-5.86266	7.99898
1819.583	-0.52801	9.63764	-8.50530	0.67939
1823.581	-5.78593	1.07936	-15.24041	1.54943
1827.575	-8.50207	1.43236	-16.85971	1.92930
1831.579	-9.00687	2.85356	-15.60834	-0.59610
1835.572	-9.13257	2.99583	-8.07720	2.26571
1839.585	-3.21342	-0.31481	-8.11508	2.56403
1843.579	-8.20829	1.61367	-11.42661	2.67346
1847.593	-7.62618	1.33740	-10.67370	3.35135
1851.585	-8.19924	1.43382	-8.41896	1.92869
1855.576	-8.81661	1.38883	-8.44506	1.79663
1859.576	-7.79624	1.40431	-8.42071	2.56467
1863.608	-7.59788	1.33028	-8.37172	3.03127
1867.578	-7.75234	1.34247	-8.75499	2.04931
1871.576	-7.72293	1.55894	-8.49454	1.83713
1875.576	-8.70042	1.47109	-8.53025	2.62405
1879.578	-8.04124	0.32822	-8.76484	3.05744
1883.583	-7.86639	1.33086	-8.69821	2.38512
1887.577	-8.01983	1.54037	-8.55850	1.68847
1891.575	-7.98369	1.53261	-8.35447	1.89701
1895.571	-8.26692	0.75679	-8.56306	2.92841
1899.578	-7.85892	0.96076	-8.54207	2.29468
1903.576	-8.12610	1.67825	-8.43661	2.10759
1907.574	-8.11685	1.90029	-8.54214	2.12478
1911.572	-7.86797	1.46377	-8.56530	2.66721
1915.578	-8.10104	0.48707	-8.61344	2.84262
1919.576	-8.29280	1.06668	-8.54566	2.50083
1923.613	-8.25620	1.46224	-8.52091	1.91858
1927.586	-8.22837	1.99146	-8.39615	2.01548
1931.577	-8.14305	1.34633	-8.42262	2.63197
1935.573	-8.38614	0.85593	-8.64728	2.72279
1939.578	-8.58983	0.46378	-8.80224	2.08167
1943.578	-8.76532	0.39549	-8.89024	2.36467
1947.577	-8.92420	0.82882	-8.60788	1.73335
1951.577	-8.96598	0.90561	-8.64968	2.20685
1955.577	-8.86066	1.04416	-8.81249	1.69982
1959.576	-8.98160	1.07208	-8.83631	1.75871
1963.581	-9.06777	1.25419	-8.97990	1.71270
1967.573	-9.13393	1.16661	-8.96053	1.62539
1971.577	-9.21672	0.96076	-9.01382	1.97629
1975.590	-9.34771	1.02943	-9.19227	1.76749
1979.577	-9.39018	1.00053	-9.18085	1.87714
1983.577	-9.51001	0.66192	-9.21246	1.67873
1987.573	-9.35051	0.75762	-9.26797	1.41920
1991.577	-9.16458	0.37384	-6.63480	1.54111
1995.571	-9.25973	0.20942	-9.36469	3.77300
1999.576	-9.34053	0.86781	-9.31330	3.43904
2003.574	-8.75204	1.28124	-9.29282	2.77714
2007.581	-8.30046	1.06669	-9.21909	1.54593
2011.569	-8.68155	0.47706	-9.06874	0.82149
2015.576	-8.64046	0.26137	-9.27293	3.78117
2019.591	-8.32570	1.04939	-9.08423	2.41066
2023.571	-8.63178	1.41641	-8.96641	1.80767
2027.578	-8.78401	0.83066	-8.73162	1.96329
2031.573	-8.80939	0.42938	-8.88780	3.37093
2035.572	-8.90173	-0.01458	-8.94830	3.33483
2039.579	-8.86241	1.41229	-8.51321	2.35290
2043.572	-9.15069	1.02024	-8.63250	2.31152
2047.580	-9.30977	0.34769	-8.83818	2.15022
2051.572	-9.36926	0.07657	-9.23594	2.80903
2055.578	-10.55462	0.85516	-8.88331	2.18144
2059.574	-8.69219	0.87074	-9.05057	2.30077
2063.576	-8.97506	1.89170	-8.10746	2.16418
2067.603	-8.55260	1.39725	-7.48366	2.78264
2071.575	-8.23775	0.61384	-9.04306	3.09730
2075.572	-8.65722	0.66949	-8.55464	2.84137
2079.575	-8.32721	1.11164	-8.93886	2.28562
2083.569	-8.20841	0.83026	-8.98566	1.99135
2087.603	-8.42411	0.87293	-9.16170	1.01965
2091.580	-8.39409	1.50541	-8.86672	2.18867
2095.614	-8.87428	1.06248	-8.07307	2.36776
2099.573	-8.59473	1.56320	-8.71431	2.71635
2103.570	-8.73652	1.38045	-8.41541	2.72226
2107.573	-8.85247	1.27751	-8.75175	2.67456
2111.571	-8.82681	1.36735	-8.65266	2.54296
2115.574	-8.75099	1.38969	-8.47415	2.47453
2119.574	-8.88259	1.45672	-8.47485	2.41722
2123.582	-8.83023	1.48034	-8.25904	2.66018
2127.573	-9.04367	1.56295	-8.30089	2.33185
2131.581	-8.99988	1.60598	-8.21808	2.44314
2135.570	-9.08573	1.60969	-8.28259	2.14197
2139.574	-9.07920	1.56387	-8.29074	2.36630
2143.568	-9.04418	1.45860	-8.33914	2.47399
2147.575	-8.86905	0.63440	-8.31618	1.75927
2151.571	-8.88264	1.06206	-8.08628	2.11396
2155.582	-8.73094	1.54502	-6.21630	2.48641
2159.578	-5.57520	0.86277	-4.48976	2.57606
2163.574	-4.85679	0.56523	-3.63799	2.80890
2167.574	-4.96361	0.71291	-3.08812	2.87100
2171.582	-1.18527	1.14738	-3.79205	2.81929
2175.573	-1.34926	1.28344	-3.95214	3.20224
2179.573	-1.54187	1.11379	-4.42037	3.39192
2183.567	-2.81197	0.63043	-5.19411	3.19767
2187.574	-3.87734	0.63052	-5.50287	2.86692
2191.570	-4.11434	0.86647	-5.36218	2.85212
2195.571	-4.11713	0.67980	-5.24309	3.44024
2199.575	-4.31588	0.74669	-4.72657	2.47861
2203.570	-4.06396	0.97605	-4.57519	2.95511
2207.572	-3.80391	1.10787	-4.21054	2.84356
2211.568	-3.77169	1.23714	-4.14534	3.02642
2215.578	-3.73057	1.05093	-3.95100	2.45492
2219.569	-3.86195	-0.80869	-4.13011	2.52135
2223.617	-3.87630	-0.04438	-4.19531	2.76648
2227.582	-3.99907	0.04752	-4.09113	2.73829
2231.569	-4.03409	0.01762	-4.20333	2.97452
2235.573	-4.11540	-0.05145	-4.09377	2.79260
2239.570	-4.10626	0.20190	-4.18371	2.28598
2243.572	-4.09016	0.12041	-4.28227	2.59515
2247.568	-4.04409	-0.15219	-4.61381	2.48274
2251.569	-4.26482	-0.18045	-5.05090	2.66061
2255.576	-4.12537	-0.07658	-4.98130	2.74653
2259.567	-4.19178	-0.14428	-5.23285	2.80480
2263.573	-4.28858	-0.08628	-5.24816	2.94014
2267.569	-4.25956	-0.08733	-5.13040	2.99455
2271.572	-4.10061	-0.00037	-5.12550	2.99494
2275.569	-4.16480	0.01482	-5.16278	2.84306
2279.573	-4.23782	0.15959	-5.21840	2.91325
2283.569	-4.10340	0.03334	-5.16300	2.84933
2287.569	-4.14265	0.16367	-5.20019	2.72431
2291.569	-4.14465	0.20117	-5.11568	2.66839
2295.570	-4.10135	0.24010	-5.02782	2.44162
2299.576	-4.06814	0.25614	-4.96292	2.53479
2303.569	-4.05068	0.32213	-4.89577	2.40138
2307.570	-4.07782	0.39243	-4.87926	2.28339
2311.566	-4.09964	0.42841	-4.78617	2.17882
2315.569	-4.17295	0.49181	-4.69539	2.44223
2319.569	-4.15685	0.46387	-4.65947	2.38463
2323.568	-4.11737	0.47108	-4.59492	2.67776
2327.571	-4.10905	0.30163	-4.60306	2.67403
2331.568	-4.16393	0.46005	-4.57315	2.47143
2335.583	-4.18507	0.35134	-4.64290	2.52291
2339.573	-4.19933	0.14693	-4.70712	2.51756
2343.574	-4.20610	0.10535	-4.72181	2.46780
2347.577	-4.31941	0.26989	-4.75506	2.34875
2351.575	-4.47960	0.27857	-4.57467	2.38585
2355.567	-4.65205	0.00545	-4.42673	2.93009
2359.584	-4.84896	0.19464	-4.48369	3.01987
2363.572	-5.12637	0.42210	-4.43942	2.83411
2367.565	-4.31556	0.23750	-4.30554	2.85844
2371.571	-4.83959	0.91111	-4.18188	2.53704
2375.566	-3.87840	0.71036	-4.05159	2.88362
2379.574	-4.38563	1.72637	-4.12574	2.33685
2383.565	-4.36989	1.10125	-4.23034	2.36301
2387.569	-3.91215	1.48097	-4.18176	2.51191
2391.567	-3.80078	1.26077	-3.01061	2.56600
2395.565	-3.51429	1.61515	-2.99084	2.69907
2399.569	-3.63601	1.47178	0.15295	2.74791
2403.566	-3.45230	1.53510	0.15491	2.70591
2407.570	-3.24654	1.56649	0.05078	2.61056
2411.565	-3.20135	1.51866	-2.48309	3.11260
2415.567	-0.36717	1.27261	-2.26599	3.20446
2419.565	-2.98864	1.10464	-4.01433	3.84593
2423.584	-3.28078	1.24553	-4.36520	3.85920
2427.580	-2.82291	1.06831	-4.28180	4.03562
2431.575	-2.96064	0.97463	-4.17356	4.19570
2435.561	-3.01967	0.91873	-4.01818	4.18645
2439.570	-3.20481	0.95617	-4.53327	4.28897
2443.567	-6.75365	0.84018	-5.98434	3.00498
2447.570	-7.03201	1.15808	-6.64224	2.99603
2451.563	-10.72481	0.79808	-9.22731	4.11426
2455.569	-10.81200	0.82423	-10.47861	3.65876
2459.565	-12.65817	0.59888	-11.09076	3.44652
2463.573	-12.33920	0.58499	-15.25494	1.93255
2467.563	-12.52762	0.66375	-12.88166	3.98373
2471.569	-13.95327	0.64978	-12.14516	2.89491
2475.569	-13.56122	0.62939	-12.11565	2.82543
2479.591	-12.01974	-0.34565	-14.54479	2.89906
2483.563	-12.77967	-0.33437	-14.87884	1.62751
2487.566	-13.96612	-0.09137	-14.52670	0.98523
2491.567	-14.01309	-0.36923	-14.24762	1.07271
2495.591	-13.57180	-0.40438	-14.28152	1.00676
2499.569	-13.11126	0.14780	-12.44761	2.11660
2503.567	-13.16247	-0.15236	-12.23464	1.67719
2507.568	-13.13084	0.66412	-12.17679	2.13981
2511.562	-13.00841	1.35806	-12.00837	2.42804
2515.567	-13.15120	1.70779	-11.67865	2.53959
2519.559	-12.83114	0.48381	-13.95893	2.09553
2523.565	-11.25894	-0.55223	-13.28590	1.59426
2527.562	-11.76340	1.11383	-13.04247	1.31768
2531.559	-12.53665	0.97784	-13.36464	2.00259
2535.566	-11.03485	-0.17422	-13.47662	1.94258
2539.564	-11.03420	-0.34826	-14.19842	2.13015
2543.562	-10.59176	0.28673	-14.45700	2.24343
2547.567	-12.77610	-0.66907	-13.92613	2.06329
2551.563	-13.04954	-0.75731	-13.74491	1.81709
2555.561	-13.36283	0.38742	-13.96400	1.42113
2559.558	-13.45545	-0.37657	-13.73161	1.30714
2563.604	-12.78569	-0.63369	-12.46737	1.91683
2567.569	-13.48869	-0.47628	-11.55278	1.88713
2571.565	-12.04778	-0.48182	-11.87035	2.23185
2575.562	-11.45429	0.25036	-11.56812	2.38790
2579.557	-11.97698	-0.66818	-14.00459	2.11984
2583.567	-11.49998	0.36233	-13.74360	1.62591
2587.568	-11.59944	-0.05635	-13.84642	1.48937
2591.568	-11.69328	0.47040	-13.65561	1.09120
2595.592	-12.15068	-0.79072	-13.48808	1.08226
2599.569	-11.65106	-0.14364	-13.06928	0.97682
2603.563	-11.32827	-0.62245	-13.06245	0.78229
2607.558	-11.43078	0.16136	-13.60906	0.99096
2611.561	-11.19929	-0.03030	-13.64483	0.91942
2615.566	-10.80982	-0.11882	-13.72966	0.93039
2619.567	-11.13461	0.59267	-13.40969	0.99101
2623.578	-11.09138	1.57003	-13.68504	0.93257
2627.566	-10.80572	1.35052	-13.71959	0.94305
2631.570	-10.90875	0.77356	-13.61794	0.91047
2635.563	-9.74989	-3.47426	-13.52588	1.07564
2639.562	-9.38605	-3.38797	-13.49915	1.03195
2643.562	-9.02571	-3.56803	-13.49378	0.80209
2647.563	-9.63971	-3.66567	-13.50291	0.76165
2651.566	-8.95130	-3.66687	-13.54875	0.70370
2655.562	-9.66253	-2.75651	-13.47883	0.85462
2659.444	-9.22603	-2.42082	-13.43287	1.01160
2663.442	-9.69914	-2.93824	-13.44195	1.04913
2667.436	-9.12974	-2.12235	-13.41549	0.92826
2671.436	-10.39832	-2.48637	-13.43143	1.12627
2675.441	-10.23168	-2.30338	-11.57198	1.40727
2679.447	-9.06146	-1.97456	-12.05302	1.51051
2683.439	-9.96118	-2.11240	-12.01848	1.80343
2687.440	-10.23231	-1.47009	-9.95512	2.60238
2691.441	-10.58790	-1.65519	-10.27109	2.72840
2695.436	-10.79301	-1.47560	-10.30266	2.91697
2699.438	-10.92308	-1.47293	-11.75106	1.88161
2703.437	-11.32173	-1.31254	-12.05001	2.14461
2707.480	-10.85985	-0.68941	-12.11762	2.03147
2711.433	-10.47998	-0.42706	-12.42032	2.11810
2715.435	-11.48087	-0.65962	-12.50955	2.36873
2719.441	-11.58677	-1.19462	-12.83227	2.47752
2723.455	-11.76449	-0.74442	-13.28505	2.67317
2727.440	-10.95205	-1.03289	-9.81383	4.06633
2731.435	-10.78989	-0.85206	-9.86910	5.01338
2735.429	-11.50706	-0.50281	-9.63730	4.97316
2739.440	-11.16915	-0.30982	-9.35198	5.13011
2743.435	-11.63690	0.07323	-9.95297	5.23533
2747.438	-12.05186	-0.39997	-9.47983	5.38082
2751.430	-12.05124	-0.99046	-9.88629	5.53715
2755.440	-12.15514	-2.60203	-9.86724	5.72200
2759.439	-12.95284	-0.21626	-9.98990	5.78301
2763.437	-13.00855	-0.25356	-9.83440	5.84331
2767.443	-13.08296	0.89379	-10.23848	6.05432
2771.438	-12.85525	-0.22530	-10.12407	2.47043
2775.430	-12.52748	-0.23011	-10.48128	2.57481
2779.439	-12.75245	0.15254	-10.43059	2.58048
2783.436	-13.22791	1.27293	-10.38893	2.65490
2787.438	-12.89154	0.02221	-10.53761	2.68349
2791.435	-12.79952	0.59622	-10.20284	6.47631
2795.434	-12.70943	-0.22199	-10.06003	6.59680
2799.434	-13.69235	-1.30381	-11.32085	2.69694
2803.436	-13.20802	0.27353	-11.42441	3.21438
2807.438	-12.84798	1.20836	-11.14438	4.21078
2811.435	-12.58966	1.47585	-10.79686	5.96753
2815.437	-12.37553	1.34472	-6.67657	5.64620
2819.432	-7.97432	2.50636	-5.05265	5.34388
2823.447	-7.66163	1.88289	-0.91259	4.75657
2827.440	-4.93723	1.72650	-1.98512	4.41872
2831.433	-3.79018	1.74779	-1.91248	4.88952
2835.435	-1.61773	2.12643	-2.08141	4.95057
2839.436	-1.33279	1.85530	-2.03296	4.51502
2843.437	-1.75168	2.09987	-1.97470	3.64721
2847.443	-1.67462	1.92736	-2.16223	2.72394
2851.439	-1.60801	2.49894	-1.84959	3.84465
2855.434	-1.75939	2.03229	0.09279	4.45122
2859.438	-1.55135	1.64686	0.58816	3.72980
2863.435	-1.57560	1.35136	0.30506	4.54577
2867.436	-1.52533	0.67794	-1.88812	5.28962
2871.432	-0.41527	1.61048	-1.77283	5.25075
2875.432	-1.17592	1.11421	-1.66038	4.66955
2879.434	-1.63068	1.56241	-1.36930	4.06159
2883.436	-1.87369	1.56072	-1.35608	3.90816
2887.438	-1.81679	1.44484	-1.58964	3.78948
2891.436	-1.66609	1.19032	-2.57761	4.38727
2895.432	-1.73832	0.99671	-3.72049	4.57614
2899.452	-1.84458	0.74880	-3.51508	4.38558
2903.432	-2.45668	1.10580	-3.26386	4.29548
2907.438	-2.03454	0.61304	-2.69792	4.26818
2911.438	-2.41316	0.76607	-2.63123	4.23158
2915.437	-2.12652	-0.67001	-1.95996	4.14298
2919.429	-2.32528	0.78364	-1.99342	4.13906
2923.470	-2.57617	1.21242	-2.16791	3.99343
2927.442	-2.42604	1.39663	-1.96506	3.85354
2931.429	-2.35023	1.49735	-1.35157	4.06869
2935.436	-2.19660	0.77597	-0.54424	4.04375
2939.432	-2.36210	1.49354	0.20782	3.95751
2943.435	-2.23477	0.70077	0.80272	3.92144
2947.430	-2.02316	0.77372	1.70140	3.87231
2951.436	-1.79118	0.99410	1.71260	3.95537
2955.431	-1.47766	1.02833	0.72982	3.68174
2959.436	-0.83401	1.03817	0.03765	3.89308
2963.429	-1.55712	0.64132	-2.30915	4.09239
2967.440	-1.59380	0.72381	-2.82338	4.06070
2971.475	-0.51848	0.70058	-2.73033	4.13004
2975.444	-0.90721	0.63308	-2.89495	3.93706
2979.434	-1.35224	0.44020	-3.13474	3.92037
2983.429	-1.36042	0.41337	-3.58522	3.87879
2987.435	-1.29196	0.46167	-3.50729	3.76064
2991.431	-1.20291	0.34955	-2.99215	3.86301
2995.431	-3.02118	0.51946	-3.23066	3.93311
2999.429	-3.11153	0.43012	-3.26119	3.99677
3003.430	-2.22584	0.55564	-3.15684	4.13276
3007.431	-2.87586	0.55895	-3.16404	4.09580
3011.438	-2.40696	0.49169	-3.18608	4.11267
3015.429	-2.45171	0.49609	-3.38889	4.04955
3019.433	-1.73229	0.57488	-4.31050	4.15508
3023.449	-1.12908	1.08552	-3.66076	4.95016
3027.432	4.65567	0.66286	NaN	NaN
3031.435	-10.57670	6.83080	NaN	NaN
3035.429	4.23211	6.90756	NaN	NaN
3039.447	NaN	NaN	NaN	NaN
3043.439	NaN	NaN	NaN	NaN
3047.432	NaN	NaN	NaN	NaN
3051.435	NaN	NaN	NaN	NaN
3055.432	NaN	NaN	NaN	NaN
3059.430	NaN	NaN	NaN	NaN
3064.822	NaN	NaN	NaN	NaN
3075.435	NaN	NaN	NaN	NaN
3079.430	NaN	NaN	NaN	NaN
3083.428	NaN	NaN	NaN	NaN
3087.438	NaN	NaN	NaN	NaN
3091.442	NaN	NaN	NaN	NaN
3095.435	NaN	NaN	NaN	NaN
3099.439	NaN	NaN	NaN	NaN
3103.449	NaN	NaN	NaN	NaN
3107.822	NaN	NaN	NaN	NaN
3111.439	NaN	NaN	NaN	NaN
3115.428	NaN	NaN	NaN	NaN
3120.796	NaN	NaN	NaN	NaN
3131.433	NaN	NaN	NaN	NaN
3135.432	NaN	NaN	NaN	NaN
3139.527	9.33323	1.26771	9.10966	14.84919
3143.429	6.10931	-0.16582	NaN	NaN
3147.461	5.31635	0.53271	7.11327	11.04408
3151.429	5.70040	1.73671	7.22610	10.05119
3155.431	15.76851	-4.93293	6.95966	6.75500
3159.426	15.89942	-6.25665	7.03213	7.05154
3163.444	15.75051	-6.01193	6.96788	6.99708
3167.435	6.86051	0.14366	7.44457	6.55546
3171.426	15.47932	-5.87041	7.66677	5.46976
3175.432	-0.76419	0.91846	5.70539	4.09504
3179.428	14.97736	-5.14016	4.22940	3.01068
3183.427	6.47826	0.85077	3.96548	3.16136
3187.427	8.80907	-1.72812	4.93652	3.55536
3191.431	7.65442	1.54863	2.75334	2.74208
3195.431	9.09960	-4.91938	1.08361	2.19947
3199.427	5.53131	-2.06524	2.84061	2.93828
3203.431	8.22103	0.99792	4.27777	2.81813
3207.423	7.36327	0.64809	3.34309	2.80688
3211.431	8.61943	-0.85394	2.97252	2.86128
3215.426	6.84125	0.94752	3.32657	2.66914
3219.436	6.48904	-1.15568	3.62187	2.60543
3223.433	6.44295	0.57583	4.38479	2.77116
3227.428	6.35515	0.20513	4.20383	2.69999
3231.430	6.17548	-0.82914	4.01497	2.73046
3235.423	5.89944	-0.90824	4.02055	2.78769
3239.440	5.99959	-0.10412	4.33744	2.80871
3243.427	6.14798	-0.58967	4.26827	2.80251
3247.436	6.17926	-0.42763	4.36960	2.85726
3251.431	6.11297	-0.58825	4.20279	2.81420
3255.427	6.14082	-0.22673	4.10767	2.80408
3259.432	5.95722	-0.55261	4.11557	2.82870
3263.425	5.82830	-0.56999	4.18995	2.84223
3267.431	5.88631	-0.83331	4.18507	2.81033
3271.428	5.96323	-0.66393	4.08811	2.79784
3275.430	2.28162	-0.33085	4.24971	2.77601
3279.424	6.44826	-1.04714	4.20116	2.75296
3283.430	6.41212	-0.90344	4.09681	2.71309
3287.430	7.13685	-0.81527	3.94554	2.67985
3291.425	3.24919	0.13196	3.87378	2.58328
3295.429	3.37230	-0.35653	3.98084	2.52632
3299.430	3.38758	-0.58066	4.05752	2.40391
3303.432	3.42339	-0.73488	3.83203	2.35882
3307.425	3.35521	-0.24219	3.75795	2.29132
3311.425	3.70897	-0.22000	3.79107	2.13201
3315.429	4.05204	-0.21418	3.79601	2.10954
3319.430	3.44285	-0.07704	3.93534	2.05186
3323.423	3.82514	0.17913	3.83707	1.83840
3327.431	4.10318	0.31628	4.10518	1.79071
3331.428	4.34016	0.26039	4.06177	1.73900
3335.429	4.38048	0.17839	4.37492	1.55646
3339.443	4.54681	0.14214	4.51763	1.43100
3343.435	5.31157	0.28132	4.45471	1.10459
3347.473	4.95588	0.34834	6.76667	1.37710
3351.431	2.40030	-0.44976	7.21528	1.35307
3355.436	5.14416	0.87014	6.00948	1.47941
3359.420	6.81238	2.29565	6.57830	1.39458
3363.429	4.85729	0.83940	3.76722	1.51666
3367.424	5.85858	1.01326	3.69573	1.72917
3371.428	5.15290	0.37392	3.75870	1.92063
3375.423	5.61814	0.09108	3.20290	2.23876
3379.425	5.79688	0.08900	3.52047	2.19333
3383.431	5.80420	0.03412	3.17195	2.21638
3387.425	5.96588	-0.18306	3.35882	2.14778
3391.427	5.85119	-0.39796	3.44515	2.32984
3395.427	5.21518	-0.34543	3.44053	2.38614
3399.423	5.56768	-0.41062	3.50398	2.40564
3403.426	6.16128	-0.34711	3.62993	2.40647
3407.426	5.63921	-0.45807	3.58069	2.40933
3411.439	5.55706	-0.42883	3.58245	2.45703
3415.428	6.08750	-0.56011	3.66053	2.48280
3419.427	5.04127	-0.67041	3.71688	2.45203
3423.422	4.64759	-0.73714	3.78222	2.42420
3427.432	5.02721	-0.64693	3.83156	2.47524
3431.426	4.96349	-0.72331	3.87650	2.51639
3435.426	4.86167	-0.54017	3.88838	2.49896
3439.432	4.71102	-0.71704	3.94345	2.61683
3443.427	5.83918	-0.51392	3.96395	2.58456
3447.430	5.61406	-0.66909	3.98501	2.64282
3451.422	5.35542	-0.71937	4.02991	2.68413
3455.427	5.09202	-0.50964	4.06320	2.77839
3459.426	5.62896	-0.61922	4.07582	2.67772
3463.431	5.41165	-0.50601	4.10110	2.71471
3467.424	5.20182	-0.37105	4.07122	2.70801
3471.434	5.07715	-0.44240	4.13335	2.75795
3475.431	4.94930	-0.43895	4.16105	2.73945
3479.426	4.42641	-0.49868	4.45505	2.79791
3483.428	5.16371	-0.61455	8.56571	2.71979
3487.425	6.33579	-0.64892	5.80710	2.84095
3491.423	5.98353	-0.45917	8.98392	2.59398
3495.421	7.19635	-1.53682	9.71141	2.76935
3499.427	11.18580	-2.11159	10.45941	2.52407
3503.422	10.87924	-2.53813	9.05214	1.88644
3507.426	10.59661	-1.88918	9.27105	1.42804
3511.427	8.04477	0.47346	8.58849	1.80992
3515.300	7.37082	-1.89976	9.33152	1.20683
3519.307	8.06363	-2.34429	9.32941	1.31907
3523.299	8.49025	-1.10951	9.12836	1.51222
3527.298	8.69772	-1.17841	8.52520	1.48257
3531.292	9.75413	-2.38372	8.79368	1.47717
3535.301	8.38794	-0.02608	9.26909	1.16297
3539.301	9.58374	-2.35837	9.13475	1.25952
3543.302	9.32920	-2.23966	9.17212	1.02207
3547.297	9.39204	-2.03106	9.21041	1.01803
3551.300	9.27090	-2.26729	9.18526	1.00325
3555.334	9.26382	-2.46685	9.05478	0.91583
3559.300	14.07541	-3.80447	9.04103	0.93361
3563.297	12.17535	-6.42308	8.88443	0.75382
3567.298	9.31417	-11.00640	8.63913	0.88573
3571.295	9.36788	-11.04443	8.68388	0.71329
3575.299	9.29024	-10.84916	8.63799	0.66086
3579.297	9.37880	-11.18384	8.57971	0.56485
3583.320	8.91614	-10.79896	8.53309	0.56130
3587.301	9.23393	-11.18120	8.43552	0.35535
3591.296	9.25731	-11.31965	8.41126	0.51131
3595.348	9.40798	-11.43863	8.46636	0.40355
3599.327	9.81865	-11.47389	8.52367	0.32937
3603.305	9.72797	-11.21051	8.52542	0.14634
3607.298	9.92497	-11.35152	8.60424	0.19624
3611.294	9.97871	-11.16855	8.61171	0.18341
3615.300	10.25800	-11.59722	8.75012	0.17187
3619.296	10.18173	-11.25609	8.76656	0.15921
3623.298	10.21022	-11.26654	8.84101	0.20038
3627.293	10.11890	-11.47310	8.87212	0.20817
3631.299	-19.99372	-11.43560	8.88014	0.25032
3635.297	10.20726	-11.83973	8.96908	0.17592
3639.299	10.21519	-11.23372	8.91091	0.11818
3643.305	10.01048	-11.02632	8.85858	0.10356
3647.294	9.89174	-11.12220	8.88494	0.15828
3651.328	9.89978	-10.96021	8.81387	0.13390
3655.307	9.90238	-10.97214	8.65562	0.10173
3659.294	9.85336	-10.97998	8.63178	0.09171
3663.297	9.82132	-10.79780	8.54688	0.10237
3667.300	9.78980	-10.77125	8.63629	-0.05417
3671.295	9.89188	-10.89038	8.49491	-0.01971
3675.298	9.82881	-10.64865	8.39681	-0.12434
3679.297	9.86189	-10.66023	8.30245	-0.12206
3683.300	9.73586	-10.71856	8.33603	-0.05539
3687.295	9.72317	-10.66073	8.65591	-0.06343
3691.299	13.68570	-6.94516	8.84704	-0.04292
3695.292	12.54152	-6.11568	8.77165	-0.05592
3699.298	12.37274	-6.65908	8.79208	-0.01780
3703.295	11.46537	-6.07320	9.01075	0.00405
3707.299	10.15894	-5.92912	9.06860	-0.01489
3711.291	10.32844	-5.81949	8.84389	0.04474
3715.296	10.39868	-5.48084	9.00712	0.05061
3719.330	10.28498	-5.73790	9.05006	0.08631
3723.307	10.31914	-5.44470	8.95561	0.14600
3727.299	9.99457	-5.24957	8.91737	0.16055
3731.293	9.55949	-5.39084	9.02953	0.65223
3735.299	10.46827	-5.30907	8.92757	1.05702
3739.304	10.58915	-5.17617	8.91568	1.73446
3743.290	10.38622	-5.30498	8.89843	1.39856
3747.304	11.38943	-2.08973	8.86170	1.68318
3751.295	11.76816	-2.37739	8.83132	0.93854
3755.297	12.20740	-1.94411	8.81617	1.22168
3759.292	12.26363	-2.04160	8.79957	1.22664
3763.302	12.23130	-2.15300	8.73941	1.22986
3767.297	10.57718	-2.36967	8.77480	1.32363
3771.298	12.30367	-9.32546	8.74767	1.34412
3775.320	11.74882	-2.50267	8.69016	1.30822
3779.297	11.90999	-2.44273	8.60128	1.18335
3783.293	12.24770	-2.55769	8.48784	1.19798
3787.298	12.20992	-2.38116	8.52010	1.14342
3791.295	12.14089	-2.46656	8.42362	1.13078
3795.290	12.12091	-2.46480	8.39319	1.08521
3799.297	10.95275	-2.58885	8.34643	1.08451
3803.298	11.23046	-2.72172	10.49359	1.02935
3807.301	10.74654	-2.52059	12.55573	0.93303
3811.290	11.93467	-2.64628	9.55186	0.98266
3815.295	7.05049	-2.74706	8.01474	0.98583
3819.293	7.28737	0.07676	7.78016	1.00173
3823.291	3.29528	1.89232	6.85021	1.39104
3827.290	1.56399	0.73778	3.26965	1.13210
3831.296	-1.41038	1.41583	1.14885	2.32322
3835.293	-1.13132	1.86408	-0.96601	1.39794
3839.291	-4.21708	1.42288	-1.16967	1.31340
3843.296	-7.97953	1.43096	-8.31032	1.72636
3847.316	-7.85163	0.77406	-8.03701	1.36911
3851.295	-9.34879	-0.88585	-10.09655	1.21985
3855.327	-11.36494	-0.92718	-12.99121	1.29821
3859.304	-12.67246	-1.80775	-12.05514	1.00820
3863.291	-12.99279	-1.41532	-15.26720	0.82245
3867.296	-14.28133	-1.39420	-13.14353	0.99164
3871.289	-13.24301	-0.30027	-14.92785	0.97905
3875.295	-14.29438	-0.41701	-14.57664	0.85657
3879.291	-14.56020	-0.57940	-14.57050	0.73858
3883.294	-14.59840	-0.76316	-14.56441	0.64338
3887.296	-14.27555	-1.90655	-14.48757	1.22511
3891.296	-13.82656	-1.60057	-14.65337	1.58154
3895.287	-14.84981	-0.85166	-15.14863	1.68808
3899.295	-13.87805	0.07847	-14.78809	1.59312
3903.291	-14.02426	0.16413	-14.67033	1.40754
3907.294	-14.14100	0.14144	-14.62819	0.64256
3911.286	-13.66601	-1.36417	-14.56497	0.91396
3915.291	-14.92181	-0.64042	-14.73397	0.68464
3919.293	-13.51307	0.65781	-14.96703	0.88211
3923.293	-13.64403	0.31025	-15.30016	0.88803
3927.290	-14.98051	0.84809	-14.81048	1.37691
3931.296	-15.11054	-0.16954	-15.01790	0.78071
3935.293	-15.25473	0.16376	-15.14844	0.15787
3939.291	-13.40241	1.08021	-14.97242	0.45019
3943.289	-13.45695	0.34725	-15.04510	1.10446
3947.291	-15.15249	0.28861	-13.64394	0.99253
3951.293	-13.14814	0.46589	-14.67193	0.88230
3955.290	-14.33171	0.77298	-14.95783	1.46896
3959.296	-12.12990	0.73428	-15.00471	1.25527
3963.291	-15.05147	-0.24392	-14.76943	1.20051
3967.294	-12.14444	0.26562	-14.98419	0.94966
3971.313	-14.63983	-0.00440	-14.83355	1.07366
3975.296	-11.98184	-0.75024	-14.87098	1.25578
3979.290	-12.15488	0.37064	-14.86451	1.18186
3983.284	-12.36336	0.45482	-14.99966	1.34507
3987.288	-12.41194	0.58951	-14.90642	1.56597
3991.335	-12.81875	0.94347	-14.58194	1.29810
3995.293	-11.88958	0.44799	-14.58252	1.29076
3999.284	-12.63031	-0.62615	-14.42707	1.38990
4003.287	-12.14437	0.22002	-14.36877	1.36825
4007.287	-12.47813	-0.03290	-14.71907	1.26238
4011.298	-12.98351	1.40362	-14.90816	1.47374
4015.292	-15.72959	4.92668	-17.99219	3.71852
4019.313	-20.64967	4.86836	-23.13287	0.74822
4023.293	-22.52076	7.92140	-23.16014	1.12258
4027.292	-20.24096	-12.05891	-19.97264	-12.07899
4031.284	-20.14482	-12.06613	-19.98329	-12.07820
4035.293	-20.10163	-12.06937	-19.98686	-12.07793
4039.289	-20.07696	-12.07121	-19.98868	-12.07780
4043.292	-20.06089	-12.07242	-19.98978	-12.07772
4047.287	-20.04952	-12.07326	-19.99052	-12.07766
4051.290	-20.04105	-12.07390	-19.99105	-12.07762
4057.301	-20.03441	-12.07439	-19.99146	-12.07759
4067.293	-20.02909	-12.07479	NaN	NaN
4071.286	-19.99381	-12.07742	NaN	NaN
4075.289	NaN	NaN	NaN	NaN
4079.291	NaN	NaN	NaN	NaN
4083.292	NaN	NaN	NaN	NaN
4091.285	NaN	NaN	NaN	NaN
4095.348	NaN	NaN	NaN	NaN
4099.303	NaN	NaN	NaN	NaN
4103.290	NaN	NaN	NaN	NaN
4107.303	NaN	NaN	NaN	NaN
4111.288	NaN	NaN	NaN	NaN
4115.294	NaN	NaN	NaN	NaN
4119.282	NaN	NaN	NaN	NaN
4124.143	NaN	NaN	NaN	NaN
4128.022	NaN	NaN	NaN	NaN
4132.005	NaN	NaN	NaN	NaN
4135.719	NaN	NaN	NaN	NaN
4139.578	NaN	NaN	NaN	NaN
4143.377	NaN	NaN	NaN	NaN
4147.292	NaN	NaN	NaN	NaN
4151.292	NaN	NaN	NaN	NaN
4155.287	NaN	NaN	NaN	NaN
4159.292	NaN	NaN	NaN	NaN
4163.323	NaN	NaN	NaN	NaN
4167.482	NaN	NaN	NaN	NaN
4171.608	NaN	NaN	NaN	NaN
4175.296	NaN	NaN	NaN	NaN
4179.291	NaN	NaN	NaN	NaN
4183.284	NaN	NaN	NaN	NaN
4187.287	NaN	NaN	NaN	NaN
4191.299	NaN	NaN	NaN	NaN
4195.287	NaN	NaN	NaN	NaN
4199.302	NaN	NaN	NaN	NaN
4203.295	NaN	NaN	NaN	NaN
4207.288	NaN	NaN	NaN	NaN
4211.285	NaN	NaN	NaN	NaN
4215.282	NaN	NaN	NaN	NaN
4219.280	NaN	NaN	NaN	NaN
4223.297	NaN	NaN	NaN	NaN
4227.290	NaN	NaN	NaN	NaN
4231.280	NaN	NaN	NaN	NaN
4235.282	NaN	NaN	NaN	NaN
4239.283	NaN	NaN	NaN	NaN
4243.280	NaN	NaN	NaN	NaN
4247.277	NaN	NaN	NaN	NaN
4251.277	NaN	NaN	NaN	NaN
4255.277	NaN	NaN	NaN	NaN
4259.310	NaN	NaN	NaN	NaN
4263.291	NaN	NaN	NaN	NaN
4267.285	NaN	NaN	NaN	NaN
4271.296	NaN	NaN	NaN	NaN
4275.284	NaN	NaN	NaN	NaN
4279.283	NaN	NaN	NaN	NaN
4283.288	NaN	NaN	NaN	NaN
4287.288	NaN	NaN	NaN	NaN
4291.291	NaN	NaN	NaN	NaN
4295.282	NaN	NaN	NaN	NaN
4299.292	NaN	NaN	NaN	NaN
4303.279	NaN	NaN	NaN	NaN
4307.291	NaN	NaN	NaN	NaN
4311.282	NaN	NaN	NaN	NaN
4315.279	NaN	NaN	NaN	NaN
4319.277	NaN	NaN	NaN	NaN
4323.280	NaN	NaN	NaN	NaN
4327.306	NaN	NaN	NaN	NaN
4331.286	NaN	NaN	NaN	NaN
4335.285	NaN	NaN	NaN	NaN
4339.290	NaN	NaN	NaN	NaN
4343.284	NaN	NaN	NaN	NaN
4347.290	NaN	NaN	NaN	NaN
4351.296	NaN	NaN	NaN	NaN
4355.283	NaN	NaN	NaN	NaN
4359.292	NaN	NaN	NaN	NaN
4363.286	NaN	NaN	NaN	NaN
4367.160	NaN	NaN	NaN	NaN
4371.156	NaN	NaN	NaN	NaN
4375.157	NaN	NaN	NaN	NaN
4379.155	NaN	NaN	NaN	NaN
4383.170	NaN	NaN	NaN	NaN
4387.151	NaN	NaN	NaN	NaN
4391.171	NaN	NaN	NaN	NaN
4395.188	NaN	NaN	NaN	NaN
4399.180	NaN	NaN	NaN	NaN
4403.158	NaN	NaN	NaN	NaN
4407.165	NaN	NaN	NaN	NaN
4411.151	NaN	NaN	NaN	NaN
4415.160	NaN	NaN	NaN	NaN
4419.153	NaN	NaN	NaN	NaN
4423.156	NaN	NaN	NaN	NaN
4427.154	NaN	NaN	NaN	NaN
4431.159	NaN	NaN	NaN	NaN
4435.160	NaN	NaN	NaN	NaN
4439.161	NaN	NaN	NaN	NaN
4568.210	NaN	NaN	NaN	NaN
4617.862	NaN	NaN	NaN	NaN
4667.847	NaN	NaN	NaN	NaN
4717.848	NaN	NaN	NaN	NaN
4767.973	NaN	NaN	NaN	NaN
4835.681	-2.85715	-1.31660	-4.01751	2.13503
4839.406	-1.66085	-1.06101	-1.77129	1.98750
4843.400	-0.95145	-1.12788	-2.20285	1.87661
4847.408	-1.13491	-1.23728	-3.70638	0.27195
4851.403	-1.12551	-1.19695	-3.64701	1.67478
4855.396	3.54289	-2.20561	-3.84503	2.11004
4859.399	-0.97271	-1.62866	-4.68321	1.06141
4863.400	-1.95911	-1.55938	-3.56630	0.50176
4867.402	-2.39931	-1.13935	-3.83092	1.29827
4871.405	-1.38986	-1.33605	-2.37372	1.93668
4875.400	-1.07852	-1.33186	-2.30935	0.22378
4879.400	-2.11628	-1.27639	-3.90192	1.04257
4883.404	-0.95264	-1.10455	-3.10552	1.94134
4887.400	-1.71531	-1.30114	-3.01588	1.58756
4891.396	-1.84463	-1.32605	-2.98156	-0.39523
4895.403	0.00802	-2.22442	-2.88465	1.34921
4899.398	2.13725	-2.03560	-3.52440	2.22190
4903.397	-2.34907	-0.80001	-3.14531	0.27305
4907.425	-2.49919	-1.75189	-2.57855	0.97457
4911.395	-1.56776	-1.47506	-3.51439	0.51667
4915.410	0.79000	-11.58059	-3.22789	1.15598
4919.393	-2.68437	-11.35591	-2.41197	0.92004
4923.404	-3.74926	-14.33871	-2.57925	0.88545
4927.401	-2.67026	-12.58813	-2.74648	1.06401
4931.397	-3.75929	-12.19336	-5.86398	0.21755
4935.402	-19.99372	-11.88418	-2.92030	0.66199
4939.399	-3.28919	-14.89020	-2.51341	1.19045
4943.397	-2.01471	-14.23403	-2.33995	1.38945
4947.396	-0.92584	-1.79508	-2.66511	0.84759
4951.402	0.55826	-2.63055	-2.69520	1.45997
4955.399	-1.17609	-3.23521	-2.43602	2.01155
4959.402	-1.12933	-2.90298	-2.46151	-1.68487
4963.402	-0.82632	-1.52887	-2.38415	0.26275
4967.403	-2.20255	-1.90821	-2.42532	1.23026
4971.418	-1.44242	-0.15230	-2.26108	1.78583
4975.431	-0.95383	-2.54486	-2.29723	1.73017
4979.403	0.22676	-1.22137	-2.21110	-1.83302
4983.401	-1.73641	-2.39934	-2.41529	0.45979
4987.393	-0.63139	-1.73557	-2.54794	0.85068
4991.396	-1.51556	-1.83096	-2.25166	0.95522
4995.420	-1.72728	-2.04580	-2.10813	1.19491
4999.399	-2.14354	-9.69605	-2.28606	2.67248
5003.395	-1.89037	-2.27110	-2.40154	1.62270
5007.406	-0.63756	0.07494	0.32238	1.08743
5011.397	0.83126	-1.29555	2.46429	1.70726
5015.398	3.85703	-1.94391	3.51617	1.84040
5019.392	6.89353	-0.18273	4.11779	1.66679
5023.408	7.13849	-2.16495	4.43724	1.17371
5027.403	6.38096	-1.80975	4.50190	2.32617
5031.394	4.82616	-1.73579	4.28616	2.39388
5035.400	3.95288	-1.06483	4.06147	2.51570
5039.400	4.77747	-1.34603	4.18884	1.97512
5043.434	6.25791	-2.26186	4.35948	1.73806
5047.409	5.70868	-1.53598	4.21622	1.35314
5051.393	6.82043	-1.40116	4.23443	2.41745
5055.400	5.19576	-1.63726	4.30031	3.07124
5059.398	4.92127	-1.68597	4.22708	2.75025
5063.398	7.18103	-12.11116	4.33821	2.88078
5067.395	7.40679	-13.30740	4.22310	2.47625
5071.400	11.49588	-10.91148	4.66216	2.09408
5075.396	9.83414	-11.61099	4.36619	1.21209
5079.398	7.52952	-12.99032	4.34055	1.52712
5083.393	9.21626	-13.94771	4.48110	2.67154
5087.399	7.42515	-1.72512	4.28540	2.55394
5091.403	4.22799	-1.87344	4.43981	1.99152
5095.434	6.18605	-1.96183	4.43493	1.48907
5099.401	7.34721	-2.29668	4.74521	1.25682
5103.395	6.95971	-1.95149	4.45922	3.00759
5107.399	5.94612	-1.42697	4.12350	2.25106
5111.431	7.01272	-2.03416	4.25100	2.97335
5115.407	7.17360	-2.11040	3.90373	2.55683
5119.394	6.71561	-1.71934	4.52715	1.99428
5123.394	5.65572	-1.49940	4.56525	1.72099
5127.402	3.88895	-2.03687	4.72075	1.47108
5131.400	5.95874	-1.67882	4.62552	1.71672
5135.400	8.36773	-2.12174	4.21464	2.44237
5139.396	4.52182	-1.20487	4.11787	3.04675
5143.401	5.65678	-1.10348	4.43754	3.25750
5147.395	NaN	NaN	4.51304	3.11477
5151.394	7.76499	-13.17500	4.30132	1.97847
5155.397	8.10931	-13.09434	4.77131	1.49307
5159.398	6.92990	-13.24797	4.59171	1.76894
5163.403	9.14982	-1.02095	4.46507	3.40725
5167.398	8.99126	-0.99029	4.61590	2.41450
5171.402	-19.99372	-12.36052	4.61364	1.69309
5175.397	10.12791	-8.21186	4.60520	2.76756
5179.394	6.38851	-0.60196	4.82809	2.55045
5183.397	3.77367	-3.45374	4.72339	1.75371
5187.399	6.84783	-1.72104	4.35607	1.91787
5191.395	3.86534	-3.40940	6.43224	1.92773
5195.393	8.33994	-3.23870	4.76724	1.83143
5199.394	7.30417	-2.07897	4.43559	1.98149
5203.400	3.63092	-8.29711	4.51115	1.52051
5207.395	6.18402	-0.46352	4.34149	1.89328
5211.398	6.30813	-0.13360	4.20787	1.95240
5215.396	9.10826	-5.37465	4.30408	2.29089
5219.441	7.92568	-4.04777	4.36688	2.16035
5223.395	8.84988	-2.81748	4.12547	1.54553
5227.394	6.10664	-3.67024	5.67059	2.12103
5231.394	9.42803	-6.15644	4.21108	2.14159
5235.397	9.31158	-1.50590	3.87346	2.54166
5239.390	8.20834	-1.97782	3.82230	1.84435
5243.398	5.18050	-3.60414	4.36829	1.67618
5247.392	5.80101	-1.27759	4.07318	2.48249
5251.394	4.13349	-0.21116	4.85191	2.84890
5255.399	7.80114	-1.65638	4.73239	1.63921
5259.388	6.71111	-1.50420	3.79126	1.78475
5263.396	5.04166	-1.06265	3.96390	2.53641
5267.395	2.64587	-1.36878	4.26242	2.82555
5271.392	6.43861	-2.57726	4.54629	2.25587
5275.387	6.17474	-1.21967	3.96078	1.70999
5279.396	5.20738	0.06476	3.71112	2.78153
5283.392	4.30270	-0.06705	4.56984	2.71201
5287.409	5.79435	-0.08744	4.19183	2.93710
5291.399	7.50895	-2.97722	4.59771	1.94205
5295.392	6.58242	-2.12562	4.12821	3.16804
5299.397	5.04499	-0.84943	4.76362	2.07379
5303.390	5.41590	-0.45151	3.78756	1.74160
5307.395	4.20373	1.12477	4.61516	1.42024
5311.394	6.23552	-0.15703	3.90943	2.43005
5315.396	10.26405	-4.20766	3.98558	1.81574
5319.397	6.67397	-1.31730	3.70154	3.24601
5323.406	9.90137	-1.81354	5.04464	2.65922
5327.394	6.55033	-0.60940	3.62089	1.69294
5331.392	6.39106	-0.57596	4.70429	1.92004
5335.391	4.93191	1.27790	4.51529	2.03865
5339.401	5.45376	-0.58560	4.03979	1.99941
5343.387	4.83723	-0.51303	3.68673	1.80555
5347.395	7.14140	-0.72700	3.78442	2.29771
5351.306	6.39070	-0.55944	3.99245	2.12823
5355.283	5.49313	-0.49964	3.79727	2.24593
5359.265	7.92938	-0.90743	4.55541	1.89132
5363.271	6.65365	-0.63859	4.60885	2.51596
5367.265	13.01242	-5.55025	7.41482	1.87250
5371.266	5.78177	-3.19704	3.95888	2.41447
5375.265	6.56052	-0.36543	3.26210	1.97681
5379.270	6.85701	-3.45575	-0.12793	1.85014
5383.268	5.63577	-2.07287	1.45378	1.58625
5387.276	1.47593	-3.27704	-1.74910	1.50337
5391.272	0.91051	-3.01112	-2.29218	-0.90443
5395.269	1.11469	-5.98739	-1.84190	-1.56487
5399.264	0.33496	-9.21164	-1.75245	-1.59537
5403.266	-19.99372	-12.07740	-3.10223	-2.06142
5407.267	2.46278	-6.04480	-2.53080	-1.72327
5411.272	-3.67670	-6.01378	-3.07763	-1.85281
5415.269	1.45904	-5.74628	-5.52539	-1.88731
5419.268	-3.81068	-5.11695	-2.32610	-2.75448
5423.281	-4.49482	-4.99942	-1.78676	-2.71219
5427.257	-4.49373	-5.70953	-1.40747	-4.09823
5431.274	-3.67924	-5.72701	-3.46872	-3.35082
5435.264	-3.71634	-5.22985	-3.75781	-3.12523
5439.267	-3.47282	-5.29927	-3.59434	-2.71610
5443.265	-3.25451	-5.13961	-4.79482	-3.43236
5447.268	-3.10982	-5.40926	-4.65947	-3.14310
5451.266	-3.32699	-5.00323	-4.51260	-2.86340
5455.265	-3.10715	-4.89488	-3.77253	-3.67320
5459.266	-4.80056	-5.06739	-1.50403	-4.26807
5463.262	-5.02270	-4.27718	-4.09513	-3.87495
5467.273	-4.51968	-4.09282	-4.50932	-3.57783
5471.270	-3.37282	-4.67889	-3.99919	-3.26052
5475.265	-3.35588	-5.09868	-3.19749	-3.12869
5479.269	-3.38395	-5.36468	-3.69429	-4.49715
5483.264	-2.89497	-5.43826	-1.86146	-4.19448
5487.266	-3.17611	-5.60440	-1.39788	-3.47180
5491.262	-2.37208	-5.70083	1.48905	1.82344
5495.268	-3.25565	-5.81357	-3.19919	-4.20357
5499.265	-5.12326	-5.87507	-3.02036	-4.33815
5503.266	-4.24601	-5.82204	-0.90890	2.31533
5507.261	-8.37648	-6.60409	1.44314	2.82487
5511.274	-3.02002	-5.90578	1.37729	2.81816
5515.264	-3.16468	-6.13058	1.61679	2.86956
5519.265	-2.49939	-6.12112	2.52924	3.16462
5523.267	-0.97149	-6.29457	-0.32114	3.91543
5527.264	-4.85802	-4.41524	0.68188	3.87601
5531.265	-3.61186	-5.00643	0.89215	4.12611
5535.282	-3.74088	-5.00019	1.85884	4.59686
5539.266	-3.32298	-6.37853	1.50452	5.10148
5543.265	-4.21086	-6.93456	5.71758	5.03602
5547.262	-6.27290	-6.22903	1.61947	5.26333
5551.268	-4.55112	-5.49160	1.90448	5.55242
5555.266	-3.75205	-5.56761	2.32369	5.99824
5559.267	-4.07293	-5.35765	2.80424	6.37192
5563.261	-4.08236	-5.21478	3.76532	10.67277
5567.275	-3.92440	-5.51804	6.05830	10.52538
5571.267	-4.08276	-5.74802	0.70173	7.68824
5575.267	-4.28866	-5.86208	-1.39058	-4.75232
5579.261	-4.45229	-7.68211	6.04779	7.22147
5583.267	-4.03937	-5.78147	-4.51073	-5.29666
5587.260	-3.53211	-5.86464	-3.18583	-4.94938
5591.261	-2.85385	-5.70942	-0.38866	-5.06423
5595.271	-4.00457	-5.80135	-1.86412	-4.78342
5599.268	-3.63053	-5.76775	-4.02561	-5.00398
5603.261	-2.81251	-5.89148	-3.53666	-4.41662
5607.266	-2.39426	-6.13492	-2.86648	-4.45113
5611.264	-4.63375	-5.68302	-2.25736	7.40810
5615.265	-4.48130	-5.88372	0.89733	7.16554
5619.262	-3.19719	-5.68102	-3.39510	-5.39528
5623.264	-3.54222	-5.83885	-2.35263	-5.07722
5627.265	-3.98948	-5.56414	-1.59951	-6.51575
5631.261	-4.82629	-5.50562	-3.77651	-5.85285
5635.296	-4.16087	-5.40769	-3.41162	-5.67825
5639.262	-4.07377	-5.40307	-3.36881	-4.99378
5643.264	-3.72111	-5.40063	2.36232	5.26907
5647.258	-2.97688	-5.19607	-3.59654	-5.65113
5651.265	-3.88972	-5.49599	-3.53266	-5.73318
5655.260	-3.78039	-5.26996	-3.68317	-5.78339
5659.265	-3.14127	-0.57162	-14.36381	-8.54317
5663.259	-3.53533	6.31307	-4.56666	-1.79865
5667.261	0.53064	5.23014	-16.92306	14.49555
5671.259	-2.52726	14.08102	2.74415	14.04632
5675.260	NaN	NaN	-0.99965	11.63680
5679.262	NaN	NaN	-19.99363	-12.07743
5683.260	NaN	NaN	-19.99368	-12.07743
5687.263	NaN	NaN	-19.99370	-12.07743
5691.277	NaN	NaN	-19.99370	-12.07743
5695.323	NaN	NaN	-19.99370	-12.07743
5700.917	NaN	NaN	-19.99370	-12.07743
5703.260	NaN	NaN	-19.99370	-12.07743
5711.266	NaN	NaN	NaN	NaN
5715.264	NaN	NaN	NaN	NaN
5719.270	NaN	NaN	NaN	NaN
5723.817	NaN	NaN	NaN	NaN
5727.846	NaN	NaN	NaN	NaN
5731.710	NaN	NaN	NaN	NaN
5735.610	NaN	NaN	NaN	NaN
5739.256	NaN	NaN	NaN	NaN
5743.276	NaN	NaN	NaN	NaN
5747.256	NaN	NaN	NaN	NaN
5751.284	NaN	NaN	NaN	NaN
5755.265	NaN	NaN	NaN	NaN
5759.255	NaN	NaN	NaN	NaN
5763.266	NaN	NaN	NaN	NaN
5767.266	NaN	NaN	NaN	NaN
5771.260	NaN	NaN	NaN	NaN
5775.262	NaN	NaN	17.79282	3.09074
5779.258	NaN	NaN	NaN	NaN
5783.263	NaN	NaN	19.10700	13.83688
5787.269	6.12369	-0.59350	14.78076	7.35233
5791.260	5.37871	-6.55533	19.62150	9.58506
5795.266	6.18102	-7.59957	18.96840	4.52999
5799.259	6.51611	-7.70762	19.34935	3.82396
5803.261	NaN	NaN	1.14486	0.46706
5807.268	4.68952	-1.02708	17.89714	2.05919
5811.258	5.56809	-3.58929	19.28744	0.26250
5815.263	10.14201	-3.55841	3.69108	-4.19057
5819.254	19.73345	-6.43272	15.73918	0.44753
5823.262	17.71712	-6.03388	13.09350	0.75248
5827.270	17.67439	-5.85165	14.94386	0.70717
5831.261	17.29547	-6.80833	11.58815	-2.46070
5835.261	19.61397	-7.07650	14.68870	-1.24915
5839.260	17.88374	-5.83363	12.29934	-0.40620
5843.270	13.97113	-5.08758	11.51702	-2.92227
5847.259	13.74364	-5.64236	11.50129	-2.39138
5851.333	15.30346	-6.04105	12.99670	-2.57277
5855.271	14.46144	-5.61288	14.42071	-2.58512
5859.262	15.55916	-5.39222	13.07690	-1.46881
5863.259	15.05806	-5.23435	12.61315	-0.78297
5867.260	12.31049	-5.29099	11.47465	-1.35022
5871.252	13.29666	-5.40197	11.76292	-1.55732
5875.261	15.48605	-5.47690	12.28157	-1.76182
5879.259	14.54667	-5.42955	12.63627	-1.68436
5883.257	15.19223	-5.40663	12.91781	-1.99652
5887.261	15.73251	-5.51892	13.05255	-1.74080
5891.255	14.80700	-5.48858	12.68468	-1.42951
5895.259	15.88323	-5.50612	12.41244	-1.67983
5899.255	17.57071	-6.00131	11.63959	-1.72090
5903.257	18.45876	-7.76699	11.88696	-1.90671
5907.257	14.94233	-6.45202	11.75822	-1.90034
5911.260	15.92010	-6.25941	12.23092	-2.13712
5915.260	16.95263	-6.52477	12.12060	-1.28364
5919.258	16.05775	-5.72977	12.06610	-0.08699
5923.256	15.18231	-4.89625	12.00170	-0.61954
5927.285	14.82801	-5.03584	12.02613	-0.63620
5931.264	15.11662	-5.58392	12.00452	-0.35953
5935.253	14.80136	-4.87321	12.05295	-0.42386
5939.259	14.22312	-5.62561	11.88230	-0.33075
5943.257	14.15475	-5.37207	12.00844	-0.22827
5947.260	13.99001	-5.42448	12.13503	-0.27525
5951.254	11.64232	-12.01577	12.23147	-0.36396
5955.260	12.94099	-11.80424	11.97508	-0.36827
5959.257	16.07977	-5.39715	11.96403	-0.31417
5963.259	15.18106	-5.78805	11.85942	-0.37881
5967.259	14.60186	-4.82106	11.82352	-0.39036
5971.302	13.86217	-5.14917	11.68100	-0.42984
5975.268	13.51034	-4.57394	11.76785	-0.41163
5979.254	14.51544	-4.43194	11.56128	-0.33291
5983.259	15.02642	-5.08020	11.45002	-0.40085
5987.257	15.37434	-4.84041	11.98270	-0.59620
5991.263	15.16262	-4.55796	12.55084	-0.57272
5995.273	15.02429	-5.17867	13.47345	-1.52840
5999.269	14.93325	-6.73793	13.80070	-1.25892
6003.254	15.66691	-6.07883	14.30123	-1.30510
6007.259	15.90238	-6.42725	15.66422	-1.52174
6011.260	16.00846	-6.46751	15.75136	-2.04981
6015.256	15.68780	-5.84049	11.86289	-1.29709
6019.253	15.33982	-6.35863	12.00196	-1.14038
6023.259	14.47836	-5.12765	11.71791	-0.80799
6027.257	12.85732	-5.85557	12.06237	-1.47872
6031.253	13.01652	-5.84640	11.73428	-1.47987
6035.258	15.06255	-5.72254	11.80849	-1.54819
6039.257	15.98789	-5.72316	11.76837	-1.38539
6043.255	16.81990	-5.79947	11.69290	-1.09356
6047.255	15.79595	-5.59198	11.63435	-1.21456
6051.262	15.59273	-12.42071	11.32987	-1.21945
6055.259	15.88374	-12.82729	11.40639	-0.91906
6059.253	16.02188	-12.58174	11.53227	-0.76305
6063.316	16.18306	-12.45317	11.47774	-0.57839
6067.257	16.57046	-12.27040	11.59010	-0.48535
6071.257	16.27849	-12.19352	11.64711	-0.30597
6075.252	18.28937	-12.18917	11.68108	0.10683
6079.259	16.19828	-5.33424	11.71546	0.04591
6083.255	15.61159	-5.12520	11.66503	0.48936
6087.257	15.60392	-4.96987	11.48156	0.51686
6091.251	15.61529	-4.91505	11.42232	0.61385
6095.316	16.33283	-5.09721	10.54780	-0.18275
6099.272	15.59913	-4.66160	11.39585	-0.71846
6103.258	15.60852	-4.01139	11.15838	-1.24113
6107.254	16.05165	-4.41394	11.21305	-0.68985
6111.254	15.71250	-4.21982	11.05082	-1.01079
6115.256	13.62598	-4.01053	10.83817	0.16784
6119.251	16.29232	-4.90036	10.98418	-0.33500
6123.252	15.29411	-4.91402	10.93914	-0.13138
6127.260	14.20509	-5.07193	10.93270	-0.44248
6131.263	15.02503	-4.98657	10.98621	-0.34056
6135.262	13.29314	-4.28865	11.02650	-0.48833
6139.257	13.37026	-4.18167	11.09152	-0.28147
6143.253	14.57220	-4.34517	11.09198	-0.35511
6147.256	14.02496	-3.79107	10.94933	-0.32211
6151.249	14.51744	-4.85574	11.09853	-0.37061
6155.257	14.39902	-4.74694	11.23010	-0.60441
6159.254	14.56936	-4.15977	11.41366	-0.14337
6163.251	13.16532	-3.88466	11.37619	1.21319
6167.256	14.23235	-3.39453	11.15296	1.90337
6171.252	14.15820	-2.74206	11.32428	2.13150
6175.262	12.92694	-2.73884	11.48394	1.20599
6179.251	13.11189	-2.60425	11.68788	1.28559
6183.255	17.49273	-4.16551	11.80721	0.73076
6187.252	17.40240	-4.10237	11.83457	0.53171
6191.256	13.34115	-3.70626	12.02674	0.22991
6195.252	14.08141	-2.83351	11.84045	0.25874
6199.131	12.97926	-3.10701	11.62490	0.27959
6203.126	12.84956	-2.74880	11.42480	0.38240
6207.131	12.74950	-2.84346	11.46137	0.51017
6211.129	9.34887	-3.21786	10.79385	0.79748
6215.126	12.90517	-2.66938	10.86512	0.72992
6219.127	13.58672	-2.87946	11.94496	0.77424
6223.149	14.56923	-2.77134	11.77522	0.70144
6227.124	14.02599	-2.51596	11.75277	0.69232
6231.160	12.74393	-2.45383	11.55492	0.30833
6235.144	12.73970	-2.74028	12.08250	0.66172
6239.126	14.38141	-2.37142	11.75610	0.78382
6243.125	12.60973	-2.37013	11.62990	1.22073
6247.128	12.57042	-2.43347	11.57729	1.25620
6251.127	13.28968	-2.26256	10.90078	0.91295
6255.125	13.07679	-2.25692	11.08596	0.72692
6259.125	12.52679	-2.64668	11.44277	1.26388
6263.137	14.33047	-2.59683	12.22194	0.86971
6267.682	12.82255	-1.85322	13.26824	1.14560
6271.140	12.47413	-2.42471	11.18871	1.91923
6275.128	14.80827	-2.26415	11.01400	1.51638
6279.130	14.23403	-2.35347	10.84094	1.00002
6283.125	12.73788	-2.43598	11.19237	0.75524
6287.121	12.57065	-2.61869	11.22100	1.30048
6291.128	12.65661	-2.58389	10.83884	1.01813
6295.126	12.24896	-2.95728	10.54373	1.16652
6299.128	11.99391	-1.40795	11.56667	1.45736
6303.123	15.35094	-2.60266	11.73821	1.00933
6307.133	13.09633	-1.45409	11.09126	1.17000
6311.127	11.68415	-1.83984	10.93009	0.57583
6315.124	12.38330	-1.88535	11.28667	1.26197
6319.119	12.05013	-2.02147	11.52986	0.95899
6323.124	11.72455	-1.99788	11.23919	0.73262
6327.138	11.60558	-2.55741	10.76583	0.80407
6331.127	14.52730	-3.58468	11.48284	1.23104
6335.124	12.72369	-2.15700	11.49645	1.41643
6339.127	11.66770	-2.63037	11.30469	1.32251
6343.123	12.74527	-2.92989	11.17605	1.01051
6347.171	12.61034	-2.11836	10.98810	0.71848
6351.128	12.48078	-2.62227	11.04369	0.72144
6355.144	11.74213	-2.68732	11.21962	0.84192
6359.125	11.87315	-3.00083	11.10519	1.09205
6363.124	11.98750	-2.58059	10.88132	1.05397
6367.120	13.25674	-3.46908	14.85533	0.28029
6371.128	12.81771	-3.32246	13.99999	0.21396
6375.125	12.73691	-3.01444	13.17539	0.90228
6379.127	13.13512	-0.28271	11.96567	0.64874
6383.119	12.39000	-0.77061	11.49476	0.79483
6387.128	12.28330	-3.08649	11.44299	0.81726
6391.131	11.68031	-3.18207	10.89238	0.92008
6395.126	14.22577	-3.39633	10.46839	0.96753
6399.118	13.78003	-3.22626	15.28127	0.21739
6403.121	13.60786	-3.29441	14.42293	0.78354
6407.130	14.14611	-3.38671	13.31542	0.69829
6411.135	12.98091	-3.27780	12.25401	0.84530
6415.128	10.20904	-3.14134	12.36118	1.00788
6419.123	12.07756	-2.64316	11.57710	1.24965
6423.123	12.14406	-2.91162	10.90257	1.14982
6427.133	13.95376	-2.64984	10.72812	0.95070
6431.132	13.55860	-2.38727	12.72154	0.15782
6435.126	14.05862	-2.37107	10.80218	0.28346
6439.122	13.43317	-2.53026	11.01297	0.46033
6443.122	13.44301	-3.05064	11.15656	0.77240
6447.122	11.60947	-3.45010	10.62852	1.13583
6451.126	10.39724	-3.08761	10.97863	0.97446
6455.119	11.59277	-2.82771	10.75648	0.64102
6459.128	13.04827	-2.51945	10.92655	0.88502
6463.125	15.04464	-2.39575	14.06446	0.57588
6467.126	13.04678	-2.40507	13.75139	0.53500
6471.154	12.11631	-3.04901	13.55576	0.50453
6475.130	12.64111	-2.97858	12.71732	0.89732
6479.154	12.98817	-3.05057	11.85778	0.91742
6483.124	12.54779	-2.47486	11.16170	0.91667
6487.125	11.85523	-1.97908	11.15549	1.05442
6491.119	11.10343	-1.63609	12.25453	1.00111
6495.126	12.73613	-1.91988	11.98158	1.15583
6499.122	12.90857	-3.23198	11.35900	1.34405
6503.121	12.71032	-3.43745	12.67017	0.77026
6507.116	12.78094	-3.70695	12.40517	0.74043
6511.120	12.91619	-3.15310	12.26436	1.14688
6515.124	12.88091	-2.04534	11.27491	1.17715
6519.121	12.77202	-1.85352	11.74447	1.23645
6523.119	12.71840	-1.43860	11.38371	1.37702
6527.136	11.90298	-1.33112	12.09804	0.69625
6531.125	13.00843	-3.86510	12.01271	0.95303
6535.120	13.01418	-3.75233	11.13657	0.98712
6539.120	13.13665	-1.57778	11.39122	1.23246
6543.124	13.70226	-3.48236	11.70549	1.18825
6547.119	11.24977	-2.78529	11.70178	0.47436
6551.119	12.82292	-2.21434	11.47944	0.93353
6555.124	12.05608	-1.20989	11.22145	1.20415
6559.121	12.10347	-2.12599	12.82429	1.01282
6563.124	13.67260	-3.84527	13.95011	0.32518
6567.116	13.88135	-3.85842	11.31166	0.00848
6571.119	13.19291	-3.36627	10.87917	-0.08202
6575.123	13.91834	-3.51725	10.66124	0.52292
6579.120	13.39724	-2.34774	11.02244	0.88475
6583.117	13.52667	-2.18772	11.23038	0.85259
6587.125	12.34574	-0.59645	11.15061	1.08052
6591.121	13.91500	-2.87807	11.22611	2.15141
6595.124	13.51757	-2.09762	11.23726	1.45053
6599.124	11.97197	-1.72850	10.31379	1.60457
6603.125	9.47423	-1.17779	7.70363	3.43124
6607.124	9.70673	0.00982	7.55137	4.18061
6611.123	5.22495	0.98088	9.29413	3.50903
6615.119	6.71615	1.51975	4.46243	3.90477
6619.125	5.20600	3.20540	4.10853	5.90509
6623.121	5.01361	4.45823	0.98015	5.95822
6627.117	5.01709	4.21612	1.83100	5.80073
6631.124	-0.58498	3.49172	-0.43447	6.29247
6635.120	0.72814	4.88671	0.03800	8.29147
6639.125	-0.88193	5.39358	-0.45969	8.58423
6643.118	-0.80888	6.99731	-0.98874	8.74969
6647.119	-1.27872	7.15777	-0.76285	8.67211
6651.122	-0.96028	7.18178	-0.89870	8.67359
6655.120	-0.95547	7.34014	-0.65486	8.39198
6659.123	-0.04626	7.01229	-1.00104	8.55870
6663.122	-0.92713	6.29900	-1.08041	8.68133
6667.121	-1.12980	5.87329	-1.53404	8.84388
6671.120	-1.58046	6.25329	-1.27936	8.78183
6675.121	-2.00269	7.09616	-1.31828	8.65388
6679.127	-1.45165	7.13650	-1.28063	8.72242
6683.123	-1.12092	7.04158	-1.35824	8.54409
6687.119	-1.09644	7.20038	-1.52575	8.35747
6691.118	-0.80682	7.23834	-1.16007	8.29357
6695.137	-0.51771	7.07283	-1.54391	8.15538
6699.122	-0.46676	6.68452	-1.57711	8.56741
6703.156	-1.60288	6.36990	-1.46040	8.32155
6707.117	-2.37481	6.25628	-2.29780	8.30884
6711.121	-1.86873	5.95236	-0.72985	8.01220
6715.117	-0.50786	6.35735	-1.12732	8.08282
6719.122	0.02080	6.45321	-1.62673	8.52411
6723.124	-0.20874	5.74538	-1.26904	8.46857
6727.136	-0.65503	5.46321	-1.64523	8.30303
6731.123	-1.04166	5.59987	-1.62820	8.27374
6735.117	-1.64444	5.68169	-1.61012	8.37530
6739.117	-0.14134	6.26899	-1.50819	8.40922
6743.120	-0.23060	6.59334	-1.60754	8.35705
6747.121	-1.58869	6.64575	0.63166	8.23384
6751.117	0.01921	6.84789	-0.26848	7.88706
6755.122	-0.22296	6.96066	-0.56543	8.79990
6759.117	-1.41043	6.56626	-0.56972	8.49986
6763.126	-2.16984	6.52849	-0.53947	8.40247
6767.116	-2.34047	6.89541	-1.30208	8.27807
6771.117	-1.64848	6.60184	-0.99209	8.27336
6775.116	-0.12151	6.32492	-0.93428	8.37326
6779.116	0.00313	6.61497	-0.73489	8.34376
6783.116	-0.06448	6.47865	-0.80645	8.43301
6787.137	-1.40361	6.29939	-0.66895	7.95840
6791.117	-2.14830	5.88585	-0.85513	7.82125
6795.117	-2.44791	5.93490	-0.74417	8.32212
6799.118	-2.31604	6.00507	-0.89753	8.26424
6803.120	0.38740	5.87463	-0.96388	8.44917
6807.119	-0.13282	5.85326	-1.08215	8.40454
6811.117	-0.22048	5.86830	0.42418	8.44518
6815.122	-2.22404	5.88445	-1.04535	8.64547
6819.116	-0.74183	5.68327	-1.22209	8.88688
6823.119	-2.08015	5.68563	-1.20527	8.87142
6827.130	0.38405	5.63182	-1.16267	8.55446
6831.119	0.09513	5.63213	-1.22189	8.71623
6835.120	-1.82190	5.74290	-1.07790	8.70037
6839.115	-1.15826	6.26069	-1.20819	8.53758
6843.116	-1.91142	7.52937	-1.05416	7.77722
6847.131	-1.96454	7.26564	-0.84731	8.47413
6851.120	-0.28515	6.94599	-1.16461	8.25501
6855.122	-0.11684	6.73267	-1.18071	8.68919
6859.115	-2.08699	7.05510	-1.29467	8.38115
6863.115	-2.03353	7.05093	0.09411	8.58962
6867.115	-2.28762	7.20598	-1.22769	9.08370
6871.116	-2.21779	7.05274	-1.36967	8.87672
6875.116	-0.20226	7.10667	-1.16319	8.24219
6879.118	-2.30873	7.10548	-1.10482	8.76442
6883.118	-2.47506	6.91074	-1.01203	8.92805
6887.114	-2.53531	6.87017	-0.66759	8.76085
6891.126	-1.90849	6.95682	-1.20938	8.92795
6895.120	-1.17319	6.98022	-1.33326	8.79086
6899.116	-0.70384	6.94805	-0.95204	8.60189
6903.114	-2.28720	6.86158	-1.20571	8.85352
6907.115	-2.30315	6.82787	-1.05431	8.74398
6911.118	-2.03072	6.88590	-0.84295	8.43503
6915.115	-1.93596	7.24286	-1.10058	8.24850
6919.120	-0.57414	6.79593	-0.97921	8.55552
6923.132	-1.52161	6.76727	-0.95261	8.43804
6927.113	-1.68389	6.55980	-0.85845	8.29637
6931.119	-2.14275	6.70578	-1.04074	8.37790
6935.115	-0.07363	6.96267	-0.92128	8.17791
6939.113	-1.06937	7.12998	-1.08959	8.01229
6943.110	0.48810	6.53947	-0.88317	7.99891
6947.112	-0.77062	6.50741	-1.04094	8.52193
6951.116	-1.46152	6.50288	-1.07049	8.43841
6955.117	-2.60352	6.34320	0.99710	8.28743
6959.110	-2.99958	6.49104	0.56764	8.05431
6963.113	-1.23595	6.82253	-0.93922	7.93711
6967.113	0.50361	6.54056	-0.56101	8.06525
6971.123	-0.86473	6.77492	-0.81846	8.65221
6975.117	-1.42131	6.66827	-1.08646	8.27394
6979.117	-1.86203	6.66230	0.44763	8.15487
6983.117	-3.00222	6.62756	-0.07502	8.65844
6987.109	-1.63598	3.48112	-0.53414	8.60775
6991.112	-1.68216	6.89577	-0.66967	8.50731
6995.115	5.30161	3.67439	-0.77595	8.62570
6999.117	-1.61766	6.73950	-0.91408	8.66382
7003.112	-1.77489	6.56969	-1.02694	8.58268
7007.117	3.65641	-1.10878	-0.84166	8.80926
7011.113	-1.83464	6.23028	-1.10452	8.94181
7015.124	-1.95252	6.23119	-1.23087	9.11798
7019.116	-1.88544	5.95186	-1.21095	9.04841
7023.113	-1.29355	5.77168	-1.08170	8.89374
7027.130	-0.71221	5.81247	-1.21112	8.97847
7031.120	4.62340	5.43821	-1.23590	9.10632
7035.112	-1.26974	5.95656	-1.24337	9.06271
7039.112	-1.64481	5.74199	-1.33391	9.16458
7043.116	-1.52548	5.73922	-1.35541	9.01119
7047.114	-2.03474	5.74263	-1.24808	9.10044
7051.113	-1.81590	5.92167	-1.38776	9.13617
7054.987	-1.01690	5.98246	-1.21288	9.03280
7058.991	0.48177	6.12536	-1.30677	9.04253
7062.994	-0.73474	6.29589	-1.29844	8.71529
7066.991	-2.42111	6.21606	-1.40093	8.42357
7070.987	-2.90931	6.03816	-2.63631	7.46719
7074.987	-2.52379	6.34555	-3.35763	7.26240
7078.986	-2.50301	6.00767	-4.31131	5.59908
7082.988	-3.07256	3.41621	-4.57250	4.79511
7086.991	-3.63312	2.81475	-5.18557	4.47000
7090.990	-3.97484	2.62910	-3.60766	4.30249
7094.986	-4.21965	3.60189	-3.96274	3.69578
7098.992	-4.31879	2.84205	-3.91057	3.57492
7102.995	-4.31445	3.07580	-3.90679	3.48909
7106.986	-3.78138	3.11861	-4.15969	2.63485
7110.986	-3.30260	3.15925	-4.57850	2.81325
7115.002	-2.58836	2.40454	-4.23999	2.92634
7118.995	-2.76960	2.23665	-4.22799	3.57532
7122.985	-3.13657	2.33928	-4.40004	2.88836
7126.991	-2.81719	2.75506	-4.32883	3.05121
7130.993	-2.97418	2.49609	-4.54321	3.40106
7134.987	-3.48546	2.53982	-4.37219	3.37750
7138.991	-3.87522	2.37632	-2.25593	3.33142
7142.992	-3.95491	2.36164	-2.14382	3.51843
7147.024	-3.63616	2.40381	-2.14793	3.55414
7150.989	-3.91543	2.32074	-4.36101	3.80461
7154.984	-3.66686	2.27801	-4.21535	3.84074
7158.994	-3.50039	2.49084	-4.21659	3.82554
7162.991	-2.98789	2.52504	-4.18855	3.79784
7166.984	-2.99019	2.54624	-4.34181	3.49452
7170.984	-3.30975	2.43958	-4.40535	3.37985
7174.985	-3.34831	2.48660	-4.04325	3.79167
7178.988	-3.18754	2.38955	-4.00045	3.59735
7182.982	-3.51211	2.34245	-4.05833	3.44138
7186.995	-3.56136	2.18816	-4.05908	3.67757
7190.988	-3.82976	1.84946	-4.21192	3.63002
7194.980	-3.78637	1.98473	-4.21943	3.60900
7198.984	-3.95938	1.72775	-4.16754	3.60978
7202.986	-3.59943	1.23168	-1.99235	3.71922
7206.989	-3.67964	1.38031	-1.87158	3.51166
7211.035	NaN	NaN	NaN	NaN
7218.988	-3.24897	2.00099	-2.78795	3.98310
7222.989	-3.00163	1.96379	-2.56550	3.89727
7226.992	-3.51196	1.96869	-2.18441	3.87716
7231.014	-2.94846	2.17849	-2.52592	4.18427
7234.989	-3.06991	2.33269	-2.93391	4.13650
7238.983	-3.15246	2.41477	-2.72590	4.23165
7242.989	-2.01972	2.47629	-3.15360	4.34047
7246.985	-3.13115	2.47574	-3.07451	4.41083
7250.984	-3.14080	2.48330	-2.46840	4.31756
7254.988	-3.20476	2.56273	-2.74781	4.35468
7258.991	-3.16683	2.50605	-2.88475	4.31222
7262.991	-3.47030	2.52773	-2.62269	4.20694
7266.989	-3.68058	2.51007	-3.02814	4.18813
7270.994	-3.97583	2.50347	-3.30430	4.16982
7274.985	-3.70158	2.45004	-3.31779	4.11194
7278.988	-3.79821	2.39532	-3.74617	3.93207
7282.982	-3.93804	2.39238	-3.97785	3.90712
7286.987	-4.01361	2.38169	-4.16411	3.76287
7290.990	-4.15194	2.41218	-3.99348	3.70295
7294.984	-4.25741	2.30870	-3.84238	3.57363
7298.989	-4.37026	2.36114	-3.47159	3.62822
7302.984	-4.41655	2.45690	-3.48657	3.55392
7306.987	-4.58982	2.81061	-0.89793	3.67192
7310.984	-4.79418	3.52629	-3.31410	4.45315
7314.988	-4.63637	2.68164	-3.60190	3.75819
7318.985	-4.71563	2.74743	-3.38051	3.74672
7322.987	-3.84693	3.08992	-3.48494	3.80227
7326.982	-3.45789	3.44275	-3.42754	3.70516
7330.995	-3.53189	3.10175	-3.38976	3.86777
7334.991	-2.85138	3.48805	-3.28509	3.67037
7338.980	-3.21614	2.52398	-0.91805	3.90260
7342.987	-3.24298	1.94423	-2.06505	4.15580
7346.998	-3.23289	1.62799	-2.03925	4.23891
7351.002	-3.21344	1.71818	-2.27570	4.66820
7354.984	-3.04600	1.92752	-3.24642	4.87085
7358.988	-3.01304	1.94012	-3.15070	4.41880
7362.986	-2.87767	3.02555	-3.25488	3.89830
7366.979	-2.38549	2.16173	-1.91591	4.05008
7370.982	-3.12549	2.15871	-0.61813	4.33610
7374.984	-3.02935	1.79692	-3.37190	4.96865
7378.982	-2.80387	1.83405	-3.36003	4.17101
7382.982	-3.04506	2.85017	-1.93908	4.20988
7386.985	-2.20240	2.38732	-2.16312	5.01586
7390.983	-3.02366	1.89435	-3.45089	4.53896
7395.000	-2.87116	2.62064	-2.01727	3.97901
7398.984	-2.90146	2.42298	-2.22760	4.68468
7402.986	-2.93287	2.12774	-3.51570	4.64779
7406.982	-2.83454	2.29627	-2.22703	4.34805
7410.981	-2.70020	2.36101	-2.37060	4.64646
7414.985	-2.93168	2.29572	-3.59110	4.40781
7418.982	-2.90804	2.05368	-0.95500	4.75888
7422.985	-3.02668	2.69010	-2.17893	4.70570
7427.455	-2.82132	2.14716	-3.53669	4.57581
7430.984	-2.96777	1.74084	-1.44798	4.75011
7434.990	-2.98324	3.03970	-3.99773	4.84017
7438.984	-3.28271	1.92277	-4.46428	4.73050
7442.981	-3.11811	1.93738	-4.94450	4.33721
7446.987	-7.15997	0.72737	-4.94066	4.34305
7450.981	-6.53534	0.46061	-4.75144	3.72323
7454.983	-7.04188	-0.15739	-1.62011	3.81633
7458.977	-6.95122	0.74429	-2.71030	2.97695
7462.984	-7.01929	0.84782	-5.97715	4.46399
7466.982	-7.22221	0.35212	-6.22419	4.22058
7470.982	-7.20370	0.14548	-6.19783	3.78326
7474.996	-6.99372	0.32174	-6.13650	3.73833
7478.987	-5.87857	0.61695	-6.12008	3.59917
7482.984	-5.91813	0.65922	-6.14018	3.56466
7486.979	-6.33444	0.19625	-6.37636	3.65288
7490.985	-5.96716	0.98362	-6.37797	3.84059
7494.979	-5.84414	0.24394	-6.37900	4.16563
7498.982	-7.65481	0.32333	-3.22854	3.70193
7502.982	-6.20128	0.35738	-3.38993	3.70721
7506.977	-5.99595	0.30839	-6.22900	2.85995
7510.983	-5.88073	0.47888	-6.15684	3.19729
7514.981	-5.88749	1.00029	-6.10571	3.91186
7518.988	-5.59410	0.17460	-3.27158	3.18369
7522.979	-5.52522	0.42299	-3.15746	3.64466
7526.984	-5.20873	0.96552	-5.91334	2.51279
7530.997	-5.53751	0.71206	-6.03633	3.01921
7534.983	-6.07658	0.92947	-2.57273	2.53899
7538.981	-7.70034	0.83734	-1.68751	3.26920
7542.987	-5.57815	0.38304	-5.80909	2.48239
7546.980	-5.34501	0.77551	-5.64449	3.01991
7551.016	-6.05874	0.18525	-6.04789	3.18557
7554.980	-6.38023	0.16736	-7.41119	2.65606
7558.986	-7.57681	0.09210	-6.84363	2.83160
7562.981	-6.00629	1.15213	-6.22652	2.61059
7566.980	-6.32056	0.17990	-6.22790	2.42303
7570.973	-6.32042	0.50380	-5.92039	2.68823
7574.977	-6.43378	0.38545	-5.68106	2.19119
7578.980	-6.20509	0.54996	-5.43297	2.24890
7582.981	-6.29261	0.73094	-5.20905	2.17778
7586.975	-6.16371	0.44696	-5.43873	2.27933
7590.983	-6.31836	0.58911	-5.53847	2.21852
7594.978	-6.26216	0.73513	-5.32169	2.28905
7598.984	-6.12816	0.78749	-5.38309	2.19328
7602.988	-6.11339	0.78242	-5.43546	2.14825
7606.978	-6.14737	0.83615	-5.51037	2.06141
7610.982	-6.08389	0.81980	-5.34543	2.03454
7614.976	-6.01606	0.85365	-6.63744	4.12080
7618.982	-5.95488	0.61605	-6.82716	3.78693
7622.978	-6.13760	0.85328	-6.39033	2.81164
7626.979	-4.46310	0.79606	-6.95824	3.03295
7630.983	-5.84566	0.81523	-6.90573	2.35074
7634.983	-5.74340	0.95729	-6.33150	2.26980
7638.976	-5.47950	0.83076	-5.96367	2.47346
7642.986	-5.35500	0.50631	-5.67561	3.20907
7646.973	-5.45472	-0.26186	-5.56716	2.69135
7650.976	-4.73061	1.05973	-5.61687	2.43618
7654.976	-5.40498	1.44033	-6.37145	1.96096
7658.980	-5.47995	1.41919	-6.46003	2.35216
7662.996	-5.63660	1.09504	-6.61359	2.37234
7666.981	-4.66475	1.27048	-6.75345	2.45393
7670.977	-5.59147	1.25114	-6.56505	2.30435
7674.979	-5.02021	1.17292	-1.31483	2.62983
7678.981	-4.36296	1.23631	-1.99620	2.26200
7682.982	-5.71308	0.53641	-6.53918	2.94423
7686.985	-5.90897	1.33085	-6.13279	2.61882
7690.976	-6.30377	0.99425	-6.46855	1.94199
7694.980	-4.26756	0.65722	-6.35515	3.00059
7698.977	-5.88252	0.47520	-5.96137	1.98649
7702.982	-3.76364	0.24168	-6.61305	2.92383
7706.978	-6.52439	1.28167	-6.17612	3.29240
7710.977	-5.40144	0.94924	-6.55261	1.99350
7714.976	-4.66115	1.16371	-5.49003	1.92787
7718.981	-5.10285	-0.24619	-6.92902	0.09467
7722.978	-9.31281	1.34729	-6.71767	3.39256
7726.981	-8.69792	0.37545	-6.96308	2.96173
7730.979	-12.76463	-0.60505	-10.04980	1.77729
7734.979	-12.66393	0.81183	-12.71625	2.18649
7738.975	-13.36842	-0.08844	-14.27643	1.80878
7742.976	-12.61011	0.45535	-14.56767	1.52029
7746.975	-15.31868	-0.65420	-14.23599	1.63986
7750.980	-15.63679	0.58443	-13.82616	1.43415
7754.975	-15.51661	1.10411	-13.15023	1.99619
7758.981	-12.85286	-0.39222	-14.74093	1.53165
7762.977	-15.50292	-0.73601	-14.36595	1.62157
7766.987	-15.58645	0.10388	-14.45023	1.79315
7770.997	-13.79276	-0.54297	-14.60311	1.63603
7774.985	-14.57413	-0.50464	-14.45674	2.02879
7778.974	-12.72386	-0.14092	-14.82377	1.70862
7783.012	-14.91812	1.14035	-11.11917	1.64723
7786.978	-13.86813	0.44111	-13.51485	1.72161
7790.973	-14.11801	0.49589	-14.75440	1.35772
7794.975	-14.05561	-0.24160	-14.84403	1.49859
7798.976	-12.40074	1.14362	-13.93866	1.33565
7802.975	-13.95395	-0.57553	-14.49076	1.27629
7806.973	-13.30569	-0.02256	-14.80257	0.29677
7810.979	-13.93588	1.70337	-14.19797	1.74168
7814.972	-13.12347	0.05440	-14.19366	2.13608
7818.976	-13.64181	1.35021	-14.82618	1.99534
7822.979	-13.90969	0.75037	-11.20737	2.97946
7826.973	-11.62363	-0.05566	-13.05255	1.85391
7830.971	-14.24284	0.81981	-14.97842	2.01280
7834.972	-14.07851	-0.16894	-10.91224	-5.21372
7838.974	-12.85180	0.82464	-10.41599	-0.07603
7842.974	-13.48106	0.39578	-11.13977	-5.21737
7846.973	-13.05526	0.97111	-8.44271	0.30098
7850.982	-11.37257	-0.03001	-13.51147	2.75831
7854.981	-13.55949	0.86416	-14.69624	-10.34495
7858.972	-14.18279	-1.28599	-14.59084	0.79576
7862.973	-13.56305	0.33821	-11.59434	-10.90392
7866.975	-11.92142	0.31670	-12.97446	2.81084
7870.975	-12.21378	0.58271	-11.62859	-10.29349
7874.969	-14.07725	0.21237	-19.99372	-11.90361
7878.978	-13.24675	0.29219	-12.78163	1.84113
7882.970	-12.57493	0.50149	-16.32483	0.78739
7886.978	-11.82311	0.74205	-11.33578	0.75723
7890.980	-14.02543	0.54486	-12.06093	2.10577
7894.980	-12.75587	0.60023	-12.24194	0.59984
7898.968	-13.10325	-2.40153	-11.07907	-0.16085
7902.993	-13.02709	0.42482	-11.45670	1.65486
7906.977	-13.03451	0.37378	-14.45128	2.10156
7910.849	-12.87834	0.82390	-14.17238	1.24909
7914.852	-13.34512	-0.51174	-14.29142	2.32652
7918.850	-13.03456	1.20027	-14.80280	2.50315
7922.848	-14.35906	0.92463	-14.09271	-0.34737
7926.847	-11.38445	1.30536	-17.55330	0.02395
7930.857	-13.21634	1.05606	-12.08214	2.35824
7934.854	-14.03297	0.49803	-14.64471	0.26369
7938.858	-12.41230	0.95676	-14.56783	2.79773
7942.852	-13.11088	0.78473	-21.62655	-0.97468
7946.849	-13.52032	0.64040	-14.19382	2.05111
7950.852	-11.48890	1.06534	-14.09803	0.98165
7954.845	-12.90060	1.15109	-14.41650	0.59272
7958.852	-12.94973	1.29290	-14.76078	0.59119
7962.853	-13.52306	0.34894	-14.49937	2.28314
7966.852	-13.61944	1.20932	-14.26114	2.65873
7970.900	-13.97825	1.20915	-13.02356	2.35053
7974.857	-14.01900	0.97018	-12.73958	2.61856
7978.853	-14.02674	1.01184	-12.48398	2.59287
7982.855	-13.90719	0.98989	-12.44456	2.50947
7986.851	-13.49373	0.85251	-14.52186	1.94381
7990.872	-13.22841	0.78888	-14.57878	2.08399
7994.851	-12.90473	1.50706	-14.51179	1.77876
7998.847	-12.30052	1.52133	-14.39329	1.81640
8002.849	-13.11820	1.10963	-13.60718	2.40207
8006.843	-13.37160	0.97631	-14.88873	2.14111
8010.850	-12.55763	1.18826	-15.01700	1.69896
8014.847	-12.78066	1.29901	-14.92215	2.28930
8018.847	-14.28744	-0.23791	-15.05971	1.81004
8022.848	-13.75146	-2.05582	-15.29767	1.73701
8026.856	-13.80561	0.67579	-15.04205	1.88043
8030.861	-12.31308	1.43795	-19.43165	-1.86705
8034.847	-13.49091	1.42477	-15.20087	2.32988
8038.881	-12.56306	1.49716	-15.18943	1.55766
8042.852	-13.14207	1.51055	-13.73339	2.27651
8046.844	-13.96484	1.61841	-15.13489	2.10822
8050.849	-13.27212	1.54102	-14.93707	1.59852
8054.846	-14.28037	1.25244	-19.48555	-0.61751
8058.850	-13.17732	0.81176	-20.45157	-2.48347
8062.845	-13.50305	1.19955	-12.94419	2.58893
8066.852	-13.45073	1.25385	-15.36008	2.01716
8070.847	-13.10363	1.60022	-13.39271	1.58042
8074.848	-15.98204	0.55580	-15.27381	1.40634
8078.844	-12.90362	1.26479	-20.87754	-2.47822
8082.850	-12.91359	1.49945	-20.71813	-0.27374
8086.846	-14.04500	1.31617	-20.96396	-0.74294
8090.849	-15.59823	0.04574	-13.16805	2.43722
8094.840	-13.85112	1.49187	-15.73327	1.56374
8098.863	-12.96691	1.69299	-14.80632	2.33202
8102.847	-13.19204	1.41048	-15.64397	2.55174
8106.845	-13.21601	1.83958	-15.62360	1.71900
8110.857	-13.34585	1.57517	-15.15147	2.68593
8114.845	-13.74751	2.14360	-20.23983	-1.55483
8118.848	-13.18560	1.56209	-13.71687	2.68947
8122.845	-13.17623	1.58345	-15.04330	2.47618
8126.848	-13.18560	2.07182	-15.12046	2.52217
8130.853	-15.05103	-0.10266	-21.27994	-1.01968
8134.849	-13.07387	1.85921	-14.59686	2.11076
8138.847	-12.89727	2.12165	-20.55336	-0.10501
8142.843	-13.07083	1.64495	-21.42443	-0.68297
8146.853	-9.70145	1.99216	-14.86038	2.29660
8150.846	-13.08621	1.51396	-15.24212	2.16279
8154.848	-13.27181	1.78852	-15.25949	2.35333
8158.847	-12.83668	1.79215	-14.30615	2.33954
8162.845	-13.29288	1.60565	-15.45366	1.91650
8166.844	-12.75575	1.37137	-15.53306	2.12590
8170.842	-12.63905	1.44421	-15.66190	0.96616
8174.850	-12.99090	1.35242	-14.34683	1.97934
8178.846	-13.26239	1.44575	-15.61941	2.51201
8182.849	-12.75141	1.47331	-15.11317	2.31296
8186.841	-12.33281	1.81456	-14.24790	2.56724
8190.856	-12.88721	1.15425	-19.13142	-0.70908
8194.848	-13.79026	1.62998	-19.38690	1.77296
8198.842	-13.66369	-1.07664	-20.80220	-1.19337
8202.845	-13.03472	1.76630	-20.84372	0.12691
8206.845	-13.35663	1.03843	-15.69997	-0.21740
8210.847	-14.47306	0.25817	-16.88366	-0.38715
8214.875	-13.79571	0.28884	-17.61726	-0.74933
8218.848	-13.75736	0.97074	-20.29074	-1.31057
8222.844	-13.38745	1.35929	-17.95234	-0.61380
8226.840	-12.79963	1.17241	-17.64805	-1.41860
8230.861	-12.69592	1.74425	-20.87013	-0.72873
8234.850	-12.38969	1.45225	-20.42359	-0.62172
8238.839	-13.74985	-0.92234	-15.44515	1.98603
8242.846	-13.46923	1.10931	-13.57410	1.49467
8246.838	-12.54055	0.10076	-14.13489	1.73709
8250.841	-13.94759	1.06117	-14.79897	1.72269
8254.844	-12.38578	1.37557	-18.27270	-0.95789
8258.842	-14.75001	1.13029	-19.54556	-0.40291
8262.843	-14.08332	1.04318	-15.03138	0.66402
8266.844	-12.05915	1.24510	-18.19202	-1.49173
8270.841	-12.09123	0.81337	-18.29866	-1.39664
8274.849	-12.13363	0.79172	-18.60692	-1.51970
8278.842	-14.12933	1.11718	-13.46749	1.74600
8282.846	-14.33266	0.80095	-12.81750	1.63605
8286.862	-14.32940	1.10435	-14.02538	1.64516
8290.846	-13.56244	0.86507	-16.67510	-0.17058
8294.841	-13.89671	1.23458	-13.86963	2.05389
8298.835	-10.73670	1.13884	-14.52058	0.72579
8302.840	-11.30820	1.09520	-20.22289	-0.24215
8306.842	-13.36422	0.93605	-18.59871	1.03686
8310.845	-13.60571	0.69619	-20.16792	-0.35391
8314.850	-13.68694	-2.25813	-20.20294	-2.04621
8318.842	-13.51349	1.85148	-11.92598	2.11634
8322.842	-13.34806	0.20462	-20.39906	-2.36637
8326.840	-13.59593	0.85886	-20.54193	-1.40136
8330.850	-13.57462	-1.15325	-15.51071	1.19282
8334.847	-13.58022	0.79791	-19.42138	0.61618
8338.840	-13.68680	0.74235	-17.88187	1.06067
8342.844	-13.60132	0.53155	-13.47209	2.15302
8346.883	-14.55423	0.56467	-15.37287	0.94021
8350.860	-13.52928	0.47434	-14.69404	1.21897
8354.846	-13.01583	0.86503	-15.55137	1.75084
8358.845	-13.51398	0.57845	-17.25015	1.58580
8362.839	-12.40867	0.54156	-19.73053	-5.05410
8366.844	-14.04526	0.66634	-14.93070	1.57779
8370.842	-12.01844	3.59177	-8.89276	5.07599
8374.840	-11.70268	0.71133	-7.47090	5.98008
8378.850	-8.82221	3.01198	-3.12851	5.59426
8382.844	-8.15596	2.56443	-7.17604	5.45943
8386.841	-6.12600	3.56635	-4.55781	5.15232
8390.838	-5.16858	1.38459	-4.74314	4.96223
8394.844	-11.01302	2.73117	-6.16643	4.42879
8398.847	-1.02712	1.85712	-4.20353	3.76357
8402.844	-0.90143	2.33005	-4.37648	4.67820
8406.838	-1.25724	2.36256	-1.79586	4.92734
8410.870	-1.17991	2.29229	-3.72425	4.62165
8414.839	-8.71218	1.11593	-4.69401	4.06225
8418.835	-8.88273	1.76207	-5.05353	4.64059
8422.844	-5.03157	1.80783	-4.50177	3.97926
8426.840	-7.20538	-0.98824	-3.42502	4.35964
8430.837	-8.94588	1.20831	-3.74807	4.50688
8434.845	-7.80609	1.22099	-3.85343	3.29616
8438.846	-8.98830	0.27705	-3.60133	3.33289
8442.837	-1.62810	2.15748	-3.48509	2.98687
8446.836	-1.71370	1.87500	-1.34351	3.85838
8450.841	2.27934	2.21513	0.21259	4.40411
8454.839	-1.91754	3.11125	0.10525	3.31061
8458.836	-1.92198	3.23281	-1.33237	4.67298
8462.843	-1.28943	2.93579	-3.49747	5.35369
8466.839	4.37073	-0.63790	-3.57908	5.43336
8470.858	-1.61939	2.76873	-3.64753	4.17410
8474.845	0.48763	2.56003	-3.79942	3.74557
8478.844	1.41355	2.49872	-3.75407	3.74797
8482.843	0.76588	2.36624	-3.90914	3.55638
8486.840	0.08284	1.26832	-3.96153	3.75609
8490.843	-0.37415	1.44273	-3.50314	4.20683
8494.838	7.30056	-0.94262	-5.89085	3.19449
8498.841	5.10706	0.71404	-3.97170	3.39160
8502.833	6.65473	-1.94787	-4.19274	2.87035
8506.836	-1.23531	2.42104	-4.57862	3.13395
8510.840	-1.65426	2.45225	-4.76280	3.34650
8514.890	0.77702	1.59669	-3.63263	3.47294
8518.848	5.98017	-2.27027	-5.49369	3.09413
8522.843	-1.56055	2.20681	-4.46004	3.44995
8526.846	6.04050	1.71928	-3.18769	3.22954
8530.844	6.07013	-1.55088	-4.58405	4.43488
8534.837	-0.85510	2.16659	-3.75711	3.18003
8538.843	-1.80085	2.54562	-4.41534	2.67212
8542.841	6.24931	1.10217	-4.60708	2.90844
8546.837	-0.38179	2.36886	1.11797	3.22007
8550.837	0.56168	1.83499	-3.68765	3.15754
8554.836	3.98963	2.23540	-4.12574	3.07721
8558.841	-0.40673	1.96405	-4.30798	3.14392
8562.841	-1.76418	2.44703	-3.23232	2.52124
8566.839	-0.58918	1.90036	-4.40821	2.94632
8570.839	-0.34226	1.66288	-3.95555	3.07425
8574.840	5.52566	2.01116	-4.45681	3.23322
8578.832	-0.35536	2.44787	-4.21683	2.71065
8582.835	-1.32860	1.14384	-4.47713	3.29209
8586.835	-1.50938	1.92236	-4.16717	3.32705
8590.837	0.13508	2.30386	-2.72892	3.57558
8594.840	-1.68158	1.70170	-3.63646	3.23011
8598.837	-0.93864	2.03399	-4.13483	3.49100
8602.841	-0.67342	2.37458	-3.28330	4.26631
8606.842	0.75017	2.04925	-2.14372	4.03073
8610.841	-0.94792	2.25007	-3.49423	3.73511
8614.837	-1.52987	2.57287	-2.13239	4.94997
8618.838	-1.69252	2.56158	-0.59893	3.94698
8622.868	-1.35879	1.61752	-1.49155	4.03804
8626.834	-1.75262	2.00169	-2.00502	4.27220
8630.853	-1.97768	2.06939	-1.76507	4.69303
8634.839	-1.82859	2.17354	-0.22192	4.57536
8638.835	-1.20122	4.93799	-1.46045	5.05147
8642.831	4.23616	-0.05325	-2.68078	4.98568
8646.838	-1.97111	4.00885	-1.71476	5.16879
8650.864	-1.90234	3.01361	-2.43263	4.61512
8654.844	4.52404	0.61578	-1.85948	4.64961
8658.836	-0.62501	4.76866	-1.55908	5.16273
8662.839	0.56942	3.97752	-2.71223	5.26268
8666.840	-3.04972	4.26872	-1.76314	4.95972
8670.835	-2.26282	4.80329	-3.32919	4.74896
8674.839	-2.91794	5.78964	-3.76660	4.85705
8678.834	-2.39812	6.23402	-4.97475	4.63499
8682.839	-6.25747	11.29609	-3.33871	4.33654
8686.839	-2.45792	4.80860	-1.93678	4.67847
8690.843	-6.49396	4.36171	-1.65371	5.13423
8694.832	-8.33622	5.64592	-5.24526	9.27624
8698.838	-8.73708	6.56922	-2.92490	9.63638
8702.835	-9.36162	9.47525	-2.39217	13.53843
8706.835	-9.88258	11.29742	NaN	NaN
8710.832	-6.88238	10.64740	NaN	NaN
8714.838	NaN	NaN	NaN	NaN
8718.834	NaN	NaN	NaN	NaN
8722.838	NaN	NaN	NaN	NaN
8726.837	NaN	NaN	NaN	NaN
8730.849	NaN	NaN	NaN	NaN
8734.833	NaN	NaN	NaN	NaN
8738.834	NaN	NaN	NaN	NaN
8742.834	NaN	NaN	NaN	NaN
8746.834	NaN	NaN	NaN	NaN
8750.831	NaN	NaN	NaN	NaN
8754.855	NaN	NaN	NaN	NaN
8758.840	NaN	NaN	NaN	NaN
8762.834	NaN	NaN	NaN	NaN
8766.706	NaN	NaN	NaN	NaN
8770.709	NaN	NaN	NaN	NaN
8774.715	NaN	NaN	NaN	NaN
8778.711	NaN	NaN	NaN	NaN
8782.705	NaN	NaN	NaN	NaN
8787.191	NaN	NaN	NaN	NaN
8790.855	NaN	NaN	NaN	NaN
8794.718	NaN	NaN	NaN	NaN
8798.709	NaN	NaN	NaN	NaN
8802.719	NaN	NaN	NaN	NaN
8806.708	NaN	NaN	NaN	NaN
8810.708	NaN	NaN	NaN	NaN
8814.710	NaN	NaN	NaN	NaN
8818.711	NaN	NaN	NaN	NaN
8822.711	NaN	NaN	NaN	NaN
8826.716	NaN	NaN	NaN	NaN
8830.715	-20.56630	9.76977	NaN	NaN
8834.715	-21.54889	9.47590	NaN	NaN
8838.714	-22.06316	8.47853	NaN	NaN
8842.719	-20.02173	-12.07534	NaN	NaN
8846.970	-20.02118	-12.07538	NaN	NaN
8851.263	-20.02050	-12.07543	NaN	NaN
8856.085	-20.01969	-12.07549	NaN	NaN
8860.185	-20.01877	-12.07556	12.45927	14.65548
8864.386	6.97353	6.04951	NaN	NaN
8868.399	4.04120	3.24348	12.38083	7.34073
8871.002	-20.02280	-12.07526	NaN	NaN
8874.715	0.62315	-13.07890	5.57694	11.60529
8878.707	4.61514	6.62221	11.87653	14.28139
8882.705	4.93041	1.52622	9.14360	11.87322
8886.710	6.43434	2.00760	3.91487	6.28430
8890.706	6.14177	-2.63916	7.41436	9.63441
8894.709	5.94182	-2.68966	5.45029	9.42232
8898.704	6.15752	-1.23989	6.91351	6.64750
8902.716	2.54829	-0.67726	-1.52069	4.60671
8906.709	6.03658	1.04930	3.88888	6.80810
8910.703	3.39693	1.38028	3.72902	6.19796
8914.709	5.55691	5.18776	5.07875	6.71442
8918.707	4.25228	3.25724	0.70848	6.29838
8922.709	3.88468	2.58792	3.15924	5.84321
8926.705	5.43051	1.94015	3.41743	6.12247
8930.719	4.70439	1.74156	3.04165	5.76698
8934.711	4.92905	1.61857	-1.48548	4.08912
8938.706	2.22475	-11.58753	1.70036	5.46048
8942.713	5.10002	2.61002	1.47129	3.26145
8946.711	3.67479	2.47289	-0.66764	3.16230
8950.709	2.69562	5.18376	2.58529	3.21157
8954.704	3.97491	2.60117	0.26925	3.17601
8958.710	5.73384	-10.22766	1.82909	3.20379
8962.707	2.82142	-9.79223	1.83881	3.48325
8966.705	2.72677	3.32454	1.81907	3.15120
8970.705	2.93200	4.21261	1.30590	3.66018
8974.715	2.87913	2.38114	1.50676	3.28227
8978.712	2.76965	1.23158	2.40949	3.67469
8982.703	4.88227	2.71680	1.92069	3.97650
8986.708	3.16047	2.57760	2.20424	3.41210
8990.707	2.93611	2.41052	1.86786	3.47797
8994.705	3.11787	0.72614	2.19955	3.42275
8998.704	2.67955	0.32569	2.43003	3.57859
9002.707	4.03801	0.33877	2.23315	4.29505
9006.709	2.77718	1.14824	2.72699	4.15474
9010.701	3.53021	0.89555	2.12838	4.65625
9014.703	3.13249	0.36235	2.24490	5.00401
9018.704	3.47816	0.81848	1.98207	5.81620
9022.708	3.52744	0.43963	3.03927	4.45542
9026.711	4.82868	1.53840	1.91764	4.02818
9030.717	4.97832	-11.72764	3.09371	4.76988
9034.705	2.24574	-11.26021	2.52438	5.20746
9038.715	4.42859	-11.11840	2.87128	5.93421
9042.704	2.30625	-10.18338	3.43007	4.61186
9046.707	5.14035	0.90132	2.77740	5.15985
9050.701	3.40361	1.74370	2.31121	5.38392
9054.709	3.65942	1.16490	2.78894	4.84864
9058.705	3.78481	1.02573	3.78948	4.75750
9062.735	3.52791	0.93381	2.84680	4.56190
9066.711	3.65430	1.41026	2.50586	5.77572
9070.705	2.83187	1.41696	4.09024	4.62498
9074.703	4.27834	1.79152	2.55958	5.14633
9078.704	4.28224	1.31907	2.77376	4.90306
9082.706	2.87611	1.99998	2.54541	5.39461
9086.701	3.64167	1.46716	3.37020	4.97408
9090.702	2.29552	1.81205	2.46555	5.10102
9094.702	3.27086	2.02392	2.47296	5.50219
9098.707	5.66931	1.48098	2.20751	4.89355
9102.709	3.40146	1.51397	2.09938	5.22785
9106.703	4.04088	1.85897	4.67537	4.85115
9110.707	4.16171	1.96994	1.80167	5.09424
9114.705	1.78885	1.40224	1.92999	5.23753
9118.702	4.08325	1.44638	5.59199	4.49531
9122.702	3.75887	2.32654	4.05194	5.04568
9126.746	3.08716	1.42601	1.65567	10.86051
9130.722	3.34613	1.49105	2.83519	4.65910
9134.713	3.34217	1.94401	4.54683	5.09273
9138.703	3.53330	2.63246	4.83348	10.36767
9142.702	3.16941	0.48713	1.27353	11.42448
9146.701	2.69403	1.27069	1.64434	9.79431
9150.709	3.77362	1.74398	1.50705	10.86007
9154.705	4.00981	0.68658	4.12392	5.18486
9158.706	3.39614	1.13247	2.69123	12.06394
9162.703	2.50345	2.11843	-1.35891	10.75179
9166.705	1.66400	2.05023	1.48833	11.87402
9170.702	3.64293	1.10671	0.86523	12.19409
9174.707	4.20321	1.31903	1.57277	10.88878
9178.702	3.91946	1.44670	1.98058	4.39419
9182.706	3.82845	0.59185	2.45158	5.43694
9186.698	3.58222	1.58017	1.72488	5.05556
9190.700	1.96429	2.11532	3.92376	5.20543
9194.712	1.22221	1.49809	5.76649	4.83414
9198.707	3.64845	0.90768	2.47018	4.18480
9202.702	3.73389	1.05437	3.16777	5.23900
9206.700	3.88505	1.55334	1.73423	4.76780
9210.700	4.32878	0.69301	1.95071	5.07382
9214.700	4.67535	0.86842	1.57572	5.24327
9218.703	3.70500	0.89513	3.57201	5.05618
9222.704	4.27076	1.23820	3.38711	5.24718
9226.707	1.21343	1.33177	1.74129	5.62978
9230.719	0.42351	2.61609	0.58004	5.03591
9234.712	0.10719	2.48452	-1.44411	5.25159
9238.709	-3.13380	1.91514	-2.56198	4.75251
9242.700	-5.61409	2.64531	-4.53665	4.83657
9246.701	-4.07006	0.98916	-4.44065	5.06584
9250.702	-3.53555	0.57251	-4.48466	4.80590
9254.700	-3.63891	0.43400	-4.09725	4.74846
9258.702	-3.52771	0.47554	-3.54559	3.77590
9262.704	-3.43776	0.41066	-3.70055	4.19514
9266.704	-3.67156	0.31615	-2.82145	3.63070
9270.703	-3.78672	0.42076	-3.39235	3.29051
9274.703	-3.67257	0.39550	-3.25867	3.00845
9278.705	-3.73974	0.63124	-3.54976	3.31669
9282.701	-3.98842	0.88329	-3.38360	4.26047
9286.719	-3.87366	0.68315	-3.59599	3.54379
9290.701	-3.93878	0.58987	-3.16701	3.43948
9294.703	-3.98778	0.48551	-3.42094	3.22235
9298.698	-3.97755	0.33510	-3.63389	3.15118
9302.700	-3.85624	0.32466	-3.97716	2.92908
9306.701	-3.96940	0.62901	-4.03470	2.49569
9310.698	-2.30405	0.84045	-4.14211	1.89634
9314.693	-4.04910	0.82550	-4.18482	2.50116
9318.708	-4.02902	0.57079	-4.27972	2.61172
9322.702	-3.94661	0.11592	-4.40752	2.49032
9326.698	-3.96891	0.15246	-4.36417	1.80741
9330.753	-3.97467	0.11807	-4.47745	2.08385
9334.707	-4.02159	0.40134	-4.51038	2.08359
9338.705	-3.79109	0.70781	-4.51139	1.94090
9342.698	-3.64464	0.68692	-4.51529	1.81917
9346.697	-3.77681	0.71687	-4.38590	1.61888
9350.735	-3.92018	0.91602	-4.38748	1.80104
9354.712	-3.89273	0.79086	-4.19156	1.97967
9358.704	-3.87082	0.81891	-4.15433	2.03556
9362.699	-3.76712	0.82811	-3.66553	2.13806
9366.701	-3.79181	0.69883	-3.44886	2.10834
9370.702	-3.76816	0.74104	-3.44965	1.80891
9374.696	-3.61058	0.57348	-3.68994	2.37183
9378.703	-3.53365	0.61670	-4.08298	1.35835
9382.698	-3.51374	0.35777	-4.22918	1.24079
9386.702	-3.34665	0.25816	-4.46389	1.05381
9390.693	-3.72076	-0.08676	-4.30312	1.59195
9394.702	-3.31108	-0.03384	-4.38378	2.40198
9398.697	-3.98104	-0.20483	-4.53310	1.88680
9402.707	-3.54517	-0.00853	-4.48525	1.87069
9406.694	-5.66750	-0.21362	-4.47425	2.36712
9410.699	-5.90104	-0.29107	-4.41090	2.86059
9414.695	-6.11000	-0.33946	-4.43813	3.11163
9418.692	-6.17121	-0.37205	-4.51033	3.16060
9422.697	-6.12597	-0.34787	-4.57758	3.51067
9426.697	-6.11707	0.70105	-4.42101	3.54052
9430.694	-6.01527	1.03494	-1.67881	2.13309
9434.703	-6.18443	0.69404	-1.62711	2.18793
9438.698	-6.24288	1.52747	-2.78936	1.67890
9442.705	-6.09307	1.51481	-3.72877	1.75879
9446.696	-4.84184	1.72239	-3.91106	1.74197
9450.699	-3.87964	1.59239	-4.41085	1.27261
9454.699	-3.85617	1.62744	-4.46944	1.38071
9458.697	-3.58613	1.15099	-4.55694	1.51756
9462.702	-3.71374	0.97393	-4.70485	1.39432
9466.696	-1.40941	0.69879	-4.52957	1.76342
9470.704	-4.20116	1.00230	-4.53260	1.70434
9474.714	-0.46619	0.27919	-4.41753	1.86089
9478.728	-4.44514	1.49685	-4.78651	2.13891
9482.705	-5.04142	1.39273	-4.51235	2.18407
9486.704	-5.36973	0.69566	-4.46327	2.62930
9490.697	-3.77024	1.36108	-4.38736	3.09354
9494.694	-3.35526	0.39469	-4.41719	3.94342
9498.700	-3.46281	0.79107	-4.11332	2.91783
9502.697	-3.82756	0.70188	-4.12152	2.17576
9506.707	-4.48542	0.98166	-3.46820	2.39484
9510.697	-5.22212	0.84445	-4.09461	2.61939
9514.700	-5.54216	0.32249	-4.76404	2.82150
9518.695	-3.32671	-0.02984	-4.83740	2.43209
9522.698	-3.25115	0.25484	-3.28152	2.55387
9526.698	-3.04383	0.73753	-3.87848	2.11778
9530.703	-3.84303	0.12873	-4.28305	2.17553
9534.704	-4.56644	0.06250	-4.52811	2.15288
9538.698	-5.02373	-0.02337	-4.68420	2.30998
9542.695	-4.77481	0.01275	-4.55924	2.20255
9546.694	-4.38775	0.79235	-4.57167	2.03421
9550.694	-4.84940	0.85723	-4.52360	1.93339
9554.690	-5.24036	0.39268	-3.56714	2.10441
9558.693	-4.46694	0.98842	-3.59908	3.09198
9562.694	-4.29878	1.13048	-2.38982	2.49907
9566.700	-2.03452	1.27832	5.94119	7.03512
9570.695	0.22398	0.09892	6.00521	2.68907
9574.695	5.83768	0.10600	5.80408	2.32613
9578.697	5.30793	-0.82600	7.67813	2.71322
9582.694	4.90718	-1.17166	5.65860	2.25463
9586.691	5.18722	-1.17145	5.60081	2.83119
9590.700	5.28699	-0.14396	5.72790	2.91936
9594.694	5.22104	-0.87367	5.27872	2.79494
9598.695	5.26649	-0.67064	5.36250	2.77617
9602.697	5.41226	-0.86222	5.77303	2.48462
9606.701	5.62380	-1.89925	5.77377	2.59674
9610.701	5.89274	-2.71636	5.74893	2.26227
9614.697	8.24132	-1.90203	5.65570	2.65620
9618.690	7.15007	-1.24158	5.90551	2.71879
9622.575	7.60122	-1.02241	6.62990	2.70544
9626.569	4.87163	-1.26059	7.44184	2.43522
9630.571	5.44967	-1.47528	5.74482	2.39092
9634.569	6.26299	-2.08524	5.25232	1.71324
9638.570	7.97162	-2.37651	5.88857	2.35369
9642.574	8.61766	-2.83734	5.92753	2.21099
9646.569	5.80280	-0.52045	5.90251	1.84973
9650.575	5.19315	-1.43986	5.65044	1.90504
9654.576	7.81003	-1.58843	5.38134	1.83201
9658.573	8.00447	-1.32417	6.23577	1.79893
9662.575	4.93149	-2.15936	5.40941	1.88459
9666.569	6.22083	-2.25095	6.82107	1.85207
9670.571	8.08467	-2.60338	7.74559	1.76266
9674.572	6.17810	-0.69889	5.66865	1.42217
9678.567	5.44808	-0.98144	6.55114	1.81534
9682.570	6.66315	-1.40628	6.26721	1.79843
9686.566	7.78784	-1.77101	5.68421	1.44578
9690.568	5.11393	-1.88549	5.50119	1.70098
9694.568	6.78551	-1.57674	6.47235	0.64734
9698.578	7.14152	-0.87799	6.05722	1.65583
9702.600	5.17085	-1.91155	6.73664	1.75107
9706.567	6.12730	-2.26755	6.27890	1.81011
9710.567	8.24803	-2.33599	5.59430	1.43992
9714.571	5.87130	-1.42309	5.83645	1.28546
9718.563	5.63215	-1.75873	7.31545	1.73840
9722.582	6.87095	-2.51425	5.89510	1.17936
9726.574	6.82219	-0.64261	6.00153	1.12649
9730.569	5.37989	-1.58138	7.62589	0.99069
9734.569	6.72376	-2.46945	6.16746	1.24656
9738.577	7.34077	-1.43562	6.57607	1.12671
9742.570	2.97804	-1.11507	6.33804	0.70401
9746.562	6.11962	-1.85696	5.89861	1.64986
9750.571	7.08299	-1.17654	6.35324	0.89594
9754.569	7.67121	-1.33069	6.32316	0.61940
9758.569	4.98852	0.29993	8.22783	0.70929
9762.562	6.66888	-1.29706	6.14388	0.74078
9766.567	7.13668	-2.14292	7.48758	0.80384
9770.566	6.59393	-0.88754	6.25188	1.16016
9774.565	5.93507	-1.23482	6.60490	0.73955
9778.569	7.55769	-1.40571	6.32213	0.74246
9782.595	8.06545	-1.06759	6.15848	1.14022
9786.585	5.96181	-1.40384	6.36113	0.77672
9790.571	5.88135	-1.01438	8.47874	0.88524
9794.566	6.70641	-1.32252	6.19550	0.77403
9798.564	7.78818	-1.55087	6.34545	1.27862
9802.565	6.53669	-0.53894	6.44363	0.91353
9806.572	6.30801	-1.07128	6.30014	1.12154
9810.568	5.92847	-1.16284	6.90004	0.77785
9814.567	6.02394	-0.85734	6.01301	1.12067
9818.561	6.19027	-0.98528	5.98098	0.12063
9822.569	7.67270	-1.42148	5.66998	1.69095
9826.566	7.67711	-1.28730	6.23189	1.68209
9830.566	7.82443	-0.82454	6.21583	0.82799
9834.570	8.54673	-1.61767	5.93974	1.27665
9838.567	7.80757	-0.94112	5.78236	7.09257
9842.566	7.68408	-0.64333	10.22077	4.81572
9846.560	6.08267	-0.83198	8.59449	0.94228
9850.566	5.38068	-0.95565	6.02956	7.16226
9854.569	8.04341	-0.75475	7.06237	5.84302
9858.563	5.32092	-1.15839	8.18110	0.40979
9862.573	5.28832	-1.44896	6.75186	7.30426
9866.571	7.48922	-1.03009	7.26293	6.62027
9870.563	5.52964	-1.10713	5.82948	0.94615
9874.614	5.23622	-1.18573	7.71345	7.59192
9878.564	6.73008	-1.95041	7.58432	7.11004
9882.566	6.90657	-1.31247	6.31622	1.88412
9886.568	6.03393	-1.13658	8.41437	0.76631
9890.566	7.26022	-1.38180	7.40189	1.79294
9894.569	7.38837	-1.06211	8.05764	0.77160
9898.566	7.10516	-1.28964	7.72646	0.59609
9902.565	7.26691	-1.21317	6.98895	1.59701
9906.566	7.67828	-1.28095	8.26121	1.11097
9910.567	6.45079	-0.89145	8.53418	1.10786
9914.569	6.69427	-1.58211	6.50871	2.59245
9918.581	5.72527	-1.43537	6.18041	1.95287
9922.562	7.60024	-1.31023	10.94272	1.39484
9926.580	7.37463	-1.00464	12.53019	0.03486
9930.565	9.60321	-1.61157	8.55913	0.78234
9934.569	8.63770	-0.88018	8.73029	1.05339
9938.561	10.24471	-1.88872	8.99712	0.20700
9942.587	10.25242	-2.38305	9.79766	0.06626
9946.573	10.12267	-2.89127	9.56407	-0.44152
9950.565	10.01845	-3.09860	9.21621	-0.83879
9954.564	9.87360	-3.13605	9.47270	-0.13162
9958.563	9.76645	-3.02071	9.48606	-0.25144
9962.568	10.73742	-3.87978	8.77015	-0.52122
9966.565	9.77315	-3.63082	10.86823	-0.66047
9970.564	9.53851	-3.89560	9.78532	-0.60365
9974.563	9.70432	-4.15996	9.64709	-0.28557
9978.566	11.23468	-3.76764	9.49569	-0.85105
9982.562	9.86483	-3.59207	11.37579	-1.24202
9986.557	8.87152	-3.55017	10.17671	-0.24558
9990.571	10.03558	-3.34872	9.63607	-0.71517
9994.563	9.84303	-2.61079	8.60562	-0.99612
9998.562	10.58212	-2.95735	12.36402	-0.98358
10002.558	11.06466	-4.02686	9.58671	-0.94423
10006.567	9.07753	-3.91430	8.78050	-0.86209
10010.562	10.17822	-3.56927	11.56831	-1.56965
10014.568	10.72743	-2.57901	9.30870	-0.62131
10018.564	11.80152	-3.00188	8.94438	-0.65992
10022.563	11.77272	-3.06845	8.96533	-0.98146
10026.561	10.60577	-3.63928	8.95854	-0.65950
10030.581	10.42091	-3.39998	9.17311	-0.91082
10034.569	9.56040	-2.53375	8.78643	-0.34925
10038.568	10.80666	-2.73389	9.38363	-0.66940
10042.567	15.00869	-4.16549	9.15853	-0.31185
10046.562	12.50449	-4.53910	9.47838	-0.24037
10050.557	9.74444	-3.33792	9.04108	0.11779
10054.567	10.86294	-3.00638	9.52630	-0.34735
10058.563	5.15244	-3.40952	9.09284	-0.35362
10062.565	10.73080	-1.97426	9.24276	-0.40225
10066.559	10.84666	-2.15382	9.38590	-0.29118
10070.569	10.74137	-3.80750	9.00583	-0.20056
10074.565	10.53456	-3.24033	9.45360	-0.32970
10078.563	10.69153	-3.09192	9.40318	-0.43631
10082.561	10.65096	-2.45774	8.98729	-0.38627
10086.560	10.66495	-3.15455	9.16922	-0.13735
10090.565	10.73294	-3.19799	9.51266	-0.53922
10094.565	10.57718	-2.94237	9.22136	-0.64170
10098.563	9.71155	4.95940	9.23229	-0.54378
10102.560	10.62147	-3.08073	9.28033	-0.02146
10106.566	10.73761	-2.42680	8.97777	-0.26255
10110.560	7.65568	0.04490	5.71419	0.34035
10114.567	4.94516	-0.23029	3.11858	1.64872
10118.563	-1.01010	0.07705	0.36613	2.20172
10122.561	-2.49793	-0.09987	-4.21284	1.65931
10126.563	-5.52254	-0.00190	-4.33596	1.47721
10130.562	-6.57659	-0.57111	-10.35068	-1.27989
10134.567	-7.86590	-1.21756	-9.75292	-0.25523
10138.561	-11.56388	-1.10035	-14.24240	-0.99602
10142.597	-13.18261	-2.70941	-11.93244	0.93708
10146.561	-13.01498	-2.60769	-14.66636	-0.13159
10150.562	-12.90793	-0.16909	-15.00716	-0.91249
10154.566	-13.91813	-1.12583	-15.39954	-0.16149
10158.556	-14.60425	-3.65088	-14.52860	0.12802
10162.573	-14.84125	-3.00912	-14.70593	0.47156
10166.563	-14.08788	-0.16676	-14.70365	1.06227
10170.560	-14.68735	-4.17741	-13.82630	0.65404
10174.559	-14.52567	-0.35293	-15.30679	0.29418
10178.561	-13.77944	-0.20840	-12.42796	0.68111
10182.559	-13.47193	-0.58766	-15.73456	-0.14466
10186.558	-13.79620	-0.15068	-13.73294	0.36517
10190.563	-13.18447	-0.70972	-14.86815	0.13611
10194.569	-13.80936	-0.36063	-14.11848	-0.01986
10198.565	-12.95428	-0.27544	-14.45791	0.12310
10202.559	-13.07476	-0.34697	-13.99192	0.03048
10206.557	-13.26953	-0.59142	-14.36083	-0.08255
10210.570	-12.92847	-0.35294	-14.29212	0.19026
10214.561	-12.72903	-0.39227	-13.73332	0.07234
10218.562	-13.57921	-1.83548	-14.43522	-0.00941
10222.561	-12.38988	-0.32704	-14.87371	0.16756
10226.562	-12.67348	0.34991	-13.42728	0.61334
10230.587	-12.56663	0.19013	-14.64787	-0.05154
10234.569	-12.75469	-0.24040	-14.62926	-0.24310
10238.563	-12.23926	-0.19913	-13.91776	-0.08169
10242.558	-12.30369	-0.23266	-13.78864	0.51127
10246.563	-12.21188	-0.22465	-13.93179	0.86763
10250.562	-11.67743	-0.13839	-13.63121	1.32691
10254.553	-12.43182	0.17814	-13.50307	1.35308
10258.564	-11.55697	0.29813	-14.20679	1.51098
10262.560	-12.49237	0.13974	-13.59970	1.56725
10266.562	-11.98871	0.64309	-13.73980	1.59432
10270.557	-12.76187	0.21761	-14.56100	1.56038
10274.563	-11.67329	0.52448	-14.20455	1.74332
10278.563	-12.93771	0.34123	-14.84921	1.76268
10282.592	-12.12544	0.58789	-15.17854	3.28365
10286.561	-12.04507	0.73765	-14.92934	2.49686
10290.556	-12.48693	0.85927	-14.80273	1.97940
10294.562	-12.16570	1.08823	-16.71931	1.88765
10298.559	-12.63383	0.85066	-20.32741	1.94855
10302.561	-12.30244	1.03459	-17.90345	1.97561
10306.557	-12.64149	0.99904	-17.73103	2.39282
10310.559	-12.84562	1.20876	-20.01318	3.76181
10314.560	-13.21361	6.40664	-17.59146	2.86694
10318.556	-13.39062	1.60236	-17.30584	2.36006
10322.563	-12.63237	1.69863	-17.55314	2.37993
10326.562	-13.22173	5.37665	-18.14494	2.93153
10330.556	-11.86947	4.56342	-17.92507	2.91554
10334.556	-12.22191	4.67784	-20.14664	2.68648
10338.557	-13.62303	7.44449	-20.34753	3.95827
10342.561	-14.50879	8.16576	-21.39316	6.90300
10346.555	-20.63647	6.41547	-20.11308	-12.06851
10350.622	-21.82863	4.58498	-20.08924	-12.07030
10354.575	-20.24889	-12.05831	-20.10771	-12.06891
10358.559	-20.15051	-12.06571	-20.08696	-12.07047
10362.562	-20.10598	-12.06904	-20.07188	-12.07159
10366.554	-20.08044	-12.07095	-20.06098	-12.07241
10370.560	-20.06378	-12.07220	-20.06562	-12.07206
10374.557	-20.05198	-12.07308	-20.05984	-12.07249
10378.567	-20.04315	-12.07374	-20.03380	-12.07444
10382.557	-20.03625	-12.07425	-19.99828	-12.07708
10386.613	-20.03071	-12.07467	NaN	NaN
10390.559	-19.99539	-12.07730	NaN	NaN
10394.647	NaN	NaN	NaN	NaN
10398.824	NaN	NaN	NaN	NaN
10402.968	NaN	NaN	NaN	NaN
10406.565	NaN	NaN	NaN	NaN
10410.562	NaN	NaN	NaN	NaN
10414.558	NaN	NaN	NaN	NaN
10418.559	NaN	NaN	NaN	NaN
10422.560	NaN	NaN	NaN	NaN
10426.647	NaN	NaN	NaN	NaN
10430.557	NaN	NaN	NaN	NaN
10434.707	NaN	NaN	NaN	NaN
10438.561	NaN	NaN	NaN	NaN
10442.563	NaN	NaN	NaN	NaN
10446.627	NaN	NaN	NaN	NaN
10450.646	NaN	NaN	NaN	NaN
10454.753	NaN	NaN	NaN	NaN
10458.923	NaN	NaN	NaN	NaN
10462.566	NaN	NaN	NaN	NaN
10466.554	NaN	NaN	NaN	NaN
10470.439	NaN	NaN	NaN	NaN
10474.615	NaN	NaN	NaN	NaN
10478.651	NaN	NaN	NaN	NaN
10482.438	NaN	NaN	NaN	NaN
10487.387	NaN	NaN	NaN	NaN
10490.427	NaN	NaN	NaN	NaN
10494.440	NaN	NaN	NaN	NaN
10498.432	NaN	NaN	NaN	NaN
10502.427	NaN	NaN	NaN	NaN
10506.426	NaN	NaN	NaN	NaN
10510.422	NaN	NaN	NaN	NaN
10514.429	NaN	NaN	NaN	NaN
10518.429	NaN	NaN	NaN	NaN
10522.426	NaN	NaN	NaN	NaN
10526.424	NaN	NaN	NaN	NaN
10530.429	NaN	NaN	NaN	NaN
10534.447	NaN	NaN	NaN	NaN
10538.431	NaN	NaN	NaN	NaN
10542.430	NaN	NaN	NaN	NaN
10546.431	NaN	NaN	NaN	NaN
10550.426	NaN	NaN	NaN	NaN
10554.444	NaN	NaN	NaN	NaN
10558.465	NaN	NaN	NaN	NaN
10562.425	NaN	NaN	NaN	NaN
10566.430	NaN	NaN	NaN	NaN
10570.439	NaN	NaN	NaN	NaN
10574.435	NaN	NaN	NaN	NaN
10578.433	NaN	NaN	NaN	NaN
10582.432	NaN	NaN	NaN	NaN
10586.432	NaN	NaN	NaN	NaN
10590.428	NaN	NaN	NaN	NaN
10594.429	NaN	NaN	NaN	NaN
10598.437	NaN	NaN	NaN	NaN
10602.433	NaN	NaN	NaN	NaN
10606.430	NaN	NaN	NaN	NaN
10610.424	NaN	NaN	NaN	NaN
10614.425	NaN	NaN	NaN	NaN
10618.433	NaN	NaN	NaN	NaN
10622.829	NaN	NaN	NaN	NaN
10626.425	NaN	NaN	NaN	NaN
10630.437	NaN	NaN	NaN	NaN
10634.428	NaN	NaN	NaN	NaN
10638.426	NaN	NaN	NaN	NaN
10642.423	NaN	NaN	NaN	NaN
10646.421	NaN	NaN	NaN	NaN
10650.470	NaN	NaN	NaN	NaN
10654.450	NaN	NaN	NaN	NaN
10658.433	NaN	NaN	NaN	NaN
10662.433	NaN	NaN	NaN	NaN
10666.487	NaN	NaN	NaN	NaN
10670.426	NaN	NaN	NaN	NaN
10674.430	NaN	NaN	NaN	NaN
10678.432	NaN	NaN	NaN	NaN
10682.457	NaN	NaN	NaN	NaN
10686.433	NaN	NaN	NaN	NaN
10690.442	NaN	NaN	NaN	NaN
10694.431	NaN	NaN	NaN	NaN
10698.538	NaN	NaN	NaN	NaN
10702.573	NaN	NaN	NaN	NaN
10706.429	NaN	NaN	NaN	NaN
10710.451	NaN	NaN	NaN	NaN
10714.523	NaN	NaN	NaN	NaN
10718.607	NaN	NaN	NaN	NaN
10722.787	NaN	NaN	NaN	NaN
10726.865	NaN	NaN	NaN	NaN
10730.431	NaN	NaN	NaN	NaN
10734.732	NaN	NaN	NaN	NaN
10738.429	NaN	NaN	NaN	NaN
10742.431	NaN	NaN	NaN	NaN
10746.433	NaN	NaN	NaN	NaN
10750.441	NaN	NaN	NaN	NaN
10754.428	NaN	NaN	NaN	NaN
10758.751	NaN	NaN	NaN	NaN
10762.435	NaN	NaN	NaN	NaN
10766.434	NaN	NaN	NaN	NaN
10770.428	NaN	NaN	NaN	NaN
10774.429	NaN	NaN	NaN	NaN
10778.425	NaN	NaN	NaN	NaN
10782.447	NaN	NaN	NaN	NaN
10786.435	NaN	NaN	NaN	NaN
10790.440	NaN	NaN	NaN	NaN
10794.452	NaN	NaN	NaN	NaN
10798.434	NaN	NaN	NaN	NaN
10802.428	NaN	NaN	NaN	NaN
10806.420	NaN	NaN	NaN	NaN
10935.401	NaN	NaN	NaN	NaN
10985.127	NaN	NaN	NaN	NaN
11035.118	NaN	NaN	NaN	NaN
11102.879	-3.08812	-0.38378	-4.91812	1.52254
11106.678	-3.12158	-0.19388	-4.51309	1.21390
11110.550	-3.05855	-0.15486	-4.28883	0.58678
11114.553	-2.22074	0.55624	-4.31810	1.75655
11118.543	-2.46796	0.76192	-4.36311	0.93075
11122.545	-2.51334	0.77892	-4.31501	1.51118
11126.538	-2.51950	-0.51667	-4.36496	0.91278
11130.547	-2.50377	-0.56479	-4.26316	1.08652
11134.544	-2.77319	-0.49954	-4.20941	1.10894
11138.546	-3.09918	0.84000	-4.09406	1.41094
11142.539	-2.64842	0.21218	-3.97111	1.41019
11146.547	-2.78171	-0.45017	-3.98800	1.45864
11150.545	-2.71503	0.45253	-3.91889	0.96208
11154.544	-2.74534	0.33001	-3.77147	1.34745
11158.542	-2.59993	-0.98364	-3.10139	1.31358
11162.543	-2.77007	-0.58251	-3.64321	1.05577
11166.545	-2.70966	0.11669	-3.58811	1.21630
11170.539	-2.67571	-0.97420	-3.54418	0.74914
11174.544	-2.82675	-0.60112	-3.74323	1.64111
11178.544	-2.78005	0.51284	-3.52781	-0.13187
11182.542	-2.36029	0.75761	-3.51026	1.15891
11186.546	-2.74442	0.10502	-3.48160	1.12796
11190.543	-2.67950	-0.01075	-3.67524	0.43478
11194.548	-2.30459	-0.23285	-3.69232	1.21242
11198.553	-2.84162	0.14057	-3.82630	1.05981
11202.546	-2.12364	0.51597	-3.62037	-0.15351
11206.542	-2.73954	0.60625	-3.67262	0.68060
11210.547	-2.75153	1.02260	-3.93147	0.96132
11214.542	-2.33276	-0.09606	-3.78830	1.30480
11218.543	-2.01263	-0.18268	-2.05635	0.55736
11222.549	-2.40055	-0.05718	-3.80060	0.42760
11226.543	-2.43709	-0.61600	-3.93846	0.78725
11230.544	-2.46511	-0.09141	-3.92420	0.83098
11234.537	-2.24899	-0.47655	-3.81570	1.05878
11238.546	-2.58576	0.17461	-3.64558	0.81489
11242.585	-2.38606	0.18429	-2.65800	1.11595
11246.541	-2.70730	0.18889	-3.85600	1.01608
11250.537	-2.48978	0.18349	-3.93376	0.35537
11254.540	-2.66280	0.11312	-3.80683	0.40134
11258.537	-2.83873	0.53029	-3.86240	0.82517
11262.539	-2.76005	0.59686	-3.67647	0.88755
11266.534	-3.04469	0.76331	-2.51534	1.01304
11270.542	-3.43746	-0.54789	-2.80669	1.33586
11274.558	-3.23096	-1.29732	-2.97846	0.62208
11278.538	-1.83692	0.19879	-1.28120	1.77126
11282.533	-0.01412	0.09000	0.77536	2.04522
11286.539	0.53905	0.55449	0.14171	1.51350
11290.541	2.32218	-0.61563	0.22606	0.00427
11294.533	1.42568	-0.15640	-0.12622	0.73865
11298.540	1.04962	-0.38897	-1.18180	1.77609
11302.536	2.28628	-0.23069	-0.28662	1.51374
11306.537	-0.18529	-0.14681	-0.40894	1.66970
11310.542	2.55272	-0.46761	-0.62131	2.42230
11314.539	1.01672	-0.15255	-0.14317	1.28394
11318.536	1.05166	-0.61884	0.42810	1.11908
11322.537	1.23692	-0.39724	-0.10292	0.48686
11326.538	1.26244	-0.57830	-0.34188	0.94034
11330.535	1.56427	-0.48501	-0.12858	0.87797
11334.531	1.11417	-0.87220	-0.52411	1.15481
11338.544	1.95589	-1.04354	-0.38956	1.65051
11342.536	1.25178	-1.15247	-0.03214	1.36468
11346.576	1.12623	-0.77626	-0.51379	3.18803
11350.542	0.97995	-0.57322	-0.26686	1.24334
11354.541	1.12330	-0.02065	0.30578	1.14808
11358.540	1.13710	0.65516	1.76787	1.07054
11362.545	0.84875	-0.31468	-0.10034	1.34272
11366.544	0.89939	0.35746	0.02231	1.34300
11370.542	0.24882	0.06702	-0.24130	1.28611
11374.535	0.44060	0.40408	-0.46430	2.93542
11379.377	NaN	NaN	NaN	NaN
11386.542	0.64183	0.53098	-0.04507	3.40420
11390.536	0.67692	0.87277	2.21452	1.46345
11394.544	1.03823	0.31685	-0.01737	1.47601
11398.541	1.28961	0.64447	-0.17978	1.44213
11402.542	1.55653	0.59418	-0.15680	2.13772
11406.539	1.24838	0.07048	-0.02896	1.70889
11410.546	2.05730	0.25263	-0.31890	3.39575
11414.534	1.99057	0.67804	1.28675	1.72643
11418.543	0.88069	-0.24294	-0.27944	1.92020
11422.538	2.06535	-0.10638	0.06033	2.16333
11426.540	2.04713	-0.10914	-0.24557	1.24404
11430.534	1.08162	-0.07548	-0.02147	1.29852
11434.543	0.80330	-0.34576	-0.09716	1.58636
11438.539	1.78456	0.08524	-0.31287	2.09992
11442.542	1.08125	0.17794	-0.26165	1.67049
11446.541	-1.14796	0.42458	-0.20666	1.27325
11450.540	0.42152	0.17737	0.23597	1.00727
11454.541	0.60764	-0.13189	4.72297	1.80963
11458.535	1.87614	-0.51982	-0.44998	2.13344
11462.543	1.78535	-0.57717	-0.36382	1.33932
11466.549	2.07108	-0.28530	-0.42105	1.54245
11470.538	3.01645	-0.01936	-0.54126	1.85893
11474.548	-0.15965	-0.12233	-0.03718	2.06762
11478.541	1.99944	-0.16830	1.14136	1.88922
11482.534	2.12808	0.01505	3.38778	1.91362
11486.542	3.24551	0.59634	4.93189	1.80514
11490.538	5.83304	-0.19423	5.25842	2.04402
11494.539	5.75197	-0.45024	5.43243	1.80524
11498.536	5.70556	-1.32036	5.43787	0.84749
11502.541	5.65071	-0.28803	5.59093	1.47794
11506.538	3.96380	-6.98507	5.28244	1.48070
11510.536	8.00226	-8.56904	4.15443	1.83180
11514.543	7.11936	-4.56837	4.42649	1.49127
11518.537	4.72477	-8.20088	4.67547	1.56589
11522.533	6.41006	-7.20976	3.95174	1.24583
11526.541	4.06718	-7.98074	5.32823	1.15219
11530.541	4.93231	-4.64262	6.23479	1.12971
11534.539	3.93159	-5.66147	4.98719	3.32269
11538.541	4.87687	-7.04136	4.59164	1.05167
11542.536	4.76201	-1.40831	4.97856	1.17010
11546.538	5.40771	-0.91149	4.52086	1.13158
11550.533	5.06343	-1.02055	4.60483	1.16816
11554.540	5.15687	-2.54856	4.61171	1.27119
11558.538	3.95150	-4.37898	3.89538	1.21087
11562.537	4.55781	-1.26042	6.80069	1.14333
11566.533	4.43944	-1.24307	4.61955	1.37983
11570.540	4.07251	-0.74008	4.77693	1.20196
11574.539	1.46978	-4.01539	4.69815	0.79693
11578.539	3.28622	-1.40374	4.19879	0.30440
11582.535	2.62400	-3.03786	4.59218	0.91832
11586.536	6.28008	-2.42020	4.80874	0.95967
11590.538	7.10585	-1.18888	4.62966	0.91238
11594.534	6.85326	-0.92996	4.23401	0.41263
11598.536	5.93785	-1.13708	4.19126	0.72381
11602.537	7.70838	-2.93505	4.11335	0.75833
11606.531	7.37209	-2.35683	3.80582	0.75361
11610.540	7.55737	-1.60572	4.17959	0.65087
11614.571	7.51735	-1.12260	3.83596	0.62296
11618.532	6.62165	-1.34191	3.57953	0.85442
11622.539	6.43358	-1.28778	3.71622	1.09480
11626.536	7.01555	-0.81841	3.56638	1.00374
11630.537	9.04110	-2.21722	3.53088	0.91814
11634.533	7.07520	-1.20762	3.88011	0.68733
11638.540	5.95363	-3.27275	3.86257	0.77681
11642.536	6.86537	-3.85317	4.23073	0.93926
11646.538	4.12132	-1.13230	4.39247	1.04811
11650.540	4.51184	-1.45168	4.17401	1.17040
11654.539	6.11000	-1.00277	6.37996	0.97705
11658.542	4.78949	-0.90024	8.38843	0.75946
11662.532	6.45196	-0.67776	9.35979	0.37118
11666.539	9.35056	-1.46920	15.26427	-1.65120
11670.535	16.17326	-0.66890	13.51569	-1.13365
11674.537	11.90885	-2.26589	13.52789	-2.05227
11678.533	15.72414	-3.77084	17.17581	-3.61512
11682.540	16.03916	-4.47757	18.76190	-5.18178
11686.535	15.67922	-4.94786	13.99279	-2.27927
11690.577	16.49387	-5.26010	17.23002	-4.28092
11694.532	16.56693	-5.46211	16.25450	-4.31473
11698.539	17.21972	-5.92738	17.05864	-4.00420
11702.534	15.07484	-5.34542	15.27746	-3.21657
11706.535	17.56313	-5.88620	16.57926	-3.39631
11710.528	17.55154	-6.11500	14.68542	-4.02712
11714.534	14.86488	-5.94361	16.67107	-3.78799
11718.537	17.92320	-6.95363	17.10657	-4.40121
11722.536	18.02225	-7.59090	15.77883	-4.02209
11726.529	17.64304	-7.62015	15.29817	-3.91393
11730.537	17.74657	-6.84526	16.95072	-4.36966
11734.534	16.16541	-5.94462	15.55660	-3.67109
11738.540	16.98035	-5.92030	15.08102	-3.23209
11742.528	18.30405	-7.71057	16.05326	-3.66742
11746.537	17.80168	-8.03293	14.61861	-3.66480
11750.532	16.88996	-5.10968	14.83733	-3.98911
11754.536	16.89557	-6.49593	14.77858	-3.16583
11758.529	15.39204	-6.49755	14.54444	-3.43732
11762.538	16.84050	-7.88726	17.37203	-4.90136
11766.533	18.50409	-6.70099	14.76992	-3.85438
11770.532	16.51475	-5.79841	16.21204	-4.02678
11774.528	16.84718	-6.89775	14.74175	-3.34168
11778.537	19.08593	-8.28343	15.61948	-3.36978
11782.586	18.03327	-7.54411	14.02711	-3.30133
11786.549	15.01260	-5.32468	14.30007	-3.68920
11790.537	17.08549	-6.53375	17.53613	-4.07756
11794.533	18.95215	-7.76537	13.95696	-3.96983
11798.535	20.51451	-10.25789	15.71273	-3.66644
11802.531	15.80452	-5.50984	15.72731	-4.14100
11806.537	16.51787	-5.38326	14.18701	-3.11439
11810.534	17.92347	-6.70855	15.38629	-3.51070
11814.538	18.25413	-7.27371	15.65338	-3.86984
11818.532	17.71390	-8.18318	13.81228	-3.61582
11822.531	18.77271	-7.72937	14.00555	-3.32668
11826.528	16.67182	-6.14209	14.12793	-3.37061
11830.523	15.38572	-5.98354	15.96294	-3.87935
11834.531	14.83397	-6.21033	16.66405	-4.87477
11838.527	16.80694	-6.82872	14.14359	-3.02954
11842.528	18.23156	-7.51845	14.58182	-3.25666
11846.535	14.95012	-6.26829	14.32001	-3.33668
11850.528	17.71450	-6.29780	14.88910	-3.83206
11854.530	17.39056	-5.41944	18.64599	-4.06804
11858.535	15.33830	-5.20667	18.48365	-4.63383
11862.527	14.69645	-5.22433	18.69396	-5.10138
11866.530	14.99878	-5.89070	18.86032	-5.44484
11870.531	13.99298	-5.21431	17.11068	-5.46791
11874.523	14.66770	-5.48452	18.89112	-5.52165
11878.405	14.24093	-6.07382	17.91365	-4.99221
11882.402	17.56866	-6.86107	17.67639	-4.72222
11886.397	15.70252	-6.53142	17.21691	-4.90017
11890.405	17.55995	-6.73755	17.40742	-5.30563
11894.403	18.38604	-7.06689	16.36336	-4.41192
11898.406	19.79542	-8.32482	15.74366	-4.19758
11902.398	19.30130	-8.15450	16.62591	-5.80585
11906.407	19.27168	-7.79180	15.86599	-5.39410
11910.418	18.17584	-6.82790	15.49859	-4.59460
11914.401	17.74846	-6.45582	15.41001	-4.29976
11918.401	16.19130	-5.51140	14.78136	-5.14633
11922.403	17.59888	-6.04917	17.80832	-5.41152
11926.401	16.41711	-5.97301	22.28135	-5.14489
11930.400	15.62192	-5.80020	15.82272	-5.42484
11934.396	19.13505	-7.88142	15.90539	-4.95003
11938.404	17.95836	-8.03430	14.98421	-4.34420
11942.399	16.67179	-7.12447	18.28799	-1.98253
11946.401	16.66742	-6.91842	16.07817	-2.18568
11950.400	16.77514	-6.69649	15.59296	-3.95684
11954.405	17.12029	-7.19496	15.72009	-3.51408
11958.404	18.39313	-8.03686	16.40637	-5.45438
11962.403	17.56762	-8.05241	15.78595	-5.41144
11966.396	18.23065	-7.99617	14.71426	-5.19828
11970.402	17.03055	-7.55577	17.67973	-5.68803
11974.400	17.49643	-7.77651	19.05134	-6.48580
11978.396	18.44241	-8.31770	14.76523	0.31419
11982.402	16.68008	-7.17774	16.09744	-5.81322
11986.399	17.80402	-7.93964	15.50518	-5.27432
11990.400	17.73889	-6.40154	15.47575	-4.83128
11994.408	16.98444	-5.67516	18.77345	-5.65313
11998.400	16.15209	-5.46354	15.43962	-4.40936
12002.401	15.81849	-5.41861	15.40200	-3.85666
12006.394	17.02163	-6.47939	15.55351	-3.55936
12010.402	18.65853	-7.25298	18.92835	-1.90359
12014.399	18.39730	-6.11960	19.06622	-1.59555
12018.394	18.38555	-6.13890	18.46425	-1.36239
12022.402	18.55151	-6.10643	16.78642	-1.39759
12026.399	18.36827	-5.93593	18.76517	-6.85998
12030.402	18.58812	-6.49508	19.06369	-6.68492
12034.394	16.98289	-6.74660	21.81522	-6.51625
12038.403	16.48057	-6.92855	21.37848	-6.75295
12042.401	17.14388	-6.98784	21.17119	-5.93916
12046.395	15.47969	-5.45597	20.70315	-4.81999
12050.402	18.09213	-6.08140	19.03214	-2.25062
12054.399	18.95224	-6.23270	18.96666	-1.34727
12058.400	NaN	NaN	18.63513	-0.23968
12062.399	NaN	NaN	21.86665	-0.70161
12066.400	NaN	NaN	21.18388	3.86149
12070.394	NaN	NaN	20.41742	9.30612
12074.401	NaN	NaN	NaN	NaN
12078.399	NaN	NaN	NaN	NaN
12082.398	NaN	NaN	NaN	NaN
12086.393	NaN	NaN	NaN	NaN
12090.407	NaN	NaN	NaN	NaN
12094.403	NaN	NaN	NaN	NaN
12098.451	NaN	NaN	NaN	NaN
12102.395	NaN	NaN	NaN	NaN
12106.402	NaN	NaN	NaN	NaN
12110.402	NaN	NaN	NaN	NaN
12114.499	NaN	NaN	NaN	NaN
12118.692	NaN	NaN	NaN	NaN
12122.804	NaN	NaN	NaN	NaN
12127.780	NaN	NaN	NaN	NaN
12131.495	NaN	NaN	NaN	NaN
12135.592	NaN	NaN	NaN	NaN
12139.755	NaN	NaN	NaN	NaN
12143.406	NaN	NaN	NaN	NaN
12147.024	NaN	NaN	NaN	NaN
12151.073	NaN	NaN	NaN	NaN
12155.192	NaN	NaN	NaN	NaN
12159.360	NaN	NaN	NaN	NaN
12163.009	NaN	NaN	NaN	NaN
12166.584	NaN	NaN	NaN	NaN
12170.819	NaN	NaN	NaN	NaN
12175.049	NaN	NaN	NaN	NaN
12179.098	NaN	NaN	NaN	NaN
12182.821	NaN	NaN	NaN	NaN
12186.696	NaN	NaN	NaN	NaN
12190.492	NaN	NaN	NaN	NaN
12195.097	NaN	NaN	NaN	NaN
12199.035	NaN	NaN	NaN	NaN
12203.136	NaN	NaN	NaN	NaN
12207.217	NaN	NaN	NaN	NaN
12210.407	NaN	NaN	NaN	NaN
12214.397	NaN	NaN	NaN	NaN
12218.403	NaN	NaN	16.33578	14.13985
12222.402	-2.76468	9.73785	NaN	NaN
12226.395	-7.56981	6.39914	NaN	NaN
12230.404	-6.48029	6.53686	4.92802	-2.24773
12234.400	3.10804	-5.21520	2.20054	10.67340
12238.402	7.00834	-8.61249	4.69063	-4.15467
12242.399	4.46551	6.13154	-4.85458	2.40306
12246.404	0.22787	9.56249	0.72466	-5.88133
12250.401	-0.58918	9.49989	-4.44778	-9.38022
12254.396	3.64857	6.03911	-5.86482	7.61538
12258.403	3.10765	8.67222	0.27575	-4.35678
12262.404	4.85411	5.91602	-5.74433	-6.81156
12266.403	4.38677	-1.00364	-7.46956	-6.21606
12270.395	6.89023	1.72801	-5.48639	-6.32070
12274.403	6.54146	-6.71460	-4.53598	5.89963
12278.399	-9.83409	-3.28348	-5.12760	-7.26804
12282.401	5.95105	-0.15830	-7.65707	-7.41119
12286.404	6.34719	-6.46668	-5.13311	-7.40327
12290.399	4.10318	-6.37405	-5.31519	-7.98579
12294.401	4.51411	-7.09302	-5.37389	-4.98156
12298.395	5.92623	-2.10849	-5.59263	-4.95616
12302.402	5.83233	-5.13110	-5.69261	-5.53055
12306.400	3.91205	-2.94508	-4.16344	-7.10807
12310.400	3.22732	0.10790	-4.67722	-6.78506
12314.402	5.50724	0.68964	-4.83094	-4.64511
12318.399	1.87485	-2.56938	-4.00509	-4.25180
12322.401	0.17697	0.16060	-2.99396	-5.76438
12326.402	5.42732	-10.07214	-1.99045	-5.28578
12330.403	-1.68121	-6.12375	-5.36435	-5.79885
12334.395	-4.31306	-1.22664	-4.98989	-5.58636
12338.429	3.16896	-3.45070	-1.80417	-6.36368
12342.399	2.89502	-5.93399	-5.25808	-6.63955
12346.407	2.18424	-5.48412	-2.26500	-6.03694
12350.417	0.15603	-5.65407	-3.00794	-7.51394
12354.392	0.61305	-3.92152	-2.61298	-4.28235
12358.398	-8.54947	-3.05372	-3.72190	-7.01673
12362.393	-2.49263	-5.70441	-2.06525	-7.27670
12366.394	0.52724	-2.81689	-2.51574	-5.16544
12370.389	-1.41707	-3.20326	-2.28492	-5.93813
12374.397	1.19333	-5.04531	-3.85007	-6.70938
12378.393	-10.25456	-7.28700	-2.09566	-5.77838
12382.393	NaN	NaN	-1.83013	-6.17165
12386.388	NaN	NaN	-1.90691	-6.33637
12390.395	NaN	NaN	NaN	NaN
12394.398	NaN	NaN	NaN	NaN
12399.314	NaN	NaN	NaN	NaN
12403.463	NaN	NaN	NaN	NaN
12407.632	NaN	NaN	NaN	NaN
12411.847	NaN	NaN	NaN	NaN
12416.010	1.05587	-4.35746	2.38477	-8.44588
12418.769	-0.22884	-4.35413	0.11605	-5.07945
12422.401	-2.01265	-4.53611	-0.04631	-5.71946
12426.394	-0.59312	-4.62554	-0.34243	-6.09211
12430.393	-1.02637	-5.07453	-0.49202	-4.97315
12434.397	-1.23049	-5.57337	-0.70094	-4.67866
12438.392	0.66526	-5.77864	-1.37917	-5.20091
12442.395	4.44830	-4.71985	-2.17085	-5.50587
12446.393	1.66324	-5.74312	-2.91339	-6.15378
12450.396	1.70008	-5.56532	-2.10592	-6.22044
12454.390	1.29722	-8.68828	-2.27563	-6.47248
12458.393	-1.48024	-6.34134	-2.34857	-2.69075
12462.389	-2.34007	-6.08428	-2.37867	-3.33670
12466.395	-2.90034	-6.42722	-2.17301	-3.40970
12470.394	-1.66750	-4.84593	-2.38722	-3.95319
12474.398	0.53895	-3.00520	-2.18714	-4.61145
12478.393	1.11358	-3.88470	-2.36289	-4.93110
12482.389	1.42605	-4.10517	-2.39681	-4.90207
12486.395	0.64856	-3.09885	-2.38494	-4.94655
12490.393	-1.83881	-4.98998	-2.40907	-5.65473
12494.397	-0.43616	-5.33820	-2.45661	-5.50871
12498.386	-1.72094	-4.95707	-2.57917	-5.64122
12502.394	-0.94264	-5.32157	-2.48475	-5.23859
12506.392	-0.11267	-2.98815	-2.35087	-5.03372
12510.394	-4.30102	-5.69012	-2.04622	-5.03709
12514.397	-2.72887	-6.12811	-1.79386	-5.10668
12518.389	-2.53754	-6.09932	-1.49165	-4.76301
12522.392	-1.43466	-4.89805	-0.98273	-4.69920
12526.388	0.00375	-2.80601	-1.04424	-3.49879
12530.424	-1.70804	-3.72177	-1.16458	-5.38569
12534.399	0.44691	-6.40416	-2.57263	-5.88937
12538.400	-0.82069	-4.01338	-2.27293	-6.03688
12542.387	-1.30149	-6.41778	-2.31255	-5.07145
12546.389	-0.90900	-6.34557	-1.88018	-4.02325
12550.385	-1.69254	-6.45849	-1.92902	-2.90877
12554.393	-2.32315	-5.81906	-1.39478	-6.36229
12558.390	-1.16240	-3.65273	-1.56630	-6.62958
12562.390	-1.24478	-3.48843	-1.94469	-5.41724
12566.387	-0.53451	-3.27612	-2.19564	-4.61241
12570.393	-1.30558	-3.59298	-1.97458	-3.54156
12574.389	-0.91014	-3.35779	-2.07633	-3.57340
12578.391	-0.07984	-6.16954	-1.73561	-4.45914
12582.384	1.18473	-7.08229	-2.73407	-7.03872
12586.393	0.05740	-10.04174	-1.43290	-10.18403
12590.389	2.49664	-10.26619	-1.40549	-10.85743
12594.391	0.40224	-10.10948	-1.02863	-13.90982
12598.386	0.04140	-10.22759	-2.41717	-14.55454
12602.397	-0.42986	-11.01442	2.13105	-10.56800
12606.390	0.94192	-13.60081	-19.99372	-12.24590
12610.389	-0.11126	-12.28386	-19.99372	-12.17421
12614.393	-0.21661	-13.06369	-19.99372	-12.14464
12618.393	-0.58903	-12.31725	-19.99372	-12.12839
12622.388	1.97971	-13.55426	-19.99372	-12.11808
12626.384	-5.07158	-13.21486	-19.99372	-12.11091
12630.391	0.34409	-13.02592	-19.99372	-12.10589
12634.389	-0.05909	-13.81722	-19.99372	-12.11116
12638.389	1.28048	-14.21853	-19.99372	-12.07923
12642.389	2.14280	-13.07525	-19.99372	-12.07640
12646.392	-19.99372	-12.23582	NaN	NaN
12650.389	-19.99372	-12.17929	NaN	NaN
12654.391	-0.54433	-14.24847	NaN	NaN
12658.384	-0.08669	-12.86216	NaN	NaN
12662.389	-0.18750	-14.48344	NaN	NaN
12666.389	0.40628	-14.11981	NaN	NaN
12670.390	-19.99372	-12.17372	NaN	NaN
12674.391	1.72319	-14.53332	NaN	NaN
12678.383	-19.99372	-12.13953	NaN	NaN
12682.392	1.94399	-14.02430	NaN	NaN
12686.388	3.34398	-14.01114	NaN	NaN
12690.389	-19.99372	-12.21086	NaN	NaN
12694.384	-0.99519	-14.21990	NaN	NaN
12698.391	0.98410	-14.60291	NaN	NaN
12702.388	-19.99372	-12.28537	NaN	NaN
12706.391	-19.99372	-12.24175	NaN	NaN
12710.383	1.83134	-13.63275	NaN	NaN
12714.388	-19.99372	-12.26238	NaN	NaN
12718.388	-19.99372	-12.22906	NaN	NaN
12722.396	-19.99372	-12.22277	NaN	NaN
12726.388	1.47885	-13.90166	NaN	NaN
12730.388	-19.99372	-12.17702	NaN	NaN
12734.289	-1.23506	-13.46331	NaN	NaN
12738.266	-19.99372	-12.20140	NaN	NaN
12742.264	-19.99372	-12.18594	NaN	NaN
12746.259	-19.99372	-12.18302	NaN	NaN
12750.264	2.81858	-14.09000	NaN	NaN
12754.261	4.44371	-14.30987	NaN	NaN
12758.262	2.24433	-14.20365	NaN	NaN
12762.257	-19.99372	-12.19984	NaN	NaN
12766.264	-1.37863	-14.01100	NaN	NaN
12770.261	-19.99372	-12.20738	NaN	NaN
12774.262	-19.99372	-12.20272	NaN	NaN
12778.257	-19.99372	-12.14696	NaN	NaN
12782.263	-19.99372	-12.14464	NaN	NaN
12786.262	-1.00744	-14.05523	NaN	NaN
12790.261	0.99869	-12.75367	NaN	NaN
12794.264	-0.53352	-13.91827	NaN	NaN
12798.259	-1.05771	-11.39036	NaN	NaN
12802.261	-0.84558	-13.39856	NaN	NaN
12806.260	1.26691	-13.37946	NaN	NaN
12810.257	-19.99372	-12.20221	NaN	NaN
12814.262	1.90329	-12.71925	NaN	NaN
12818.261	-0.32764	-13.21660	NaN	NaN
12822.256	-0.64149	-14.71296	NaN	NaN
12826.267	1.23496	-10.91139	NaN	NaN
12830.259	2.22173	-14.75269	1.19232	-13.86225
12834.261	-19.99372	-12.26644	-19.99372	-12.08830
12838.256	2.58194	-12.52098	-19.99372	-12.08821
12842.267	-19.99372	-12.12750	-19.99372	-12.08807
12846.263	-19.99372	-12.07258	0.83458	-14.84864
12850.259	-19.99372	-12.02630	-19.99372	-12.09002
12854.266	4.21716	-12.62032	-19.99372	-12.08970
12858.260	-19.99372	-12.02253	-19.99372	-12.08932
12862.262	-19.99372	-11.98647	-19.99372	-12.08890
12866.256	2.77985	-12.99291	-19.99372	-12.08841
12870.263	2.76178	-14.86615	-19.99372	-12.08792
12874.261	-19.99372	-12.05288	-19.99372	-12.07834
12878.258	-19.99372	-12.05489	1.36263	-13.81183
12882.262	0.02157	-14.76474	1.28410	-14.86492
12886.261	0.12960	-13.26342	-19.99372	-12.10214
12890.255	-19.99372	-12.15337	-19.99372	-12.09861
12894.267	4.70680	-10.77683	1.44443	-13.78431
12898.262	2.64824	-13.14819	-0.73407	-13.44611
12902.262	0.33069	-13.08559	1.06800	-13.17776
12906.255	3.90602	-10.82901	-0.35779	-10.99929
12910.259	1.59975	-10.98236	-0.55672	-6.09235
12914.261	3.53871	-10.34695	1.38699	-4.33195
12918.262	0.69285	-7.08364	-1.99352	-4.16515
12922.259	-2.37431	-6.37443	-2.65439	-3.78701
12926.261	1.41918	-2.87173	-2.62633	-0.81526
12930.263	0.39286	-3.14592	-2.48346	-0.56244
12934.258	0.18519	-2.95977	-2.14248	0.96651
12938.261	-1.73690	-2.60411	-2.38591	0.80342
12942.288	-1.67563	-2.05337	-2.57342	0.99525
12946.265	-1.97937	-1.60897	-2.29609	0.76832
12950.262	-0.34481	-1.24768	-2.19308	0.80065
12954.270	-0.33829	-1.48202	-2.29755	-0.61239
12958.277	-0.77694	-1.59237	-2.04014	-0.44622
12962.266	-2.08394	-0.56567	-1.95936	-0.04547
12966.276	-2.20508	-0.15775	0.53272	0.77750
12970.283	-1.76884	-0.47493	-0.16747	0.54294
12974.261	-1.48786	-1.16798	-0.66560	0.79109
12978.259	-1.27981	-1.23480	-0.67059	0.49860
12982.263	-1.38567	-1.01943	-1.07143	0.47957
12986.258	-1.44954	-1.29421	-1.90455	0.30617
12990.259	-2.25947	-0.95040	-2.20671	0.35540
12994.254	-1.69438	-0.96051	-2.18493	0.31269
12998.267	-1.66319	-0.04233	-1.56050	0.38434
13002.258	-1.44818	0.31958	-1.16694	0.49190
13006.258	-1.36528	-1.10370	-2.26039	0.72350
13010.258	-1.52660	-1.35749	-0.61121	0.49577
13014.259	-1.33701	-1.35751	-0.65431	0.41783
13018.254	-1.25488	-1.32785	-1.41231	0.31380
13022.263	-1.45968	-0.87568	-2.32867	-0.01159
13026.261	-1.80132	-0.21198	-2.47236	0.41573
13030.258	-1.30131	-1.12253	-2.23880	0.39807
13034.254	-1.39120	-1.50549	-1.87346	0.48963
13038.261	-1.45142	-1.44344	-2.24108	0.30600
13042.257	-1.43900	-0.94694	-2.64827	0.52138
13046.253	-1.26391	-0.47419	2.56867	0.51809
13050.260	-1.49860	-0.56391	-2.14892	0.14266
13054.257	-2.28403	-1.52141	-2.21905	0.18181
13058.258	-1.71332	-1.71264	-2.48307	0.50142
13062.258	-1.73638	-0.86965	-2.57068	0.91134
13066.261	-1.93289	-0.40001	-2.19564	0.17367
13070.256	-1.56382	-0.04325	-1.94203	0.05471
13074.257	-1.59045	-0.25095	-2.14964	0.14782
13078.257	-1.51978	-0.74597	-2.67345	0.40236
13082.261	3.44762	-5.05927	-2.67113	0.66282
13086.252	-1.95507	-2.01413	-1.96967	-0.01984
13090.260	3.35182	-3.00131	-1.27706	0.13974
13094.256	-2.04671	-0.29566	-1.47491	0.10878
13098.259	-1.54651	-0.80683	-1.91516	0.44904
13102.263	3.67106	-3.14383	-2.10558	0.69917
13106.256	-1.44691	-0.13290	-2.34716	0.62721
13110.256	3.77004	-0.70091	-2.52277	0.85573
13114.260	-1.70824	-0.50452	-2.08835	0.74077
13118.255	-1.55531	-0.39103	-1.54324	0.28397
13122.260	-1.11452	-1.58817	-1.78629	-0.42366
13126.253	-1.27678	-1.07667	-2.16535	-0.54389
13130.259	-1.48716	-0.99522	-2.59646	-0.44796
13134.255	-2.54769	-1.35686	-2.44531	-0.34978
13138.257	5.41337	-8.15048	-2.23754	-0.44932
13142.252	-1.81716	-1.63371	-2.47965	-0.55546
13146.285	-1.25418	-2.11357	-3.07278	-0.49420
13150.264	-0.52054	-1.94906	-1.03523	-0.49724
13154.263	-0.73980	-0.90796	2.81244	-0.58460
13158.256	-1.28598	-0.97054	2.06500	-0.45096
13162.276	-0.94475	-1.20661	0.91316	-0.52150
13166.260	-0.61158	-1.06540	0.74002	-0.41226
13170.257	-1.29611	-0.92462	-0.92430	-0.48970
13174.259	-1.25106	-0.69637	-2.35940	-0.94457
13178.291	-1.57954	-0.41382	-2.20803	-0.77216
13182.256	-1.45638	-0.33386	-2.27379	-0.76170
13186.249	-1.20728	0.05133	-1.88130	-0.70898
13190.257	-1.66876	-0.86129	-1.29988	-0.52586
13194.255	-1.31900	-0.72345	-2.09209	-0.52539
13198.250	4.01154	-6.60844	-2.24844	-0.23948
13202.257	-2.10947	-1.20225	-2.54804	-0.24373
13206.263	-1.60791	-1.14142	-2.39805	-0.27521
13210.255	-1.94888	-0.88539	-2.16015	-0.14829
13214.328	-1.97790	-0.68073	-1.94533	-0.06186
13218.260	-1.62847	-1.09592	-2.10116	0.17656
13222.260	2.91416	-1.11102	-1.76834	0.39309
13226.261	-2.13502	-0.90249	-2.16838	0.40807
13230.259	-3.31610	-1.16334	-2.45317	0.08612
13234.260	-1.61952	-0.53249	-3.52188	-0.08477
13238.255	-2.80137	-0.84787	-3.10856	-0.55315
13242.262	-2.52423	-0.83014	-3.55014	-0.95107
13246.258	-3.09946	-0.87210	-3.74412	-0.83198
13250.252	-2.99643	-0.92099	-3.75588	-0.86322
13254.262	-3.34650	-0.87410	-3.62007	-1.06519
13258.257	-3.47238	-1.03930	-3.28734	-0.84087
13262.259	-3.74355	-0.77900	-3.39876	-0.97692
13266.256	-3.61295	-0.81038	-3.11717	-0.98327
13270.261	-3.57103	-0.77153	-3.08849	-1.23079
13274.259	-3.47272	-0.57488	-3.38788	-1.17548
13278.260	-3.81031	-0.87953	-3.50074	-1.27902
13282.257	-4.01853	-0.86291	-3.45391	-1.47170
13286.259	-4.06300	-0.82665	-3.38231	-1.40088
13290.252	-4.12989	-0.34631	-3.53201	-1.71643
13294.260	-2.30573	-0.60834	-3.02121	-0.87174
13298.257	-3.61112	-0.76786	-3.34499	-1.47513
13302.260	-3.31054	-0.80292	-3.85568	-1.45114
13306.256	-2.76106	-0.72283	-3.34497	0.22991
13310.263	-4.26134	-0.83113	-3.14305	-0.37326
13314.257	-4.05377	-1.06108	-3.17945	-1.28650
13318.253	-4.15206	-0.92862	-3.04506	-1.95015
13322.262	-3.91813	-0.70517	-2.91762	-0.73226
13326.258	-3.86482	-0.99176	-3.19219	-0.01776
13330.263	-3.74669	-1.32692	-3.41281	-0.60043
13334.252	-3.31299	-1.83167	-2.79857	-1.06791
13338.260	-2.86222	-0.84840	-0.36978	-0.37161
13342.258	-3.24679	0.81319	-2.61835	-1.92866
13346.258	-7.21689	-0.68816	-3.79880	3.36459
13350.278	-13.92169	1.37996	-7.94874	0.37274
13354.253	-8.74084	4.54595	-4.00000	-1.77016
13358.260	-13.14574	4.22819	NaN	NaN
13362.257	-14.11318	1.28017	-12.62386	0.27177
13366.259	NaN	NaN	NaN	NaN
13370.889	NaN	NaN	NaN	NaN
