time (ms)	lx (deg)	ly (deg)	rx (deg)	ry (deg)
0.000	NaN	NaN	NaN	NaN
4.198	NaN	NaN	NaN	NaN
8.312	NaN	NaN	NaN	NaN
12.315	NaN	NaN	NaN	NaN
16.409	NaN	NaN	NaN	NaN
20.633	NaN	NaN	NaN	NaN
24.722	NaN	NaN	NaN	NaN
28.155	NaN	NaN	NaN	NaN
32.426	NaN	NaN	NaN	NaN
36.570	NaN	NaN	NaN	NaN
40.592	NaN	NaN	NaN	NaN
44.047	NaN	NaN	NaN	NaN
47.436	NaN	NaN	NaN	NaN
50.875	NaN	NaN	NaN	NaN
54.171	NaN	NaN	NaN	NaN
58.156	NaN	NaN	NaN	NaN
63.528	NaN	NaN	NaN	NaN
74.173	NaN	NaN	NaN	NaN
78.158	NaN	NaN	NaN	NaN
82.157	NaN	NaN	NaN	NaN
86.153	NaN	NaN	NaN	NaN
90.786	NaN	NaN	NaN	NaN
98.160	NaN	NaN	NaN	NaN
102.167	NaN	NaN	NaN	NaN
106.163	NaN	NaN	NaN	NaN
110.164	NaN	NaN	NaN	NaN
114.156	NaN	NaN	NaN	NaN
118.157	NaN	NaN	NaN	NaN
122.147	NaN	NaN	NaN	NaN
126.169	NaN	NaN	NaN	NaN
130.164	NaN	NaN	NaN	NaN
134.161	NaN	NaN	NaN	NaN
138.156	NaN	NaN	NaN	NaN
142.154	NaN	NaN	NaN	NaN
146.153	NaN	NaN	NaN	NaN
150.162	NaN	NaN	NaN	NaN
154.173	NaN	NaN	NaN	NaN
158.151	NaN	NaN	NaN	NaN
162.030	NaN	NaN	NaN	NaN
166.053	NaN	NaN	NaN	NaN
170.031	NaN	NaN	NaN	NaN
174.030	NaN	NaN	NaN	NaN
178.032	NaN	NaN	NaN	NaN
182.034	NaN	NaN	NaN	NaN
186.031	NaN	NaN	NaN	NaN
190.030	NaN	NaN	NaN	NaN
194.032	NaN	NaN	NaN	NaN
198.034	NaN	NaN	NaN	NaN
202.132	NaN	NaN	NaN	NaN
206.040	NaN	NaN	NaN	NaN
210.027	NaN	NaN	NaN	NaN
214.030	NaN	NaN	NaN	NaN
218.045	NaN	NaN	NaN	NaN
222.038	NaN	NaN	NaN	NaN
226.029	NaN	NaN	NaN	NaN
230.026	NaN	NaN	NaN	NaN
234.030	NaN	NaN	NaN	NaN
238.055	NaN	NaN	NaN	NaN
242.026	NaN	NaN	NaN	NaN
246.025	NaN	NaN	NaN	NaN
250.029	NaN	NaN	NaN	NaN
254.029	NaN	NaN	NaN	NaN
258.028	NaN	NaN	NaN	NaN
262.027	NaN	NaN	NaN	NaN
266.026	NaN	NaN	NaN	NaN
270.247	NaN	NaN	NaN	NaN
274.032	NaN	NaN	NaN	NaN
278.033	NaN	NaN	NaN	NaN
282.028	NaN	NaN	NaN	NaN
286.023	NaN	NaN	NaN	NaN
290.032	NaN	NaN	NaN	NaN
294.034	NaN	NaN	NaN	NaN
298.025	NaN	NaN	NaN	NaN
302.024	NaN	NaN	NaN	NaN
306.027	NaN	NaN	NaN	NaN
310.029	NaN	NaN	NaN	NaN
439.010	NaN	NaN	NaN	NaN
488.753	NaN	NaN	NaN	NaN
538.727	NaN	NaN	NaN	NaN
588.741	NaN	NaN	NaN	NaN
638.885	NaN	NaN	NaN	NaN
688.864	NaN	NaN	NaN	NaN
756.602	NaN	NaN	NaN	NaN
760.292	NaN	NaN	NaN	NaN
764.272	NaN	NaN	NaN	NaN
768.269	NaN	NaN	NaN	NaN
772.260	NaN	NaN	NaN	NaN
776.276	NaN	NaN	NaN	NaN
780.270	NaN	NaN	NaN	NaN
784.269	NaN	NaN	NaN	NaN
788.263	NaN	NaN	NaN	NaN
792.265	NaN	NaN	NaN	NaN
796.261	NaN	NaN	NaN	NaN
800.268	NaN	NaN	NaN	NaN
804.264	NaN	NaN	NaN	NaN
808.265	NaN	NaN	NaN	NaN
812.260	NaN	NaN	NaN	NaN
816.267	NaN	NaN	NaN	NaN
820.268	NaN	NaN	NaN	NaN
824.264	NaN	NaN	NaN	NaN
828.259	NaN	NaN	NaN	NaN
832.268	NaN	NaN	NaN	NaN
836.263	NaN	NaN	NaN	NaN
840.263	NaN	NaN	NaN	NaN
844.268	NaN	NaN	NaN	NaN
848.263	NaN	NaN	NaN	NaN
852.265	NaN	NaN	NaN	NaN
856.259	NaN	NaN	NaN	NaN
860.263	NaN	NaN	NaN	NaN
864.265	NaN	NaN	NaN	NaN
868.266	NaN	NaN	NaN	NaN
876.289	NaN	NaN	NaN	NaN
880.276	NaN	NaN	NaN	NaN
884.518	NaN	NaN	NaN	NaN
888.809	NaN	NaN	NaN	NaN
893.558	NaN	NaN	NaN	NaN
897.484	NaN	NaN	NaN	NaN
901.264	NaN	NaN	NaN	NaN
905.203	NaN	NaN	NaN	NaN
909.071	NaN	NaN	NaN	NaN
913.357	NaN	NaN	NaN	NaN
917.031	NaN	NaN	NaN	NaN
920.656	NaN	NaN	NaN	NaN
924.354	NaN	NaN	NaN	NaN
928.293	NaN	NaN	NaN	NaN
932.265	NaN	NaN	NaN	NaN
938.140	NaN	NaN	NaN	NaN
941.645	NaN	NaN	NaN	NaN
948.275	NaN	NaN	NaN	NaN
952.265	NaN	NaN	NaN	NaN
958.189	NaN	NaN	NaN	NaN
962.607	NaN	NaN	NaN	NaN
968.273	NaN	NaN	-5.93979	13.72224
974.174	NaN	NaN	NaN	NaN
976.335	NaN	NaN	NaN	NaN
984.264	NaN	NaN	NaN	NaN
988.266	NaN	NaN	NaN	NaN
992.265	NaN	NaN	NaN	NaN
996.266	NaN	NaN	NaN	NaN
1000.267	NaN	NaN	NaN	NaN
1004.266	NaN	NaN	NaN	NaN
1008.287	NaN	NaN	NaN	NaN
1012.437	NaN	NaN	NaN	NaN
1016.320	NaN	NaN	NaN	NaN
1020.270	NaN	NaN	NaN	NaN
1024.420	NaN	NaN	NaN	NaN
1029.615	NaN	NaN	NaN	NaN
1033.855	NaN	NaN	NaN	NaN
1037.450	NaN	NaN	NaN	NaN
1041.207	NaN	NaN	NaN	NaN
1045.375	NaN	NaN	NaN	NaN
1049.544	NaN	NaN	NaN	NaN
1053.194	NaN	NaN	NaN	NaN
1056.855	NaN	NaN	NaN	NaN
1060.979	NaN	NaN	NaN	NaN
1065.088	NaN	NaN	NaN	NaN
1069.243	NaN	NaN	NaN	NaN
1073.326	NaN	NaN	NaN	NaN
1077.473	NaN	NaN	NaN	NaN
1081.539	NaN	NaN	NaN	NaN
1085.580	NaN	NaN	NaN	NaN
1089.612	NaN	NaN	NaN	NaN
1093.767	NaN	NaN	NaN	NaN
1098.233	NaN	NaN	NaN	NaN
1102.353	NaN	NaN	NaN	NaN
1105.973	NaN	NaN	NaN	NaN
1110.041	NaN	NaN	NaN	NaN
1113.663	NaN	NaN	NaN	NaN
1117.176	NaN	NaN	NaN	NaN
1121.204	NaN	NaN	NaN	NaN
1124.888	NaN	NaN	NaN	NaN
1128.786	NaN	NaN	NaN	NaN
1132.519	NaN	NaN	NaN	NaN
1136.292	NaN	NaN	NaN	NaN
1140.429	NaN	NaN	NaN	NaN
1144.504	NaN	NaN	NaN	NaN
1148.404	NaN	NaN	NaN	NaN
1152.351	NaN	NaN	NaN	NaN
1156.461	NaN	NaN	NaN	NaN
1160.484	NaN	NaN	NaN	NaN
1165.288	NaN	NaN	NaN	NaN
1169.364	NaN	NaN	NaN	NaN
1173.317	NaN	NaN	NaN	NaN
1176.921	NaN	NaN	NaN	NaN
1180.563	NaN	NaN	NaN	NaN
1184.594	NaN	NaN	NaN	NaN
1188.552	NaN	NaN	NaN	NaN
1192.467	NaN	NaN	NaN	NaN
1196.412	NaN	NaN	NaN	NaN
1200.504	NaN	NaN	NaN	NaN
1204.675	NaN	NaN	NaN	NaN
1208.290	NaN	NaN	NaN	NaN
1212.274	NaN	NaN	NaN	NaN
1216.264	NaN	NaN	NaN	NaN
1220.341	NaN	NaN	NaN	NaN
1224.417	NaN	NaN	NaN	NaN
1228.529	NaN	NaN	NaN	NaN
1232.911	NaN	NaN	NaN	NaN
1236.947	NaN	NaN	NaN	NaN
1240.419	NaN	NaN	NaN	NaN
1244.263	NaN	NaN	NaN	NaN
1248.258	NaN	NaN	NaN	NaN
1252.263	NaN	NaN	NaN	NaN
1256.262	NaN	NaN	NaN	NaN
1260.261	NaN	NaN	NaN	NaN
1264.258	NaN	NaN	NaN	NaN
1268.263	NaN	NaN	NaN	NaN
1272.263	NaN	NaN	NaN	NaN
1276.262	NaN	NaN	NaN	NaN
1280.262	NaN	NaN	NaN	NaN
1284.263	NaN	NaN	NaN	NaN
1288.442	NaN	NaN	NaN	NaN
1292.263	NaN	NaN	NaN	NaN
1296.263	NaN	NaN	NaN	NaN
1300.690	NaN	NaN	NaN	NaN
1304.422	NaN	NaN	NaN	NaN
1308.274	NaN	NaN	NaN	NaN
1312.460	NaN	NaN	NaN	NaN
1316.272	NaN	NaN	NaN	NaN
1320.265	NaN	NaN	NaN	NaN
1324.259	NaN	NaN	NaN	NaN
1328.262	NaN	NaN	NaN	NaN
1332.424	NaN	NaN	NaN	NaN
1336.643	NaN	NaN	NaN	NaN
1340.337	NaN	NaN	NaN	NaN
1344.624	NaN	NaN	NaN	NaN
1348.751	NaN	NaN	NaN	NaN
1352.881	NaN	NaN	NaN	NaN
1356.489	NaN	NaN	NaN	NaN
1360.740	NaN	NaN	NaN	NaN
1364.273	NaN	NaN	NaN	NaN
1368.741	NaN	NaN	NaN	NaN
1372.351	NaN	NaN	NaN	NaN
1376.147	NaN	NaN	NaN	NaN
1380.136	NaN	NaN	NaN	NaN
1525.109	NaN	NaN	NaN	NaN
1574.861	NaN	NaN	NaN	NaN
1624.844	NaN	NaN	NaN	NaN
1674.963	NaN	NaN	NaN	NaN
1724.956	NaN	NaN	NaN	NaN
1792.655	NaN	NaN	NaN	NaN
1796.390	NaN	NaN	NaN	NaN
1800.380	NaN	NaN	NaN	NaN
1804.373	NaN	NaN	NaN	NaN
1808.373	NaN	NaN	NaN	NaN
1812.378	NaN	NaN	NaN	NaN
1816.377	NaN	NaN	NaN	NaN
1820.371	NaN	NaN	NaN	NaN
1824.373	NaN	NaN	NaN	NaN
1828.371	NaN	NaN	NaN	NaN
1832.375	NaN	NaN	NaN	NaN
1836.370	NaN	NaN	NaN	NaN
1840.371	NaN	NaN	NaN	NaN
1844.377	NaN	NaN	NaN	NaN
1848.374	NaN	NaN	NaN	NaN
1852.375	NaN	NaN	NaN	NaN
1856.371	NaN	NaN	NaN	NaN
1860.376	NaN	NaN	NaN	NaN
1864.373	NaN	NaN	NaN	NaN
1868.373	NaN	NaN	NaN	NaN
1872.372	NaN	NaN	NaN	NaN
1876.374	NaN	NaN	NaN	NaN
1880.371	NaN	NaN	NaN	NaN
1884.371	NaN	NaN	NaN	NaN
1888.375	NaN	NaN	NaN	NaN
1892.395	NaN	NaN	NaN	NaN
1896.380	NaN	NaN	NaN	NaN
1900.371	NaN	NaN	NaN	NaN
1904.373	NaN	NaN	NaN	NaN
1908.373	NaN	NaN	NaN	NaN
1912.374	NaN	NaN	NaN	NaN
1916.372	NaN	NaN	NaN	NaN
1920.371	NaN	NaN	NaN	NaN
1924.370	NaN	NaN	NaN	NaN
1928.376	NaN	NaN	NaN	NaN
1932.374	NaN	NaN	NaN	NaN
1936.376	NaN	NaN	NaN	NaN
1940.378	NaN	NaN	NaN	NaN
1944.371	NaN	NaN	NaN	NaN
1948.371	NaN	NaN	NaN	NaN
1952.434	NaN	NaN	NaN	NaN
1956.381	NaN	NaN	NaN	NaN
1960.369	NaN	NaN	NaN	NaN
1964.368	NaN	NaN	NaN	NaN
1968.374	NaN	NaN	NaN	NaN
1972.371	NaN	NaN	NaN	NaN
1976.374	NaN	NaN	NaN	NaN
1980.368	NaN	NaN	NaN	NaN
1984.371	NaN	NaN	NaN	NaN
1988.370	NaN	NaN	NaN	NaN
1992.368	NaN	NaN	NaN	NaN
1996.373	NaN	NaN	NaN	NaN
2000.372	NaN	NaN	NaN	NaN
2004.369	NaN	NaN	NaN	NaN
2008.372	NaN	NaN	NaN	NaN
2012.367	NaN	NaN	NaN	NaN
2016.368	NaN	NaN	NaN	NaN
2020.372	NaN	NaN	NaN	NaN
2024.372	NaN	NaN	NaN	NaN
2028.417	NaN	NaN	NaN	NaN
2032.394	NaN	NaN	NaN	NaN
2036.378	NaN	NaN	NaN	NaN
2040.369	NaN	NaN	NaN	NaN
2044.370	NaN	NaN	NaN	NaN
2048.373	NaN	NaN	NaN	NaN
2052.371	NaN	NaN	NaN	NaN
2056.368	NaN	NaN	NaN	NaN
2060.371	NaN	NaN	NaN	NaN
2064.373	NaN	NaN	NaN	NaN
2068.371	NaN	NaN	NaN	NaN
2072.368	NaN	NaN	NaN	NaN
2076.368	NaN	NaN	NaN	NaN
2080.373	NaN	NaN	NaN	NaN
2084.370	NaN	NaN	NaN	NaN
2088.368	NaN	NaN	NaN	NaN
2092.374	NaN	NaN	NaN	NaN
2096.372	NaN	NaN	NaN	NaN
2100.373	NaN	NaN	NaN	NaN
2104.372	NaN	NaN	NaN	NaN
2108.368	NaN	NaN	NaN	NaN
2112.367	NaN	NaN	NaN	NaN
2116.368	NaN	NaN	NaN	NaN
2120.371	NaN	NaN	NaN	NaN
2124.368	NaN	NaN	NaN	NaN
2128.367	NaN	NaN	NaN	NaN
2253.207	NaN	NaN	NaN	NaN
2293.105	NaN	NaN	NaN	NaN
2343.094	NaN	NaN	NaN	NaN
2393.071	NaN	NaN	NaN	NaN
2443.072	NaN	NaN	NaN	NaN
2493.073	NaN	NaN	NaN	NaN
2543.075	NaN	NaN	NaN	NaN
2593.196	NaN	NaN	NaN	NaN
2643.212	NaN	NaN	NaN	NaN
2693.195	NaN	NaN	NaN	NaN
2743.192	NaN	NaN	NaN	NaN
2793.190	NaN	NaN	NaN	NaN
2843.320	NaN	NaN	NaN	NaN
2893.333	NaN	NaN	NaN	NaN
2943.313	NaN	NaN	NaN	NaN
2993.311	NaN	NaN	NaN	NaN
3043.317	NaN	NaN	NaN	NaN
3111.197	NaN	NaN	NaN	NaN
3114.881	NaN	NaN	NaN	NaN
3118.865	NaN	NaN	NaN	NaN
3122.859	NaN	NaN	NaN	NaN
3126.857	NaN	NaN	NaN	NaN
3130.857	NaN	NaN	NaN	NaN
3134.850	NaN	NaN	NaN	NaN
3138.860	NaN	NaN	NaN	NaN
3142.855	NaN	NaN	NaN	NaN
3146.857	NaN	NaN	NaN	NaN
3150.850	NaN	NaN	NaN	NaN
3154.874	1.99630	9.06824	0.12290	9.14077
3158.852	2.02066	9.14166	0.15044	9.48544
3162.855	3.01834	9.04064	0.16891	9.54610
3166.851	2.09499	9.16475	0.14426	9.47618
3170.852	1.78729	9.27405	-0.16856	9.64394
3174.847	1.71667	9.45490	-0.03095	9.82673
3178.854	1.65947	9.18912	-0.00826	9.57704
3182.855	1.59231	9.08550	-0.27255	9.42439
3186.852	1.75786	9.28467	0.05867	9.43663
3190.852	1.68421	9.35519	0.05135	9.51890
3194.854	1.55789	9.37020	0.23336	9.49596
3198.850	1.61786	9.31056	0.03343	9.27832
3202.852	1.55281	9.41916	0.17412	9.22088
3206.852	2.34805	9.48209	0.62734	9.05665
3210.854	2.76329	9.35910	0.59307	8.90150
3214.853	2.84611	9.46176	0.70044	8.64817
3218.846	1.87426	9.22234	0.77982	8.57852
3222.853	1.97361	9.08844	0.81992	8.49665
3226.851	3.09117	5.55466	0.78327	8.57837
3230.851	2.06302	9.12499	0.81630	8.26027
3234.845	1.40569	9.30456	0.75278	8.37763
3238.854	1.30809	9.20275	0.83220	8.28462
3242.849	1.05019	9.18221	0.79407	8.37439
3246.853	2.51933	9.10207	0.91294	8.24593
3250.853	1.59732	8.83622	0.84101	8.15193
3254.853	2.29186	8.97827	0.79139	8.16211
3258.846	2.22998	9.04753	0.82074	7.95647
3262.854	2.23070	9.23392	0.82989	7.77215
3266.850	1.39579	9.48906	0.84478	7.50455
3270.852	1.52325	9.69804	0.58037	7.74661
3274.845	2.54918	9.30230	0.81565	7.81060
3278.852	2.68754	9.52963	0.79493	7.57941
3282.850	2.81461	9.49362	0.71762	7.80297
3286.846	2.82048	9.48194	0.82640	7.84235
3290.859	3.02022	8.86715	0.79724	7.57115
3294.852	2.99297	8.85109	0.82349	7.80468
3298.846	3.11443	8.67434	0.85791	7.73070
3302.853	3.16166	7.94994	0.78717	7.96602
3306.850	3.16832	7.80674	0.86324	8.03845
3310.852	3.15894	7.88259	0.97378	7.94537
3314.846	3.18576	7.66534	0.93778	7.83463
3318.854	3.20419	7.64023	0.73183	8.38783
3322.854	3.19662	7.83824	0.82652	8.31074
3326.881	3.17443	8.50978	0.89850	8.37759
3330.851	2.94337	8.87084	0.91381	8.57014
3334.848	1.36727	9.22609	0.76846	8.75986
3338.848	1.09125	9.86777	0.83235	8.53706
3342.852	1.76286	9.41960	0.97896	8.65069
3346.847	1.08621	9.51463	0.98767	8.94044
3350.847	0.97837	9.45290	0.78424	9.17882
3354.843	1.29958	9.21215	0.86602	9.08364
3358.851	1.65984	9.24057	0.89460	8.92986
3362.848	1.38369	9.12688	0.98531	8.83276
3366.848	1.53304	9.08630	0.78144	9.20865
3370.842	1.83623	8.76480	0.79806	9.05224
3374.851	2.01945	8.70753	0.59585	8.95230
3378.848	2.13854	8.21096	0.63667	8.87844
3382.848	2.24621	7.66951	0.42269	9.01220
3386.725	2.37218	8.09766	0.38966	8.98181
3390.727	2.37228	7.89046	0.38906	8.88816
3394.723	2.38715	8.27504	0.09828	8.60733
3398.718	2.51561	8.34149	0.07100	8.33528
3402.725	2.69113	8.49148	0.15672	8.34331
3406.723	2.57830	8.34753	0.24748	8.35776
3410.719	2.64002	8.12383	0.25646	8.19304
3414.726	2.54789	9.02256	0.46651	8.11328
3418.722	2.31896	10.19888	0.68980	8.00810
3422.723	2.57697	8.99943	0.13933	8.15044
3426.717	2.06086	8.87669	0.06224	8.10701
3430.726	2.87651	6.76133	-0.17802	6.78543
3434.722	4.51943	6.36452	5.74844	3.61716
3438.723	-0.82602	-2.66444	1.79705	6.74892
3442.718	2.21712	5.72785	1.19644	5.77098
3446.725	3.05971	3.03736	0.10225	5.92112
3450.722	2.37337	2.92877	0.78694	4.90100
3454.724	3.42037	2.67067	0.37243	3.70201
3458.725	2.24158	2.17157	4.25847	-1.42867
3462.733	1.46254	2.68963	4.18176	2.14753
3466.723	1.55504	2.29801	3.83077	1.86690
3470.725	1.48327	1.80682	3.55145	2.35761
3474.722	1.74313	1.59821	0.66332	1.76754
3478.723	2.77750	1.51816	1.21737	1.47642
3482.717	2.82897	1.61040	1.31178	1.35742
3486.724	2.82155	1.43422	1.32719	1.58844
3490.722	2.13029	1.17225	1.20720	1.32969
3494.717	1.92488	1.47399	1.28953	1.18332
3498.723	2.25848	1.49365	1.08125	1.17648
3502.720	1.86851	1.64994	0.91336	1.18881
3506.722	1.79604	1.57734	0.97291	1.02296
3510.715	1.74952	1.61230	0.74079	0.98002
3514.725	1.84852	1.61403	0.47823	0.88821
3518.722	-0.53513	0.83928	0.62992	1.17436
3522.757	1.76946	1.68569	0.70030	1.27572
3526.723	1.67038	1.72045	0.48783	1.10193
3530.728	-0.48498	-1.36222	0.65260	1.29786
3534.727	1.84304	1.78530	2.95391	1.47896
3538.725	2.82504	1.69821	2.99797	1.51992
3542.755	1.65723	-1.83404	2.72065	1.94526
3546.725	-2.37612	-1.58577	1.97649	1.83826
3550.726	2.37927	1.50699	1.93214	2.08681
3554.719	1.65488	1.42960	0.72923	1.73087
3558.727	-0.40747	-1.38322	0.25914	2.50084
3562.724	1.73889	1.64457	0.75573	2.18619
3566.720	-0.44110	-4.40871	1.19440	2.26087
3570.726	1.59437	1.45866	0.51530	2.36601
3574.723	2.82925	1.74559	0.50597	2.35078
3578.725	3.31729	1.61023	2.56060	2.34972
3582.720	1.90515	-0.86726	2.31748	2.39845
3586.729	1.90596	2.01652	2.19546	2.30956
3590.726	1.93264	2.00332	0.52476	2.11344
3594.744	2.16411	2.06759	0.25604	1.78281
3598.721	1.45666	-2.59720	0.06405	1.92565
3602.719	1.12087	-0.09294	0.17938	2.01428
3606.714	1.18336	2.05391	0.16007	1.94143
3610.721	0.33000	-0.86919	0.05678	2.11348
3614.719	5.16777	-0.88851	-0.16988	2.08491
3618.721	4.01388	0.14412	-0.02861	2.13021
3622.717	2.25132	-2.02315	0.28518	2.51135
3626.722	1.84899	0.59816	0.22460	2.35552
3630.718	2.64371	0.13312	0.48840	3.09811
3634.719	2.95579	0.31102	0.36077	2.81277
3638.714	2.60099	0.61952	0.08867	3.06958
3642.722	2.57033	0.27495	0.04472	2.96129
3646.718	1.67360	-2.82057	0.39710	2.91748
3650.719	2.55250	-3.68673	0.22388	2.87115
3654.725	3.89229	0.64362	0.11662	2.68710
3658.744	2.92215	0.59521	0.22718	2.63675
3662.727	2.48582	0.81912	0.40030	2.93582
3666.723	2.68403	0.81361	0.60181	3.08448
3670.730	2.91582	0.73886	0.21700	2.92866
3674.718	2.71364	0.75562	0.28319	3.01164
3678.726	1.60027	-0.53207	0.00333	2.95718
3682.722	0.32533	-2.98784	-4.60816	1.28541
3686.724	2.40825	0.25118	0.11344	2.94786
3690.716	3.51199	0.12917	0.10868	2.94382
3694.722	3.66209	0.40872	0.16769	2.69637
3698.723	3.06649	0.61612	0.75761	2.76357
3702.719	2.54551	0.75726	0.63312	2.68446
3706.726	3.13417	0.58683	0.85406	2.57801
3710.722	2.91416	-0.14716	0.50031	2.33675
3714.724	3.03811	0.79904	0.17918	2.03860
3718.718	2.42820	0.87190	0.27421	2.26159
3722.723	2.20196	0.85665	0.07525	2.27290
3726.743	1.89288	0.82213	0.25671	2.22003
3730.725	1.05942	-3.52613	0.08386	1.83272
3734.717	2.94866	1.37118	0.52195	2.13287
3738.725	2.70503	1.19987	4.15868	-2.49845
3742.723	-2.87408	-5.21990	3.23841	2.07557
3746.724	4.66886	-0.24237	3.18816	1.69455
3750.717	7.20929	-4.80285	4.62946	-1.14602
3754.727	NaN	NaN	8.14322	-3.51978
3758.740	NaN	NaN	NaN	NaN
3762.722	7.15518	-4.80829	5.24631	-5.35659
3766.717	8.98208	-0.62016	4.76019	-2.10306
3770.723	13.44357	-6.60674	7.45250	-3.82892
3774.720	9.55661	-5.20430	5.36993	-3.68886
3778.721	7.14142	-3.78209	6.15892	-4.03104
3782.724	13.63138	-7.11687	6.43077	-4.46037
3786.720	11.90246	-6.77925	6.32684	-4.59172
3790.721	11.24473	-8.07072	6.55004	-4.08711
3794.748	11.40357	-8.71540	6.70937	-4.03212
3798.727	9.36133	-7.06289	6.24497	-3.96188
3802.717	8.98223	-7.76786	6.20021	-4.37242
3806.725	8.55634	-8.53658	6.31787	-4.29835
3810.721	8.33787	-7.26057	6.32640	-4.26260
3814.723	-19.99372	-12.07740	6.11606	-4.20608
3818.716	5.52143	1.83522	6.01834	-4.23415
3822.724	11.31281	-6.53556	6.12256	-4.16882
3826.720	14.62170	-7.35391	9.42006	-4.32209
3830.722	11.72753	-7.00203	8.84074	-4.37392
3834.715	11.48499	-4.87648	4.76793	-7.57992
3838.722	10.99496	-6.72843	0.90574	-4.89900
3842.723	13.23753	-7.19190	6.00155	-4.17701
3846.715	11.65961	-9.19834	5.95211	-3.66803
3850.724	11.58039	-9.22771	5.70008	-3.84103
3854.720	14.48946	-8.59609	5.75288	-4.18457
3858.734	11.78098	-8.16224	5.64769	-3.96260
3862.719	11.70823	-9.24691	6.00933	-7.27866
3866.720	11.81018	-7.85843	5.88803	-3.97665
3870.716	9.87129	-8.63896	6.64276	-3.72353
3874.718	11.23630	-8.16330	7.98887	-6.30666
3878.717	10.50162	-7.79875	6.69060	-3.52111
3882.715	9.63513	-8.00188	5.74495	-6.29547
3886.718	10.08356	-7.77397	6.65032	-3.51503
3890.711	10.91435	-7.65191	9.45689	-5.69006
3894.715	14.49644	-7.88111	9.80187	-6.30030
3898.714	11.71170	-7.88351	6.95673	-3.50633
3902.721	11.11635	-7.22568	7.12948	-3.29921
3906.716	11.76535	-8.47159	7.12620	-3.22400
3910.717	12.64421	-9.88653	6.72966	-3.19662
3914.720	15.30039	-9.38157	5.40744	-3.20056
3918.714	12.00856	-8.62291	5.68283	-3.16389
3922.713	13.74739	-7.83725	5.85134	-3.02688
3926.709	8.38673	-8.12166	5.67295	-3.12201
3930.717	9.19292	-6.51730	6.11086	-2.94496
3934.711	15.89356	-9.63459	5.73436	-2.70432
3938.718	-19.99372	-12.06427	5.84043	-2.83174
3942.713	9.31591	-4.82473	7.59319	-2.97222
3946.715	15.60261	-11.16096	7.83400	-3.03544
3950.710	4.70032	-9.79207	5.69347	-3.27115
3954.718	8.60579	-9.23576	7.53718	-3.55295
3958.716	10.67030	-10.88943	6.16557	-3.13268
3962.720	7.85794	-9.61111	6.81781	-3.17722
3966.723	9.48103	-9.33766	6.60512	-3.20343
3970.718	4.25504	-9.55614	6.41690	-3.55652
3974.745	16.00019	-9.25434	5.95582	-3.79773
3978.707	8.53578	-10.39108	6.09601	-3.76632
3982.718	11.00496	-9.52167	6.17303	-3.45459
3986.711	8.96612	-6.17085	5.82285	-3.84096
3990.713	8.03270	-9.36327	6.19044	-3.74039
3994.716	9.96975	-8.92380	6.22937	-3.48858
3998.746	10.21382	-4.01559	7.26967	-3.22664
4002.739	6.54472	-9.33080	7.81169	-3.61732
4006.718	10.04882	-9.10921	10.67030	-7.66232
4010.711	10.96311	-10.55788	10.89121	-7.35191
4014.720	10.43496	-9.08248	6.68056	-4.07418
4018.717	15.68426	-11.80988	6.97582	-2.94379
4022.718	9.75198	-7.55364	5.99959	-3.94020
4026.718	6.35290	-6.15534	7.30942	-1.77733
4030.721	9.69935	-3.72212	6.06583	-2.40532
4034.713	12.85411	-3.91933	5.56333	-1.23923
4038.721	-19.99372	-11.89241	6.04392	-1.32959
4042.717	-19.99372	-11.95824	5.49205	-0.91784
4046.732	6.72692	-1.45619	5.66806	-0.95035
4050.707	6.72658	-2.16649	6.02003	-1.92218
4054.715	6.90595	-1.73953	6.73057	-1.21508
4058.711	6.49462	-7.10232	6.87198	-1.88840
4062.712	9.19089	-4.46677	7.30039	-1.20354
4066.724	9.33497	-4.52078	7.49234	-0.96681
4070.716	12.08793	-4.22833	5.38371	-0.52192
4075.015	12.20489	-2.86805	1.90639	-1.96381
4079.267	NaN	NaN	5.43138	-0.34061
4083.460	6.72922	-0.89954	6.50295	-1.40367
4086.726	6.67902	-0.24007	7.02851	-0.94594
4090.712	7.60012	-3.08516	7.25340	-0.89774
4094.712	8.29849	-2.49781	7.71723	-0.66051
4098.713	9.88350	-4.95456	NaN	NaN
4102.707	9.22600	-5.59548	NaN	NaN
4106.714	10.16081	-4.10975	4.90856	-1.08719
4110.716	5.35583	-6.36072	4.78109	-0.63969
4114.712	5.49704	-5.84206	4.76970	-0.40405
4118.707	5.55376	-5.74343	6.64785	-0.71999
4122.713	5.12228	-6.05593	5.62579	-0.58706
4126.712	7.75868	-3.91612	6.26564	-0.47521
4130.711	8.37942	-4.95537	6.01930	-0.45914
4134.723	9.35793	-5.36001	6.78811	-1.50184
4138.707	8.46750	-4.82090	6.95477	-1.96247
4142.714	9.45254	-4.48003	6.53127	-0.90965
4146.710	11.70921	-7.35432	5.83373	-0.87605
4150.714	9.41557	-6.77022	6.42280	-1.24222
4154.715	8.90446	-5.30147	7.62236	-0.92139
4158.708	9.60922	-6.48100	7.37328	-1.56729
4162.711	7.64013	-4.35511	7.58366	-0.82533
4166.728	5.22810	-4.39753	5.73340	-0.31235
4170.713	7.76206	-4.91611	5.46340	-0.45568
4174.709	7.73224	-5.08873	4.93327	-1.48490
4178.709	9.33446	-5.86754	6.42344	-4.81957
4182.703	8.17539	-7.07924	5.55514	-1.78503
4186.711	7.67986	-6.58199	6.28994	-0.10979
4190.708	13.18181	-7.91627	6.56106	-0.11087
4194.705	7.92712	-3.88243	11.10593	-1.84753
4198.712	10.38312	-8.33318	12.24972	-1.91525
4202.710	7.92894	-4.99281	6.24555	-0.63629
4206.704	8.55782	-5.89110	5.34995	0.06697
4210.717	8.45184	-4.68535	10.78345	-1.79260
4214.709	7.78019	-4.49217	14.21199	-4.14795
4218.711	10.87883	-4.21920	6.15409	0.13598
4222.712	3.47379	-5.69198	5.89198	0.31994
4226.710	7.97033	-6.26763	10.80831	-0.14916
4230.708	8.21035	-3.38620	8.65174	-1.33369
4234.703	6.38146	-6.36817	6.07430	-0.85309
4238.711	8.19110	-3.70229	7.94513	-1.40909
4242.708	9.47164	-5.02463	7.07684	-1.03669
4246.585	-1.44264	-7.83675	1.06279	-3.33892
4250.578	6.89165	-5.81662	0.44137	-6.65697
4254.586	3.02903	-5.64371	-2.29567	-0.58952
4258.588	2.18907	-5.71837	-1.08470	-0.31995
4262.583	1.69641	-3.28954	-3.42794	-0.44868
4266.578	-0.56329	-5.32676	-0.91304	-1.51279
4270.583	-0.85610	-5.75789	-3.90291	-1.11820
4274.587	-6.04632	-2.48633	-7.61195	0.95226
4278.590	-8.17527	-2.98269	-6.64151	-1.58184
4282.580	-10.22637	-2.53066	-6.69427	-1.44371
4286.586	-11.39678	-2.95881	-10.06756	-12.79727
4290.587	-11.69581	-2.03664	-11.53182	-13.91217
4294.584	-12.18908	-2.72242	-10.59522	-13.13545
4298.591	-11.39449	-2.70582	-10.64216	-13.46430
4302.582	-13.63461	-3.00089	-19.99372	-12.39091
4306.585	-12.45251	-3.29310	-10.11627	1.55257
4310.583	-11.92458	-2.99423	-8.39902	-9.85652
4314.586	-11.54773	-2.93713	-10.03852	1.42760
4318.582	-11.19029	-2.59199	-19.99372	-12.31069
4322.583	-11.23556	-1.79453	-10.11233	-0.60493
4326.578	-10.91978	-2.36674	-19.99372	-12.25906
4330.586	-11.20280	-1.57549	-10.10725	-0.76769
4334.582	-11.05696	-1.97807	-19.99372	-12.20116
4338.619	-10.79667	-1.90400	-15.09705	-3.93100
4342.588	-11.13375	-1.34919	-19.99372	-12.07727
4346.587	-10.81583	-1.50388	-10.38377	-0.66922
4350.582	-11.40429	-1.48975	-9.68230	0.09575
4354.590	-14.66652	-6.50907	-9.67970	-2.03725
4358.587	-15.17251	-6.30464	-9.62041	-0.56076
4362.588	-10.30934	-1.34429	-9.50395	-0.72925
4366.582	-10.28325	-1.59823	-9.39745	-1.23275
4370.591	-10.07851	-1.56155	-6.76594	-0.65626
4374.587	-9.97729	-1.58491	-9.83383	-0.65688
4378.588	-14.72856	-4.46065	-9.99036	-0.12672
4382.592	-9.68479	-0.35123	NaN	NaN
4386.627	-14.99355	-1.62700	-9.38941	-0.01893
4390.585	-9.48985	-0.29879	-9.80031	-0.27062
4394.581	-14.93663	-4.35218	-9.32376	0.01167
4398.589	-15.16722	-6.67735	-5.94730	-0.84301
4402.584	-13.75935	-5.35501	-9.78211	-0.62557
4406.602	-9.71937	-1.70836	-9.61638	-0.03116
4410.586	-9.83693	-1.78473	-10.40348	-0.85876
4414.580	-9.67232	-1.54564	-9.83077	0.09292
4418.593	-14.07099	-2.18935	-5.96404	-3.60112
4422.585	-13.25018	-3.64764	-12.04009	-0.81444
4426.588	-14.82722	-2.28280	-9.20335	0.05732
4430.580	-10.57869	-3.65327	-10.17538	-1.09839
4434.587	-13.93499	-4.55027	-11.46063	-2.59788
4438.584	-12.85468	-2.98243	-9.85416	0.22705
4442.583	-14.16112	-4.02452	-5.24400	-5.31753
4446.581	-9.32833	0.41125	-11.14588	-0.93123
4450.587	-12.83935	-3.65501	-11.08545	-3.03316
4454.583	-14.91027	-3.05684	-10.17149	-0.84851
4458.586	-15.36707	-7.82830	-6.47519	-3.17020
4462.581	-14.94023	-8.09769	-10.23767	-5.40543
4466.589	-15.31505	-4.75041	-9.18736	-2.49833
4470.584	-14.88931	-5.37700	-12.92550	-0.73364
4474.584	-14.88421	-5.74316	-4.03552	-5.76842
4478.588	-14.48422	-5.81707	-11.27736	-1.86803
4482.584	-14.16585	-5.33486	-9.81534	-1.86623
4486.584	-9.84766	-0.79131	-9.76418	-1.01578
4490.580	-9.90481	-1.24078	-8.18920	-0.63044
4494.583	-14.21836	-4.89566	-5.46236	-5.95907
4498.584	-14.31573	-5.43492	-9.59267	-11.04493
4502.580	-14.40465	-6.12282	-9.18951	-2.30257
4506.590	-13.82494	-3.13633	-9.53219	-0.96613
4510.584	-14.15479	-2.82787	-10.43743	-2.05262
4514.583	-13.73521	-2.60514	-9.45276	-4.06664
4518.578	-14.01106	-2.79402	-10.61787	-3.69931
4522.587	-10.10812	0.75568	-9.63257	-1.64122
4526.582	-10.13438	-1.59545	-11.12149	-4.49508
4530.580	-9.00980	-3.62473	-11.21849	-2.73932
4534.586	-10.21065	-3.71799	-11.95843	-4.49803
4538.583	-10.35841	-2.64040	-11.34542	-5.09963
4542.591	-9.20908	-3.55184	-11.26078	-9.24301
4546.587	-8.13001	-3.98805	-11.76112	-6.93510
4550.583	-9.09229	-4.44759	-11.79363	-6.94526
4554.585	-10.77021	-6.54166	-11.76761	-6.58877
4558.578	-11.47815	-6.57705	-12.67674	-7.72736
4562.581	-12.26782	-6.42450	-11.93301	-5.57675
4566.585	-9.63689	-5.15858	-10.95832	-6.39243
4570.583	-11.83201	-4.32321	-8.97191	-7.16404
4574.579	-10.08854	-4.19031	-8.21354	-7.38040
4578.994	-9.75365	-3.97880	-13.23125	-9.01287
4582.586	-9.81241	-3.98484	-12.17715	-7.64144
4586.578	-8.09795	-4.99975	-11.72417	-6.33936
4590.588	-8.66164	-6.03095	-11.91415	-5.65467
4594.578	-10.82306	-3.95671	-11.57505	-5.63816
4598.586	-9.28690	-3.72730	-11.35100	-5.22514
4602.597	-9.75782	-4.16588	-11.22422	-5.25315
4606.583	-9.73981	-3.84145	-11.34855	-4.68921
4610.591	-10.10535	-3.87514	-11.20381	-4.58201
4614.586	-10.04689	-4.03824	-14.71916	-7.63115
4618.582	-10.26634	-3.94487	-11.07240	-4.56122
4622.583	-10.48372	-3.95267	-11.00111	-4.02057
4626.577	-10.26155	-3.57131	-10.96825	-3.98858
4630.584	-10.43652	-3.35188	-10.80206	-4.13817
4634.581	-10.37971	-3.58940	-10.84798	-4.05566
4638.585	-8.12850	-2.23904	-13.02549	-4.10605
4642.575	-9.23870	-3.03243	-9.06272	-3.80373
4646.584	-9.58902	-2.80096	-8.79400	-3.80486
4650.580	-10.48423	-3.30332	-8.43790	-3.89222
4654.578	-10.16360	-3.55812	-5.70684	-5.76308
4658.584	-10.03193	-3.22538	-10.75526	-4.15899
4662.581	-10.53852	-3.82060	-10.59872	-4.32424
4666.582	-12.03254	-5.28934	-10.64360	-4.64318
4670.576	-10.08693	-3.52168	-10.41832	-4.45116
4674.584	-9.99113	-3.78354	-9.35358	-4.90804
4678.587	-10.71248	-6.90311	-9.36747	-5.00300
4682.585	-11.13315	-6.83383	-9.77098	-4.92850
4686.581	-9.64687	-3.84851	-7.29037	-6.10385
4690.582	-9.52956	-5.70281	-17.55176	-4.53125
4694.584	-9.53827	-3.96241	-9.88393	-4.92952
4698.580	-10.18029	-6.74682	-9.81559	-4.63472
4702.581	-9.45868	-3.86193	-17.07918	-6.25686
4706.576	-9.37387	-3.83578	-9.67726	-4.45144
4710.584	-9.27295	-3.77294	-6.38430	-4.70835
4714.587	-9.43503	-3.74498	-16.89418	-4.53429
4718.576	-9.44344	-3.57449	-16.89055	-6.00353
4722.583	-9.44527	-3.43407	-6.23270	-4.28228
4726.580	-11.56981	-4.41958	-9.70560	-3.71476
4730.581	-10.37366	-6.76209	-9.97195	-3.57898
4734.575	-9.40233	-3.28293	-10.27311	-3.12813
4738.583	-9.42088	-3.23383	-10.42843	-2.81071
4742.580	-8.27297	-2.22934	-7.40814	-2.34963
4746.636	-7.74503	-2.93165	-11.01010	-3.72199
4750.588	-8.28478	-2.36047	-7.79130	-2.47816
4754.576	-9.16724	-2.81949	-13.17647	-2.86044
4758.583	-8.82107	-2.78960	-10.64175	-2.53408
4762.580	-10.07716	-2.73779	-10.66522	-2.15563
4766.581	-8.95208	-3.14186	-10.67960	-2.16557
4770.576	-9.66689	-3.08702	-10.58517	-7.26585
4774.583	-9.78233	-3.06269	-7.64635	-7.42428
4778.592	-9.66195	-3.09266	-8.40271	-4.90508
4782.574	-10.52871	-3.99797	-9.23352	-4.90604
4786.579	-9.38023	-3.25716	-9.38276	-5.02832
4790.577	-10.55054	-4.72728	-10.27849	-4.90457
4794.574	-9.44148	-3.49854	-11.96857	-5.00330
4798.583	-9.12483	-3.58601	-8.32519	-3.22378
4802.572	-9.87786	-2.90236	-11.43333	-4.89565
4806.574	-8.71363	-4.25735	-9.66875	-4.01949
4810.569	-8.91505	-4.37601	-10.05664	-3.96815
4814.585	-3.16602	-6.61581	-16.59098	-8.46298
4818.635	-4.96551	-4.58351	-15.58126	-7.18615
4822.574	-7.08671	-2.97737	-7.20604	-4.77255
4826.582	-8.60164	-2.55039	-9.61674	-3.99648
4830.581	-8.54071	-1.49187	-13.57328	-5.29667
4834.580	-8.81748	-2.46966	-11.68143	-3.83139
4838.576	-9.41351	-2.18833	-11.67601	-3.77174
4842.591	-9.47497	-2.11987	-11.72957	-3.88566
4846.574	-9.76734	-1.73552	-11.98562	-3.58402
4850.574	-10.12496	-1.79477	-13.49483	-3.61601
4854.576	-10.92411	-1.92722	-17.68500	-3.53352
4858.573	-5.48405	3.36437	-14.55841	-1.48719
4862.573	-4.98999	3.93337	-14.86868	0.41705
4866.575	-15.83884	3.37543	-17.00162	-0.62963
4870.572	-12.46389	0.24952	-19.98243	-12.07826
4874.572	-13.16005	2.52207	-19.98818	-12.07784
4878.568	-11.81843	0.42454	22.34371	12.76821
4882.583	0.36548	-1.67050	-19.99017	-12.07769
4886.570	NaN	NaN	-19.99114	-12.07762
4890.576	0.33193	2.03339	-19.99173	-12.07757
4894.571	0.67536	0.36868	-19.99210	-12.07754
4898.567	7.78323	0.29729	NaN	NaN
4902.576	7.02323	0.03717	NaN	NaN
4906.573	13.08578	-4.16101	NaN	NaN
4910.567	12.64770	-2.30435	15.37704	11.07935
4914.575	8.87958	-6.75109	10.92753	14.08790
4918.572	5.08062	-5.01154	-1.75721	5.40346
4922.567	5.77278	-4.69114	-2.34086	7.18784
4926.575	5.75645	-0.72625	-1.75317	-2.98567
4930.575	5.17560	-1.22523	-1.88683	1.32725
4934.572	7.37040	-5.11849	-2.18245	-0.97641
4938.565	5.14572	-3.08747	-2.27045	-3.41913
4942.575	3.14098	-3.68021	-2.37297	0.74134
4946.576	-1.15005	-4.64966	-2.92970	7.09838
4950.592	0.42088	-3.61191	-2.34649	1.04612
4954.573	7.68688	-4.30559	-2.10399	7.11467
4958.566	3.29401	-0.44646	-2.43788	4.86404
4962.576	4.86337	-3.49248	1.89404	-1.35942
4966.577	9.40260	-5.53995	-1.43161	-2.56686
4970.572	7.54623	-6.03256	2.97440	0.64496
4974.575	3.41051	-4.60570	-0.28078	-1.52161
4978.571	2.36078	-4.43352	1.70435	0.62252
4982.571	3.25261	-4.01423	2.04185	0.23050
4986.569	3.87327	-4.40184	2.13170	-1.89151
4990.576	4.90156	-4.26927	3.44926	-1.88027
4994.571	7.37758	-5.48105	3.75699	-1.96226
4998.568	6.70022	-5.05479	4.22128	-2.13532
5002.576	5.30109	-4.74092	2.38838	-2.12397
5006.576	7.15904	-5.01430	2.62249	-2.11412
5010.571	5.12248	-4.33347	3.23895	-2.00684
5014.567	4.68028	-4.29528	3.40870	-2.00114
5018.577	4.80036	-4.38814	3.22317	-1.96937
5022.577	4.96746	-4.17733	3.07251	-1.89235
5026.594	5.14887	-4.13609	3.07785	-1.83650
5030.581	5.31672	-4.47600	3.01457	-1.30129
5034.570	5.03807	-2.71855	3.15278	-1.54102
5038.571	5.11804	-4.04727	3.03878	-1.51396
5042.565	5.12255	-6.33530	2.99514	-1.64713
5046.572	1.97014	-4.83652	2.94072	-1.63426
5050.574	4.20980	-4.44335	2.98455	-1.56889
5054.571	4.53689	-4.29291	2.97096	-1.60402
5058.565	5.34137	-4.52546	0.21236	-2.10850
5062.575	3.90610	-2.72703	2.87794	-1.72400
5066.568	3.91521	-3.72191	2.79867	-1.93206
5070.569	3.67442	-3.69961	2.71718	-1.73308
5074.565	5.30235	-3.72561	2.71458	-1.76848
5078.572	5.28677	-4.62795	2.67690	-1.74636
5082.572	3.39085	-6.88054	2.71359	-1.69252
5086.608	5.42587	-4.08940	3.04051	-2.36236
5090.582	2.23273	-7.65736	2.64636	-1.28453
5094.572	5.33047	-3.88597	2.65674	-1.70646
5098.453	3.59105	-4.89781	2.71146	-1.69889
5102.447	4.92950	-6.80520	2.75113	-1.78211
5106.448	3.73589	-7.13079	2.72102	-1.75453
5110.445	5.69443	-6.34234	2.86306	-1.27562
5114.451	7.44908	-6.61001	2.75480	-1.43566
5118.449	5.14805	-5.14781	2.79345	-1.66116
5122.444	6.56850	-5.95288	2.80436	-1.76844
5126.451	7.94209	-5.73010	2.91720	-1.77094
5130.446	4.95679	-4.61345	2.76096	-1.99408
5134.450	5.06518	-4.60140	2.92401	-2.28717
5138.446	4.86519	-4.23237	-0.12287	-5.92732
5142.451	4.46993	-3.94553	2.85579	-2.07247
5146.448	5.33030	-5.21910	2.76329	-1.82610
5150.449	4.97839	-4.66286	3.07127	-1.93831
5154.453	6.18679	-4.76065	3.24006	-2.48967
5158.452	6.71980	-4.55476	3.35731	-2.56680
5162.448	4.67863	-4.32802	3.21082	-3.14403
5166.457	4.91218	-4.42756	2.60770	-2.75117
5170.444	4.56476	-4.43069	2.56178	-2.23219
5174.450	4.65397	-4.36442	3.52180	-2.59848
5178.452	5.09384	-4.75277	3.04341	-2.29854
5182.448	4.68489	-5.01365	2.98223	-2.84462
5186.441	5.15199	-5.01848	3.24850	-1.90945
5190.451	4.78346	-4.72909	2.87004	-1.99042
5194.447	4.65809	-4.71405	3.10913	-1.46350
5198.442	4.44615	-4.66508	2.91401	-1.15237
5202.466	4.26862	-4.81579	2.97804	-0.93162
5206.446	6.99389	-5.83936	2.72865	-1.60299
5210.446	4.45293	-4.72238	2.74883	-1.92835
5214.442	4.44923	-4.81503	2.72204	-2.23493
5218.448	3.97143	-4.55906	3.84666	-1.94051
5222.462	4.11231	-4.34167	2.56706	-1.91589
5226.446	4.39844	-4.59373	2.37270	-1.89067
5230.440	4.39328	-4.33960	2.58469	-2.02823
5234.450	4.09787	-4.32425	2.76614	-2.16860
5238.446	3.98892	-4.35273	2.66756	-2.01860
5242.447	4.46411	-4.37933	2.79067	-1.77647
5246.440	4.01850	-4.23325	3.11891	-1.38049
5250.450	3.95822	-4.04261	2.42500	-1.80534
5254.446	3.96782	-4.06814	7.19454	-4.47035
5258.447	4.08115	-4.01430	3.04603	-1.97385
5262.443	4.30369	-4.21553	2.82308	-1.97456
5266.448	4.50355	-4.40727	2.02579	-0.74710
5270.447	6.99328	-4.82780	6.32478	-1.71101
5274.446	6.10580	-0.89933	8.94188	-1.79325
5278.449	9.40740	-5.47898	8.99792	-1.50085
5282.445	12.95341	-7.07673	NaN	NaN
5286.445	12.73203	-6.11540	8.97910	-1.73760
5290.448	14.53363	-6.93536	9.13618	-1.95594
5294.447	9.28753	-5.45855	9.53103	-2.97125
5298.448	14.26499	-9.26999	9.91161	-2.14247
5302.446	5.86737	-7.33224	10.30009	-2.08726
5306.445	11.22258	-5.83914	9.08733	-2.34382
5310.445	13.33417	-6.95306	10.89745	-3.07876
5314.440	13.41702	-7.21011	10.19587	-2.92978
5318.449	16.02811	-7.28038	8.82233	-1.62813
5322.445	19.68139	-10.92247	11.13817	-3.28434
5326.446	9.74130	-4.91066	10.80781	-2.75154
5330.441	10.90518	-4.38933	10.16627	-2.17986
5334.448	11.91707	-7.72914	9.56397	-2.99924
5338.445	13.49256	-6.75737	9.03464	-2.81853
5342.442	18.22532	-7.69407	12.35190	2.64367
5346.452	11.34227	-6.53020	11.80057	4.25247
5350.444	10.51235	-7.87861	9.05282	-2.69511
5354.446	6.98140	-5.62644	8.80670	-2.98904
5358.445	10.67679	-5.73285	8.97356	-2.71334
5362.448	11.20734	-6.37433	15.79703	-8.04506
5366.445	4.24737	-5.72845	8.52440	-2.56493
5370.445	NaN	NaN	9.27317	-2.75369
5374.440	4.16828	-5.79863	11.50958	-3.36318
5378.446	5.82176	-7.42321	9.15316	-3.43676
5382.443	7.60734	-7.04031	9.37813	-2.54601
5386.451	7.89900	-6.46351	9.17476	-2.24944
5390.439	8.66574	-6.04684	10.20534	-3.37935
5394.444	9.31467	-4.34300	9.11760	-2.50732
5398.444	14.86163	-7.28392	10.51902	-3.25912
5402.440	18.69828	-8.94902	9.86037	-3.04537
5406.444	11.90740	-3.72013	9.35464	-2.52205
5410.444	10.12306	-3.67991	10.87283	-2.55307
5414.439	12.46422	-4.47952	10.92471	-3.07094
5418.446	10.91461	-4.43483	9.50880	-2.78157
5422.445	11.23062	-4.43145	10.99635	-2.74880
5426.446	11.41540	-4.92669	10.93811	-3.21356
5430.442	12.58616	-5.67518	11.56760	-4.33183
5434.440	11.82497	-3.94457	9.59105	-2.57131
5438.438	11.75717	-4.02960	12.88223	-4.03184
5442.445	11.93149	-5.39432	10.78180	-3.41355
5446.442	12.09531	-3.82351	9.73692	-2.43971
5450.443	12.06226	-4.81901	8.76382	-2.44724
5454.437	11.78604	-3.72720	8.85616	-2.56811
5458.445	15.60516	-8.03189	9.61506	-4.09794
5462.442	15.51923	-8.52059	9.83245	-2.82924
5466.447	5.79133	-5.44329	12.08015	-3.00464
5470.448	12.50382	-6.93193	9.69414	-2.61797
5474.442	12.06949	-5.69124	9.32821	-2.39463
5478.443	11.61975	-5.69903	9.47848	-2.61263
5482.437	12.52736	-8.83557	9.77392	-3.03339
5486.445	10.60107	-9.12223	11.44730	-3.95939
5490.443	15.23734	-6.22580	9.92639	-3.41009
5494.501	12.56488	-6.17605	9.18124	-2.37844
5498.444	11.00537	-5.89801	15.70945	-4.27988
5502.432	7.75851	-5.96193	9.17790	-2.73732
5506.439	9.79585	-5.99288	13.06308	6.60533
5510.441	9.54283	-6.09589	11.51411	-3.86102
5514.438	11.91536	-6.25066	9.25746	-3.42307
5518.433	10.96999	-5.49455	11.75745	-4.17597
5522.440	11.53460	-6.24242	9.04013	-3.61157
5526.440	12.08079	-6.02324	12.93677	-3.97538
5530.438	10.98516	-5.84142	8.78464	-3.72324
5534.441	11.71763	-5.86828	13.78389	2.64716
5538.436	11.94320	-5.55515	9.03904	-3.50023
5542.438	10.33485	-4.92400	8.76789	-3.99949
5546.433	18.27423	-8.79055	11.91030	-4.61635
5550.440	18.32671	-8.95773	11.84513	-3.22878
5554.440	23.44652	-10.57430	13.12460	-3.18355
5558.438	17.70174	-6.86221	17.75170	-3.16122
5562.442	18.63632	-6.74206	16.04558	-2.87180
5566.442	20.49722	-8.46954	17.29231	-3.05252
5570.436	20.33908	-7.82050	17.32974	-2.97854
5574.438	16.87939	-6.65146	15.72368	-2.87636
5578.434	20.34251	-7.17052	15.46330	-3.02328
5582.440	16.57089	-6.43616	19.52398	-4.14311
5586.436	20.82139	-7.63495	22.17115	-4.26048
5590.438	16.66022	-6.56973	15.83671	-3.13303
5594.441	16.97356	-7.13848	17.24675	-3.27645
5598.436	18.35739	-7.03491	15.39467	-2.84272
5602.433	17.39198	-7.17638	19.65413	-4.18317
5606.443	20.16147	-7.19498	14.99950	-2.77224
5610.437	17.92976	-7.09180	16.78519	-2.84639
5614.436	20.49515	-7.29106	15.71048	-2.47501
5618.436	17.43198	-7.04150	16.96721	-2.80949
5622.440	18.79147	-7.37155	15.54402	-3.06237
5626.435	19.77577	-7.35571	15.64335	-2.85482
5630.463	18.62749	-7.08704	22.22359	-4.74394
5634.440	19.40988	-7.15507	21.92551	-4.79283
5638.440	18.33268	-7.27346	19.59265	-3.95037
5642.429	19.30888	-7.39883	15.73350	-2.56859
5646.438	20.04017	-7.18837	15.67064	-2.84002
5650.433	18.26127	-7.06241	14.80925	-2.40893
5654.435	18.99933	-7.31697	16.46891	-2.83150
5658.437	19.37837	-7.13093	15.60245	-2.82414
5662.432	18.96809	-7.25287	15.84465	-3.11987
5666.435	18.83129	-7.16124	15.52702	-2.66718
5670.430	19.08322	-7.13930	NaN	NaN
5674.437	19.11303	-7.06287	15.76134	-2.83719
5678.434	19.04775	-7.07612	18.69022	-5.73186
5682.434	19.27530	-7.08654	15.99636	-2.78796
5686.427	20.47928	-8.41207	16.67405	-3.22287
5690.437	19.07735	-7.09937	16.07519	-2.89002
5694.434	17.64554	-5.70027	15.43558	-3.04771
5698.454	19.55638	-7.51516	15.17115	-2.87960
5702.454	19.36799	-6.92529	19.59327	-2.91217
5706.444	19.31819	-6.94480	15.31572	-2.95194
5710.440	18.67285	-6.76853	15.34125	-2.90510
5714.443	18.93208	-6.86872	15.14907	-2.85124
5718.447	16.90116	-6.46790	15.20360	-2.88626
5722.438	19.28211	-5.01522	14.40728	-2.82172
5726.439	18.39440	-6.33741	14.93168	-2.80590
5730.434	19.73653	-5.46136	14.82868	-2.80458
5734.441	17.68923	-6.39238	18.60032	-3.04919
5738.440	19.16260	-6.04276	19.85472	-3.83320
5742.440	19.12818	-4.87374	15.07549	-3.02946
5746.436	17.99089	-5.15055	18.83336	-4.62667
5750.442	18.42248	-4.95061	19.93764	-4.81475
5754.439	18.83587	-4.91226	14.82272	-2.88405
5758.440	17.87810	-4.36055	15.45465	-2.54964
5762.437	18.73922	-6.59679	15.48593	-2.51483
5766.451	16.47648	-3.67393	15.61368	-2.95368
5770.436	18.92908	-5.95135	15.45583	-2.18600
5774.435	18.82671	-6.02485	15.77010	-2.20690
5778.460	18.48639	-5.48175	15.52421	-2.30957
5782.435	17.62792	-5.41109	15.97815	-1.89274
5786.430	18.16195	-4.90048	15.80585	-1.93501
5790.439	18.01605	-4.11953	15.86980	-1.57138
5794.435	19.04853	-4.15988	18.15135	-0.04647
5798.430	NaN	NaN	18.87214	0.43844
5802.440	NaN	NaN	18.83978	2.26270
5806.432	NaN	NaN	22.30521	12.71805
5810.433	NaN	NaN	NaN	NaN
5814.428	NaN	NaN	NaN	NaN
5818.435	NaN	NaN	NaN	NaN
5822.435	NaN	NaN	NaN	NaN
5826.436	NaN	NaN	NaN	NaN
5830.434	NaN	NaN	NaN	NaN
5835.024	NaN	NaN	NaN	NaN
5838.636	NaN	NaN	NaN	NaN
5842.480	NaN	NaN	NaN	NaN
5846.436	NaN	NaN	NaN	NaN
5850.436	NaN	NaN	NaN	NaN
5854.434	NaN	NaN	NaN	NaN
5858.431	NaN	NaN	NaN	NaN
5862.434	NaN	NaN	NaN	NaN
5866.434	NaN	NaN	NaN	NaN
5870.438	NaN	NaN	NaN	NaN
5874.431	NaN	NaN	NaN	NaN
5878.437	NaN	NaN	NaN	NaN
5882.442	NaN	NaN	NaN	NaN
5886.530	NaN	NaN	NaN	NaN
5890.442	NaN	NaN	NaN	NaN
5894.433	NaN	NaN	NaN	NaN
5898.432	21.31562	-2.66346	5.14722	-5.11806
5902.436	17.36694	-2.79524	11.81962	-0.40720
5906.434	17.65524	-4.47866	14.01858	1.78424
5910.429	17.09365	-4.97034	2.13680	-5.13938
5914.431	17.13740	-2.74309	15.06887	-0.08492
5918.433	17.78015	-4.57952	14.96344	0.06206
5922.428	17.14984	-4.89430	13.70394	-0.65489
5926.435	17.21345	-4.79831	13.44975	-3.63710
5930.426	15.14377	-3.27786	11.00300	-2.37134
5934.433	12.85539	-2.93511	11.72931	-2.86865
5938.430	11.75286	2.06083	11.01397	-2.68633
5942.431	13.89295	-4.12449	11.24297	-2.51857
5946.426	10.87946	-2.98032	10.79931	-2.75977
5950.308	10.67660	-2.98364	10.16543	0.18320
5954.305	13.89044	-5.78524	11.64199	-1.51969
5958.306	10.68446	-3.41306	11.32123	-1.38114
5962.306	10.22325	-3.79910	10.55387	-1.83930
5966.306	8.10615	-3.41667	10.58181	-2.17470
5970.325	10.16168	-3.31421	10.25651	-2.04049
5974.312	8.20527	-4.64062	10.11909	-2.36085
5978.303	8.50705	-3.14416	10.02386	-2.34945
5982.308	9.78030	-4.83751	10.28102	-2.33563
5986.303	9.78433	-5.21230	10.08322	-2.51533
5990.306	10.25802	-4.28023	9.92290	-2.51290
5994.308	9.41296	-4.47706	9.73342	-4.08385
5998.303	9.45682	-4.22321	9.56627	-2.48213
6002.304	12.18934	-4.51863	9.53808	-2.72070
6006.299	11.98393	-3.57559	9.37629	-4.77248
6010.306	9.55963	-2.80062	9.41921	-3.94343
6014.302	10.71914	-3.06484	9.74538	-2.74691
6018.305	11.01345	-2.72949	9.68435	-2.42302
6022.298	10.45709	-2.74575	10.43337	-2.00715
6026.344	10.52319	-3.06368	9.87719	-0.74376
6030.317	10.76393	-3.42701	9.92675	-1.07058
6034.314	7.39789	-2.90289	9.68573	-1.32893
6038.312	7.74666	-3.89734	9.60816	-1.77190
6042.312	10.49577	-3.91652	9.50093	-1.57431
6046.309	7.85046	-3.83869	9.35416	-2.28910
6050.331	10.87644	-3.69217	9.31653	-2.15162
6054.304	7.71391	-4.13211	9.33531	-2.50942
6058.314	9.06610	-4.19992	9.72496	-2.72777
6062.307	13.38381	-4.21046	9.93501	-2.91755
6066.309	11.75700	-2.99655	9.27820	-3.18413
6070.302	13.16656	-4.16326	9.30261	-2.03617
6074.311	12.86501	-3.91846	9.32946	-1.45828
6078.306	12.47820	-3.36667	8.98690	-1.88556
6082.307	12.65741	-3.18794	9.20228	-1.15883
6086.304	12.97120	-3.17109	9.03488	-1.12419
6090.310	13.03114	-3.86863	9.20359	-1.22591
6094.303	13.92578	-3.92420	9.00571	-1.38319
6098.315	15.31611	-6.56999	9.68592	-1.31875
6102.305	12.96640	-2.63577	9.44542	-1.46909
6106.312	12.57493	-3.66359	9.48565	-1.49052
6110.308	10.54788	-2.23022	9.75859	-1.66270
6114.301	8.39474	-3.60222	9.83677	-2.57113
6118.310	12.12153	-3.78148	9.50390	-2.06788
6122.306	12.92774	-5.85461	9.66318	-2.67670
6126.307	11.96897	-3.99711	9.74646	-2.38018
6130.301	11.98695	-3.66552	9.33449	-2.18442
6134.309	14.29468	-4.98741	9.49639	-2.18088
6138.307	11.28018	-5.41717	9.90286	-2.37899
6142.305	15.93371	-7.92267	9.04473	-2.31168
6146.309	12.85440	-5.52232	9.72327	-0.12454
6150.310	14.47915	-7.20703	9.79826	-0.54638
6154.302	14.06380	-5.60398	9.76972	-0.52809
6158.309	12.99767	-3.29563	8.91839	-1.33511
6162.304	15.06123	-6.74383	10.19094	-1.69021
6166.307	11.49707	-3.84739	9.94192	-1.45679
6170.300	15.89207	-6.88415	10.11796	-1.28728
6174.321	12.02214	-3.61915	9.96679	-1.34426
6178.302	11.41884	-2.14490	10.63020	-1.27309
6182.312	11.78535	-3.18596	9.75548	-1.19449
6186.305	12.42957	-3.67026	10.05375	-1.10015
6190.306	12.59448	-3.30490	10.75921	-3.15179
6194.309	12.37981	-3.24767	10.32748	-1.66217
6198.305	11.60985	-3.14080	9.64326	-1.72598
6202.306	17.71372	-7.11423	9.92324	-1.88980
6206.304	12.09569	-3.10063	9.79833	-1.76410
6210.309	18.19302	-7.04748	9.96780	-2.05301
6214.305	12.32454	-3.25234	9.59146	-1.84523
6218.304	12.41689	-5.63024	9.70702	-2.37100
6222.310	18.21766	-7.39953	9.82115	-2.60304
6226.305	12.42337	-3.04876	10.23894	-2.42907
6230.307	11.40107	-2.75614	10.16709	-2.55822
6234.300	12.37870	-3.06857	10.03857	-2.08044
6238.310	12.65401	-3.16415	9.83532	-1.84105
6242.305	15.07095	-6.18173	9.67661	-1.04817
6246.309	11.42318	-3.10784	9.98083	-0.61158
6250.304	11.61554	-3.27943	9.93588	-0.73797
6254.308	18.34247	-7.86878	10.07981	-1.44297
6258.305	12.38720	-3.46425	10.24149	-1.40720
6262.306	11.09958	-3.25757	9.91642	-1.50165
6266.338	11.33693	-3.32287	9.70813	-1.53203
6270.307	12.17969	-3.29037	10.00995	-1.64377
6274.303	12.03002	-3.17995	9.61674	-1.66264
6278.300	8.47170	-2.83441	9.84385	-2.02857
6282.307	12.19477	-3.29941	9.65165	-1.84938
6286.304	18.62297	-5.84991	9.51631	-2.36793
6290.305	9.30327	-0.96202	9.46812	-1.89582
6294.307	10.55687	-2.37800	10.21661	-1.74663
6298.303	11.89133	-3.17944	9.61337	0.58262
6302.303	18.72115	-5.86306	9.20864	0.31289
6306.308	10.47739	-1.98639	9.72549	-1.07708
6310.308	9.37817	-1.93919	9.68455	0.05445
6314.300	18.63375	-7.39079	9.98928	-0.30071
6318.307	18.46949	-6.91703	9.59631	-0.45498
6322.302	12.19410	-2.77313	9.63240	-0.46037
6326.305	12.16693	-3.37148	9.71580	-0.66865
6330.298	15.49554	-7.79228	9.86633	-0.86257
6334.306	12.12812	-3.52302	9.98559	-1.13778
6338.303	11.61682	-3.28325	9.50223	-1.25369
6342.301	14.74131	-3.92237	9.50653	-1.36909
6346.306	12.45395	-3.81564	9.96557	-1.53568
6350.304	14.34492	-4.61282	9.66501	-1.79229
6354.303	18.43149	-9.59311	9.61235	-2.74357
6358.298	17.67200	-8.11417	9.74376	-3.17862
6362.306	17.08150	-6.26821	9.59049	-2.88950
6366.303	18.05299	-7.80689	9.48357	-1.29109
6370.305	11.78426	-3.72245	9.20956	-1.30110
6374.298	14.49702	-5.58298	9.54696	-1.00558
6378.310	9.84773	-3.29962	9.56125	-1.03469
6382.305	9.50629	-4.16705	9.71823	-0.71096
6386.301	16.56031	-8.27465	9.80968	-0.99270
6390.308	11.70014	-4.38484	9.66472	-1.21964
6394.306	11.64732	-4.01685	9.74261	-0.91967
6398.302	13.71458	-6.38835	8.88394	-0.97181
6402.303	12.27839	-6.58378	9.35457	-0.90038
6406.306	11.53053	-3.24096	9.27216	-1.09150
6410.299	11.50706	-3.92574	9.13608	-1.27673
6414.302	9.78701	-3.87230	9.40851	-1.12438
6418.298	10.95239	-3.98549	9.49786	-1.62203
6422.303	6.61060	-4.09236	9.35457	-1.70656
6426.302	10.22611	-7.86634	9.41805	-1.84494
6430.303	11.26078	-4.26591	9.33562	-2.33155
6434.296	11.15291	-6.69371	9.49419	-2.20739
6438.309	10.67143	-6.12659	9.48528	-2.34972
6442.302	11.36761	-4.54731	9.54271	-2.43130
6446.302	10.64722	-4.44398	9.61139	-2.46789
6450.306	11.01180	-4.33534	9.59129	-2.38566
6454.301	11.13530	-4.27216	9.61383	-2.42718
6458.304	11.15649	-4.20255	9.69692	-2.37748
6462.296	11.06399	-4.25174	9.58256	-2.32545
6466.304	11.73435	-4.40590	9.59322	-2.24758
6470.299	11.82121	-3.02922	9.40863	-2.25682
6474.297	8.45893	-2.99277	9.57252	-2.26318
6478.303	10.79179	-3.21002	9.35394	-2.16072
6482.301	12.24777	-4.17597	9.14673	-2.11184
6486.333	9.57097	-2.33688	9.04740	-2.02915
6490.295	9.71032	-2.86275	9.16944	-1.94321
6494.299	9.99845	-2.76732	9.17084	-1.88964
6498.300	9.78807	-2.68064	9.31984	-1.85254
6502.295	12.22077	-2.17224	9.14539	-1.82432
6506.303	11.44988	-2.49922	9.18504	-1.84315
6510.299	11.78592	-1.72927	9.08897	-1.76477
6514.328	11.87370	-2.61338	9.21200	-1.64172
6518.301	11.23733	-2.92032	9.07924	-1.64047
6522.293	11.85354	-3.08331	9.25195	-1.56647
6526.304	11.86816	-2.90707	9.73721	-1.71480
6530.303	11.83938	-4.59865	9.91346	-1.78354
6534.295	11.68115	-3.66639	9.68433	-1.71216
6538.302	11.29169	-4.69745	9.68935	-1.62603
6542.298	11.42868	-4.03946	9.84086	-1.70345
6546.301	11.29383	-2.63070	9.71196	-1.48958
6550.294	11.48823	-3.78358	9.56653	-1.26371
6554.302	11.42978	-4.04000	9.66646	-1.37254
6558.301	10.46100	-4.68258	9.52524	-1.23763
6562.297	10.40963	-3.16245	9.42347	-1.19936
6566.302	10.76520	-2.66629	8.93396	-1.08031
6570.298	10.94301	-3.66722	9.00150	-0.96205
6574.300	12.88812	-4.63056	9.43204	-0.85861
6578.293	9.98350	-3.43115	9.20601	-0.84761
6582.306	10.74707	-4.41219	9.17203	-0.79450
6586.298	10.10538	-3.14968	9.21174	-0.74970
6590.295	10.44888	-4.76919	9.05923	-0.67428
6594.299	9.76748	-5.23039	8.98753	-0.68909
6598.297	13.51860	-7.40952	8.87052	-0.69132
6602.302	10.65120	-4.85310	8.75400	-0.71575
6606.298	13.60172	-7.58020	8.85792	-1.05332
6610.299	12.79671	-7.13828	9.08324	-0.95489
6614.292	14.21080	-6.95000	9.07762	-0.84530
6618.302	13.38214	-4.91800	9.48120	-1.15459
6622.298	13.00770	-4.95641	9.12863	-1.10938
6626.299	12.67740	-4.81019	9.21217	-0.98765
6630.296	12.37240	-4.77946	9.54809	-1.14526
6634.302	12.12079	-4.38004	9.91257	-1.07474
6638.303	12.04650	-4.26130	9.57479	-0.91300
6642.299	10.02971	-3.73621	9.32840	-0.94837
6646.293	11.79263	-3.01838	9.33113	-0.75788
6650.306	11.24554	-4.49309	9.45701	-0.75533
6654.303	12.08812	-3.99254	9.31315	-0.68267
6658.298	11.33027	-0.76119	9.27810	-0.66913
6662.297	12.44110	-3.60086	8.93527	-0.42498
6666.294	12.12770	-3.78732	8.84285	-0.51296
6670.302	12.81729	-3.93264	9.22081	-0.75093
6674.299	15.39100	-5.53657	9.48690	-0.60673
6678.298	11.40157	-4.15455	9.68599	-0.73919
6682.293	11.44737	-4.68974	9.50950	-0.72480
6686.300	11.34397	-4.46761	9.38182	-1.22543
6690.298	11.45851	-4.73699	9.06109	-1.45228
6694.294	10.50251	-3.29127	10.42043	-1.95571
6698.301	10.59658	-5.29210	9.16458	-2.41249
6702.296	11.50565	-4.31964	8.82090	-1.78496
6706.322	12.23891	-5.00634	9.36121	-1.76174
6710.293	11.99550	-3.63981	9.64835	-2.12723
6714.299	11.45403	-4.81388	9.82739	-1.80624
6718.344	11.80951	-4.85167	9.43305	-1.67710
6722.309	5.45720	-2.51402	9.24772	-0.50736
6726.291	13.90123	-4.08871	9.68973	-2.62057
6730.299	10.80606	-4.79023	9.57141	-2.67393
6734.295	11.44630	-4.30732	9.62946	-2.03922
6738.297	12.02914	-4.35323	8.95399	-0.88004
6742.293	11.92584	-4.70412	9.69072	-2.39904
6746.299	12.04315	-4.57318	9.49781	-2.11114
6750.295	9.48024	-3.88528	9.48702	-0.92649
6754.297	16.75343	-7.25737	9.75172	-2.84280
6758.293	12.35715	-4.57348	9.26732	-0.83236
6762.298	11.90091	-4.21089	9.19853	-2.43283
6766.298	4.82491	-0.53718	8.32801	-0.71638
6770.296	9.18364	-2.85120	6.90982	-1.23006
6774.289	3.56067	-2.16550	4.15816	-2.89132
6778.297	3.02192	-2.72294	2.95436	-0.51877
6782.293	5.43000	-2.21899	1.58988	-1.57466
6786.294	2.50261	-2.31557	1.18897	0.43066
6790.292	2.26076	-2.30465	1.04729	-0.75969
6794.296	1.25830	0.01265	0.26555	-1.33891
6798.296	-0.00856	-1.95812	0.72814	-1.37589
6802.292	0.47810	-2.72465	0.89416	0.74308
6806.174	0.11203	-2.58799	0.67226	-0.85635
6810.172	0.36859	-2.00591	0.50230	-1.20027
6814.172	2.87401	-2.47070	0.53108	-2.86468
6818.165	0.11381	-2.54650	0.38732	0.22133
6822.173	-0.20963	-1.16667	0.28639	-0.76652
6826.167	0.50428	-2.63887	0.25406	-1.18117
6830.171	2.45512	-2.14224	-0.12632	-1.11496
6834.164	0.99566	-4.09380	0.26644	-2.33879
6838.173	0.98901	-1.01349	0.19306	-0.89136
6842.170	1.66405	-3.19962	0.03926	-0.15638
6846.166	0.93172	-1.97484	0.18923	-1.55025
6850.172	1.06118	-1.86584	0.22653	-1.49683
6854.170	1.14025	-2.34701	-0.09411	-1.78813
6858.173	0.67275	-2.36203	0.02417	-1.49307
6862.169	0.78196	-2.22456	0.04254	-1.12897
6866.168	0.95222	-2.90605	-0.01360	-0.89226
6870.172	0.68325	-2.54387	0.00052	-1.50502
6874.168	1.05295	-2.56802	-0.05192	-0.66635
6878.171	0.90815	-1.97018	-0.09910	-0.35002
6882.164	0.91272	-2.47751	-0.08073	-1.59585
6886.173	0.95658	-0.77405	-0.16742	-1.56364
6890.168	0.90996	-1.93867	-0.16471	-1.36748
6894.169	0.73218	-1.71114	-0.24411	-1.65038
6898.173	3.19328	-1.36145	-0.16990	-1.61109
6902.168	0.81168	-1.89054	-0.16697	0.14969
6906.166	1.93906	-1.71727	-0.19172	1.61521
6910.169	0.86761	-2.17594	2.73952	-1.88299
6914.169	0.29731	-1.02712	-0.51897	-2.40190
6918.205	0.17045	-1.74138	-0.20618	0.36816
6922.171	-0.35216	-2.26403	-0.06574	1.57375
6926.163	1.24094	-3.06636	-0.54168	-1.25137
6930.171	0.50996	-2.04868	-0.02517	-1.99848
6934.166	-0.80091	-2.24467	-1.26220	-0.65397
6938.168	2.41804	-4.97922	-0.65042	-0.06706
6942.164	-0.49480	-2.70037	-0.02184	0.44800
6946.171	-0.06157	-2.36338	-0.24401	-0.13630
6950.169	-0.78943	-0.73304	-2.42755	-1.06378
6954.170	3.37131	-2.29691	-0.25388	3.61585
6958.162	7.64366	-1.80742	-0.65372	0.87059
6962.170	-0.17653	9.77862	-5.31681	13.17812
6966.169	2.12434	8.50878	19.64169	13.82373
6970.164	NaN	NaN	NaN	NaN
6974.170	NaN	NaN	NaN	NaN
6978.175	NaN	NaN	NaN	NaN
6982.167	NaN	NaN	NaN	NaN
6986.165	NaN	NaN	NaN	NaN
6990.492	NaN	NaN	NaN	NaN
6994.178	NaN	NaN	NaN	NaN
6998.170	NaN	NaN	NaN	NaN
7002.171	NaN	NaN	NaN	NaN
7006.168	NaN	NaN	NaN	NaN
7010.166	NaN	NaN	NaN	NaN
7014.171	NaN	NaN	NaN	NaN
7018.173	NaN	NaN	NaN	NaN
7022.167	NaN	NaN	NaN	NaN
7026.224	NaN	NaN	NaN	NaN
7030.182	NaN	NaN	NaN	NaN
7034.179	NaN	NaN	NaN	NaN
7038.166	NaN	NaN	NaN	NaN
7042.166	NaN	NaN	NaN	NaN
7046.162	NaN	NaN	NaN	NaN
7050.165	NaN	NaN	NaN	NaN
7054.166	NaN	NaN	NaN	NaN
7058.615	NaN	NaN	NaN	NaN
7062.254	NaN	NaN	NaN	NaN
7066.412	NaN	NaN	NaN	NaN
7070.576	NaN	NaN	NaN	NaN
7074.277	NaN	NaN	NaN	NaN
7078.377	NaN	NaN	NaN	NaN
7082.161	NaN	NaN	NaN	NaN
7086.170	NaN	NaN	NaN	NaN
7090.172	NaN	NaN	NaN	NaN
7094.173	NaN	NaN	NaN	NaN
7098.164	NaN	NaN	NaN	NaN
7104.046	NaN	NaN	NaN	NaN
7106.680	NaN	NaN	NaN	NaN
7114.195	NaN	NaN	NaN	NaN
7118.164	NaN	NaN	NaN	NaN
7122.172	NaN	NaN	NaN	NaN
7126.649	NaN	NaN	NaN	NaN
7130.161	NaN	NaN	NaN	NaN
7134.168	NaN	NaN	NaN	NaN
7138.160	NaN	NaN	NaN	NaN
7142.164	NaN	NaN	-7.27594	7.57611
7146.161	-16.52802	11.33084	-16.87271	4.82218
7150.166	-1.49991	2.70252	-15.67018	4.65201
7154.164	-6.14435	0.55605	-15.26358	2.37172
7158.157	-1.26180	0.18612	-14.61550	2.28946
7162.160	-1.14694	-0.26757	-14.36180	1.23384
7166.188	-10.25223	2.56376	-15.12176	1.78275
7170.215	NaN	NaN	-19.99370	-12.07743
7178.165	-0.86624	2.52642	-10.37011	1.56212
7182.154	-5.00068	1.25503	-11.41717	-0.28267
7186.176	-4.78094	0.45250	-9.24530	0.53255
7190.158	-7.27585	1.60635	-8.16970	2.03287
7194.161	-6.95404	1.49925	-8.98678	1.42611
7198.158	-7.48793	1.81021	-8.15934	1.84011
7202.154	-7.57376	1.81925	-4.84349	1.69302
7206.162	-7.31159	1.56246	-7.80833	1.89781
7210.157	-7.16854	0.61406	-7.49873	2.19693
7214.160	-6.73887	1.44224	-7.47368	0.72880
7218.162	-7.09668	1.07423	-8.16656	1.08945
7222.158	-7.03978	1.08896	-8.13531	1.12863
7226.159	-6.88697	0.20804	-7.27580	1.64694
7230.153	-6.91853	1.77956	-7.43779	0.74251
7234.162	-7.09253	1.22611	-7.51698	1.23930
7238.164	-7.03643	0.94003	-5.69025	1.83219
7242.155	-6.79178	0.98527	-7.43100	1.19844
7246.162	-6.82351	0.90718	-7.25543	1.17703
7250.158	-6.85072	1.19416	-6.95369	1.48135
7254.160	-6.81321	0.64610	-4.70858	0.57399
7258.153	-6.93640	0.67935	-7.60261	1.30124
7262.161	-6.78644	0.94502	-6.03128	-1.92394
7266.160	-6.87592	0.72409	-6.92586	1.55101
7270.155	-6.76924	1.38953	-6.08743	1.06000
7274.161	-6.82966	1.09581	-6.65140	1.40602
7278.165	-6.83700	0.65083	-6.93868	0.72093
7282.154	-7.28224	1.80775	-6.48161	0.80300
7286.160	-6.92317	1.19546	-5.79325	1.47786
7290.157	-6.74797	0.24985	-6.54935	1.22972
7294.159	-6.93694	-0.93175	-6.78593	1.58063
7298.154	-7.01971	1.92229	-7.71418	1.22499
7302.159	-6.89228	1.35408	-6.66988	0.94186
7306.158	-6.77396	-0.13905	-6.64217	1.80186
7310.159	-6.61851	0.07477	-7.56593	0.65178
7314.160	-6.90752	1.39221	-4.63935	1.39702
7318.157	-7.08018	0.51730	-5.20593	1.99160
7322.159	-7.00741	1.56170	-4.89572	0.74940
7326.152	-6.77252	0.73727	-8.28609	-1.52747
7330.202	-6.77034	0.03541	-4.10268	-5.51100
7334.162	-6.05749	0.45854	-3.86568	-4.72214
7338.157	-6.76398	1.30741	-3.61730	-4.26750
7342.158	-6.69321	1.09318	-3.93423	-4.22465
7346.160	-6.73764	1.30132	-5.79140	-4.43324
7350.158	-6.47189	1.33649	-5.50825	2.24797
7354.158	-6.89947	1.03096	-3.89004	2.28534
7358.151	-6.24967	0.67289	-7.02922	2.50735
7362.159	-6.62841	1.57759	-5.09938	2.44143
7366.156	-6.60796	0.20320	-7.23142	2.37736
7370.156	-6.95577	1.21130	-4.05001	1.89218
7374.151	-7.49188	0.58991	-5.77816	2.70248
7378.163	-6.82342	0.87455	-6.71157	2.64424
7382.156	-4.58713	0.70832	-6.40457	2.08028
7386.156	-7.39793	1.16508	-6.93728	1.70299
7390.151	-5.90649	0.58766	-7.00881	2.49486
7394.164	-7.16165	1.00618	-6.58053	2.26817
7398.179	-6.80022	0.97533	-7.31767	2.46117
7402.212	-6.96088	1.36044	-6.94582	2.09094
7406.161	-7.39078	1.00219	-6.25966	1.41313
7410.153	-7.24559	0.41454	-7.23594	1.53169
7414.156	-7.24669	1.30121	-6.18110	1.66127
7418.150	-6.86484	1.80510	-7.04816	2.57890
7422.158	-7.07366	0.59152	-9.27818	1.56251
7426.155	-6.82885	1.24993	-6.83746	1.10519
7430.155	-6.50538	0.75781	-7.12271	1.71032
7434.150	-6.27287	0.50079	-5.51705	1.32351
7438.158	-3.94480	0.04482	-7.12400	2.04268
7442.154	-6.79055	1.85729	-5.58201	0.84061
7446.155	-7.25599	0.97987	-6.98445	1.49195
7450.150	-6.12207	1.21394	-7.32653	1.29563
7454.158	-4.09562	1.54672	-5.54587	2.70268
7458.156	-5.16462	1.60629	-7.32417	3.35421
7462.155	-6.25617	1.51195	-6.97455	1.22122
7466.165	-6.20408	1.45695	-6.75908	1.17402
7470.155	-5.88756	3.29295	-6.15610	0.79686
7474.155	-5.71048	1.80150	-6.66726	1.24057
7478.151	-5.84348	1.87207	-6.59851	1.81233
7482.158	-4.73320	0.82470	-6.62023	3.04554
7486.157	-7.46160	1.33232	-6.61335	2.90464
7490.154	-6.39535	1.74053	-6.48254	1.10295
7494.152	-6.24462	1.26445	-6.52373	1.71313
7498.158	-5.80504	1.07460	-6.66496	2.98575
7502.155	-4.55398	1.07482	-6.62486	1.68005
7506.151	-5.81088	1.01854	-6.62801	3.25279
7510.158	-5.92515	1.46104	-6.69549	2.84614
7514.154	-7.83312	1.56084	-6.87893	3.10438
7518.163	-7.14296	1.05298	-6.83567	2.41157
7522.150	-7.36918	1.18937	-6.78182	0.86525
7526.163	-5.97882	1.21720	-7.14900	5.05163
7530.155	-6.73373	1.02362	-6.54029	1.92065
7534.168	-6.96370	1.17361	-6.77435	1.16956
7538.160	-5.20883	1.28631	-6.64596	0.72068
7542.188	-5.93217	1.35629	-6.72379	0.97926
7546.154	-6.63972	0.74562	-6.53137	1.10502
7550.147	-6.90040	1.38562	-6.84260	2.45845
7554.155	-7.30168	1.27136	-6.45108	1.93843
7558.153	-6.90459	1.53799	-6.49403	1.33619
7562.149	-6.60480	1.38777	-5.58646	1.17592
7566.156	-7.38087	1.41175	-6.36822	1.00870
7570.157	-6.57938	0.47881	-7.13698	0.94498
7574.152	-6.28491	1.25166	-6.36077	2.25436
7578.153	-6.62091	1.08611	-6.94235	1.18269
7582.153	-6.46181	1.41455	-7.20441	-0.41300
7586.155	-6.62870	0.93780	-6.93562	1.31572
7590.151	-6.51768	1.02656	-7.17231	1.79098
7594.150	-7.16410	0.73394	-6.64758	0.72983
7598.154	-6.23376	0.55102	-6.89894	1.21715
7602.177	-5.75460	-0.05363	-7.30190	1.38214
7606.156	-6.40641	0.41068	-6.87352	1.01346
7610.147	-6.12026	0.56853	-7.04579	0.85959
7614.151	-6.13569	0.46962	-10.26091	-2.77545
7618.151	-5.94794	0.74384	-7.13991	1.70099
7622.147	-6.33961	0.53164	-7.18997	0.84470
7626.155	-6.50761	0.72849	-5.66718	-0.71489
7630.151	-6.28423	0.46180	-6.86378	1.19457
7634.153	-6.74516	0.64807	-6.99172	0.81811
7638.154	-6.47676	0.67521	-6.91080	1.18380
7642.154	-6.51434	0.79836	-7.16373	1.73120
7646.153	-6.54592	1.03712	-6.81006	2.23190
7650.146	-6.54950	1.26994	-6.87276	0.41537
7654.155	-6.63627	1.15544	-6.59202	0.83424
7658.027	-6.64834	1.07083	-6.46963	0.43633
7662.021	-6.81011	1.41382	-7.12026	0.63084
7666.028	-6.66014	0.93947	-6.69627	0.69754
7670.031	-6.72888	1.23262	-6.78647	0.81563
7674.026	-6.76390	0.96926	-6.48504	1.57326
7678.026	-6.78397	1.19438	-7.03665	2.34338
7682.021	-6.71064	0.82898	-7.04315	2.65054
7686.028	-6.74202	1.02486	-7.10037	2.58030
7690.029	-6.71672	0.94612	-7.10369	0.21613
7694.026	-6.74435	1.06285	-6.92628	0.79751
7698.021	-5.91879	0.92047	-7.14350	1.92459
7702.026	-6.65921	0.75659	-5.18781	2.03237
7706.025	-6.70034	0.58802	-6.97878	1.93675
7710.021	-6.62929	0.75967	-7.03030	2.52076
7714.028	-6.60186	0.56582	-7.47009	1.17813
7718.027	-6.52378	0.72839	-7.17722	0.33895
7722.022	-6.69530	0.16158	-7.31545	2.13865
7726.028	-6.94927	0.74585	-6.86268	0.92982
7730.026	-3.51577	0.67856	-6.82283	1.09067
7734.027	-6.76131	0.69695	-7.70419	-2.29042
7738.027	-7.02443	-0.04082	-6.74256	1.21628
7742.025	-6.94389	-0.11586	-7.34426	1.33159
7746.026	-3.36891	-0.33128	-6.68648	0.93818
7750.020	-6.63996	0.23954	-7.18909	1.14955
7754.031	-4.42175	-0.74443	-7.24771	0.80691
7758.050	-7.01247	0.86835	-6.75894	0.87153
7762.024	-1.68617	-0.80315	-7.06332	0.72949
7766.019	-6.97362	0.11620	-7.53437	1.70409
7770.026	-6.84233	1.19660	-6.93506	0.27509
7774.029	-6.52267	-0.13460	-6.82669	0.98031
7778.055	-6.63225	0.16945	-6.50793	4.12401
7782.027	-6.54861	1.55572	-6.76437	3.06130
7786.022	-3.78232	1.53048	-5.91022	3.77604
7790.023	-5.42978	2.92753	-4.31911	3.88324
7794.019	-4.28881	2.39890	-4.14070	4.10709
7798.030	-3.14471	3.06566	-3.78580	4.14531
7802.026	-2.26998	3.16323	-3.63935	4.03785
7806.052	-2.72635	3.16674	-3.59243	2.54037
7810.030	-2.67779	3.67049	-3.54984	4.57557
7814.029	-3.00561	3.48219	-3.40957	4.05770
7818.026	-2.70805	3.71386	-3.73554	4.71664
7822.030	-2.45787	3.56653	-3.35719	4.53070
7826.029	-2.65785	4.20505	-3.81560	5.43543
7830.028	-2.59299	3.17062	-3.50628	4.08227
7834.025	-2.61781	3.92330	-3.22520	4.36599
7838.032	-2.70651	3.94463	-3.61943	4.94121
7842.029	-2.82135	4.35202	-3.27254	5.60282
7846.027	-2.87378	4.55597	-3.42930	5.27597
7850.031	-2.88109	4.18404	-3.21577	4.50683
7854.028	-2.81105	3.57155	-3.29401	4.00763
7858.034	-2.53672	4.37995	-3.51401	5.01075
7862.028	-2.67209	4.58736	-3.28402	3.92846
7866.030	-2.75133	4.49937	-3.21681	4.88690
7870.031	-2.77574	4.22263	-3.16607	4.93793
7874.043	-2.63539	4.22848	-3.26079	4.04422
7878.029	-2.79897	4.73589	-3.32498	4.54719
7882.025	-2.17363	4.39417	-3.39767	4.68838
7886.024	-2.46461	3.25186	-3.39970	5.02151
7890.018	-2.63227	3.98121	-3.60949	4.62330
7894.026	-2.59185	4.37266	-3.48204	3.86241
7898.028	-2.93337	4.45792	-3.42567	4.68179
7902.028	-2.60176	4.01896	-3.25347	5.00795
7906.026	-2.79518	3.80142	-3.47475	5.64796
7910.022	-2.71198	4.61135	-4.67086	4.32730
7914.019	-0.84037	3.80755	-3.70927	4.56370
7918.021	-2.41725	3.89575	-3.68898	5.98417
7922.017	-1.76681	4.58944	-3.90197	4.67141
7926.025	-2.10553	4.33726	-3.21681	4.72997
7930.021	-2.36760	3.88690	-3.33208	4.63719
7934.024	-2.62531	4.73482	-3.33258	4.11528
7938.020	-2.83640	4.44969	-3.09310	3.70044
7942.025	-2.46077	3.33014	-3.08122	5.44037
7946.023	-2.89299	3.68673	-3.28160	5.68107
7950.017	-2.03667	4.96993	-3.02239	5.64461
7954.026	-2.24545	4.43331	-3.15639	5.55081
7958.026	-1.98422	4.46900	-3.14711	5.43905
7962.022	-2.57944	3.25291	-3.14934	4.06774
7966.027	3.90167	2.43636	-2.55931	2.91328
7970.025	-3.13613	4.94802	-0.38224	3.35968
7974.024	-2.73098	3.55634	-3.21609	3.74452
7978.042	-2.31175	4.07148	-2.95012	4.61593
7982.027	-1.90958	4.97076	-3.10445	3.81462
7986.020	3.41372	2.54306	-2.88658	5.62664
7990.021	-2.43952	4.22396	-2.84816	4.75539
7994.015	-1.89010	4.46945	-2.81501	2.71992
7998.022	-2.44133	4.25311	-0.23058	3.92446
8002.020	-1.56657	4.12455	2.80518	2.22173
8006.015	3.38409	2.01732	6.51390	4.10974
8010.023	3.13833	4.73356	6.55743	4.13129
8014.016	4.68326	4.44430	4.94534	5.19094
8018.023	5.31578	3.86511	5.67710	4.52936
8022.023	6.92552	2.85309	6.50822	5.06877
8026.060	5.26425	3.35419	6.07076	4.58748
8030.027	5.83861	4.14005	5.79784	4.52850
8034.025	6.52483	4.32924	5.34715	4.95180
8038.026	7.15164	3.78407	5.69453	4.92694
8042.020	5.81169	3.37640	5.61760	4.55624
8046.028	7.03360	3.93604	5.49045	5.34938
8050.024	6.88778	3.34080	5.51167	4.57094
8054.025	5.92974	3.37711	5.58218	4.91118
8058.022	7.09873	1.39701	5.54176	6.26103
8062.026	6.85867	1.19298	5.46153	5.73925
8066.022	5.12304	4.27920	5.40430	4.76236
8070.025	9.13729	2.77944	5.39883	4.79933
8074.019	7.44625	3.40068	5.37441	6.39852
8078.028	6.93927	3.36868	5.45592	6.10464
8082.028	6.54443	2.44500	5.22874	4.96445
8086.024	6.20587	3.09282	5.40958	4.94034
8090.023	7.03548	2.68555	5.23516	5.63855
8094.027	7.15325	2.32293	5.21070	4.92353
8098.023	4.80017	3.26238	5.36858	5.53672
8102.020	8.94031	2.65659	5.41873	6.51789
8106.031	7.77032	2.36997	5.14552	5.41872
8110.024	6.22196	2.99370	5.49401	5.98953
8114.025	7.67372	2.99165	6.01181	5.46644
8118.019	6.14484	2.68202	5.12299	5.44219
8122.026	6.87898	2.54777	5.90448	5.57175
8126.023	5.29226	2.67920	6.11653	4.11794
8130.024	7.47265	3.76418	5.86740	5.62794
8134.018	6.78473	2.31788	5.84696	5.96780
8138.027	6.68036	2.89140	6.17761	5.61151
8142.023	6.98240	3.40388	5.42373	5.46903
8146.025	8.13726	2.74833	6.21149	5.60902
8150.069	6.84688	3.15061	5.45794	5.87176
8154.029	7.14990	3.15860	5.61721	5.75826
8158.029	6.95078	3.62636	5.19332	5.67857
8162.024	5.33903	0.17502	5.81059	5.54915
8166.023	6.33633	-1.40450	5.65671	3.87022
8170.020	4.88564	1.42332	5.26775	5.93486
8174.026	4.50158	3.18869	5.87921	5.73398
8178.024	6.38675	2.62265	4.99800	5.74281
8182.059	6.17340	2.76376	5.33723	5.96704
8186.017	8.35879	2.57828	4.88754	5.96523
8190.027	2.10054	-1.85744	5.84267	5.99162
8194.021	6.23116	1.91009	5.21548	6.01576
8198.017	2.74474	-0.42122	6.50748	5.47447
8202.032	6.53215	1.60930	5.27422	6.00771
8206.017	3.04670	0.32454	5.55504	5.91489
8210.013	8.35090	2.70527	4.82055	6.28948
8214.037	0.40926	-2.01682	4.72810	4.87257
8218.031	8.68109	1.98635	5.05811	6.13663
8222.024	4.39081	2.74353	4.78678	5.95771
8226.018	6.06789	3.23829	4.95844	5.79420
8230.018	6.85246	2.85223	4.93327	5.64255
8234.020	5.45090	2.39715	4.95943	6.12007
8238.014	8.43244	1.90974	4.84016	5.38896
8242.016	5.55750	1.21845	4.75977	6.14993
8246.012	6.45089	3.76959	4.67276	6.06406
8250.022	4.88983	3.09433	4.59596	5.70605
8254.017	6.20447	3.91141	4.79770	5.87366
8258.017	7.17228	3.13507	4.45636	5.77548
8262.011	6.47769	3.09574	4.92100	6.00260
8266.018	11.73140	-3.76435	5.11634	5.64487
8270.015	6.58562	3.75828	4.92405	5.15076
8274.022	5.70296	2.92134	4.91097	6.09384
8278.044	7.69354	3.83949	4.68642	6.12359
8282.025	7.53937	2.59370	4.97517	6.05244
8286.025	7.84262	2.89426	4.61208	6.54741
8290.019	7.33703	4.25782	4.61834	6.29470
8294.021	6.57806	4.96873	3.50311	6.20454
8298.018	4.94674	6.05170	-0.03231	7.48444
8302.019	4.26442	6.23413	-0.96661	8.99993
8306.021	4.12177	3.99866	-0.44899	9.30940
8310.016	0.47416	6.25143	-4.22994	9.86730
8314.028	0.78915	6.65433	-4.63876	10.63041
8318.020	-1.60062	6.26778	-4.42851	10.66746
8322.020	-2.28313	7.24317	-4.48290	9.98130
8326.013	0.76156	5.99325	-6.35836	9.53771
8330.023	-1.92847	7.24309	-6.21725	9.59814
8334.018	-2.33294	7.65790	-4.98078	9.82256
8338.021	0.48761	6.07411	-6.61418	10.80698
8342.024	-0.43003	7.80672	-5.94460	9.99948
8346.018	-7.25628	6.51786	-5.80268	10.23933
8350.029	0.44544	5.96068	-6.10583	10.12302
8354.022	-7.49115	6.34133	-4.59739	9.65328
8358.016	0.53123	6.92051	-5.93021	9.95840
8362.020	-3.01309	7.09675	-4.94125	9.69475
8366.019	0.53200	6.33330	-5.77168	9.86264
8370.021	3.74177	3.62966	-6.27525	10.39223
8374.015	-5.99379	9.56679	-5.61345	9.48361
8378.025	-3.18153	9.09237	-5.96554	10.02595
8382.019	0.38454	6.45096	-5.94767	9.61612
8386.020	0.34280	6.31770	-5.97364	9.71866
8390.015	-1.28350	6.31725	-6.09761	10.72095
8394.022	-9.22296	6.22733	-5.85053	9.58110
8398.025	-2.36396	6.34301	-5.87034	10.01863
8402.054	0.14965	7.58279	-5.50955	9.83073
8406.019	-11.64025	5.88127	-5.31416	6.19694
8410.016	0.11074	5.72962	-5.81594	10.63471
8414.013	-3.96451	8.18330	-5.88368	9.45716
8418.016	0.03767	6.27112	-6.02308	10.71832
8422.019	-4.49938	6.97216	-5.90539	9.70037
8426.012	-6.41864	6.21333	-6.10163	10.05455
8430.020	-0.58181	5.64411	-5.97448	10.14197
8434.017	-4.25820	6.31327	-5.82643	9.54704
8438.018	-4.85672	7.42693	-5.03696	9.89071
8442.012	-5.81167	8.32761	-6.18934	10.34475
8446.020	-5.54636	6.39944	-6.06345	9.75830
8450.018	-4.47753	6.48314	-6.03871	9.65745
8454.018	-2.57516	6.73527	-5.94168	9.23020
8458.010	-1.09041	6.75402	-5.74057	9.49459
8462.019	-4.24764	7.00070	-5.77241	9.64369
8466.019	-3.21537	7.04885	-5.93230	9.15588
8470.012	-2.64079	6.92138	-5.87722	9.02533
8474.019	-5.31066	6.77503	-5.82623	9.41339
8478.018	0.40849	5.53401	-5.76266	9.25240
8482.021	-0.67134	7.73213	-5.81639	9.88735
8486.032	-1.50224	6.89729	-5.80074	10.17682
8490.017	-2.94089	7.20656	-5.74006	9.12795
8494.011	-3.81212	7.91229	-5.73463	9.68957
8498.022	-4.09098	7.84186	-5.96382	10.41363
8502.036	-3.21574	6.54835	-5.90666	9.51999
8506.008	-2.90631	7.71842	-6.11981	10.27536
8510.015	-5.62129	5.92538	-5.87317	8.95121
8513.887	-9.61711	5.36956	-6.26711	9.90463
8517.888	-5.29870	9.02459	-6.01503	9.31877
8521.881	-6.62858	8.72502	-5.72944	10.27098
8525.889	-3.45492	8.31071	-5.58115	9.30635
8529.889	0.45678	5.23024	-6.05849	10.23588
8533.882	-3.28800	6.60386	-5.83942	10.34127
8537.889	-3.04642	7.53891	-6.03373	9.34694
8541.887	-6.16351	9.17806	-6.11010	10.50825
8545.887	-6.76121	9.36316	-6.57480	9.68172
8549.881	-6.85444	9.06683	-6.03883	9.78917
8553.891	-3.27727	7.40216	-4.79943	9.77539
8557.889	-6.00511	9.44508	-5.57439	9.81212
8561.891	-5.80968	6.56358	-6.00001	9.57293
8565.885	-6.48320	6.25017	-4.59001	9.80300
8569.890	-6.24475	8.67742	-5.21978	9.81851
8573.882	-3.08577	9.14205	-2.73694	9.45347
8577.889	-2.89817	7.90587	-2.62442	9.52696
8581.886	-2.11787	8.24785	-2.38452	9.20362
8585.887	-2.04158	8.55019	-2.54338	9.46412
8589.889	3.98795	6.23820	-2.85611	9.03060
8593.885	-2.03677	8.10871	-3.37794	8.92563
8597.890	-1.92352	7.53332	-2.53214	9.04490
8601.890	-1.18440	7.82624	-2.29015	9.20149
8605.884	-1.80429	6.52524	-2.48339	8.79824
8609.890	-1.63316	7.92465	-2.48658	9.07189
8613.881	-1.24582	8.70683	-3.00074	8.92740
8617.888	-1.47848	7.19398	-3.07632	8.49226
8621.905	-1.76629	6.70727	-2.70589	8.35409
8625.882	-1.64253	7.17392	-2.69089	8.58624
8629.890	-1.54782	7.32741	-2.37684	8.48348
8633.884	-1.72312	7.60910	-2.84346	8.18134
8637.886	-1.71347	6.97870	-2.55505	8.15840
8641.880	-1.85135	7.00229	-2.83648	9.08770
8645.887	-0.55875	6.92518	-3.00118	9.17130
8649.886	-1.95839	9.19716	-2.71042	8.34568
8653.885	-1.51224	7.35974	-2.92851	9.72642
8657.886	-1.94017	8.53252	-2.77730	9.09793
8661.888	-2.11725	7.10698	-2.74009	7.97948
8665.885	-2.14813	8.45360	-2.65228	8.54515
8669.879	-1.62812	7.95038	-2.46746	9.62939
8673.887	-1.45306	8.04695	-2.48629	8.36687
8677.887	-1.49473	7.74774	-2.39309	9.83192
8681.885	-1.69225	8.01628	-2.28469	8.59849
8685.879	-1.56960	8.28183	-2.34872	9.86925
8689.949	-2.35196	7.89620	-2.08399	8.46391
8693.914	-1.48171	8.16761	-2.31111	10.06034
8697.885	-1.87064	7.70529	-2.10399	8.38597
8701.891	-2.17841	8.09389	-2.17120	10.05473
8705.883	-1.47087	7.77677	-0.28796	8.08714
8709.878	-1.36928	12.79486	-2.12877	8.82458
8713.886	-2.04446	7.41293	-1.66160	8.53480
8717.888	-1.54467	8.58345	0.51369	8.13244
8721.883	-1.34306	7.87218	-2.04840	10.01597
8725.886	-1.41072	7.75468	-0.55910	7.98968
8729.883	-1.59836	7.93580	-1.93484	9.59474
8733.885	-1.37528	7.67925	-1.57619	9.08120
8737.878	-1.16451	9.30716	0.81019	7.44577
8741.885	-1.34983	7.25005	-1.56831	8.13226
8745.882	-4.28343	7.28216	-1.73135	8.88956
8749.883	-1.88854	7.96799	-1.80315	9.54101
8753.879	-1.19470	7.66065	-2.12171	8.91482
8757.911	-2.55515	8.03703	-1.94327	8.68638
8761.886	-0.97494	10.73771	-1.83219	9.17715
8765.885	-1.72523	7.72285	-1.86950	9.33582
8769.891	-0.69441	10.44535	-0.61861	7.25482
8773.889	-0.59942	9.06297	-1.99273	9.01488
8777.935	-0.90907	10.49322	-1.96970	8.98583
8781.892	1.75748	10.72804	-1.68825	9.18221
8785.887	-1.94181	9.40849	-1.63328	9.31968
8789.887	-1.98836	4.68528	-0.28106	9.79515
8793.883	4.75119	7.31518	-0.77399	9.58558
8797.891	NaN	NaN	1.48079	9.30890
8801.887	4.85416	9.40672	1.70472	9.63158
8805.883	NaN	NaN	1.89716	9.95390
8809.891	4.97480	6.11734	1.82157	10.15596
8813.888	3.69395	10.80814	2.30303	10.44676
8817.892	3.94801	5.86156	2.44142	10.45231
8821.883	4.01038	9.51316	8.67170	10.30632
8825.888	4.60772	5.47696	2.66063	10.45741
8829.882	4.38440	8.92062	2.38271	10.62560
8833.949	NaN	NaN	NaN	NaN
8841.887	4.18850	8.52636	2.83521	10.88290
8845.881	2.55049	5.98221	2.29047	10.91189
8849.889	4.03574	10.11820	2.52480	11.17931
8853.885	4.03865	10.04863	2.39837	11.10489
8857.887	3.39080	10.27768	2.14144	11.04133
8861.902	3.79371	9.10775	2.80694	11.07542
8865.897	2.99690	5.21180	2.19259	11.22275
8869.886	5.01159	5.62852	2.75103	11.22464
8873.882	3.47688	9.13832	2.53226	11.24484
8877.889	4.37480	8.60046	2.60384	11.30441
8881.886	3.66780	9.22365	2.47739	11.12175
8885.888	3.75395	4.24024	2.11497	11.34400
8889.881	3.12027	10.83648	2.30291	11.21033
8893.907	3.06268	9.01333	2.78679	11.14527
8897.882	3.03281	8.93024	2.07110	11.14898
8901.897	3.77263	8.76767	1.79658	11.33574
8905.880	3.92695	9.54665	2.30187	11.25374
8909.875	3.13289	10.12570	1.76495	11.19015
8913.884	2.89411	9.08967	1.95254	11.43115
8917.886	3.17910	8.63763	1.25069	11.39171
8921.883	2.71223	9.38506	1.14642	11.37616
8925.877	3.95308	9.59303	1.00271	11.36410
8929.882	4.08577	8.84334	1.65141	11.42311
8933.881	3.41313	10.05938	1.26813	11.41873
8937.880	2.78136	10.31663	1.34688	11.37938
8941.875	4.10399	7.39562	0.93852	11.62037
8945.887	3.26163	10.17256	1.59155	11.58620
8949.883	3.93371	7.31500	1.59145	11.55726
8953.882	3.97928	9.28845	1.54326	11.62074
8957.876	4.18349	10.59476	1.52302	11.75396
8961.905	4.07142	7.71148	1.89208	11.69888
8965.888	4.38277	8.59141	1.98041	11.79377
8969.881	4.33547	9.16203	1.29298	11.82898
8973.878	5.27247	8.99675	1.45115	11.81258
8977.875	4.79571	9.06654	1.36099	11.82307
8981.881	4.93893	8.91729	1.73914	11.85613
8985.883	4.23764	9.09701	1.67948	11.82140
8989.880	4.59613	8.85929	1.37754	11.84612
8993.876	4.04095	9.16518	2.09891	11.93857
8997.882	6.59606	8.94701	2.02371	11.96146
9001.883	4.69985	7.25852	2.09395	11.94170
9005.876	4.39933	8.16331	1.93663	11.91567
9009.880	4.42822	7.03304	2.20533	12.03898
9013.878	4.11145	8.69751	2.30704	11.93293
9017.879	3.53172	7.74201	1.78969	12.03543
9021.878	4.66963	6.46144	1.68069	11.85080
9025.887	3.95404	6.76152	1.73162	11.98475
9029.890	3.68223	8.57594	2.40828	11.80933
9033.912	3.84980	8.36577	3.46429	11.89091
9037.877	3.69091	7.90267	2.25122	12.00500
9041.882	3.59060	7.64425	2.39549	11.63806
9045.878	3.62017	7.48652	2.12169	11.94458
9049.881	3.73450	7.57287	2.51992	12.04089
9053.879	3.78748	7.47455	2.14238	11.52306
9057.878	5.50434	7.91656	2.08684	11.72437
9061.877	3.76858	9.46398	2.40000	11.76553
9065.880	3.40858	9.25226	2.11123	11.64382
9069.883	4.38603	8.22006	2.35375	11.64836
9073.878	3.66567	8.47829	2.62013	11.83577
9077.878	3.68782	9.54238	2.26636	11.70930
9081.880	4.39839	8.59647	2.05801	11.83246
9085.876	3.03712	10.00408	1.99900	11.40483
9089.876	4.46729	8.16449	-0.05686	11.34790
9093.881	2.90062	11.14855	0.55133	10.80280
9097.881	4.86441	8.79482	1.87098	11.14026
9101.881	3.93685	9.80910	1.81359	11.08580
9105.877	-0.59039	7.48417	1.15201	12.13882
9109.877	3.61972	9.24667	NaN	NaN
9113.879	3.71046	10.90459	NaN	NaN
9117.876	NaN	NaN	NaN	NaN
9121.876	NaN	NaN	NaN	NaN
9125.871	NaN	NaN	NaN	NaN
9129.881	NaN	NaN	NaN	NaN
9133.880	NaN	NaN	NaN	NaN
9137.878	NaN	NaN	NaN	NaN
9141.875	NaN	NaN	NaN	NaN
9145.885	NaN	NaN	NaN	NaN
9149.900	NaN	NaN	NaN	NaN
9153.947	NaN	NaN	NaN	NaN
9157.937	NaN	NaN	NaN	NaN
9162.033	NaN	NaN	NaN	NaN
9167.191	NaN	NaN	NaN	NaN
9171.127	NaN	NaN	NaN	NaN
9175.209	NaN	NaN	NaN	NaN
9179.196	NaN	NaN	NaN	NaN
9183.122	NaN	NaN	NaN	NaN
9186.931	NaN	NaN	NaN	NaN
9190.510	NaN	NaN	NaN	NaN
9194.337	NaN	NaN	NaN	NaN
9198.200	NaN	NaN	NaN	NaN
9201.884	NaN	NaN	NaN	NaN
9205.876	NaN	NaN	NaN	NaN
9209.882	NaN	NaN	NaN	NaN
9213.945	NaN	NaN	NaN	NaN
9218.022	NaN	NaN	NaN	NaN
9222.189	NaN	NaN	NaN	NaN
9226.300	NaN	NaN	NaN	NaN
9230.380	3.28904	13.99790	NaN	NaN
9233.896	3.28402	13.99788	NaN	NaN
9237.881	NaN	NaN	NaN	NaN
9241.877	3.30856	13.97797	NaN	NaN
9245.874	NaN	NaN	NaN	NaN
9249.870	NaN	NaN	NaN	NaN
9253.910	NaN	NaN	NaN	NaN
9257.876	NaN	NaN	NaN	NaN
9261.877	NaN	NaN	NaN	NaN
9265.872	NaN	NaN	NaN	NaN
9269.875	NaN	NaN	NaN	NaN
9273.878	3.29589	13.97454	NaN	NaN
9277.875	NaN	NaN	NaN	NaN
9281.875	NaN	NaN	NaN	NaN
9285.872	NaN	NaN	NaN	NaN
9289.872	NaN	NaN	NaN	NaN
9293.871	NaN	NaN	NaN	NaN
9297.876	NaN	NaN	NaN	NaN
9302.210	NaN	NaN	NaN	NaN
9305.892	NaN	NaN	NaN	NaN
9309.878	NaN	NaN	NaN	NaN
9313.876	NaN	NaN	NaN	NaN
9317.896	NaN	NaN	NaN	NaN
9321.877	NaN	NaN	NaN	NaN
9325.877	NaN	NaN	NaN	NaN
9329.876	NaN	NaN	NaN	NaN
9333.875	NaN	NaN	NaN	NaN
9337.871	NaN	NaN	NaN	NaN
9341.877	NaN	NaN	NaN	NaN
9345.875	NaN	NaN	NaN	NaN
9350.027	NaN	NaN	NaN	NaN
9353.881	NaN	NaN	NaN	NaN
9358.015	NaN	NaN	NaN	NaN
9363.664	NaN	NaN	NaN	NaN
9367.058	NaN	NaN	NaN	NaN
9373.747	NaN	NaN	NaN	NaN
9377.743	NaN	NaN	NaN	NaN
9381.742	NaN	NaN	NaN	NaN
9385.772	NaN	NaN	NaN	NaN
9389.749	NaN	NaN	NaN	NaN
9393.752	NaN	NaN	NaN	NaN
9397.755	NaN	NaN	NaN	NaN
9401.752	NaN	NaN	NaN	NaN
9405.756	NaN	NaN	NaN	NaN
9409.749	NaN	NaN	NaN	NaN
9413.748	NaN	NaN	NaN	NaN
9417.749	NaN	NaN	NaN	NaN
9421.746	NaN	NaN	NaN	NaN
9425.763	NaN	NaN	NaN	NaN
9429.747	NaN	NaN	NaN	NaN
9433.753	NaN	NaN	NaN	NaN
9438.493	NaN	NaN	NaN	NaN
9442.395	NaN	NaN	NaN	NaN
9446.268	NaN	NaN	NaN	NaN
9450.189	NaN	NaN	NaN	NaN
9454.116	NaN	NaN	NaN	NaN
9458.087	NaN	NaN	NaN	NaN
9461.981	NaN	NaN	NaN	NaN
9465.753	NaN	NaN	NaN	NaN
9469.748	NaN	NaN	NaN	NaN
9473.752	NaN	NaN	NaN	NaN
9477.747	NaN	NaN	NaN	NaN
9481.750	NaN	NaN	NaN	NaN
9485.748	NaN	NaN	NaN	NaN
9489.748	NaN	NaN	NaN	NaN
9493.744	NaN	NaN	NaN	NaN
9497.767	NaN	NaN	NaN	NaN
9501.747	NaN	NaN	NaN	NaN
9506.468	NaN	NaN	NaN	NaN
9510.296	NaN	NaN	NaN	NaN
9514.200	NaN	NaN	NaN	NaN
9518.124	NaN	NaN	NaN	NaN
9521.756	NaN	NaN	NaN	NaN
9525.755	NaN	NaN	NaN	NaN
9529.750	NaN	NaN	NaN	NaN
9533.747	NaN	NaN	NaN	NaN
9537.741	NaN	NaN	NaN	NaN
9541.739	NaN	NaN	NaN	NaN
9545.769	NaN	NaN	NaN	NaN
9549.743	NaN	NaN	NaN	NaN
9553.750	NaN	NaN	NaN	NaN
9557.751	NaN	NaN	NaN	NaN
9561.748	NaN	NaN	NaN	NaN
9565.750	NaN	NaN	NaN	NaN
9569.758	NaN	NaN	NaN	NaN
9574.512	NaN	NaN	NaN	NaN
9578.374	NaN	NaN	NaN	NaN
9581.748	NaN	NaN	NaN	NaN
9585.747	NaN	NaN	NaN	NaN
9589.742	NaN	NaN	NaN	NaN
9593.773	NaN	NaN	NaN	NaN
9597.761	NaN	NaN	NaN	NaN
9601.750	NaN	NaN	NaN	NaN
9605.753	NaN	NaN	NaN	NaN
9609.754	NaN	NaN	NaN	NaN
9613.749	NaN	NaN	NaN	NaN
9617.747	NaN	NaN	NaN	NaN
9621.746	NaN	NaN	NaN	NaN
9625.740	NaN	NaN	NaN	NaN
9629.748	NaN	NaN	NaN	NaN
9633.748	NaN	NaN	NaN	NaN
9637.768	NaN	NaN	NaN	NaN
9642.546	NaN	NaN	NaN	NaN
9646.428	NaN	NaN	NaN	NaN
9650.271	NaN	NaN	NaN	NaN
9654.168	NaN	NaN	NaN	NaN
9657.970	NaN	NaN	NaN	NaN
9661.752	NaN	NaN	NaN	NaN
9665.760	NaN	NaN	NaN	NaN
9669.746	NaN	NaN	NaN	NaN
9673.748	NaN	NaN	NaN	NaN
9677.742	NaN	NaN	NaN	NaN
9822.731	NaN	NaN	NaN	NaN
9890.223	-3.74701	-4.69245	-5.37743	-3.44499
9894.038	-4.21335	-2.47129	-5.87815	-5.22872
9897.873	-3.92744	-4.46799	-5.07579	-3.81244
9901.898	-5.16435	-4.82092	-5.52709	-3.43430
9905.879	-3.64593	-4.35821	-5.74748	-2.91780
9909.864	-1.51571	-4.96297	-5.65894	-2.98842
9913.860	-3.66160	-6.06685	-5.52677	-5.45136
9917.860	-4.12471	-5.34787	-5.44584	-4.53708
9921.861	-3.59394	-6.30563	-5.63783	-3.57701
9925.858	-2.27820	-4.67204	-5.26275	-3.14902
9929.865	-3.64852	-4.07776	-6.37128	-3.30326
9933.861	-0.09478	-4.80674	-5.19832	-2.99813
9937.863	-4.40078	-3.92506	-1.78367	-2.44291
9941.871	-1.80534	-3.48633	-0.01702	-1.41631
9945.862	-0.11764	-3.12604	-1.00908	-2.00268
9949.861	-1.07086	-2.07086	-0.99750	-1.30903
9953.857	4.69894	-1.78305	-1.93854	-0.43664
9957.864	2.51051	-1.76648	-0.28324	-0.30035
9961.882	4.44358	-3.84501	3.17557	-0.75974
9965.864	2.44432	-1.12914	0.66692	-0.47984
9969.858	2.98727	-3.12681	0.73618	-0.25838
9973.864	1.69433	-3.01289	-1.57181	1.12691
9977.864	2.41826	-1.73639	0.51461	0.01729
9981.863	3.99136	-3.30233	0.80019	0.27940
9985.857	1.99374	-2.41262	0.51170	-0.18325
9989.865	2.94121	-0.95239	0.68141	-0.08041
9993.862	2.29721	-1.15765	3.00418	0.03822
9997.856	2.15319	-1.55108	0.70446	-0.24231
10001.866	3.14758	-1.98526	0.76670	0.06791
10005.859	2.26467	-2.12733	-2.13946	-0.25559
10009.863	0.99864	-3.13338	0.76139	0.59424
10013.865	3.61251	-2.48445	0.77367	-0.13199
10017.860	3.98400	-2.94320	0.54409	0.23506
10021.861	4.28713	-3.58045	0.60647	-0.13194
10025.864	2.85653	-2.50924	0.76821	0.07963
10029.931	2.16748	-2.52017	2.06830	6.70076
10033.879	2.42567	-3.76980	0.69116	0.31389
10037.867	4.99647	1.68091	1.04657	0.05836
10041.868	2.75004	0.37295	0.93433	0.55328
10045.872	3.82049	-2.08940	0.07195	0.57183
10049.870	2.82207	-1.16824	2.48027	0.59371
10053.860	2.62779	-2.57675	1.99758	0.23746
10057.883	2.07298	-2.42986	1.55393	0.31976
10061.860	6.44804	-0.29954	2.78934	0.16964
10065.869	2.01942	-1.09930	0.59096	0.67496
10069.860	5.44987	-3.36079	0.02752	0.48847
10073.861	2.59998	-0.86174	3.64731	1.00770
10077.855	2.57491	0.87498	6.37567	2.80617
10081.866	3.11638	-2.94885	0.28701	1.21150
10085.860	3.45665	-1.69245	3.05961	1.30093
10089.860	2.37540	-1.63799	5.66015	2.09763
10093.863	1.64565	-1.17352	0.03343	1.82535
10097.880	1.61166	-0.36166	3.63470	1.59145
10101.864	2.21603	-1.62175	0.40445	1.61910
10105.861	2.82093	-1.61772	3.17903	1.30619
10109.864	1.03563	-1.15787	5.75907	1.92525
10113.860	2.68170	-1.34344	5.83898	1.38555
10117.855	3.47576	-0.61580	5.97516	2.81700
10121.862	0.33901	-1.48361	5.57050	2.03788
10125.857	1.42801	-1.86302	0.65446	1.23294
10129.860	2.42255	-1.59142	7.52708	2.40459
10133.860	1.25897	-1.25147	0.98092	0.43004
10137.863	2.31024	-0.33392	4.07197	-3.14200
10141.860	1.75493	-1.43682	1.32371	0.97080
10145.861	1.33277	-0.66565	4.54607	-1.62419
10149.859	4.67300	-4.27318	1.26907	0.89751
10153.859	2.57746	0.26547	1.45428	0.07549
10157.859	1.31037	1.44129	4.66600	-1.36469
10161.854	2.80662	-1.62461	3.70737	-0.58822
10165.872	1.33917	-1.39765	7.89325	-1.61291
10169.863	-0.09312	-1.42721	7.77044	-3.08216
10173.858	4.21116	-3.39570	7.78767	-4.85906
10177.861	4.58069	-1.47920	5.26007	-3.21578
10181.854	1.13804	-0.20171	6.90197	-4.54387
10185.862	2.27689	-0.35694	7.13981	-5.69513
10189.858	2.90091	-1.46006	5.03856	-7.95839
10193.859	1.12965	-2.87994	1.30578	-0.22999
10197.853	-0.18308	-1.95161	7.86332	-1.73309
10201.863	1.43952	-0.57826	5.57584	-2.18719
10205.859	3.84913	-1.04501	0.92123	0.17700
10209.858	3.14783	-1.13935	4.94701	-4.70742
10213.862	3.47010	-0.94196	5.27491	-5.30123
10217.858	3.08305	-2.29114	4.51778	-6.88669
10221.859	3.09201	-1.18872	1.29427	0.48035
10225.863	2.72221	-1.15747	1.22516	0.56080
10229.858	2.09574	-1.97271	0.72588	1.14431
10233.880	3.40383	-2.06024	0.78712	0.68755
10237.863	2.33301	-1.39062	4.31496	0.51085
10241.859	2.76891	-1.32742	3.37381	0.36822
10245.861	3.68656	-3.30311	1.40380	0.47218
10249.854	2.45530	0.15430	0.61441	0.58169
10253.861	2.05033	-0.63573	0.86999	0.54489
10257.858	0.54441	-0.82306	-1.00204	0.58365
10261.859	0.23343	-0.18025	3.03685	0.19831
10265.854	2.46813	0.57044	1.10194	0.46426
10269.861	1.72770	-0.11175	0.68831	0.16156
10273.894	1.93651	0.08056	1.38032	0.79005
10277.854	1.81369	0.59286	6.95440	-0.29397
10281.858	3.12848	0.00928	4.83528	-4.27430
10285.857	1.95019	-0.04214	0.99598	0.29658
10289.857	5.79386	-2.66612	1.73809	0.31176
10293.850	0.69625	-2.58225	0.82272	0.32894
10297.858	1.42471	-0.47692	1.06150	0.01694
10301.860	4.97295	-0.74008	6.28079	-5.77736
10305.855	1.20529	-1.20052	4.09834	0.08960
10309.851	2.58494	-1.27087	1.08631	-0.05933
10313.857	2.71701	-1.50315	1.00697	0.17382
10317.860	2.42091	-1.36751	0.71476	0.02303
10321.851	1.35306	-0.41357	0.14163	3.07894
10325.859	6.27005	-1.38768	0.56709	3.05546
10329.853	2.21026	-0.45531	0.29843	0.03071
10333.857	2.54269	-0.08522	0.48962	0.13416
10337.861	2.98742	0.40625	2.90792	0.00531
10341.857	2.41504	0.17163	3.38155	0.10066
10345.732	1.23412	0.24406	2.22287	0.08576
10349.726	1.24305	-1.32689	2.28408	0.35980
10353.734	2.60693	0.14867	0.86853	0.76080
10357.735	1.85182	-0.20579	0.81947	0.47153
10361.731	1.52431	0.88834	0.54915	0.60634
10365.725	0.87726	-0.11881	0.77434	0.72306
10369.734	1.27187	-0.03967	0.44279	0.92518
10373.736	2.66692	-1.82412	0.66466	0.82182
10377.731	3.41177	-1.92358	0.59225	1.01714
10381.730	2.64990	-0.39639	0.78962	1.31968
10385.725	1.87703	-0.88309	0.34233	1.98909
10389.731	1.87250	-0.44475	2.55638	0.62997
10393.729	2.26088	-1.69990	0.05510	1.75827
10397.733	0.47820	-2.15569	1.03672	0.25640
10401.732	1.43687	-0.79522	0.21658	0.73005
10405.729	1.74687	-0.63813	0.15754	0.72051
10409.729	2.23826	-0.91377	0.05202	0.60113
10413.757	2.88156	-1.84094	-0.11890	0.40300
