time (ms)	lx (deg)	ly (deg)	rx (deg)	ry (deg)
0.000	-2.10647	-1.15787	-1.43922	-0.84616
3.984	-3.06867	-2.95537	-4.08908	0.60597
7.987	-2.75262	-1.27224	-4.01406	-0.07109
11.982	-3.06734	-1.36984	-5.23012	0.63114
15.990	-3.27900	-2.75759	-5.41554	-0.30121
19.992	-1.32515	-4.86050	-4.21296	-0.08295
23.988	-1.35457	-4.37649	-4.77762	0.03761
27.981	-1.79894	-2.17152	-3.64007	1.06899
31.988	-1.22067	-2.66956	-1.31868	0.84292
35.984	-2.43761	-2.29316	-4.21832	0.80350
39.983	-2.65557	-1.46842	-4.08421	0.19573
43.988	-4.42585	-1.34189	-4.20713	0.67702
47.983	-2.75353	-1.45030	-4.03811	0.40229
51.991	-3.58976	-2.37999	-3.39151	0.12817
55.989	-3.43306	-1.30871	-3.18920	-1.84723
59.982	-2.86314	-1.20777	-3.68522	-0.29698
63.984	-3.35152	-2.06815	-3.74486	-0.35371
67.986	-2.80033	-2.31405	-3.27616	-0.72908
71.905	-2.33029	-2.64584	-3.80599	-0.56978
75.865	-3.09552	-1.51232	-3.28286	-1.16913
79.855	-3.00878	-1.19677	-3.51285	-0.97286
83.859	-2.99324	-1.84190	-3.53377	-0.63944
87.862	-2.43699	-2.09317	-3.50111	0.06431
91.857	-3.42154	-1.29363	-3.24902	-0.21108
95.858	-3.37640	-1.32155	-3.11170	0.03767
99.854	-3.27460	-1.43148	-3.74095	1.41377
103.867	-3.05759	-1.48638	-3.57834	1.76969
107.858	-3.59782	-2.05530	-3.40699	1.95793
111.859	-3.33735	-1.40863	-3.69773	0.89130
115.855	-3.18472	-1.48011	-3.93594	0.55484
119.856	-3.23140	-1.38418	-2.65322	0.00576
123.858	-3.52835	-1.21936	-6.53480	0.02464
127.855	-3.17559	-1.24807	-4.44398	0.78139
131.861	-3.08731	-1.35142	-4.06406	1.44481
135.856	-3.29639	-1.30237	-4.18321	1.66938
139.854	-3.11178	-1.45841	-4.03438	1.48145
143.869	-3.09463	-1.56880	-3.52828	1.41122
147.863	-0.67218	-3.63658	-3.84275	-0.72598
151.857	-2.83717	-1.45821	-3.71323	-0.52375
155.859	-2.94089	-1.30780	-1.92771	-4.65083
159.857	-1.17696	-4.37719	-2.89215	-0.99439
163.858	-2.80087	-1.49325	-3.47979	-4.70429
167.855	3.02905	-4.39945	-6.14067	-1.14401
171.859	-2.38162	-1.40268	-3.44958	-1.30507
175.855	-2.82266	-1.46921	-3.65893	0.59839
179.857	-2.77889	-2.04219	-3.41333	-1.06414
183.852	-0.79220	-1.84630	-3.69677	-0.72653
187.859	-1.28212	-2.05090	-2.96151	0.06298
191.866	3.02380	-1.70032	-2.15115	3.03075
195.858	-1.18388	-1.33375	-1.37717	-0.05341
199.854	0.34876	0.46690	-0.25671	0.29294
203.852	-0.43075	-0.89412	-0.83530	0.04527
207.861	-1.59616	0.67702	-1.03039	-0.27985
211.857	-0.36070	0.33975	-1.11464	-0.04455
215.853	-0.66950	0.21100	-0.99459	-0.02663
219.858	0.22204	0.52087	-0.57922	-0.77886
223.856	0.41452	0.55669	-1.01705	0.09280
227.859	-0.52346	0.76329	-0.87066	-0.02184
231.852	-0.01715	0.58217	0.48510	-0.37669
235.858	-0.62208	0.78454	-0.44748	-0.07459
239.858	0.03604	0.81711	-0.56292	-0.13430
243.855	0.01018	0.63251	-0.64771	-0.09999
247.855	-0.24703	0.76510	-0.57791	-0.04922
251.855	-0.17558	0.68272	-0.41837	-0.13990
255.859	0.01482	0.79430	-0.19544	0.07383
259.855	0.24540	0.54887	-0.09185	0.08608
263.853	0.08972	0.16038	-0.62719	0.30595
267.859	0.13066	-0.40620	-0.58320	0.24035
271.861	0.28585	-0.30877	-1.07495	0.22072
275.863	0.28818	-0.63760	-1.49254	0.36302
279.860	0.50029	-1.22597	-0.52021	0.34673
283.887	0.49649	-1.64989	-0.99980	0.13409
287.855	0.80580	-0.99643	-1.30568	0.65522
291.851	0.89051	-1.20677	-0.73196	0.74306
295.857	3.45801	-6.02123	-0.80344	1.97468
299.852	0.74866	-1.33288	-1.25704	1.70108
303.854	4.09041	-4.94220	1.15895	1.12378
307.852	0.97298	-1.40357	-1.58735	0.31797
311.860	3.87030	-2.77441	-1.19502	1.98750
315.853	0.89756	-1.46389	-1.27328	1.01625
319.854	0.93763	-2.33186	-1.34782	0.59202
323.856	0.83709	-1.92314	-1.34872	0.75702
327.852	0.77585	0.03933	-1.35454	0.46320
331.859	0.11369	-1.48408	-1.45222	0.57967
335.855	0.22998	-1.72849	-1.00918	1.20475
339.857	-1.07128	-1.40628	-1.45750	0.92110
343.851	0.10289	-1.15913	-0.27111	0.92425
347.854	-0.48244	-0.75060	-0.56640	0.79190
351.855	-0.29878	-0.47040	-0.62881	1.09125
355.861	-0.47110	-0.72677	2.49268	0.99911
359.852	-0.07917	-0.62036	-0.76794	1.04336
363.853	-0.62245	-0.13835	0.55185	0.40129
367.855	-0.29607	-0.37516	1.30856	1.09446
371.853	-0.39105	-0.60931	-4.07589	0.05825
375.853	0.26781	-0.91287	-1.16034	1.04448
379.851	-1.19433	-3.09575	-4.10239	0.52105
383.854	0.22877	-0.22732	-2.44172	0.68967
387.852	-2.40228	0.08071	-3.46194	-0.73589
391.861	-2.56939	-0.05186	-1.84272	0.44240
395.856	1.68612	-0.69544	-2.33259	-0.09619
399.856	-1.53600	-0.56736	-2.65919	0.11359
403.854	-2.13299	-0.21929	-2.29131	0.01529
407.851	-2.12922	-0.51781	-2.19799	0.08045
411.855	-0.41172	-0.62226	-1.93132	0.05767
415.854	0.21378	0.07263	-2.70161	0.21399
419.855	-1.86099	0.27131	-1.59217	0.03977
423.848	-0.55103	0.18226	-1.61014	0.03142
427.855	-0.17047	0.54629	-1.47119	0.03408
431.852	-0.05418	-0.49873	-1.39612	0.06916
435.863	0.57570	0.49600	-1.16282	0.09664
439.857	1.06748	-0.56386	-1.07051	0.02542
443.853	0.70369	-0.24236	-1.75456	-0.11537
447.847	1.15332	-1.37804	-1.30928	0.07681
451.850	1.03880	-0.19876	-1.00442	-0.01851
455.853	0.92180	0.42039	-0.91105	0.09896
459.855	0.82667	-0.46609	-1.04511	3.01618
463.856	-2.44214	2.69158	-0.80416	0.02907
467.853	-1.15382	-0.60702	-1.14938	0.15711
471.850	-2.15130	-0.57086	-1.44401	0.22042
475.849	1.91526	-1.09575	-1.52444	0.26835
479.859	-0.32560	-1.18209	-0.93463	0.35917
483.851	0.53731	-1.14428	-0.71628	0.47052
487.854	-1.98073	-2.41671	1.44361	0.50138
491.850	-0.37799	-3.56643	-1.07106	0.30581
495.855	0.01549	-3.70392	-1.16873	0.51654
499.851	-0.13404	-3.67035	-1.29940	0.67746
503.852	-0.17070	-1.36708	-1.65495	0.14339
507.875	-0.03353	-1.12190	-1.53776	0.95288
511.853	0.72908	-1.38759	-1.54383	1.52684
515.849	0.50843	-1.37995	-1.21184	0.91146
519.855	0.36367	-2.14384	-1.57438	1.13299
523.853	0.38013	-1.57575	1.90381	0.50824
527.850	-0.02993	-1.05890	-0.27354	-0.51645
531.851	0.32967	-1.44221	1.33683	0.82940
535.847	0.28091	-2.00739	1.05438	1.22171
539.850	0.45299	-1.55376	-0.38037	1.44074
543.850	-0.15183	-1.93558	0.78930	1.00167
547.850	3.41278	-4.80407	-2.10441	-0.14835
551.852	0.42872	-2.38398	-0.14444	1.06635
555.852	-0.04092	-1.71108	-1.66438	1.43776
559.856	-0.59136	-1.58136	-0.51937	0.61310
563.853	-2.00842	1.33505	-0.50426	0.92537
567.849	1.31322	-1.35039	-1.99570	0.87402
571.848	1.39244	-1.90901	-1.34991	0.68474
575.846	1.90720	-2.53848	-0.90800	0.50627
579.845	0.39278	-1.52591	-1.14032	0.40620
583.860	1.30149	-0.97168	-5.36622	0.19743
587.850	-0.71250	-1.78557	-1.64613	0.58414
591.848	-0.55163	-0.83389	-1.79155	0.57677
595.845	-0.38082	-1.09768	-0.99057	0.49456
599.851	0.02529	-0.63942	0.05229	0.68645
603.856	-0.63216	-0.65307	-1.67385	0.74181
607.848	1.31387	-0.63441	-1.18768	0.97418
611.848	1.42846	-0.53971	-1.59259	1.48103
615.848	-0.31595	-0.69556	-0.49552	0.89076
619.850	-0.38978	-0.13441	-1.52178	2.50420
623.847	-0.74119	-0.20973	-1.47067	0.83333
627.851	-0.75464	-0.51114	-1.39532	1.26551
631.849	-0.56850	-0.60992	0.27542	0.81944
635.849	-1.00519	-0.38102	-1.13918	1.20430
639.850	-0.47976	-0.12799	-1.24806	0.07386
643.853	-0.71355	-0.53977	-1.14779	0.63516
647.851	1.98474	-4.49361	-1.16101	1.02061
651.851	4.16993	-2.44149	-1.13315	0.97765
655.849	0.46644	-2.07113	-3.75679	-0.69740
659.847	-1.32981	-1.87987	-0.39514	0.75953
663.852	-0.14928	-3.05877	-0.82183	0.87868
667.849	-0.17422	-0.69395	-0.94879	1.18843
671.847	-0.87525	-0.63127	-1.19862	0.76286
675.850	-0.66955	0.23707	-1.45237	-0.07857
679.848	0.36146	-1.70143	-1.09348	0.23791
683.846	0.59771	-3.78685	-0.31141	0.45410
687.854	0.76878	-2.53068	-3.53943	-0.94305
691.850	3.93673	-3.12432	-1.20115	0.67937
695.845	3.64943	-3.29324	0.41274	-0.25179
699.854	0.15814	-3.60892	-0.05403	-0.46859
703.848	-0.11205	-2.66245	-1.64598	-0.55384
707.846	-0.47349	-2.03703	-1.31751	-0.31557
711.851	0.02906	-1.89587	-1.75500	-0.08934
715.880	2.27691	-1.28449	-1.39416	0.72455
719.849	-0.42174	-3.38316	-1.51013	0.32121
723.850	-0.42316	-2.04037	-1.74980	0.15146
727.850	0.23276	-2.69455	-1.45083	-0.51340
731.847	-0.54659	-2.00412	-1.81329	-2.16476
735.851	-0.87044	-3.21486	-1.84094	0.28951
739.847	-0.70682	-2.45817	-1.07026	0.72719
743.846	-0.82863	-0.58226	-1.39597	-0.20812
747.848	0.60307	-2.87647	-1.74360	-0.34797
751.847	-0.45105	-0.83378	-1.65173	-0.36483
755.844	0.63350	-3.21159	-1.63824	-2.91428
759.843	2.26564	-2.08820	-0.94810	-1.24964
763.844	0.75903	-2.17543	-0.95760	-2.09996
767.853	-1.26860	-3.20541	-1.44354	-0.36879
771.852	-1.52471	-4.26057	-0.93165	-1.38427
775.850	-1.61986	-3.93279	-0.87781	-1.02691
779.845	-0.18844	-2.83371	-1.07495	-0.56369
783.846	-0.12272	-3.22687	-1.26421	-1.49884
787.842	0.26433	-3.15463	-0.99712	2.26792
791.848	1.20355	-2.73205	-0.46247	0.70238
795.845	0.99680	-1.21352	0.21147	-0.50301
799.844	2.07586	-1.63490	0.62203	-0.37415
803.848	-1.42965	-1.93975	-1.00538	0.55391
807.844	-0.41467	-2.71113	-4.60133	-0.38600
811.853	0.95800	0.71480	-6.88998	2.18051
815.846	3.05551	-1.23591	-2.42616	1.62768
819.848	1.64759	-1.13504	-2.51886	13.03135
823.846	-1.78972	5.99428	NaN	NaN
827.844	NaN	NaN	NaN	NaN
831.843	NaN	NaN	NaN	NaN
835.858	NaN	NaN	NaN	NaN
839.888	NaN	NaN	NaN	NaN
843.855	NaN	NaN	NaN	NaN
847.869	NaN	NaN	NaN	NaN
851.862	NaN	NaN	NaN	NaN
855.855	NaN	NaN	NaN	NaN
859.851	NaN	NaN	NaN	NaN
863.846	NaN	NaN	NaN	NaN
868.521	NaN	NaN	NaN	NaN
872.382	NaN	NaN	NaN	NaN
876.239	NaN	NaN	NaN	NaN
879.851	NaN	NaN	NaN	NaN
883.849	NaN	NaN	NaN	NaN
887.846	NaN	NaN	NaN	NaN
891.855	NaN	NaN	NaN	NaN
895.857	NaN	NaN	NaN	NaN
899.849	NaN	NaN	NaN	NaN
903.844	NaN	NaN	NaN	NaN
907.850	NaN	NaN	NaN	NaN
911.875	NaN	NaN	7.34665	11.66207
915.842	NaN	NaN	9.84472	11.59300
919.846	7.89291	14.67617	14.09005	13.15852
923.844	NaN	NaN	NaN	NaN
927.716	NaN	NaN	NaN	NaN
931.716	NaN	NaN	7.47104	13.83569
935.847	4.09648	12.52440	7.73263	12.52868
939.729	-0.12545	12.30710	12.36667	13.44784
943.720	5.36120	7.62096	8.21429	12.00830
947.718	5.80248	12.59143	7.82601	11.44328
951.717	15.33010	4.00225	7.28393	10.61156
955.720	6.26064	8.08175	7.54579	10.99693
959.720	7.41660	7.24007	4.66196	10.69833
963.717	5.63051	7.47740	5.78013	10.39886
967.715	5.86936	7.27485	4.57021	8.81298
971.717	6.21953	7.50308	4.16655	8.36241
975.720	6.80440	8.62172	5.37441	8.45282
979.718	7.57120	7.28298	4.86214	8.59072
983.724	7.39183	7.30946	4.76063	9.63769
987.721	6.08512	4.55348	4.73530	8.46093
991.715	7.82489	4.58493	5.10632	8.57366
995.721	7.26312	4.47729	4.84859	8.76163
999.716	6.54210	7.51387	4.90794	8.82429
1003.717	6.06144	6.99622	8.23537	7.54443
1007.721	5.15638	7.00202	8.63651	6.98599
1011.719	4.62044	6.65395	5.00228	8.69801
1015.715	6.55927	6.73888	5.11662	8.66034
1019.716	6.47975	7.01637	5.16403	8.92125
1023.722	6.62224	7.53870	5.23347	8.87383
1027.719	6.69554	7.23031	5.19854	8.83409
1031.714	6.81302	6.97941	5.25655	8.79656
1035.719	6.77998	7.20813	5.33308	8.82552
1039.722	6.84632	7.12587	5.21616	8.79871
1043.716	6.57989	6.74646	5.31566	8.77676
1047.715	6.71948	6.83414	5.40680	8.71102
1051.716	6.69774	6.33083	5.37138	8.66733
1055.717	6.95413	6.32505	5.36331	8.60696
1059.713	6.89424	6.84546	5.44621	8.62186
1063.725	7.04836	5.89132	5.55049	8.49436
1067.723	6.63565	5.40891	5.57080	8.44932
1071.720	6.40628	5.43680	5.49886	8.48692
1075.718	6.37621	5.51097	5.38646	8.44821
1079.717	6.50957	5.66961	5.41396	8.43103
1083.725	4.71903	5.50442	5.55344	8.37422
1087.716	6.24972	5.35955	5.46185	8.32859
1091.715	7.65200	5.51736	5.34297	8.37704
1095.714	3.92319	4.13769	5.36690	8.41601
1099.715	8.45871	5.30042	5.35487	8.44876
1103.718	9.00445	5.29323	5.23984	8.44411
1107.723	9.75203	5.20785	5.17233	8.50814
1111.715	9.95326	5.33761	5.15495	8.58180
1115.721	9.86177	5.60122	5.21166	8.68242
1119.718	7.35656	5.47232	5.22207	8.79012
1123.715	7.51293	5.86488	5.28913	8.97520
1127.713	7.38671	5.95433	5.30518	9.12513
1131.718	7.52583	6.17238	8.19970	8.44507
1135.716	7.47641	6.65873	5.27803	8.75336
1139.765	7.40970	6.35017	5.28072	8.87112
1143.719	6.38719	6.56891	5.30299	8.94120
1147.721	7.29584	6.71154	5.25050	8.93960
1151.717	7.29518	6.66552	5.33640	9.03739
1155.717	7.12258	6.42981	5.22163	8.94438
1159.715	6.12852	5.00265	5.00615	8.67220
1163.715	6.19079	5.65551	4.50140	8.58349
1167.712	4.75413	5.87143	4.58974	8.08124
1171.717	4.26943	0.85503	4.76998	7.82138
1175.715	3.79863	0.53748	4.62313	7.71634
1179.714	3.66041	0.15814	4.48209	7.46320
1183.712	3.89234	0.33997	4.48004	7.44622
1187.716	3.95997	5.63010	4.42804	7.46301
1191.718	4.36932	5.42541	4.38294	7.36527
1195.717	4.23811	5.16909	4.33698	7.29888
1199.712	4.13749	5.19984	4.35338	7.28805
1203.716	4.17870	5.26126	4.34537	7.25102
1207.717	4.12727	5.23619	4.34961	7.18909
1211.713	4.52145	5.13479	4.34687	7.08114
1215.716	4.58977	5.15462	4.33377	6.96239
1219.714	4.44573	5.33680	4.31667	6.92771
1223.714	5.72890	5.09882	4.27533	6.89006
1227.711	5.36134	5.34020	4.22599	6.72202
1231.721	5.26873	5.24438	4.18109	6.63601
1235.715	4.73816	5.28360	4.17973	6.57894
1239.711	4.42400	5.14436	4.17843	6.64464
1243.716	4.24265	5.08907	4.15529	6.62282
1247.713	4.09757	5.22028	4.16317	6.61053
1251.715	4.03295	5.39541	4.19114	6.59374
1255.717	3.95165	5.54976	4.20805	6.63260
1259.713	4.05643	5.79566	4.21301	6.67537
1263.713	3.97264	6.01814	4.18176	6.78597
1267.709	4.15243	5.43988	4.19743	6.83412
1271.714	4.18647	5.52552	4.18479	6.86139
1275.719	4.15087	4.99080	4.21047	6.97212
1279.718	4.06053	4.56176	4.22846	7.02184
1283.713	4.05720	4.68210	4.21503	7.15828
1287.713	4.06705	3.58943	4.20647	7.23117
1291.711	4.12764	3.61426	4.04762	7.24424
1295.715	4.04354	3.93232	3.99245	7.33448
1299.713	4.04184	4.32731	4.00047	7.36847
1303.714	3.96283	3.66015	3.95009	7.41982
1307.710	3.82250	3.83138	3.91961	7.44954
1311.716	3.77036	3.80897	3.89063	7.48050
1315.718	3.76426	3.70200	3.94540	7.50017
1319.716	3.80325	3.72627	3.88624	7.54502
1323.711	3.82610	3.69986	3.95535	7.57008
1327.714	3.90674	3.58395	3.98225	7.51848
1331.713	4.29224	3.42914	3.91499	7.51170
1335.713	4.46046	4.03597	3.95856	7.53273
1339.714	4.60537	3.79977	3.93322	7.52496
1343.715	4.52548	4.44814	3.98837	7.41731
1347.747	5.04235	4.28404	3.99045	7.43994
1351.708	5.05191	4.62373	3.98709	7.35935
1355.718	4.92750	5.11256	3.99410	7.34961
1359.715	5.26738	5.22017	4.00845	7.14845
1363.712	5.37667	5.16974	4.03006	7.03764
1367.721	5.12198	5.39657	4.11750	6.98483
1371.710	4.78996	5.62211	3.98820	6.91014
1375.710	4.63097	5.38071	3.98771	6.95956
1379.709	4.91533	5.53669	4.04796	6.84805
1383.714	4.55223	5.48769	4.16398	6.82576
1387.711	5.47208	5.52828	4.07804	6.79232
1391.711	5.16253	5.60351	4.10550	6.66038
1395.707	5.36412	5.79899	4.18235	6.57938
1399.715	5.64262	5.63130	4.11621	6.58517
1403.713	5.30215	5.57928	4.09177	6.58458
1407.709	5.02974	5.55307	4.14359	6.69823
1411.710	4.91797	5.34056	4.11589	6.68406
1415.711	4.99714	5.42533	4.22431	6.66718
1419.711	5.20455	5.42683	4.22382	6.65098
1423.708	4.94603	5.56547	4.29729	6.67496
1427.712	5.21378	5.38677	4.14078	6.62578
1431.710	5.25584	5.46658	4.24026	6.63546
1435.711	5.43054	5.35862	4.29374	6.64713
1439.717	4.61778	5.32836	4.23712	6.76714
1443.709	4.48720	5.32773	4.27422	6.97040
1447.710	4.50042	5.30796	4.19309	7.08533
1451.707	4.36464	5.50578	4.11441	7.09042
1455.710	4.39035	5.70287	4.13735	7.14163
1459.711	5.68047	5.90087	4.15680	7.12001
1463.709	5.54331	5.80628	4.21321	7.16916
1467.712	5.18921	6.00299	4.06399	7.47400
1471.711	4.31183	5.59765	4.10900	7.35806
1475.709	4.92558	5.43917	4.13322	7.40632
1479.716	4.48493	5.42464	4.03712	7.44300
1483.714	4.49817	5.43903	4.03137	7.42402
1487.707	5.08722	5.23304	4.00601	7.41667
1491.711	5.55624	4.90061	4.15882	7.29821
1495.709	4.82979	4.90847	4.13238	7.24661
1499.710	4.56528	4.80145	4.10330	7.26904
1503.707	4.47753	4.93211	4.10337	7.27218
1507.711	4.32474	5.25786	4.01030	7.21744
1511.711	4.55739	5.14271	4.11446	7.45265
1515.710	4.53384	5.19018	3.99662	8.18510
1519.705	5.32771	5.78251	3.89083	8.08586
1523.714	4.64958	5.16568	4.02418	7.41173
1527.710	4.93814	5.08898	4.10977	7.19622
1531.708	5.65078	6.59623	3.94327	7.00333
1535.711	4.31032	5.79259	3.87961	7.52039
1539.710	6.45076	5.09715	3.98353	7.94002
1543.713	4.20829	4.79121	3.97983	7.05958
1547.710	3.60521	4.01444	3.77177	8.00996
1551.708	4.30519	4.67032	3.18096	6.91765
1555.709	3.33804	3.87654	2.22897	5.90239
1559.710	3.67166	1.37591	2.11296	4.35221
1563.714	2.71486	1.32730	1.62187	4.26569
1567.736	2.03313	-0.61197	0.48651	3.75785
1571.709	0.25488	-0.41462	0.61759	1.29725
1575.707	1.98782	-2.65000	-2.98512	1.21424
1579.709	0.77950	-1.48352	0.48532	-0.27134
1583.709	4.20933	0.96401	-0.07336	-0.00162
1587.708	1.16225	-4.29451	-1.49073	1.95676
1591.704	0.55441	-2.76889	-0.86930	-2.42385
1595.705	-0.53235	-3.07968	-2.38871	-3.47460
1599.705	0.18112	-4.47368	-1.91754	-2.54833
1603.709	0.02459	-4.50457	-2.04552	-2.08828
1607.714	1.80613	-6.52116	-2.39220	-2.41203
1611.703	1.59879	-5.74863	-2.19851	-2.29109
1615.705	0.41025	-6.56360	-2.16409	-2.35639
1619.709	-1.57622	-6.15375	-2.30895	-2.37091
1623.704	-1.26433	-6.18588	-2.28953	-2.37181
1627.703	-0.39978	-5.65457	-2.28043	-2.50253
1631.704	-1.01923	-5.63558	-2.41834	-2.57581
1635.704	-3.09886	-7.06469	-2.27389	-2.78369
1639.703	0.25870	-6.00258	-2.19303	-2.69656
1643.705	1.80702	-5.37722	-2.15319	-2.95737
1647.711	-1.25590	-5.24850	-2.32887	-2.94939
1651.708	0.43581	-4.69978	-2.21229	-3.21626
1655.704	-0.20162	-5.04962	-2.02351	-4.27333
1659.706	-1.66946	-5.13688	-2.24143	-3.97549
1663.708	0.01760	-4.66444	-2.00443	-3.18398
1667.703	2.96087	-3.21921	-2.39292	-3.40393
1671.704	0.67603	-3.41879	-2.05658	-2.42433
1675.707	-0.24860	-2.20061	-2.20389	-1.68274
1679.705	0.09235	-3.53697	-1.93237	-1.81491
1683.745	-1.48458	-4.45741	-2.00066	-2.03375
1687.723	-0.60240	-4.39022	-2.08944	-2.12854
1691.710	3.06221	-4.24659	-2.07834	-2.66232
1695.706	-0.27607	-3.01152	-2.05727	-2.64766
1699.708	-1.16773	-3.51937	-2.47682	-3.45575
1703.704	-0.35119	-3.76642	-2.68866	-2.94668
1707.706	-0.82890	-3.66342	-2.04934	-3.00658
1711.707	-0.42152	-3.07659	-2.16853	-3.02891
1715.703	2.66857	-3.42134	-2.37335	-2.82847
1719.709	-0.14613	-3.81690	-2.02574	-3.11467
1723.703	-0.57788	-4.52622	-2.25850	-1.48132
1727.704	-0.29955	-5.47125	-2.50100	-2.93609
1731.708	-0.30823	-5.59842	-2.32962	-3.11236
1735.705	-0.50547	-5.01190	-2.20877	-3.25166
1739.703	4.57287	-5.16634	-2.33715	-2.98644
1743.712	-0.30161	-4.76841	-2.15787	-3.12235
1747.706	-0.12669	-3.93047	-2.06181	-2.69833
1751.705	-0.39224	-2.89513	-2.14223	-2.48408
1755.707	-0.25957	-3.93647	-2.23437	-2.61499
1759.702	-0.37737	-4.41731	-2.18823	-3.05720
1763.704	-0.53761	-4.31697	-2.14721	-3.04247
1767.704	0.51255	-4.09117	0.40169	-3.14022
1771.712	-0.16181	-6.40529	-0.63158	-2.82820
1775.741	0.93172	-5.24266	-1.99652	-3.61192
1779.582	1.63043	-4.47636	-2.07251	-3.34167
1783.613	2.09348	-4.04789	-1.99297	-3.09861
1787.764	0.82081	-4.20347	-2.05147	-3.36621
1791.589	-0.81240	-4.21065	-2.17264	-3.23414
1795.580	-0.74444	-3.34308	-2.01025	-3.41305
1799.580	-0.98358	-3.07193	-1.87138	-3.40875
1803.575	-1.09713	-1.99300	-1.84302	-3.32235
1807.576	-1.01283	-3.80309	-1.81644	-3.40970
1811.578	0.37643	-2.97553	-1.76770	-3.23735
1815.575	-0.92247	-3.67595	-1.82490	-3.33454
1819.583	-0.16682	-3.04229	-1.81778	-3.21822
1823.585	-0.12655	-3.46292	-1.85098	-3.14448
1827.579	0.00603	-3.54908	-1.87545	-3.15008
1831.621	-0.18765	-3.36860	-1.93303	-2.97846
1835.592	0.18196	-3.61926	-3.94127	-2.79312
1839.581	-0.73399	-3.77705	-1.94888	-2.90046
1843.577	1.72708	-4.20261	-2.02200	-2.76574
1847.580	-0.19157	-3.86926	-2.08947	-2.82855
1851.572	-0.35538	-3.88929	-2.07090	-2.84025
1855.582	-0.32243	-3.55133	-2.12867	-2.91296
1859.586	-0.31536	-3.48873	-2.17507	-2.88893
1863.584	-0.10878	-3.61363	-2.17636	-2.88013
1867.574	-0.29687	-3.52990	-2.16441	-3.02798
1871.575	0.05172	-3.46647	-2.14506	-3.07021
1875.577	0.06465	-2.89489	-2.12146	-3.05924
1879.580	0.17826	-3.32105	-2.12025	-3.11104
1883.572	-0.04904	-2.95805	-2.05529	-3.09074
1887.574	-0.72263	-1.98728	-2.04426	-3.15068
1891.583	-0.59052	-1.98107	-2.05075	-3.16827
1895.579	-0.21571	-2.01407	-2.00980	-3.16912
1899.576	0.21579	-2.96494	-2.20277	-2.55238
1903.587	-1.14245	-1.57279	-1.93467	-3.08057
1907.579	-0.20435	-1.65577	-2.08114	-2.72538
1911.578	0.17144	-2.59602	-1.86362	-2.85995
1915.576	-0.39065	-2.46959	-1.79053	-2.93453
1919.577	0.16953	-4.02362	-1.94062	-3.01520
1923.576	0.21658	-5.34624	-2.33026	-2.87505
1927.577	0.65905	-5.16321	-1.97374	-2.91944
1931.575	2.72025	-5.21603	-1.82616	-2.82376
1935.580	-0.15687	-6.23186	-1.92505	-2.78798
1939.577	-0.04043	-5.59507	-1.76477	-2.67356
1943.601	-0.57982	-5.85652	-1.75119	-2.68977
1947.574	-0.25153	-5.99934	-1.90061	-2.50287
1951.575	-0.49758	-5.21215	-1.93244	-2.59830
1955.578	-0.42926	-3.44367	-1.83466	-2.61187
1959.580	0.32980	-5.00440	-1.97200	-2.48082
1963.576	0.33692	-5.97553	-1.86957	-2.46280
1967.576	0.38065	-4.94244	-1.95554	-2.54034
1971.574	0.31682	-3.26148	-2.69341	-1.04076
1975.581	4.14579	-2.48931	-2.62655	-3.83699
1979.575	6.63585	-1.26394	-5.15601	-2.40922
1983.576	-6.10058	0.12903	-12.15346	12.11931
1987.579	NaN	NaN	19.97950	13.72350
1991.576	NaN	NaN	9.86536	14.55654
1995.576	NaN	NaN	NaN	NaN
1999.576	NaN	NaN	NaN	NaN
2003.576	NaN	NaN	NaN	NaN
2007.577	NaN	NaN	NaN	NaN
2011.577	NaN	NaN	NaN	NaN
2015.577	NaN	NaN	NaN	NaN
2019.575	NaN	NaN	NaN	NaN
2024.161	NaN	NaN	NaN	NaN
2027.814	NaN	NaN	NaN	NaN
2031.576	NaN	NaN	NaN	NaN
2035.584	NaN	NaN	NaN	NaN
2039.591	NaN	NaN	NaN	NaN
2043.578	NaN	NaN	NaN	NaN
2047.575	NaN	NaN	NaN	NaN
2051.575	NaN	NaN	NaN	NaN
2055.574	NaN	NaN	NaN	NaN
2059.692	NaN	NaN	NaN	NaN
2063.584	NaN	NaN	NaN	NaN
2067.799	NaN	NaN	NaN	NaN
2071.710	NaN	NaN	NaN	NaN
2075.590	NaN	NaN	22.80036	11.76131
2079.576	4.12350	13.18574	22.98596	12.59993
2083.574	3.00648	12.01322	-4.46176	8.77068
2087.578	2.77280	5.60668	NaN	NaN
2091.603	2.82692	4.50996	-0.14171	-6.58653
2095.574	3.11554	-6.19074	-2.42074	4.05143
2099.576	0.90748	-6.18057	-0.76359	4.56684
2103.576	-1.91767	-5.63796	-5.91359	4.09971
2107.578	-4.02406	-4.20805	-6.77590	-2.51795
2111.575	-4.42242	-5.71263	-7.10431	-5.25232
2115.577	-5.36752	-6.13784	-9.11380	-5.95389
2119.574	-9.51423	-4.69536	-6.47894	-3.26351
2123.572	-6.15409	-7.33902	-6.96079	-5.79119
2127.572	-6.81542	-6.89970	-6.44569	-5.49618
2131.578	-5.60956	-7.30718	-6.97922	-5.22151
2135.573	-4.76441	-5.79780	-6.08571	-4.91483
2139.574	-5.59796	-6.84823	-7.32314	-4.86421
2143.571	-4.08908	-5.23511	-11.82202	-5.11678
2147.576	-3.15372	-7.40632	-7.17661	-4.45401
2151.577	-1.56732	-8.51932	-9.03403	-6.09828
2155.601	-3.59399	-5.91826	-7.46916	-4.92466
2159.600	-4.48863	-4.20975	-6.97113	-4.23397
2163.580	-5.01573	-4.41513	-7.27497	-5.29682
2167.571	-6.22203	-6.87008	-8.84806	-4.45577
2171.570	-5.72834	-5.06684	-7.11403	-3.83789
2175.569	-4.82358	-5.48739	-8.55828	-6.90282
2179.576	-5.48661	-6.74191	-9.37240	-6.38465
2183.571	-6.37606	-5.69559	-6.52505	-4.08086
2187.568	-5.84647	-5.19634	-6.83746	-4.76652
2191.565	-3.50553	-6.31157	-4.49635	-7.37826
2195.579	-0.91242	-9.63817	-7.71160	-7.40596
2199.575	-2.79134	-9.05608	-7.76991	-2.88956
2203.570	-5.65440	-6.52634	-6.74339	-3.13485
2207.566	-6.69165	-6.21968	-6.43550	-4.29145
2211.575	-6.28839	-7.17344	-7.15320	-6.60167
2215.574	-6.33461	-5.08426	-7.11794	-6.22132
2219.570	-6.72504	-4.75819	-3.82857	-5.90171
2223.575	-5.76551	-2.81672	-4.74535	-5.76928
2227.588	-2.96686	-2.44813	-5.91604	-6.09283
2231.573	-0.91125	-2.27668	-7.23135	-6.06886
2235.574	-1.83276	-5.04390	-6.75539	-6.04233
2239.573	-6.19255	-3.98024	-7.43110	-5.88465
2243.570	-7.08605	-5.22504	-7.20836	-4.81606
2247.571	-6.89475	-5.27656	-5.88105	-5.93944
2251.574	-5.88338	-3.98460	-6.30620	-5.61719
2255.572	-6.58513	-5.91463	-6.06397	-5.82882
2259.570	-5.88572	-5.28111	-4.64056	-4.49134
2263.566	-5.51882	-5.36806	-5.45248	-5.30018
2267.571	-4.89178	-5.81566	-10.02172	-5.55918
2271.573	-2.07142	-4.85500	-7.04059	-3.85679
2275.579	NaN	NaN	-6.48867	-5.63312
2279.574	NaN	NaN	NaN	NaN
2283.571	NaN	NaN	NaN	NaN
2287.570	NaN	NaN	NaN	NaN
2291.574	-1.02771	-2.51019	-6.99250	-3.53786
2295.569	-0.57828	-2.62369	-9.90563	-4.36483
2299.571	1.42625	-5.02105	-10.71017	-5.67769
2303.574	1.55211	-2.60693	-6.57514	-2.31645
2307.571	0.82908	-4.50220	-4.96130	-4.53734
2311.572	-5.10391	-5.74105	-6.94702	-4.58417
2315.569	-5.29110	-5.04450	-6.70528	-5.03253
2319.578	-5.21439	-5.10434	-7.49034	-4.91445
2323.571	-5.07333	-3.68703	-5.64388	-4.11125
2327.568	-5.06587	-4.58615	-4.48137	-4.67680
2331.564	-5.05082	-2.84891	-9.12563	-2.56444
2335.572	-5.14286	-4.79803	-8.42389	-2.87772
2339.569	-7.70662	-4.75318	-9.25598	-4.76422
2343.572	-5.16945	-4.41767	-3.75150	-3.73822
2347.573	-7.21445	-4.52450	-5.49812	-5.24779
2351.567	-5.57291	-4.71907	-6.29448	-4.93046
2355.565	-5.12262	-4.93593	-6.17874	-6.40374
2359.577	-1.58133	-6.91633	-6.63825	-4.97181
2363.583	-5.15148	-3.78116	-4.30031	-2.89185
2367.592	-5.23376	-4.23984	-6.41868	-4.18860
2371.569	-5.17400	-5.54570	-8.00898	-2.92731
2375.567	-4.85219	-4.33830	-6.57196	-2.19895
2379.570	1.75567	-5.80794	-6.05854	-2.58596
2383.570	-4.37517	-4.00534	-3.38919	-3.59500
2387.568	-5.19482	-5.00006	-6.54884	-3.04297
2391.568	-3.91200	-4.29779	-6.65294	-3.54459
2395.569	-4.04488	-5.11930	-8.23000	-3.74520
2399.567	-5.06944	-4.85323	-9.09386	-4.77056
2403.575	-4.68979	-4.90979	-4.65126	-4.02649
2407.572	-5.64604	-4.40703	-6.35287	-4.34592
2411.570	-3.52237	-4.73689	-9.59160	-5.96812
2415.565	-2.69804	-4.66551	-9.74080	-5.75334
2419.568	-5.13535	-6.49685	-6.16628	-3.90065
2423.565	-5.19300	-6.94725	-5.22379	-3.94272
2427.565	-5.06033	-5.74347	-4.13332	-4.02975
2431.572	-5.19207	-4.55854	-4.54856	-5.33516
2435.569	-6.13039	-4.83630	-7.21596	-3.82786
2439.568	-6.66966	-6.11791	-8.93660	-0.69488
2443.573	-1.38374	-8.26430	-7.35227	-0.80798
2447.571	-9.41047	-6.42514	-7.85823	-0.22383
2451.563	-7.18674	-6.32033	-8.00384	-0.37870
2455.570	-7.39520	-6.31561	-7.05767	-0.26555
2459.569	-5.25284	-5.01714	-6.53566	-1.28515
2463.564	-6.25193	-6.14742	-7.28725	-0.92601
2467.570	-6.64611	-5.34778	-4.79270	-3.24943
2471.567	-5.56827	-5.04865	-7.00744	-2.88428
2475.569	-5.91143	-4.76947	-7.08976	-0.41757
2479.563	-6.13073	-5.70821	-7.36821	-1.41519
2483.575	-7.60000	-6.14282	-7.23562	-2.28955
2487.587	-6.83506	-6.29911	-6.46640	-3.23738
2491.564	-5.00667	-6.62701	-4.12019	-4.29495
2495.566	-7.16801	-4.95000	-5.00883	-1.49195
2499.574	-7.19593	-2.42009	-7.11188	-2.01678
2503.571	-3.68201	-4.66863	-7.19752	2.77476
2507.567	-1.66891	-5.56100	-7.31181	-1.85254
2511.565	-0.21078	-6.84926	-14.06875	-5.38679
2515.564	1.71394	-6.97515	-14.94581	-4.22558
2519.569	1.63970	-3.96239	-1.95482	-5.68058
2523.569	0.88049	-7.83056	-1.97364	-2.86881
2527.576	1.89855	5.89982	NaN	NaN
2531.575	1.46244	11.66715	NaN	NaN
2535.566	NaN	NaN	NaN	NaN
2539.565	NaN	NaN	NaN	NaN
2543.570	NaN	NaN	NaN	NaN
2547.564	NaN	NaN	NaN	NaN
2551.563	NaN	NaN	NaN	NaN
2555.566	NaN	NaN	NaN	NaN
2559.571	NaN	NaN	NaN	NaN
2563.593	NaN	NaN	NaN	NaN
2567.888	NaN	NaN	NaN	NaN
2571.577	NaN	NaN	NaN	NaN
2575.569	NaN	NaN	NaN	NaN
2579.568	NaN	NaN	NaN	NaN
2583.567	NaN	NaN	NaN	NaN
2587.569	NaN	NaN	NaN	NaN
2591.566	NaN	NaN	NaN	NaN
2595.567	NaN	NaN	NaN	NaN
2599.567	NaN	NaN	NaN	NaN
2603.570	NaN	NaN	NaN	NaN
2607.566	NaN	NaN	NaN	NaN
2611.571	NaN	NaN	NaN	NaN
2615.573	NaN	NaN	NaN	NaN
2619.569	NaN	NaN	NaN	NaN
2623.582	NaN	NaN	NaN	NaN
2627.629	NaN	NaN	NaN	NaN
2631.711	NaN	NaN	NaN	NaN
2636.149	NaN	NaN	NaN	NaN
2639.825	NaN	NaN	NaN	NaN
2644.019	NaN	NaN	NaN	NaN
2648.165	NaN	NaN	NaN	NaN
2652.320	NaN	NaN	NaN	NaN
2655.890	NaN	NaN	NaN	NaN
2660.054	NaN	NaN	NaN	NaN
2663.751	NaN	NaN	NaN	NaN
2667.553	NaN	NaN	NaN	NaN
2671.437	NaN	NaN	NaN	NaN
2675.455	NaN	NaN	NaN	NaN
2679.450	NaN	NaN	NaN	NaN
2683.629	-7.56759	-2.82110	NaN	NaN
2687.444	-3.03175	-13.21749	NaN	NaN
2691.440	-3.73275	-13.59768	NaN	NaN
2695.439	-19.99372	-12.13955	NaN	NaN
2699.442	-19.99372	-12.13875	-2.18389	14.88345
2703.444	-19.99372	-12.13761	4.92366	12.53039
2707.448	-19.99372	-12.13616	3.44599	9.21870
2711.438	-19.99372	-12.13442	0.53682	8.84662
2715.441	3.41389	11.52259	-0.63086	6.59831
2719.440	5.24302	8.92140	0.14923	8.82172
2723.440	-19.99372	-12.14437	0.16248	8.86424
2727.442	-19.99372	-12.13364	-2.86391	6.59701
2731.438	5.71426	7.99982	5.96628	9.80165
2735.439	4.89602	8.38094	-2.83687	10.16894
2739.448	5.89775	6.70995	-2.07859	8.47040
2743.440	5.40412	7.72498	-2.17403	6.41604
2747.438	5.62490	8.72082	8.44307	13.33018
2751.436	5.49141	7.75785	3.68678	10.23319
2755.441	5.99706	8.07196	3.90439	9.88723
2759.438	5.32961	11.23107	3.57634	8.96256
2763.441	6.10347	7.64926	4.17137	10.11167
2767.435	5.09478	8.15333	5.11391	9.29279
2771.437	4.87512	8.36819	4.82488	10.14854
2775.444	5.62021	8.62941	5.05415	10.05713
2779.439	5.00283	7.11490	4.63501	10.13970
2783.439	5.13392	8.24820	4.84299	9.13323
2787.435	5.12120	8.44005	4.84083	10.09761
2791.439	6.12210	8.38434	4.83166	10.31649
2795.437	4.85871	6.15323	4.84033	9.33686
2799.435	5.11004	7.11461	4.79652	9.81681
2803.435	4.62808	6.63890	4.74402	9.81026
2807.441	4.97571	8.12045	4.76847	9.11294
2811.440	5.17811	7.25666	4.82092	9.88074
2815.435	5.34877	9.36896	4.92435	9.87695
2819.436	5.30658	6.27426	4.39683	9.76693
2823.444	5.08463	6.14460	4.61696	9.91407
2827.438	5.17725	6.10315	4.69527	9.75827
2831.455	5.09968	6.05252	4.66433	9.95544
2835.445	5.15421	6.56686	4.31884	9.86985
2839.445	5.28490	7.17631	4.22587	9.78581
2843.435	5.61510	7.39247	4.19417	9.86382
2847.438	5.50663	7.06417	4.34221	9.91080
2851.438	5.57589	7.18131	4.24416	9.96674
2855.437	5.64412	7.66203	4.12646	10.10111
2859.434	5.71151	7.62782	4.30840	9.63325
2863.445	5.48054	7.37857	4.34603	9.78100
2867.442	6.69698	7.51365	4.25652	10.15676
2871.438	5.68160	6.69896	4.20634	10.33612
2875.434	5.77863	6.06491	4.04320	10.51499
2879.439	5.57967	6.07374	4.16988	10.83628
2883.435	5.55669	5.99204	4.26585	9.71002
2887.436	5.86592	6.21467	4.16277	9.26119
2891.434	4.81889	6.20349	4.33014	9.91886
2895.439	5.20565	6.49779	4.02910	9.99981
2899.440	5.44633	6.51969	4.05811	10.08775
2903.435	6.29528	6.28236	4.11034	10.15413
2907.439	4.80835	6.25744	4.13915	10.29443
2911.436	4.57253	6.39048	4.17606	10.47590
2915.440	4.70116	6.68349	3.92907	10.45807
2919.436	5.37647	6.63753	4.02927	10.73491
2923.434	5.94192	6.65949	3.90444	10.25083
2927.432	5.86725	6.52041	4.03796	10.19652
2931.437	4.68336	6.60143	3.96195	10.29085
2935.436	4.19533	6.39135	4.23764	10.32269
2939.432	4.76438	6.58063	4.12342	10.36162
2943.440	5.35876	6.28847	4.05419	10.47013
2947.443	5.91305	6.33269	4.01139	10.56951
2951.443	5.86349	5.97169	3.98304	10.38154
2955.431	5.93925	5.31412	4.00650	10.46704
2959.436	5.17186	6.66182	4.16877	10.76977
2963.438	4.17820	8.74185	4.09510	10.65596
2967.432	4.96007	6.95261	4.07006	10.82558
2971.481	5.58592	6.24710	3.99178	10.56315
2975.445	5.86745	5.73214	4.12416	7.96032
2979.434	6.74523	5.81404	4.03806	9.67050
2983.431	7.29997	6.42677	4.12478	9.27150
2987.432	5.20253	5.55979	4.08913	8.93550
2991.436	4.58461	5.25201	4.15586	8.74350
2995.431	4.85704	5.08706	4.24325	8.61964
2999.436	5.08732	4.96826	4.15490	8.91269
3003.434	5.68716	4.71446	4.16954	8.74250
3007.432	5.06513	4.92720	4.24638	8.73173
3011.433	4.81586	4.60962	4.28004	8.73750
3015.431	4.90937	4.75155	4.46699	8.75881
3019.435	5.38934	4.77085	4.27916	8.68749
3023.433	5.57220	4.81547	4.36989	8.75652
3027.438	5.62284	5.02425	4.28927	8.80901
3031.435	5.60784	4.87396	4.42067	8.59800
3035.432	5.56827	5.10737	4.33036	8.53814
3039.434	6.34380	4.72908	4.20654	8.43264
3043.435	6.71953	4.17402	4.32385	8.43079
3047.433	5.83770	4.03720	4.40187	8.55551
3051.432	3.83233	3.95439	4.43497	8.99024
3055.432	4.01418	4.75855	3.90760	8.42928
3059.430	4.04322	5.38613	4.21743	8.16604
3063.431	6.84546	4.75206	4.35869	8.32411
3067.430	5.87150	4.23611	4.49450	8.20134
3071.432	5.14655	3.77705	4.41874	8.42321
3075.434	5.12346	4.18194	4.44257	8.63360
3079.431	5.11610	4.50254	4.36960	8.18222
3083.438	5.44424	4.64551	4.41887	8.13161
3087.436	6.16540	4.80088	4.19691	8.47612
3091.432	5.38685	4.87807	4.27679	8.19603
3095.434	2.14986	0.83324	4.24297	8.20668
3099.428	2.90619	1.22710	4.19356	8.52861
3103.436	3.20954	1.70126	4.31763	8.73313
3107.432	4.28273	1.83758	4.21654	9.27165
3111.432	4.47866	1.83544	4.26543	8.81158
3115.438	3.81078	1.77844	4.27516	8.68996
3119.430	3.97948	1.99074	4.30309	8.47072
3123.435	4.11643	1.65010	4.58170	8.18333
3127.433	3.67976	0.75577	3.51938	8.57694
3131.430	3.64007	0.27847	3.76393	9.12679
3135.430	4.30018	1.03251	4.20857	9.25728
3139.435	7.43949	0.55717	4.31805	9.11699
3143.432	5.45651	0.04834	4.27163	9.08275
3147.434	5.15135	2.73966	4.37233	8.62077
3151.433	5.06698	2.04912	4.47378	8.45730
3155.437	8.65237	4.50691	4.28012	8.77606
3159.428	8.56612	4.36097	4.29483	8.29355
3163.435	8.00053	4.25794	4.39977	8.71055
3167.431	5.57380	4.25528	4.61457	8.60923
3171.429	5.35805	4.34653	4.35689	8.48729
3175.429	5.39625	3.71987	3.91156	8.31461
3179.428	5.26243	3.97986	4.31074	8.07676
3183.435	5.43750	4.36136	4.09853	8.62186
3187.431	5.54577	4.34707	4.00289	8.62567
3191.433	5.66209	3.96860	4.21503	8.42420
3195.502	5.87469	4.22303	4.14051	8.32891
3199.443	7.80577	4.83177	4.13986	8.07052
3203.429	5.52795	4.71267	4.21762	8.37763
3207.432	5.58547	5.07017	4.04033	9.55814
3211.434	5.73657	4.38485	3.96866	8.69842
3215.432	5.85716	4.07757	4.13535	8.44522
3219.428	5.90200	6.03846	4.12275	8.39811
3223.424	6.14317	6.37774	4.12722	8.01019
3227.467	5.76121	4.86374	4.17415	8.00814
3231.439	4.28649	4.95683	4.19632	7.85323
3235.433	4.78171	4.48925	4.31615	8.11367
3239.434	4.35242	4.32961	4.52437	8.37188
3243.431	5.68816	4.29256	4.63001	8.25203
3247.431	5.75207	3.55446	4.43756	8.14787
3251.429	5.99249	5.39413	4.19748	8.37438
3255.426	5.07899	4.80516	4.10411	8.34588
3259.430	6.21021	4.32341	4.45599	8.25433
3263.427	6.71148	3.13454	4.32782	8.12870
3267.426	7.09304	2.49539	4.42819	8.10609
3271.438	9.47512	1.68956	4.39163	8.05604
3275.427	9.12169	1.57325	4.47153	8.13703
3279.438	9.27970	1.26104	4.41393	7.94895
3283.434	5.66066	1.73372	4.26089	8.08124
3287.430	6.60833	1.45975	4.17591	7.95363
3291.424	8.70228	4.64619	4.01396	7.90849
3295.432	9.05381	5.00771	4.08789	7.82338
3299.428	6.39849	5.13356	3.98277	7.93437
3303.430	4.83632	4.55969	3.99183	7.85983
3307.427	5.60450	5.33374	3.94241	7.86202
3311.431	5.19965	5.61737	3.98282	8.03710
3315.438	5.67543	6.11602	3.97736	7.91365
3319.430	5.59764	5.62047	3.97713	7.96158
3323.437	5.31849	5.29296	3.97726	8.12218
3327.430	5.23854	5.69686	3.98575	8.21034
3331.426	4.54836	4.48805	4.02176	8.34995
3335.430	4.76835	4.48304	4.07160	8.70300
3339.431	5.23288	4.11264	4.53472	8.24188
3343.427	5.53134	4.56506	3.90763	8.19449
3347.427	5.08540	4.73506	4.22740	8.16108
3351.428	4.80603	4.96021	4.20800	8.22790
3355.430	4.53564	4.93851	3.99919	8.39220
3359.425	5.02004	4.98722	3.60764	8.51468
3363.430	5.18050	4.98082	3.31712	8.28681
3367.471	5.32695	4.97006	4.49255	7.85850
3371.433	4.81889	6.00416	3.67924	8.67320
3375.432	4.29423	4.44400	3.44085	8.53270
3379.428	4.96191	4.97707	3.98328	8.44226
3383.429	4.96558	4.78267	3.67556	8.08009
3387.429	5.05567	4.86766	4.01297	8.41544
3391.428	5.21757	4.97415	4.04256	8.73709
3395.430	4.96120	5.18531	3.61658	8.39357
3399.428	5.41140	5.38863	4.11989	8.67875
3403.429	5.17031	4.77681	5.26344	8.63451
3407.455	8.41332	4.11490	7.71640	8.05357
3411.429	6.92679	-0.30807	8.95600	6.82097
3415.427	11.35926	1.88587	9.35752	5.26553
3419.425	11.04097	0.38590	10.05479	4.10553
3423.424	11.22974	0.59939	9.97657	4.18416
3427.424	11.22145	0.80995	10.65618	3.67752
3431.425	11.23148	0.17705	9.97269	3.70077
3435.427	11.39687	-0.21022	10.09037	3.40964
3439.426	11.53756	-0.26979	9.46662	3.83105
3443.426	11.34764	-0.13519	9.09926	4.00918
3447.431	11.39415	-0.14991	9.90898	3.43825
3451.426	11.50479	0.41991	9.31322	3.83811
3455.424	11.54301	0.72006	9.61667	3.73938
3459.429	11.58710	0.69179	9.65196	3.74706
3463.426	11.43071	0.47323	9.63091	3.87793
3467.422	11.34676	0.43322	9.28303	3.56609
3471.429	11.15169	0.41084	9.36102	3.52478
3475.425	11.57355	0.16332	9.28108	3.59520
3479.426	11.67829	-0.24366	9.24750	3.86815
3483.423	11.70335	0.15145	9.19275	4.02204
3487.303	11.39742	0.02290	9.49917	3.72793
3491.301	11.50646	0.59414	9.31305	4.17422
3495.306	11.89423	-0.42141	9.29108	3.75517
3499.300	11.82483	0.13700	9.37419	3.58690
3503.298	11.54897	0.53896	9.20281	3.55935
3507.306	11.35993	0.35642	9.17723	3.61630
3511.303	11.04063	0.53757	9.19609	3.40508
3515.300	11.38612	-0.39246	9.20734	3.51872
3519.311	11.81044	-0.19242	9.29210	3.21638
3523.305	11.58815	-0.22707	9.15459	3.81194
3527.299	11.79922	-0.23653	9.44617	3.75699
3531.302	11.45243	-0.31919	9.57532	3.69530
3535.302	11.82675	0.46891	9.54730	3.74590
3539.302	11.81299	0.52225	9.63344	3.55986
3543.297	11.79736	0.56340	9.30211	3.75910
3547.296	11.73419	0.68152	9.47413	3.59006
3551.296	11.78426	0.23364	9.31636	3.79381
3555.299	11.42046	0.70004	9.28187	3.86167
3559.297	11.47793	0.65429	9.16034	3.60298
3563.298	11.78619	0.26867	9.11576	3.05518
3567.297	11.41726	0.22738	9.19179	2.86596
3571.300	11.76614	-0.05026	9.24556	2.37607
3575.300	11.71439	-0.00168	10.09270	2.77142
3579.303	11.81777	0.03031	8.81891	3.19515
3583.300	12.11835	-1.63624	8.49646	3.47779
3587.564	11.41073	0.40972	8.83343	3.19184
3591.303	11.38001	0.20889	8.46485	3.39716
3595.297	11.07728	0.33506	8.64439	3.75690
3599.298	11.39334	0.92495	8.71084	3.44354
3603.300	11.34294	0.75862	8.90582	3.52193
3607.304	11.23041	0.60690	8.92646	3.49894
3611.299	11.17183	0.50866	8.92316	3.43638
3615.299	11.26428	0.39553	8.95946	3.67574
3619.302	11.34418	0.28481	9.20272	3.61809
3623.301	11.26598	0.17249	9.15664	3.65091
3627.299	11.33156	0.01425	9.17036	3.57099
3631.325	11.36911	-0.26724	9.12011	3.48323
3635.295	11.19937	1.09077	9.19936	3.55359
3639.299	11.35255	0.44598	9.26778	3.83194
3643.298	11.48315	1.08610	9.41895	3.51562
3647.294	13.47230	0.76653	10.97282	3.85740
3651.301	14.41345	0.82417	12.98869	3.54076
3655.301	14.06301	0.23085	13.58540	3.29523
3659.302	14.02832	-0.27285	13.41845	3.30370
3663.304	13.95902	0.45613	13.35896	3.00782
3667.298	16.61115	-0.03531	12.78668	3.11761
3671.298	15.34210	-0.01634	11.62537	3.16479
3675.298	14.44578	0.26222	13.53484	2.79294
3679.297	15.24186	-0.15071	13.06909	3.21926
3683.293	14.78818	-0.05997	12.89046	2.88157
3687.295	14.49299	-0.03493	15.35764	2.23723
3691.300	14.28797	-0.08045	13.15555	2.81142
3695.296	14.57725	-0.09129	13.00881	3.03120
3699.295	15.97801	-0.35415	12.59358	3.12080
3703.299	15.01851	-0.10690	12.29310	3.13621
3707.308	14.65878	0.02390	12.32599	3.21378
3711.298	14.61638	0.14501	12.59108	3.22648
3715.294	14.51635	-0.04513	12.50668	3.06121
3719.294	15.04054	0.02172	12.76782	3.13749
3723.305	14.62322	0.22190	12.67454	3.12750
3727.298	14.80444	0.42068	12.24052	3.23922
3731.294	16.03905	-0.41664	12.58131	3.18248
3735.300	14.50665	-4.32402	12.65432	3.12300
3739.297	14.80948	-0.13648	12.63461	2.99152
3743.303	15.01369	-0.58654	14.17269	2.31870
3747.301	14.46824	-0.33704	12.59214	2.73155
3751.297	16.50083	-0.90094	12.50818	2.97127
3755.296	14.43794	-0.38144	10.81746	3.29807
3759.294	14.66598	-0.86365	12.64496	2.95878
3763.299	15.03353	-0.76071	12.68087	2.46499
3767.296	14.82108	-0.58214	12.44261	3.08050
3771.296	16.93700	-1.22741	12.71850	2.77335
3775.300	11.37262	-3.97611	12.32570	3.70047
3779.297	14.81110	-1.02663	13.32562	3.02955
3783.297	14.81386	-0.84510	12.81636	3.45962
3787.301	14.89260	-0.24696	12.63811	3.64811
3791.306	14.79811	-0.14177	14.47664	3.94434
3795.302	18.39496	0.51230	15.38482	4.22466
3799.297	21.46268	-0.14509	19.02668	7.88453
3803.297	15.22606	0.69544	NaN	NaN
3807.294	15.15462	4.38101	NaN	NaN
3811.299	NaN	NaN	NaN	NaN
3815.295	NaN	NaN	NaN	NaN
3819.296	NaN	NaN	NaN	NaN
3823.294	NaN	NaN	NaN	NaN
3827.298	NaN	NaN	NaN	NaN
3831.295	NaN	NaN	NaN	NaN
3835.310	NaN	NaN	NaN	NaN
3839.295	NaN	NaN	NaN	NaN
3843.296	NaN	NaN	NaN	NaN
3847.291	NaN	NaN	NaN	NaN
3851.293	NaN	NaN	NaN	NaN
3855.290	NaN	NaN	NaN	NaN
3860.427	NaN	NaN	NaN	NaN
3864.638	NaN	NaN	NaN	NaN
3868.747	NaN	NaN	NaN	NaN
3874.410	NaN	NaN	NaN	NaN
3878.438	NaN	NaN	NaN	NaN
3883.299	NaN	NaN	NaN	NaN
3887.295	NaN	NaN	NaN	NaN
3891.294	NaN	NaN	NaN	NaN
3895.295	NaN	NaN	NaN	NaN
3899.297	NaN	NaN	NaN	NaN
3903.294	NaN	NaN	NaN	NaN
3907.297	NaN	NaN	NaN	NaN
3911.302	NaN	NaN	NaN	NaN
3915.308	NaN	NaN	NaN	NaN
3919.302	NaN	NaN	NaN	NaN
3923.305	NaN	NaN	NaN	NaN
3928.177	NaN	NaN	NaN	NaN
3932.095	NaN	NaN	NaN	NaN
3935.918	NaN	NaN	NaN	NaN
3939.776	NaN	NaN	NaN	NaN
3943.665	NaN	NaN	NaN	NaN
3947.298	NaN	NaN	NaN	NaN
3951.301	NaN	NaN	NaN	NaN
3955.296	NaN	NaN	NaN	NaN
3959.296	NaN	NaN	NaN	NaN
3963.310	NaN	NaN	NaN	NaN
3967.299	NaN	NaN	NaN	NaN
3971.295	NaN	NaN	NaN	NaN
3975.300	NaN	NaN	NaN	NaN
3979.301	NaN	NaN	NaN	NaN
3983.300	NaN	NaN	NaN	NaN
3987.294	NaN	NaN	NaN	NaN
3991.330	NaN	NaN	-7.23995	15.03756
3996.437	NaN	NaN	NaN	NaN
4000.411	NaN	NaN	NaN	NaN
4004.251	NaN	NaN	NaN	NaN
4007.294	NaN	NaN	NaN	NaN
4011.290	NaN	NaN	NaN	NaN
4015.294	NaN	NaN	NaN	NaN
4023.293	NaN	NaN	NaN	NaN
4027.294	NaN	NaN	NaN	NaN
4031.355	NaN	NaN	NaN	NaN
4035.357	NaN	NaN	-7.23372	15.03926
4039.431	NaN	NaN	-7.22881	15.04088
4043.450	NaN	NaN	NaN	NaN
4047.401	NaN	NaN	NaN	NaN
4051.353	NaN	NaN	NaN	NaN
4055.382	NaN	NaN	NaN	NaN
4059.606	NaN	NaN	NaN	NaN
4064.716	NaN	NaN	NaN	NaN
4069.026	NaN	NaN	NaN	NaN
4073.233	NaN	NaN	7.10866	12.77815
4077.430	NaN	NaN	4.50552	13.15548
4081.787	7.28722	8.98705	4.15004	14.70448
4084.420	7.45052	9.24927	4.40288	12.65176
4087.306	7.58332	8.83963	4.28310	13.99670
4091.292	7.42939	9.30870	4.16295	14.69952
4095.292	7.30537	9.31606	4.08681	14.24499
4099.291	NaN	NaN	5.33571	14.40036
4103.292	NaN	NaN	5.18766	14.64170
4107.289	NaN	NaN	4.83528	14.70112
4111.292	-0.00965	14.75501	5.14188	14.20242
4115.290	6.89642	9.52610	5.10083	14.38841
4119.296	7.37719	9.01240	5.06363	14.46041
4123.288	7.83702	8.31473	5.19224	13.88207
4127.292	7.96288	8.26100	5.07385	14.01445
4131.289	7.61941	9.11976	4.95494	12.49980
4135.292	8.00440	9.57153	4.68967	12.85666
4139.290	7.86734	9.23395	5.82434	12.15393
4143.292	7.61043	9.00927	4.93410	12.14139
4147.290	8.00608	8.88075	5.15751	11.84562
4151.295	8.32301	8.97289	5.36831	12.24616
4155.289	8.28342	8.95000	5.16383	11.77859
4159.292	8.07951	9.00895	5.46008	11.93318
4163.289	8.74758	8.99701	4.92267	11.89950
4167.292	8.68460	9.52171	5.27776	10.28461
4171.289	8.96968	8.75270	4.69958	11.51341
4175.291	9.09986	7.77275	5.89132	11.19387
4179.288	9.01208	7.91234	5.44441	10.59599
4183.293	8.80628	8.50907	5.34307	10.42537
4187.289	12.13958	7.41853	5.13621	10.87045
4191.290	12.02368	7.44985	5.38294	10.23128
4195.286	8.91372	7.53856	4.84770	10.37412
4199.293	8.48231	7.90943	4.81145	10.46647
4203.292	8.31785	7.76591	4.61926	10.46576
4207.289	8.21629	7.76313	4.36348	10.52135
4211.291	7.33130	7.87709	4.49294	10.58120
4215.292	7.46714	8.23134	4.86524	10.53290
4219.290	8.45249	8.18651	5.34850	10.18445
4223.288	8.09392	8.29598	4.99613	10.54874
4227.289	8.19158	7.86111	4.79117	10.07236
4231.286	8.36710	8.49101	4.91366	9.44078
4235.284	7.72722	10.11780	4.81042	10.39852
4239.293	7.88797	9.65315	5.31421	12.15812
4243.293	8.62093	8.30701	3.43165	11.49956
4247.289	6.36935	8.27476	0.33779	10.56140
4251.292	3.30005	8.94471	-1.57743	11.45203
4255.344	1.91769	9.73542	-2.23551	12.62549
4259.296	0.78285	9.88312	-2.45213	12.87266
4263.283	-0.65315	12.67509	-2.56820	12.75857
4267.285	-3.06781	12.98498	-2.73224	12.84948
4271.287	-1.52037	12.36175	-2.67509	13.00739
4275.290	-1.97468	13.06053	-2.91475	12.61498
4279.287	-0.85687	13.28991	-2.87331	13.11884
4283.291	NaN	NaN	-2.67947	12.97352
4287.292	-3.03561	12.10107	-2.48478	12.88739
4291.288	NaN	NaN	-2.58531	13.50122
4295.284	-1.98179	13.14667	-1.92560	13.38473
4299.288	-2.56649	14.73913	-1.99322	13.00832
4303.286	-0.97333	13.30879	-2.85356	13.50624
4307.288	-3.39653	12.88329	-1.55591	13.15204
4311.284	-8.62122	9.92428	-2.51264	13.18688
4315.285	NaN	NaN	-2.47415	13.63821
4319.286	-4.66408	13.48904	-1.82673	13.52352
4323.284	-3.47149	13.01012	-1.41023	13.13883
4327.288	-2.95832	12.97971	-1.53800	13.10255
4331.304	-0.88428	12.78858	-2.37523	13.12848
4335.289	-3.49443	13.42423	-2.93126	13.31994
4339.289	-0.07894	13.10790	-2.21251	13.46581
4343.161	NaN	NaN	-2.70829	13.52537
4347.164	NaN	NaN	-2.63888	13.39284
4351.162	-4.12063	13.79709	-2.71743	12.93591
4355.160	-3.88493	13.37026	-2.55653	13.33971
4359.164	-4.12362	14.36354	-2.37560	13.09760
4363.163	-4.02060	13.08913	-2.44517	13.17131
4367.160	-4.17889	13.93605	-2.79931	12.99086
4371.170	-0.39504	14.37542	-2.69983	13.30721
4375.164	-2.95307	11.65458	-2.66380	12.87547
4379.159	-2.19779	13.20832	-2.43308	13.02618
4383.163	-2.46246	12.22618	-2.51879	13.03569
4387.159	-3.79087	11.44410	-2.44531	13.19000
4391.160	-1.59980	11.82488	-2.36329	13.09689
4395.163	-3.74379	11.67571	-2.72172	13.09637
4399.160	-3.90140	11.79815	-2.28390	13.17208
4403.159	-3.13989	12.78564	-2.43100	13.20232
4407.158	-2.36616	13.57286	-2.41410	13.18970
4411.163	-3.07488	13.12410	-2.32545	13.25654
4415.166	-3.16686	13.45766	-2.30385	13.13322
4419.164	-2.41519	13.73066	-2.24004	13.11840
4423.162	NaN	NaN	-2.35444	13.20661
4427.163	-3.47470	13.31890	-2.41076	13.34602
4431.158	-2.54402	12.28580	-2.63963	13.20424
4435.163	-2.51182	12.63314	-2.36762	13.17719
4439.161	-3.59476	11.89213	-2.22359	13.23890
4443.159	-2.98725	13.56612	-2.65869	13.17612
4447.161	-2.85683	13.59861	-2.77854	13.23663
4451.161	-2.52332	13.58324	-2.90262	13.02150
4455.164	-2.71307	12.45851	-1.90507	13.02400
4459.169	-2.71349	12.72220	-2.65451	12.86134
4463.155	-2.81981	13.61446	-2.41212	12.52318
4467.157	-3.58175	12.61553	-2.46845	12.76358
4471.154	-3.34212	13.58218	-2.32362	12.82682
4475.155	-2.77116	12.08839	-2.85281	12.76995
4479.165	-4.64574	11.78921	-2.97851	12.95990
4483.158	-3.92900	12.36592	-3.23039	12.98928
4487.156	-2.87599	13.63743	-2.26943	12.64329
4491.158	-2.56991	12.55390	-2.83863	12.56095
4495.163	-2.42223	12.07765	-2.50858	12.46790
4499.163	-2.84442	13.56736	-3.35746	12.55149
4503.159	-4.42168	13.51374	-3.80876	12.64133
4507.157	-2.51675	13.80801	-2.88864	12.92342
4511.161	-2.26983	12.79414	-3.07196	12.86195
4515.159	-2.29270	12.69842	-3.38674	12.70940
4519.166	-2.45005	13.16039	-3.19459	12.65992
4523.164	-2.50573	13.48200	-3.02922	12.44868
4527.158	-5.33212	13.95613	-2.52612	12.35754
4531.156	-4.60833	14.34123	-3.27843	12.39566
4535.155	-2.34528	12.31780	-3.79032	12.42500
4539.161	-3.62061	13.20480	-5.03955	12.60866
4543.158	-5.01886	14.38161	-6.68007	12.79597
4547.160	-9.28453	14.35550	-8.34264	13.10702
4551.158	-11.94494	14.40073	-9.25374	14.15062
4555.157	-12.67225	13.31079	-9.96388	14.13803
4559.159	-15.33426	11.59379	-15.22095	12.09496
4563.156	-15.73244	11.35964	-15.97688	9.94888
4567.161	-17.81286	14.01664	-16.02541	9.79342
4571.158	-19.98154	-12.07833	-16.37526	10.56775
4575.159	-17.74724	14.07050	-17.16307	9.97169
4579.155	-19.98452	-12.07811	-18.58757	7.20516
4583.165	-17.90033	13.64730	-16.20055	8.94478
4587.162	-19.97831	-12.07857	-13.16174	14.02994
4591.155	-16.36960	13.80134	-14.54179	12.59941
4595.155	-19.98230	-12.07827	-14.90086	10.07173
4599.156	-19.98471	-12.07809	-11.83769	10.20107
4603.159	-19.98634	-12.07797	-11.88649	13.04094
4607.155	-19.98752	-12.07789	-8.76018	13.11923
4611.153	-17.43674	13.97376	-11.22372	11.65786
4615.156	-19.98914	-12.07776	-12.37160	9.43862
4619.160	-15.77191	14.13011	-10.85210	11.99787
4623.162	-16.81114	13.15834	-11.76195	14.33739
4627.156	-15.78853	13.40032	NaN	NaN
4631.160	-16.06371	13.31157	-12.77285	13.25288
4635.157	-15.73775	13.30365	-12.63026	12.44523
4639.158	-19.99352	-12.07744	-13.51133	12.11835
4643.155	-19.99355	-12.07744	-13.59591	10.71765
4647.159	-19.99355	-12.07744	NaN	NaN
4651.153	-16.29568	14.00040	-12.71290	14.46954
4655.160	-15.53375	13.19325	-12.50257	11.77480
4659.157	-16.64893	14.27198	-14.15568	12.14170
4663.163	-15.56775	13.75438	-13.95231	10.34832
4667.159	-15.55365	13.23311	-14.51821	10.37910
4671.187	-16.36569	14.35716	-15.05170	10.22827
4675.157	-19.99366	-12.07743	-14.53181	10.57839
4679.154	-19.99368	-12.07743	NaN	NaN
4683.161	-15.71179	13.28794	-14.30920	14.23566
4687.157	-19.99366	-12.07743	-14.62254	11.69610
4691.152	-16.02153	13.67274	-12.07930	11.13796
4695.153	-15.49126	13.10482	NaN	NaN
4699.157	-19.99368	-12.07743	NaN	NaN
4703.159	-15.20094	13.47431	-12.61393	11.75574
4707.164	-15.75895	13.27756	-12.84984	11.53390
4711.163	NaN	NaN	-16.24034	7.87180
4715.156	-14.59424	13.55403	-14.21607	11.71667
4719.156	-14.46354	13.39992	-12.88131	11.85984
4723.206	NaN	NaN	-13.80514	14.49650
4727.154	-15.86413	13.09944	NaN	NaN
4731.151	-15.32115	13.25301	-12.82597	14.74203
4735.152	-15.70781	12.84930	-13.63677	14.44772
4739.157	-16.28693	14.06808	-13.53962	12.86679
4743.153	-15.41019	14.04967	-12.62944	11.49508
4747.168	-19.99370	-12.07743	-14.21887	10.80101
4751.157	NaN	NaN	NaN	NaN
4755.152	NaN	NaN	-11.86262	14.62835
4759.152	-15.68672	12.93401	NaN	NaN
4763.152	NaN	NaN	-15.67379	10.88262
4767.151	NaN	NaN	NaN	NaN
4771.156	NaN	NaN	-8.73170	14.84083
4775.157	NaN	NaN	NaN	NaN
4779.154	-17.33723	13.34835	NaN	NaN
4783.152	-19.99328	-12.07746	NaN	NaN
4787.161	-19.99333	-12.07745	NaN	NaN
4791.160	-19.99333	-12.07745	NaN	NaN
4795.156	-19.99335	-12.07745	NaN	NaN
4799.150	-19.99335	-12.07745	NaN	NaN
4803.277	-19.99339	-12.07745	NaN	NaN
4807.352	-19.99339	-12.07745	NaN	NaN
4811.238	-19.99342	-12.07745	NaN	NaN
4815.940	-19.99344	-12.07744	NaN	NaN
4819.645	-19.99344	-12.07744	NaN	NaN
4823.241	NaN	NaN	NaN	NaN
4827.158	NaN	NaN	NaN	NaN
4831.158	NaN	NaN	NaN	NaN
4835.159	NaN	NaN	NaN	NaN
4839.163	NaN	NaN	NaN	NaN
4843.157	NaN	NaN	NaN	NaN
4847.163	NaN	NaN	NaN	NaN
4851.155	NaN	NaN	NaN	NaN
4855.154	NaN	NaN	NaN	NaN
4859.154	NaN	NaN	NaN	NaN
4863.183	NaN	NaN	NaN	NaN
4867.155	NaN	NaN	NaN	NaN
4871.158	NaN	NaN	NaN	NaN
4875.154	NaN	NaN	NaN	NaN
4879.156	NaN	NaN	NaN	NaN
4883.600	NaN	NaN	NaN	NaN
4887.152	NaN	NaN	NaN	NaN
4891.160	NaN	NaN	NaN	NaN
4895.153	NaN	NaN	NaN	NaN
4899.157	NaN	NaN	NaN	NaN
4903.165	NaN	NaN	NaN	NaN
4907.159	NaN	NaN	NaN	NaN
4911.157	NaN	NaN	NaN	NaN
4915.164	NaN	NaN	NaN	NaN
4919.156	NaN	NaN	NaN	NaN
4923.152	NaN	NaN	NaN	NaN
4927.168	NaN	NaN	NaN	NaN
4931.161	NaN	NaN	NaN	NaN
4935.152	NaN	NaN	NaN	NaN
4939.151	NaN	NaN	-7.12244	15.03180
4943.154	NaN	NaN	-7.12320	15.03021
4947.147	NaN	NaN	-7.12344	15.02970
4951.436	NaN	NaN	NaN	NaN
4955.161	NaN	NaN	NaN	NaN
4959.155	NaN	NaN	NaN	NaN
4963.151	NaN	NaN	NaN	NaN
4967.158	NaN	NaN	NaN	NaN
4971.251	NaN	NaN	NaN	NaN
4975.365	NaN	NaN	NaN	NaN
4979.436	NaN	NaN	NaN	NaN
4983.631	NaN	NaN	NaN	NaN
4987.700	NaN	NaN	NaN	NaN
4991.752	NaN	NaN	NaN	NaN
4995.811	NaN	NaN	NaN	NaN
4999.934	NaN	NaN	NaN	NaN
5004.064	NaN	NaN	NaN	NaN
5008.181	NaN	NaN	NaN	NaN
5012.356	NaN	NaN	NaN	NaN
5017.435	NaN	NaN	NaN	NaN
5021.662	NaN	NaN	NaN	NaN
5025.785	NaN	NaN	NaN	NaN
5029.959	NaN	NaN	NaN	NaN
5034.080	NaN	NaN	NaN	NaN
5038.233	NaN	NaN	NaN	NaN
5042.421	NaN	NaN	NaN	NaN
5046.607	NaN	NaN	NaN	NaN
5050.766	NaN	NaN	NaN	NaN
5055.043	NaN	NaN	NaN	NaN
5059.222	NaN	NaN	-7.12205	15.02220
5063.446	NaN	NaN	NaN	NaN
5067.488	5.13582	9.94873	NaN	NaN
5071.152	2.16563	4.73292	NaN	NaN
5075.186	NaN	NaN	NaN	NaN
5079.154	3.12898	5.39296	NaN	NaN
5083.180	3.65972	6.85009	NaN	NaN
5087.156	7.16625	12.87581	16.30085	14.09135
5091.152	7.94209	5.55008	-0.06083	11.71101
5095.148	7.24239	2.57261	0.61712	11.07583
5099.149	7.15122	0.28835	4.49240	10.11121
5103.150	2.98151	-2.66824	3.55941	-0.56867
