time (ms)	lx (deg)	ly (deg)	rx (deg)	ry (deg)
0.000	4.79654	-7.05309	4.84866	-7.07950
4.071	5.33878	-5.69117	5.02115	-7.74933
8.012	4.62291	-6.83996	6.96387	-10.23741
11.993	6.52537	-4.45337	7.67396	-9.66237
15.991	4.74967	-11.19987	5.17663	-7.68414
20.016	8.45507	-5.95200	5.10810	-4.48016
23.999	4.25445	-4.25878	4.68814	-5.10750
27.995	4.11357	-5.10340	2.96733	-1.90473
31.989	3.71508	-1.76008	1.06158	-2.25227
35.987	0.35856	-0.51820	0.21581	1.08045
39.993	2.24089	-0.02970	1.23878	1.70201
43.989	1.58703	0.23761	-0.65300	2.90133
47.987	-0.30200	2.26664	-1.22935	3.42877
51.986	0.56841	2.27825	1.00228	3.55047
55.992	4.24838	0.21468	0.90143	3.27051
59.989	0.30699	1.99435	1.95366	2.88405
63.987	0.68804	2.14090	1.09586	1.95687
68.001	1.10750	1.59207	0.38241	1.92174
71.997	-0.20417	1.94086	-1.60677	1.74125
75.993	-0.50733	1.78556	-1.43493	3.01145
79.988	-2.75802	2.42511	-1.41869	3.44638
83.984	-2.03340	3.07243	-1.95262	3.24382
87.991	-1.21124	2.63943	-1.79859	2.16118
91.989	-0.05738	2.52751	-0.25624	2.37008
95.988	-2.00294	2.94822	-1.18398	2.02917
99.993	-2.23521	2.95362	2.90522	3.45669
103.990	-1.78166	2.06751	-0.98323	2.85529
107.992	-1.17304	2.10904	-1.14819	2.25575
111.986	-0.98325	-0.28940	-1.64523	3.36867
115.992	-0.52582	0.77710	-1.19579	3.11229
119.989	-1.62644	2.11647	-1.15374	2.64293
123.993	-1.06252	1.76003	-0.83471	2.66927
127.993	-0.20857	1.43744	-1.07277	2.88150
131.987	-0.18762	1.73505	-1.29732	2.71520
135.989	-1.44550	3.31506	1.79619	1.92384
140.050	-1.29640	1.93298	-1.08363	3.04790
144.005	1.27073	1.83768	-1.11162	3.09767
147.997	-0.00060	-0.44646	-1.39004	3.05233
151.997	-0.14345	1.42535	-1.02615	2.32446
155.989	3.66985	1.57062	-1.92044	2.58676
159.988	-1.65917	1.66740	-1.00705	2.48565
163.986	-2.17693	2.73336	-1.26589	2.04628
167.991	-1.08646	2.10422	1.50120	2.57826
171.988	-0.35196	-0.97246	-0.84649	2.99011
175.990	-0.45597	1.68193	-1.57939	2.64544
179.985	-1.61709	1.68622	-1.88819	1.97472
183.991	-1.32193	1.75061	-1.57267	3.14389
187.989	-2.28866	2.64527	1.43089	2.41187
191.995	-2.49642	2.55809	0.96718	2.18178
195.990	-2.02725	2.79714	-1.03441	3.73565
199.986	-1.24384	2.69678	-0.66059	3.62275
203.986	-1.15776	2.52994	-1.55393	2.98414
208.056	-1.17694	2.37159	-1.90510	3.78756
211.994	-0.70007	2.77303	-1.41844	3.51677
215.988	-0.06996	2.04558	-1.75317	3.74154
219.985	0.39581	2.17365	-1.33812	3.65459
223.990	-0.45366	2.70896	0.09674	2.39644
227.988	0.20447	1.87670	-0.97353	3.02541
231.996	-0.19303	2.37480	0.21045	2.24890
235.990	-0.38345	2.17693	-0.07783	2.27173
239.990	-0.28528	1.09605	-1.38079	3.06168
243.988	-1.27827	1.61283	-1.38786	2.09304
247.987	-1.07445	1.88395	-1.47446	1.83762
252.027	0.08964	1.55058	-1.34869	2.59528
255.991	0.02114	1.55398	-1.54584	2.78110
259.981	-0.62928	1.71144	-1.65530	3.26725
263.989	-0.67012	2.25377	-1.10894	2.88593
267.986	-1.57624	2.54254	-0.80553	3.31737
271.985	-0.78992	2.05720	-0.74293	3.11179
276.007	-1.03384	2.00183	-0.98916	2.32322
279.996	0.55553	1.44448	0.16988	-5.58434
283.984	1.22035	1.13895	1.45363	-6.39956
287.990	-0.51758	0.80672	1.41201	-6.94959
291.986	-0.24857	0.63954	-0.36325	0.17160
295.986	-0.90344	0.70582	0.26592	0.10675
299.987	-0.46078	1.29987	1.29179	0.88590
303.985	0.84451	0.59463	2.77270	0.50885
307.984	-0.55878	0.93664	4.60528	0.72876
311.983	-0.87545	0.77449	-0.14806	1.68217
315.992	-0.42390	0.39595	-0.78372	0.76390
319.987	0.27026	0.34954	-0.91185	1.48206
323.982	3.50215	0.71669	-0.60890	0.70261
327.988	4.26788	1.52898	0.22306	0.72982
331.987	0.04621	1.21402	-0.34997	1.44924
335.983	-4.74065	0.89255	-0.33938	1.84460
339.988	-4.94201	0.53438	3.01923	1.44547
344.010	-0.70580	2.25112	-0.69655	0.92682
347.992	3.74164	5.46150	-0.38474	0.94384
351.983	1.89203	3.60947	-3.01207	2.18059
355.981	3.02509	3.71004	-0.84104	-0.42047
359.992	2.11316	2.77859	-1.19730	-0.10514
363.984	2.02718	2.81047	-0.56540	-0.28719
367.984	2.59212	-2.95574	-0.36846	0.08906
371.981	-2.20431	-2.12600	-0.23103	0.71425
375.988	0.41102	1.13150	-0.59320	1.94146
379.986	1.89322	2.29510	-0.51547	1.83617
383.983	2.13371	2.93728	-0.61017	0.63319
387.989	1.98026	2.73053	-0.75037	2.34552
391.984	2.07626	-1.20685	-2.89346	-0.04130
395.983	2.28368	0.68419	-0.54555	-0.54358
399.991	2.33502	-1.33916	-0.34774	0.35839
403.986	1.94902	-0.37540	0.41810	1.99073
407.863	1.32508	1.83121	-0.24698	-1.79236
411.885	1.44160	2.53831	-0.19308	0.26288
415.863	1.43572	-1.52880	-0.61064	1.63782
419.860	0.77082	1.52440	-0.58052	1.88254
423.859	0.80712	1.39151	-1.04592	2.01214
427.857	-1.23878	1.03923	-0.73230	-1.35074
431.862	-0.73097	1.41818	-0.89408	-0.17810
435.858	0.55411	-0.50405	-0.14776	0.38886
439.878	0.10858	-0.06028	0.43939	0.52911
443.870	-0.36697	-0.06597	0.25763	1.99337
447.864	-0.85788	0.28856	0.90510	0.23489
451.861	0.35519	-2.04036	0.57543	-0.33132
455.856	3.50509	-0.58307	0.75821	0.11350
459.860	3.81130	-2.37123	0.20663	0.60294
463.859	0.41849	-2.46129	0.18784	1.79974
467.912	-0.49885	0.40117	0.69424	1.75310
471.861	-0.74811	-0.09298	0.88302	2.17856
475.860	-0.21011	-0.09999	0.21894	3.58180
479.861	-0.68283	-0.20621	0.61938	1.16987
483.860	3.98321	-2.42872	0.71960	-0.34040
487.860	3.89725	-1.05730	0.69434	0.18762
491.857	0.34772	-0.17737	0.77134	0.40954
495.859	-0.47701	-3.40621	0.73350	0.41156
499.857	2.18372	-0.72860	0.86761	0.58151
503.862	-0.73538	0.34840	0.49602	0.82567
507.857	-1.04798	0.60386	0.72585	0.91812
511.858	-1.99659	0.75096	0.60612	0.83525
515.853	-0.90024	0.66093	0.43254	0.78730
519.859	-1.63271	1.04722	0.17077	1.13357
523.857	-1.56561	0.90616	0.47751	0.87298
527.856	-1.73678	1.24298	0.57118	1.01640
531.858	-1.17019	1.04460	0.53781	1.08516
535.856	-1.36347	0.64733	0.33799	1.46960
539.856	-1.02372	0.77885	0.34757	1.66348
543.853	-0.51267	-2.25217	0.24894	1.55687
547.883	0.49309	0.21195	0.26068	1.91020
551.864	-0.94338	-0.23452	0.15166	2.05409
555.857	-1.11028	-0.82543	0.07172	2.04191
559.853	2.41626	-1.27863	-0.17876	2.01217
563.860	0.43438	-0.52826	-0.08629	1.51423
567.857	-1.11390	-0.85265	-0.03522	1.41947
571.859	-0.54376	-0.61044	-0.01340	0.82347
575.859	-1.22127	-0.79787	-0.28183	0.94474
579.856	0.60379	-3.18798	-0.95966	1.28535
583.855	-1.99999	-4.80479	-0.32697	0.54385
587.853	-1.48503	-2.34875	-0.38745	1.19666
591.858	1.48059	-0.58975	-0.31761	0.72319
595.856	0.50691	-1.04018	-0.08723	0.67805
599.856	-0.82032	2.92047	0.03656	0.80280
603.858	5.22975	-1.09880	-0.01075	0.78081
607.855	0.43792	0.06008	-0.50068	0.77370
611.860	-1.90532	0.19501	-0.21405	0.78369
615.861	0.80307	-3.35645	-1.03940	1.44307
619.859	-0.12736	-2.16693	0.09629	0.42258
623.853	0.33456	0.01021	-0.43936	0.96783
627.858	-0.17236	0.19191	-0.01000	0.99203
631.853	5.25894	0.51163	0.13923	0.72076
635.855	-1.55970	0.21867	0.21254	0.66873
639.859	3.01183	-1.77030	0.21209	0.77363
643.855	0.01603	-0.02676	-0.26411	0.33590
647.854	0.14265	-2.09978	0.06884	0.67413
651.852	-0.04231	-1.60330	-0.27815	1.00637
655.861	0.04547	-0.69323	-0.03348	0.89112
659.854	-0.28490	-0.12767	0.04241	1.32561
663.852	-0.33836	0.21459	0.41542	1.21727
667.853	-0.04279	-0.23293	0.37288	0.70882
671.856	-0.87108	-3.33034	0.14757	0.71057
675.855	-1.01303	0.01118	0.38973	0.31488
679.853	-1.20023	-0.11838	0.31014	0.25005
683.876	-1.46192	-2.16471	0.55287	1.23523
687.862	-0.39452	-0.77538	0.16251	0.92157
691.858	-0.24145	-1.37808	-0.14037	1.95772
695.858	1.02503	-1.00784	-0.68469	1.54560
699.855	-1.35752	-0.34319	-0.89654	1.00751
703.880	-0.93088	0.17126	-0.62017	0.38138
707.861	-1.47060	1.62096	-0.58357	0.07111
711.858	-0.24803	1.86716	0.17454	-0.15498
715.854	-1.49716	0.84703	0.49845	-0.34951
719.854	-0.91011	-1.92988	0.37978	1.53920
723.848	-1.40713	-1.18081	0.63680	1.51349
727.856	-0.72593	-2.43383	-0.17871	1.94935
731.855	-0.62007	-0.34573	0.06785	1.89051
735.854	-1.39108	-0.44670	0.34474	1.69784
739.857	-0.82143	-0.30516	-0.01231	1.72987
743.856	-0.91426	-0.12823	-0.01124	1.57973
747.853	-1.10899	-3.44127	-0.72856	0.79493
751.877	0.64253	1.40972	-0.48766	1.29326
755.853	4.38642	2.00245	-1.72629	1.36486
759.850	5.19180	2.76123	-0.69104	0.60342
763.850	-0.65873	2.40522	-0.05812	0.27433
767.855	-0.74233	2.15479	-0.28828	0.28859
771.856	-1.91972	0.46649	0.11962	1.14929
775.853	-0.33007	-4.33023	-0.12014	1.46339
779.855	-0.69652	-3.38129	0.04606	1.62840
783.856	-0.24788	-0.24339	-0.52627	1.00880
787.852	-1.46712	0.30062	-1.27616	1.18954
791.848	-0.00474	-0.24730	-1.02811	1.35354
795.855	-0.94381	-0.00435	-0.33191	0.25507
799.850	0.41921	-0.04478	-0.03589	0.02999
803.850	-0.25895	-0.11165	0.07962	0.28889
807.855	-0.54984	-0.78584	0.26654	0.32743
811.854	-0.62387	0.07452	-0.17437	1.54074
815.853	-2.25816	-4.66680	-0.49865	1.95633
819.880	-0.14057	-0.29913	-0.88669	1.49299
823.862	-1.64640	-0.01788	-0.55322	1.64198
827.854	4.37900	-4.93528	-0.27992	1.47242
831.849	-0.26987	0.90872	0.16350	1.53086
835.856	0.55262	-0.12466	0.27753	0.75414
839.851	-0.72900	-0.19244	0.67124	-0.89856
843.850	-0.29034	-1.56645	-0.03653	-0.48236
847.855	-4.41739	-0.49292	-0.24907	0.35911
851.854	3.41758	-0.06744	-0.46810	-0.02753
855.852	3.87633	0.71544	-0.52907	0.24547
859.850	4.98206	0.45113	-0.46502	0.18015
863.858	2.93629	3.56023	-0.22373	0.70192
867.851	-0.33379	0.45835	0.08885	1.13787
871.853	2.53427	0.02478	0.03522	1.10605
875.849	-0.88458	0.74967	-0.48785	2.13834
879.858	-0.61838	-0.68159	-0.14211	0.13819
883.854	-1.14345	-0.52055	-0.29577	0.61399
887.877	-1.19847	-3.88736	-0.48262	1.87297
891.858	1.01888	0.15556	-0.71799	1.30594
895.851	-1.31826	0.97167	-0.53188	1.74489
899.854	0.09314	0.86916	-0.28453	1.21647
903.857	0.31260	-0.66674	-0.41787	-0.13992
907.852	0.05065	-0.24936	-0.48227	0.14327
911.913	0.38705	-0.96793	-0.26081	1.46100
915.859	-0.78985	-1.02177	-0.38973	1.98831
919.850	-1.09013	1.36744	-0.05376	0.79850
923.850	0.43574	0.86205	-0.14551	-0.81778
927.848	0.25604	-1.40482	-0.12213	0.48919
931.851	0.13593	0.02058	-0.10026	0.88610
935.849	0.29994	-1.12774	-0.12630	1.58859
939.850	0.27734	0.98923	0.03303	2.01535
943.855	-0.86384	0.61082	0.88669	0.72112
947.854	0.45763	-3.99366	0.22629	-1.06165
951.847	-0.88920	-1.11903	0.15161	-0.41619
955.877	-0.39286	-1.26628	0.24068	-0.09863
959.857	-0.07649	0.31218	0.18802	0.59124
963.846	-0.83431	-0.25356	0.00122	1.45510
967.851	-0.29711	-0.17334	0.08733	1.37057
971.849	1.00675	-0.94548	-0.11084	1.04558
975.847	-0.27873	-0.03698	-0.44232	1.34256
979.846	-0.05768	0.70548	-0.34702	0.63369
983.851	2.39879	0.89461	-0.65526	-0.27658
987.854	4.91560	1.39663	-0.35146	0.77916
991.857	0.55156	1.42034	-0.62972	1.04791
995.845	-0.03390	1.24028	-0.80263	1.32839
999.870	0.93716	-1.75193	-0.57989	-0.04167
1003.865	-1.60380	-0.22236	-0.45160	-0.19966
1007.852	-0.05038	1.43687	0.32183	-0.22341
1011.847	1.06287	2.41052	-0.32570	-0.14159
1015.846	-0.34432	1.49694	-0.23075	-0.06113
1019.852	-0.86843	1.37945	-0.17876	-0.23405
1023.873	-1.12549	1.54859	-0.29357	0.58654
1027.864	-0.02385	1.40501	-0.45892	0.49107
1031.852	0.76201	-0.12769	-0.42160	-0.05874
1035.850	-0.08810	-0.31121	-0.88709	0.45068
1039.849	-0.21683	0.22806	-1.16897	0.50494
1043.847	0.11855	0.23298	-0.69322	0.28239
1047.846	4.74042	-0.17600	-0.47316	0.39836
1051.851	4.02065	0.66285	-0.80277	1.54663
1055.850	0.92721	0.95876	-0.79268	0.73880
1059.848	-0.19792	1.22594	-0.67888	0.76699
1063.847	-0.00970	0.43386	-0.56094	0.43866
1067.851	-1.04791	-0.11933	0.48212	0.53835
1071.850	-0.17757	-0.95931	-0.78409	1.18977
1075.847	-0.50853	0.51496	-0.34791	1.73120
1079.850	0.99516	0.86550	-0.97648	0.43447
1083.848	0.27684	1.01785	-0.75367	0.20804
1087.849	1.25627	-1.30044	-0.66025	1.27755
1091.847	-0.24145	-1.43187	-0.62198	2.16038
1095.852	1.38471	-1.00006	0.16871	1.05202
1099.847	-1.89461	-3.99907	-0.52466	-0.12084
1103.846	0.61134	0.75587	0.02323	0.85075
1107.878	0.15791	-0.64672	-0.66253	1.22778
1111.849	6.63037	-1.85798	-0.08314	3.62041
1115.848	0.67476	0.76645	-0.98561	3.32734
1119.841	1.64754	-1.23683	-0.30687	0.75106
1123.848	1.28003	0.19844	0.05435	0.41398
1127.845	2.24641	0.99740	-0.59965	1.75477
1131.845	0.03549	-0.37094	-0.76258	2.73831
1135.848	2.54219	-0.50301	-1.07974	1.96477
1139.846	0.45410	0.19630	0.75340	1.18595
1143.845	0.32704	0.11627	0.88096	2.27387
1147.844	0.16707	-0.39877	-0.99918	1.24262
1151.868	2.45966	0.27137	-1.51851	1.69839
1155.857	2.68638	2.48502	-1.68022	3.55748
1159.871	-0.94778	0.75971	-0.89448	0.71956
1163.849	-0.45038	0.69346	0.46547	2.50788
1167.845	4.90967	-0.64140	0.55406	2.26803
1171.847	-0.30384	-0.33267	-1.38344	0.57534
1175.847	-1.64345	-0.56976	-1.60982	1.73902
1179.848	-0.02023	-0.68821	-0.52322	0.28759
1183.843	-0.88944	1.01677	0.74248	-0.05051
1187.848	0.88746	0.99365	-0.79665	4.29277
1191.846	3.69244	2.80620	-0.60238	2.68019
1195.848	-1.53540	-1.08812	-0.06691	2.07085
1199.846	-1.29100	0.96163	-0.73804	2.09340
1203.845	-1.44334	2.00489	0.18166	-0.10081
1207.844	-0.38474	-0.49915	-1.01551	1.71639
1211.849	-0.38819	0.03787	-0.83714	0.65838
1215.849	-0.15801	-0.27706	-1.60759	0.25510
1219.844	0.21130	3.89548	-0.50393	1.79710
1223.843	-1.20705	0.10802	-0.57786	-0.37202
1227.867	-0.31756	0.64885	-0.11704	0.70312
1231.851	0.97571	0.08602	-0.05246	0.71937
1235.849	0.29600	-0.20329	-0.42261	0.61927
1239.852	-0.76302	-0.09201	-0.42390	0.82799
1243.845	-0.57855	0.02768	-0.89207	1.16803
1247.843	-0.44254	0.36907	-0.73960	0.75528
1251.849	-0.00730	0.24315	-0.60134	0.55466
1255.846	-0.37467	0.84343	-0.44547	0.49514
1259.844	-0.15025	-0.24128	-0.45207	0.62394
1263.718	2.80729	-3.56790	-0.76260	0.66321
1267.720	2.98272	-2.47968	-0.46825	0.82811
1271.717	2.77176	-0.47433	-0.36687	0.73019
1275.718	0.24830	0.67884	-0.50647	0.96765
1279.722	0.23909	3.33560	-0.51694	1.37240
1283.725	0.53446	2.98119	-0.51865	1.57557
1287.718	1.32356	0.48683	-0.42507	0.76601
1291.717	0.75838	0.46995	-0.29898	0.65981
1295.769	1.05649	0.52801	-0.26972	1.04513
1299.731	0.65910	-2.30592	-0.12225	2.94409
1303.725	0.86917	0.56538	-0.12645	1.06208
1307.719	1.44185	0.52063	-0.26962	1.70776
1311.720	0.87659	0.34618	-0.40862	1.45566
1315.723	0.74690	0.51226	-0.26525	1.10283
1319.719	0.55302	2.13869	-0.73757	1.23806
1323.770	0.59965	1.54498	-0.38636	1.61342
1327.726	2.01481	4.43281	-0.11945	1.25970
1331.720	1.85918	1.64898	-0.45832	1.46452
1335.718	2.68640	0.86560	-0.62141	1.57614
1339.716	1.08954	1.96499	-0.21266	1.28778
1343.715	2.28224	1.31536	-0.32712	1.53665
1347.720	1.38366	1.50850	-0.34568	1.10195
1351.718	1.11085	1.59624	0.09654	1.12748
1355.716	0.45676	1.64406	-0.44132	1.21672
1359.720	0.01276	0.94557	-0.35732	1.20396
1363.719	-0.17702	1.54285	-0.17732	1.00266
1367.729	1.75959	1.25201	-0.28183	1.42797
1371.716	3.44340	1.48966	-0.61871	0.99108
1375.718	0.89257	0.82007	-0.61141	0.86804
1379.721	-0.22696	1.18811	-0.15387	0.88674
1383.716	-0.27451	1.04868	0.07525	0.47732
1387.716	0.78947	0.88033	-0.13729	-1.37285
1391.715	0.86031	1.37836	-0.49274	-0.36454
1395.720	0.82674	1.23816	-0.64057	-0.58787
1399.716	-0.93334	0.74441	-0.75362	0.04182
1403.715	0.90656	-3.06581	-1.09202	-0.12542
1407.724	0.44812	0.78268	-0.69404	0.42585
1411.741	0.99353	1.00504	-0.03879	-0.00877
1415.726	-2.40845	1.32368	-0.02745	-0.82012
1419.714	-0.14044	0.98835	-0.43187	-0.33970
1423.720	1.07835	1.02166	0.07043	-0.02783
1427.716	0.89699	0.91143	-1.04826	-0.17618
1431.739	0.68206	3.16878	-0.54466	0.00969
1435.721	-0.62965	1.01229	-0.45021	-0.69135
1439.722	0.37164	0.81635	-0.38834	-0.54069
1443.715	0.69652	-0.20949	-0.67801	-1.14549
1447.715	1.73284	-1.18241	-0.63521	-2.16372
1451.724	0.56394	-1.08101	-3.25013	-4.65697
1455.719	1.36677	-3.06428	-1.64955	-4.49785
1459.717	0.06078	-1.91645	-0.81463	-4.84564
1463.714	0.31009	-1.54634	-0.86255	-5.97403
1467.718	0.20904	-4.69472	-0.86151	-5.29119
1471.717	0.09031	-4.88885	-0.94740	-5.60030
1475.717	1.34703	-6.09919	-0.43197	-5.20483
1479.713	1.91152	-6.09374	-0.98958	-5.09066
1483.719	2.10674	-7.32689	-0.73739	-5.14390
1487.716	1.92493	-3.86441	-1.03007	-5.29049
1491.722	0.23956	-4.99188	-0.67533	-5.53212
1495.715	1.87711	-2.51946	-0.67399	-5.88614
1499.753	-0.11503	-5.15037	-0.64627	-5.78977
1503.725	0.01680	-5.26656	0.02234	-5.93087
1507.716	0.29903	-4.99331	-0.09729	-4.49209
1511.714	-0.02869	-3.40863	0.19519	-4.73190
1515.719	1.40767	-3.38008	0.17179	-5.34205
1519.716	0.33005	-3.35363	-0.20234	-5.56600
1523.718	0.36812	-3.36293	-0.22596	-5.72855
1527.713	0.14126	-3.39285	-0.08073	-5.77730
1531.718	-0.19549	-3.32310	0.04393	-5.91344
1535.744	-0.06269	-3.34160	0.12238	-5.78816
1539.717	0.28892	-4.10193	0.23676	-5.95607
1543.712	-0.46222	-4.24563	0.13632	-5.77485
1547.712	1.96402	-3.36090	0.00280	-5.48659
1551.716	2.36492	-3.71934	-0.02804	-5.55727
1555.716	0.07428	-3.54725	-0.16372	-5.58759
1559.713	0.02884	-3.27651	-0.00906	-5.69858
1563.715	-0.26967	-3.49792	0.05713	-5.46669
1567.719	-0.19953	-2.35597	0.17310	-5.29822
1571.714	-0.17419	-3.36489	0.14573	-4.60063
1575.728	-0.07937	-3.07374	-0.02703	-4.87050
1579.714	0.12655	-3.94424	-0.11898	-4.46863
1583.713	0.04341	-4.09405	0.06013	-3.77884
1587.710	0.13436	-4.43417	-0.08949	-3.27366
1591.715	0.36740	-4.20273	0.44142	-4.69711
1595.713	0.38072	-4.63464	0.18817	-6.34682
1599.709	-0.40018	-5.12011	0.08031	-5.10616
1603.715	0.20363	-4.44529	0.11391	-4.97174
1607.711	0.89666	-4.20163	0.03142	-4.99629
1611.714	0.47105	-4.19644	-0.06793	-4.85727
1615.715	0.77613	-3.63818	-0.28754	-4.86674
1619.718	0.71332	-2.85898	-0.16231	-4.82212
1623.720	0.64697	-2.08647	-0.09173	-4.87155
1627.711	0.81677	-3.02847	-0.14362	-4.95033
1631.717	1.13347	-2.58119	-0.20045	-4.95429
1635.737	1.30518	-2.75626	-0.31898	-4.98692
1639.716	0.86250	-2.75158	-0.49247	-5.10407
1643.716	0.79057	-2.73968	-0.45207	-4.89161
1647.712	0.96822	-2.73092	-0.65881	-5.00805
1651.712	1.22645	-2.84613	-0.34114	-5.03706
1655.710	1.64932	-3.30355	-0.40661	-5.30976
1659.723	1.09899	-3.63368	-0.42189	-5.56152
1663.716	1.00189	-4.00680	-0.21244	-5.59243
1667.713	1.55963	-2.71419	-0.09992	-4.97202
1671.710	0.96864	-3.93625	-0.29054	-3.60998
1675.716	2.52490	-4.37982	-0.14687	-3.64347
1679.717	2.13105	-4.20871	-0.63789	-3.70124
1683.711	1.74690	-4.71888	-0.44261	-3.54474
1687.710	1.59541	-3.91462	-0.24071	-4.16400
1691.719	1.91075	-3.89695	-0.42718	-4.54929
1695.715	2.20664	-4.01935	-0.50786	-4.17830
1699.722	1.36003	-3.63071	-0.17261	-4.55144
1703.716	0.85384	-3.60933	-0.36653	-4.50781
1707.716	0.98735	-4.17441	-0.51081	-4.83774
1711.711	1.38934	-3.68339	-0.54369	-4.93624
1715.710	1.56211	-3.45959	-0.54625	-4.87551
1719.717	1.94278	-3.65834	-0.48388	-5.29778
1723.713	1.91687	-3.67234	-0.64146	-5.11955
1727.714	1.54205	-3.65276	-0.38936	-5.09211
1731.708	4.47400	-6.02585	-0.52793	-5.02429
1735.716	3.85904	-4.70987	-0.48959	-4.93302
1739.723	2.88787	-5.05783	-0.66985	-4.97366
1743.716	1.78500	-4.77036	-0.61409	-4.94910
1747.710	1.53684	-4.38792	-0.59771	-4.97942
1751.714	-0.93654	-6.87887	-0.60714	-4.72337
1755.711	3.46555	-6.67495	-0.42326	-4.73014
1759.707	2.89817	-6.75178	-0.34246	-4.53864
1763.713	1.25193	-6.51082	-0.68551	-4.31040
1767.715	1.36568	-6.43003	-0.58329	-4.12620
1771.712	0.17040	-5.24492	-0.70340	-3.50862
1775.712	2.04738	-5.92026	-0.47584	-3.24086
1779.710	1.05136	-5.43308	-0.71838	-3.59301
1783.713	1.47275	-4.34503	-0.67032	-4.40177
1787.713	-0.51336	-2.00115	-2.95304	-3.37724
1791.709	-1.02407	-4.79110	-1.95138	-2.80874
1795.707	-1.49914	-2.41819	-3.54910	-0.69034
1799.711	-2.60104	-1.74887	-3.70418	-0.14291
1803.709	-3.86148	-1.64316	-4.25956	0.04622
1807.708	-4.86453	-1.46951	-5.86005	-0.03458
1811.713	-3.75370	-1.31370	-4.67941	-0.54167
1815.709	-3.55441	-1.70826	-4.77372	-0.86025
1819.707	-4.28212	-1.52645	-4.61894	-1.85169
1823.716	-4.50700	-1.49296	-4.23530	-2.22179
1827.714	-5.11903	-1.24619	-4.59862	-0.25448
1831.716	-4.21155	-0.15828	-5.00305	-0.23730
1835.708	-4.60259	-0.33611	-5.06484	-0.30779
1839.713	-4.02752	-0.98832	-4.59837	-1.28842
1843.713	-4.41879	-1.26814	-4.78102	-1.84446
1847.710	-4.69105	-1.43627	-4.58326	-1.40087
1851.708	-4.09056	-1.26385	-5.30119	-0.79147
1855.712	-4.40628	-1.16794	-4.82713	-0.80948
1859.709	-3.80058	-0.77295	-5.06597	-1.00637
1863.708	-3.69108	-0.48922	-4.80539	-1.00191
1867.711	-4.44427	-0.66427	-4.58587	-1.48619
1871.715	-4.53063	-1.43348	-4.46781	-1.26506
1875.710	-4.39952	-1.04404	-5.37303	-0.38695
1879.710	-4.28767	-1.49689	-4.86170	-0.63699
1883.711	-4.08434	-0.38093	-5.12789	-1.00862
1887.708	-3.90074	-0.53742	-4.87182	-1.19682
1891.704	-4.18561	-0.99347	-4.80527	-1.46974
1895.712	-4.57734	-1.10128	-4.52291	0.87861
1899.707	-3.91474	-1.19238	-5.41170	-0.03498
1903.706	-4.35837	-0.42970	-4.81229	-0.79259
1907.717	-4.16655	-0.39742	-4.94593	-1.25048
1911.715	-4.18159	-0.84829	-4.89439	-1.34978
1915.709	-3.94273	-1.43793	-4.76791	-1.58733
1919.709	-3.93398	-1.57252	-4.77648	0.86431
1923.706	-3.88851	-0.72887	-4.93807	0.24108
1927.712	-4.19269	-0.60705	-5.59841	-0.12852
1931.708	-4.25519	-0.85541	-4.97884	-1.05703
1935.708	-4.20987	-1.27419	-4.48525	-1.48952
1939.708	-3.66810	-1.69885	-4.70219	0.34270
1943.714	-3.79779	-0.51202	-4.81239	-0.98848
1947.710	-4.07945	-0.95837	-5.28820	-1.25337
1951.709	-4.28683	-1.29982	-4.69292	0.86429
1955.712	-4.17460	-1.01412	-4.75886	0.34847
1959.709	-4.19242	-0.64058	-4.39067	-0.33522
1963.740	-4.09725	-0.92804	-5.02738	0.03461
1967.703	-4.14937	-1.82359	-4.84689	0.49150
1971.709	-4.27716	-0.84015	-4.45424	-0.95604
1975.713	-4.31427	-0.56077	-3.97005	-1.08684
1979.709	-4.26968	-0.79207	-4.76128	0.55037
1983.706	-3.90135	-1.01558	-4.90875	0.25273
1987.703	-4.08977	-2.16370	-5.02598	-0.11191
1991.714	-3.78869	-1.34458	-4.52123	-0.61870
1995.706	-4.23885	-0.28017	-4.45762	-0.97848
1999.775	-4.36740	-0.21908	-3.90259	0.28336
2003.719	-4.41891	-0.47268	-4.97211	0.68171
2007.707	-4.31469	-0.68473	-4.75489	0.09900
2011.709	-3.38484	-1.33565	-4.82146	-0.11603
2015.708	-3.59940	-1.56839	-4.58977	-0.12873
2019.706	-3.91464	-1.86805	-4.81838	-0.89753
2023.702	-4.28123	-1.89687	-4.02302	-1.01233
2027.708	-4.09164	-0.65335	-4.09678	-0.52247
2031.711	-4.22022	-0.40054	-5.01640	0.79072
2035.709	-4.78326	-0.84954	-6.34660	0.38744
2039.704	-3.94636	-0.62191	-2.54348	0.09508
2043.709	-4.15882	-0.84169	-3.57904	0.10468
2047.706	-3.84263	-0.88396	-4.51309	-0.16127
2051.710	-3.47346	-0.88918	-4.07824	-0.14589
2055.708	-3.70551	-0.70133	-4.50777	0.10546
2059.706	-3.27633	-0.67412	-4.16243	0.14808
2063.703	-3.70732	-0.56203	-5.59614	0.13308
2067.728	-3.56625	-0.57789	-6.52179	0.20773
2071.713	-3.91062	-1.38167	-6.03081	0.81792
2075.712	-4.01384	-1.58052	-2.39406	0.17578
2079.709	-4.18558	-2.01288	-2.31034	-0.09102
2083.706	-1.64647	-2.53752	-4.22940	-1.68862
2087.706	-4.41255	-1.30859	-4.34633	-0.47329
2091.702	-2.97265	-2.79305	-4.68967	-0.74336
2095.708	-1.17210	-4.35368	-4.15083	-1.83096
2099.704	-0.93802	-4.40000	-2.48200	-1.13948
2103.704	-2.64448	-2.75404	-2.72917	-0.85110
2107.707	-2.35519	-3.08740	-3.80265	-0.33013
2111.711	-3.08555	-2.95231	-3.83875	-0.72747
2115.587	-3.09188	-3.04733	-3.23452	-0.80229
2119.584	-3.10710	-4.59024	-3.60828	-0.36800
2123.584	-3.93833	-3.89497	-3.19773	-0.61426
2127.589	-2.75108	-3.42512	-3.28229	-1.84848
2131.581	-2.75230	-3.41376	-3.14966	-2.46339
2135.581	-2.53996	-3.37647	-3.45999	-2.87995
2139.582	-2.57189	-3.53540	-3.34690	-2.57064
2143.584	-2.55037	-3.36798	-3.26708	-2.93363
2147.581	-2.60931	-3.38834	-3.18947	-2.83917
2151.626	-2.71637	-3.31020	-3.12046	-2.68399
2155.584	-2.58514	-3.45249	-3.15327	-2.15949
2159.581	-2.53387	-3.40969	-3.58220	-2.50347
2163.584	-2.56156	-3.37988	-3.42515	-2.36996
2167.583	-2.58440	-3.37603	-3.18069	-2.21919
2171.574	-2.63455	-3.37412	-3.11386	-2.45808
2175.582	-2.65741	-3.31746	-3.02715	-2.35253
2179.605	-2.64153	-3.36915	-3.07864	-2.31219
2183.586	3.92828	-6.71280	-3.17712	-2.13444
2187.576	-2.77458	-3.31285	-3.51359	-2.13965
2191.579	-2.84888	-3.30399	-3.82494	-2.07953
2195.579	-2.89200	-3.43845	-4.13317	-2.04319
2199.582	-3.12487	-3.27731	-4.25065	-1.98937
2203.588	-3.29607	-3.21786	-4.65156	-1.90650
2207.578	-0.40234	-3.36529	-4.15737	-1.68605
2211.575	-3.50430	-3.47142	-4.08718	-1.68902
2215.580	-3.81931	-3.50034	-4.15707	-0.81013
2219.577	-3.33822	-3.18303	-3.79596	-0.75069
2223.576	-1.49113	0.17306	-3.82198	-0.60582
2227.574	-2.94651	-2.50468	-3.55201	-1.18375
2231.581	-4.41753	-3.39102	-3.63040	-2.14057
2235.577	-3.21166	-1.61687	-3.21473	-2.15545
2239.576	-2.48730	-3.55010	-3.50687	-2.45802
2243.574	-2.94158	-3.62290	-3.69951	-2.65076
2247.587	-2.96448	-3.61079	-3.91872	-2.27985
2251.589	-2.86524	-3.46707	-4.36550	-1.71565
2255.584	-3.03796	-3.61915	-3.49673	-2.50649
2259.576	-3.70082	-3.56934	-3.48214	-0.98787
2263.576	-3.89864	-3.50224	-3.32355	-1.58937
2267.577	-2.80654	-2.99421	-3.35877	-1.77030
2271.579	-2.97017	-2.30771	-3.40079	-1.46789
2275.581	-2.99309	-1.88315	-3.72803	-1.24209
2279.575	-1.16932	-3.50949	-3.65537	-1.41879
2283.575	-3.13301	-2.14152	-4.63952	-1.54909
2287.584	-3.00972	-2.26863	-4.71190	-1.28017
2291.577	-3.37170	-2.03228	-3.64724	-0.36377
2295.577	-3.14649	-1.99259	-3.53913	-0.91905
2299.581	-3.15993	-2.45128	-3.54576	-0.99239
2303.577	-0.78486	-2.34803	-3.50984	-0.77674
2307.576	-2.96901	-2.37364	-3.91272	-0.88788
2311.578	-2.82853	-1.89770	-4.22268	-0.75897
2315.599	-3.02655	-2.08372	-4.39918	-1.06220
2319.583	-3.22171	-2.20359	-3.71337	-1.51923
2323.581	-3.09419	-2.34542	-4.23801	-2.47490
2327.576	-3.17500	-2.43376	-4.04419	-2.30746
2331.581	-3.04501	-2.19101	-3.82506	-2.56786
2335.573	-2.98968	-2.53153	-3.38474	-2.29041
2339.579	-2.99448	-2.58934	-3.70255	-1.80264
2343.578	-3.01648	-2.84980	-4.29799	-1.31528
2347.575	-3.10970	-3.06468	-4.39111	-1.16338
2351.574	-3.11698	-3.08420	-4.43002	-1.23105
2355.579	-3.30492	-2.95173	-3.73626	-1.47483
2359.576	-3.28914	-2.88979	-3.88972	-1.53445
2363.577	-3.47072	-3.07289	-3.93757	-1.87525
2367.574	-2.75173	-2.96885	-3.68970	-1.48976
2371.583	-2.90433	-3.09331	-4.28575	-1.49960
2375.639	-3.37942	-3.25839	-4.69152	-1.54707
2379.578	1.53009	-6.09377	-4.05369	-1.42632
2383.587	-3.56420	-3.38379	-3.95839	-1.37959
2387.583	-3.67091	-3.39817	-4.05495	-1.67180
2391.575	-3.00061	-3.04089	-3.74011	-1.47223
2395.575	-3.00289	-2.93093	-3.57466	-1.49842
2399.579	-3.31435	-2.84599	-4.67362	-1.38569
2403.573	-3.62348	-2.41449	-3.64872	-0.89254
2407.574	-3.57409	-2.75310	-5.05563	-1.54383
2411.575	-4.80768	-0.53855	-4.64862	-1.09932
2415.576	-3.79606	-3.51437	-6.93692	-0.44795
2419.576	-7.12261	1.24421	-9.36281	-0.12404
2423.575	-9.74762	-0.17898	-11.85390	1.69723
2427.572	-10.47050	1.79568	-12.41658	3.23577
2431.576	-12.74803	1.23396	-12.87454	3.50355
2435.575	-13.02104	1.94288	-14.12961	4.43255
2439.573	-13.22133	4.05033	-14.73504	4.61281
2443.579	-13.55663	4.56718	-15.01281	4.41964
2447.575	-14.60995	4.95625	-15.30674	5.53834
2451.575	-12.97083	4.94577	-15.61364	5.86455
2455.581	-13.72559	4.88814	-15.77320	5.27577
2459.576	-13.76710	9.13926	-15.60447	5.29340
2463.569	-13.99382	8.95216	-15.75104	5.26394
2467.576	-16.33372	12.91494	-15.49730	5.42231
2471.573	-15.75180	8.81080	-15.73398	5.15935
2475.574	-17.25266	12.46532	-15.45866	5.19600
2479.569	-17.27602	8.39254	-15.45887	5.19272
2483.576	-14.24238	8.91385	-14.81825	5.33982
2487.574	-17.27104	13.57345	-15.66634	5.18934
2491.574	-17.89723	12.87639	-15.03288	5.15023
2495.574	-17.50067	8.92538	-15.35621	4.80004
2499.573	-19.90340	-12.08413	-15.39204	4.85132
2503.579	-19.94777	-12.08084	-15.37665	4.95476
2507.574	-19.96321	-12.07969	-14.92255	5.02869
2511.569	-17.58961	11.34450	-15.32036	4.65090
2515.576	-19.97040	-12.07916	-14.98602	4.71505
2519.580	-19.97584	-12.07875	-15.03515	4.79104
2523.579	-18.47474	14.13898	-14.99387	4.84483
2527.572	-19.60985	14.04211	-15.14703	4.97065
2531.575	-19.89842	-12.08450	-15.16255	5.00518
2535.590	-19.91961	-12.08293	-15.14460	5.33569
2539.617	-19.92847	-12.08227	-15.31498	5.42005
2543.583	-19.92996	-12.08216	-15.34220	6.02550
2547.573	-19.93176	-12.08203	-15.19130	5.76348
2551.572	-19.93382	-12.08188	-15.30967	5.40007
2555.576	-19.94130	-12.08132	-15.20940	5.14632
2559.574	-19.94330	-12.08117	-15.19126	4.99463
2563.624	-19.94545	-12.08101	-15.34414	5.25227
2567.578	-19.96170	-12.07981	-15.36961	5.49825
2571.572	NaN	NaN	-15.56512	5.71499
2575.574	NaN	NaN	-15.35586	6.23196
2579.576	NaN	NaN	-14.88799	5.82293
2583.576	NaN	NaN	-15.44970	5.34214
2587.600	NaN	NaN	-15.17196	5.35661
2591.576	NaN	NaN	-15.20030	5.33262
2595.571	NaN	NaN	-15.20852	4.99101
2599.568	NaN	NaN	-15.26921	5.25148
2603.574	NaN	NaN	-15.29979	5.33765
2607.571	NaN	NaN	-15.68076	5.40047
2611.569	NaN	NaN	-15.08458	5.25343
2615.568	NaN	NaN	-13.54420	5.59578
2619.579	NaN	NaN	-14.88718	5.40033
2623.573	-11.51778	5.80819	-15.01976	4.75521
2627.576	-11.94254	5.84985	-15.11528	5.19384
2631.572	-14.12940	6.09799	-15.27171	5.17712
2635.570	-13.84616	6.37460	-15.13450	4.96823
2639.569	-16.38024	6.98927	-15.24353	5.21560
2643.572	NaN	NaN	-15.41688	5.13303
2647.571	NaN	NaN	-15.24240	5.19770
2651.569	-20.04845	14.29815	-15.15233	5.05469
2655.593	-20.03989	-12.07398	-15.20016	5.14595
2659.572	-20.03851	-12.07409	-15.22440	5.06977
2663.580	-12.75448	6.01957	-15.23526	4.99554
2667.572	-12.61575	5.72855	-15.28182	5.10164
2671.569	-15.94139	3.04077	-15.38290	5.36420
2675.567	-14.77760	4.89933	-15.39160	5.48711
2679.576	-14.64984	3.18931	-15.44504	5.42879
2683.573	-15.22114	4.19988	-15.37545	5.78543
2687.570	-14.58564	3.28604	-15.22941	5.62188
2691.574	-14.91462	3.40789	-15.27603	5.50032
2695.570	-15.57115	4.87853	-15.50691	4.77318
2699.570	-14.73274	3.74459	-15.48748	5.20965
2703.580	-14.44010	3.20256	-15.20080	5.14192
2707.569	-14.39899	3.28865	-15.27538	5.52926
2711.570	-14.13118	3.39858	-15.46178	5.28947
2715.569	-15.31131	4.21162	-15.58113	5.45572
2719.573	-15.05906	4.34304	-14.99021	5.99573
2723.575	-14.33208	3.83169	-14.87846	5.82354
2727.573	-14.44378	4.25201	-14.12530	5.75918
2731.571	-12.93396	3.72213	-11.72236	5.25866
2735.568	-12.26123	3.78181	-10.74760	4.98938
2739.573	-10.57028	3.05094	-9.42417	3.03214
2743.576	-10.67584	2.95423	-8.98513	3.92153
2747.575	-8.27759	2.32457	-9.13044	3.46468
2751.579	-9.87815	1.96555	-8.99988	3.12107
2755.573	-9.07409	1.63140	-8.98719	3.92569
2759.573	-8.67539	2.24798	-9.59344	3.69813
2763.567	-7.68652	1.83139	-9.31789	3.55482
2767.572	-7.76625	1.75723	-9.14119	3.92789
2771.570	-9.01116	1.38196	-9.23149	4.41706
2775.570	-7.75909	1.33671	-9.03716	3.97453
2779.566	-7.52535	1.82310	-9.05500	3.74835
2783.572	-8.44523	1.57425	-9.00615	4.49712
2787.573	-8.92280	1.69627	-9.19176	4.02735
2791.573	-8.25486	1.78655	-8.97627	4.10764
2795.575	-7.84978	1.79495	-8.95685	4.36836
2799.567	-8.84915	1.99060	-9.25458	4.30700
2803.567	-8.73206	2.13549	-8.82012	4.02647
2807.573	-8.33231	1.93622	-8.89775	4.39265
2811.568	-9.01520	1.93211	-8.90621	4.27438
2815.637	-9.53634	1.99644	-8.82591	4.09897
2819.581	-8.19686	1.93843	-8.95351	4.25000
2823.571	-8.66513	2.05758	-9.13930	4.36733
2827.571	-8.58767	1.87296	-8.71867	3.91502
2831.568	-8.39627	1.98118	-8.87711	4.30580
2835.565	-8.75235	1.84844	-9.13090	3.50126
2839.568	-9.15713	1.68977	-8.63066	3.13684
2843.566	-8.48712	2.02507	-9.18025	3.48602
2847.564	-8.23328	1.46771	-9.15691	3.13215
2851.570	-9.91228	1.68403	-8.38109	2.73613
2855.568	-8.64073	1.91272	-9.49202	2.68250
2859.569	-7.86413	1.83268	-8.88235	2.75835
2863.572	-8.58823	1.84677	-8.83602	2.71453
2867.566	-9.21977	1.77880	-8.90415	2.96267
2871.572	-7.88478	1.79770	-8.97855	3.66010
2875.574	-8.79162	1.64623	-8.80204	2.99368
2879.567	-9.29452	1.71496	-8.81797	4.03331
2883.570	-8.12454	1.75430	-9.56919	2.92977
2887.569	-8.64941	1.72157	-8.46522	3.08042
2891.566	-9.41298	1.82995	-8.93723	2.37503
2895.565	-8.08068	1.83216	-8.82015	2.67681
2899.570	-8.51319	1.75993	-8.67359	2.64566
2903.567	-9.45899	2.45482	-9.23935	2.75400
2907.566	-8.16267	1.75482	-8.66176	2.68646
2911.568	-8.47660	2.06182	-8.87869	2.67347
2915.569	-9.14048	3.03043	-9.43849	3.28481
2919.566	-8.16051	2.99522	-8.79783	2.73321
2923.565	-8.57830	2.55876	-9.00072	2.96205
2927.567	-8.81545	2.78435	-9.42796	3.22170
2931.569	-8.61128	2.77227	-9.21038	3.01144
2935.564	-8.17320	2.73016	-9.49043	3.15008
2939.570	-9.21121	2.52487	-9.40914	3.39425
2943.566	-8.12559	2.58979	-8.90953	3.30695
2947.566	-8.84416	2.32401	-9.36390	3.54446
2951.574	-8.60548	2.74003	-8.61169	3.50278
2955.570	-8.32847	2.88573	-12.18011	3.44194
2959.567	-9.25345	2.99422	-16.81731	3.02968
2963.562	-9.88649	3.36181	-8.49925	3.44794
2967.570	-14.10167	3.73845	-4.90417	1.71488
2971.440	-13.77715	8.25912	-7.66712	0.90957
2975.441	-15.48142	8.94306	-19.99368	-12.07743
2979.436	NaN	NaN	-19.99370	-12.07743
2983.443	NaN	NaN	-19.99370	-12.07743
2987.440	NaN	NaN	NaN	NaN
2991.440	NaN	NaN	NaN	NaN
2995.857	NaN	NaN	NaN	NaN
3000.223	NaN	NaN	NaN	NaN
3004.463	NaN	NaN	NaN	NaN
3008.121	NaN	NaN	NaN	NaN
3011.641	NaN	NaN	NaN	NaN
3015.448	NaN	NaN	NaN	NaN
3019.457	NaN	NaN	NaN	NaN
3023.447	NaN	NaN	NaN	NaN
3027.446	NaN	NaN	NaN	NaN
3031.444	NaN	NaN	NaN	NaN
3035.440	NaN	NaN	NaN	NaN
3039.445	NaN	NaN	NaN	NaN
3043.459	NaN	NaN	NaN	NaN
3047.451	NaN	NaN	NaN	NaN
3051.447	NaN	NaN	NaN	NaN
3055.686	NaN	NaN	NaN	NaN
3059.847	NaN	NaN	NaN	NaN
3066.628	NaN	NaN	NaN	NaN
3070.755	NaN	NaN	NaN	NaN
3075.123	NaN	NaN	NaN	NaN
3079.235	6.70352	0.28085	NaN	NaN
3081.746	9.10673	3.37151	15.01945	13.62969
3084.223	4.93403	4.24705	8.20486	6.00101
3087.457	6.66464	0.34124	8.41840	5.91302
3091.438	6.20308	3.76554	8.55566	3.27927
3095.443	6.32505	2.43232	8.35974	4.03883
3099.438	6.48945	0.42384	7.59571	3.51760
3103.444	3.61016	3.11311	10.62900	4.15224
3107.438	6.67586	2.73944	8.28449	4.32465
3111.435	6.42574	1.26724	10.99286	4.65105
3115.440	6.54467	3.02069	6.40300	3.98436
3119.438	6.51209	0.83368	6.16079	3.81161
3123.443	3.49409	0.53310	5.44338	3.29170
3127.463	6.26341	2.38997	7.66911	3.92308
3131.444	5.41945	0.91493	2.89990	3.23005
3135.441	6.25855	0.36152	5.68064	3.74044
3139.443	5.67632	2.09332	0.73695	2.98571
3143.438	6.60784	0.75285	5.46195	2.96714
3147.437	4.98438	0.37414	5.13545	3.14023
3151.436	6.95619	0.31210	4.90141	3.07912
3155.440	5.21567	0.79908	8.15443	2.93761
3159.437	5.29656	0.31040	4.91316	3.91406
3163.437	6.90950	-0.31662	4.68119	4.02280
3167.441	5.53080	1.10021	5.00869	3.26141
3171.441	4.97231	0.97506	5.91634	2.87524
3175.441	6.19272	0.23691	5.19556	2.84644
3179.441	7.11320	-0.10891	4.98773	3.00585
3183.435	6.16618	0.72734	4.84627	2.98300
3187.440	4.98536	1.03643	4.85460	3.58145
3191.436	4.95925	0.76843	5.45604	3.27590
3195.438	5.68910	0.26744	5.55278	2.87248
3199.438	4.74772	-0.09789	5.32547	3.19561
3203.440	4.59788	0.74625	5.30326	3.56373
3207.447	4.90028	-4.78859	5.05274	3.39542
3211.438	4.62766	-5.76673	4.90614	2.89275
3215.437	6.39920	-3.00720	5.74807	2.93067
3219.433	5.60440	0.55464	5.52416	3.81103
3223.441	5.69185	0.10707	5.21690	3.44115
3227.498	5.16652	0.74334	5.04826	3.05402
3231.441	5.05947	0.24797	5.26607	3.07940
3235.432	5.21698	-0.01878	4.80825	3.00821
3239.440	4.65565	0.42294	6.36837	3.03290
3243.435	5.16735	0.71927	5.10632	3.12739
3247.436	6.24860	0.77277	5.50014	3.14429
3251.455	6.35121	0.42226	4.61156	4.79391
3255.442	6.15782	-0.23940	5.18591	3.13682
3259.434	6.46363	0.11876	5.31930	3.05572
3263.432	5.19544	0.75692	4.62392	3.39934
3267.437	5.57466	0.15972	4.44092	3.89008
3271.438	6.03346	0.12981	5.01558	3.12089
3275.435	6.37447	-0.21517	5.01061	3.12074
3279.438	6.27049	0.04345	4.80640	3.28306
3283.435	6.41315	0.24785	4.73572	4.18824
3287.434	5.70296	0.30465	4.64174	3.77593
3291.442	5.86917	0.78092	4.32281	3.34355
3295.435	6.30757	0.48196	4.70399	3.46469
3299.432	5.55659	0.07457	4.57347	3.78342
3303.437	5.33315	0.42636	3.70695	4.26350
3307.435	5.94278	0.08959	4.75336	4.36579
3311.433	6.15865	0.06969	4.66300	4.34769
3315.440	6.77555	0.00967	4.53199	4.47469
3319.438	5.88105	0.32878	4.36207	4.47340
3323.435	5.24083	1.05952	4.71866	4.35813
3327.431	6.77418	0.21268	4.35899	4.45931
3331.444	6.40236	0.31070	4.78646	3.92438
3335.438	6.94809	-0.02736	4.73278	3.88337
3339.437	6.17246	-0.09519	6.48161	3.76324
3343.435	5.23371	0.42960	6.87242	3.24904
3347.434	5.25151	0.45648	7.08062	2.65958
3351.431	5.26066	0.30774	6.27633	3.22949
3355.437	5.24304	0.47267	6.55819	3.13487
3359.433	5.55792	0.58601	5.69268	3.25691
3363.434	5.42520	0.81783	5.15091	3.24478
3367.431	6.34834	0.69612	4.95790	3.32772
3371.437	6.77717	0.47509	5.09074	3.50644
3375.445	6.11270	0.52115	4.98889	3.33373
3379.435	6.40570	0.42209	5.03194	3.25130
3383.436	5.81105	-0.25683	5.24629	3.44205
3387.435	5.96691	-0.03383	5.04481	3.45056
3391.433	6.16442	-0.02861	5.86477	3.34425
3395.436	6.31311	0.37432	4.85423	3.56236
3399.435	6.71960	0.46962	4.89552	3.73319
3403.433	6.44919	0.58547	4.90592	3.87088
3407.435	5.05641	0.86775	4.69499	3.95349
3411.437	5.19721	1.24982	4.59884	4.24087
3415.438	6.58002	0.67810	4.53805	3.71908
3419.430	7.18159	0.41482	4.59433	3.88401
3423.436	4.85041	1.14043	4.61916	3.64666
3427.432	4.67567	0.51765	5.20472	3.59831
3431.466	4.43562	0.64622	6.13814	3.19231
3435.427	4.98199	0.52717	4.79521	2.64685
3439.435	6.60553	0.51596	4.43169	3.19961
3443.435	6.85429	0.68048	4.60357	3.16755
3447.430	7.04247	0.69996	4.73283	3.47728
3451.433	4.58089	1.34817	4.98792	3.02557
3455.432	4.80911	0.83045	5.33837	3.13733
3459.440	4.99135	0.70902	6.64616	3.38443
3463.428	4.25988	0.60279	4.68400	4.12982
3467.435	4.61294	0.64812	3.91536	4.40154
3471.432	4.89752	0.09171	4.62337	3.42901
3475.431	5.12479	-0.04962	4.59416	3.15322
3479.433	5.22648	0.08466	4.57892	3.57926
3483.431	5.00024	0.73861	4.64399	3.22499
3487.430	4.76731	-0.01199	1.66748	3.15123
3491.432	4.53527	1.42527	3.97128	3.55621
3495.431	4.34741	1.27569	3.85133	7.32571
3499.435	3.16775	4.28860	2.42894	6.74527
3503.434	2.33767	4.27390	1.18594	7.93140
3507.429	4.41973	4.08714	2.00906	7.48204
3511.434	2.43823	4.90471	1.20993	8.00954
3515.432	1.85199	5.72496	3.81471	7.69257
3519.431	1.46120	5.88086	1.77692	7.98887
3523.429	3.23658	6.13923	0.87806	7.65490
3527.434	3.85387	5.37226	1.76740	7.86982
3531.431	1.88494	7.68321	1.80566	8.15788
3535.430	4.25095	5.61287	1.60967	7.13253
3539.438	2.18456	7.82705	1.26872	8.08472
3543.459	1.73648	8.18768	-0.05477	8.08234
3547.440	0.75868	5.97415	0.99973	8.29147
3551.434	0.93269	8.41771	1.25974	8.24753
3555.430	1.15434	5.93474	1.28117	8.13416
3559.433	0.64149	6.05002	1.59732	8.53776
3563.480	0.98747	7.85702	1.82638	7.94617
3567.430	0.93515	5.89083	1.63881	8.22461
3571.433	0.69178	5.89438	2.09561	8.27713
3575.431	0.61883	6.70443	1.65213	6.87891
3579.429	0.77131	7.09375	2.06300	8.16228
3583.432	0.98105	6.42823	1.98522	8.42109
3587.437	0.70819	5.52384	2.69205	8.29151
3591.431	0.77436	5.56385	2.18758	5.74404
3595.432	0.70374	6.04844	2.02986	6.62377
3599.435	0.89709	5.90726	2.06753	7.36640
3603.432	0.89324	6.63594	2.00153	7.79477
3607.430	0.79543	6.20624	2.00187	7.78963
3611.457	0.84121	6.24067	2.01786	7.72260
3615.434	1.02526	6.44370	1.91985	7.69559
3619.429	1.19482	6.13776	1.83347	7.65142
3623.437	1.74588	6.34094	1.82162	7.47587
3627.455	3.80891	6.13877	1.67020	6.19071
3631.435	1.59871	7.44139	1.57709	8.06946
3635.433	2.25994	8.35576	1.58210	9.06929
3639.457	1.95956	6.35634	1.46938	7.93537
3643.428	3.58435	6.20893	1.45834	7.75523
3647.426	1.85757	6.34116	1.37593	7.70311
3651.431	1.15354	7.22526	1.29214	8.64462
3655.429	0.82585	7.69236	1.34641	8.80943
3659.426	0.84357	7.56862	1.35789	9.22786
3663.427	1.27356	6.60874	1.35387	9.03269
3667.435	0.95636	6.16361	1.24429	9.17862
3671.429	0.77094	6.13822	1.07674	8.83707
3675.428	1.19192	6.01423	1.26599	8.12235
3679.450	0.94438	5.97404	1.28963	8.44026
3683.438	3.17918	5.13996	1.16820	8.16357
3687.429	1.01399	5.91751	1.08696	8.51299
3691.426	0.97675	6.39867	1.13759	8.11148
3695.432	3.62081	5.94993	1.31436	8.81136
3699.427	3.89071	5.69839	1.59889	8.70637
3703.427	1.94149	5.96220	1.94003	8.57630
3707.436	1.62688	5.96801	1.44902	8.80519
3711.428	1.38282	6.09281	1.14737	8.79302
3715.428	1.06282	6.00774	1.36675	8.95565
3719.427	1.14957	6.31314	1.24230	8.94006
3723.431	0.50875	6.44903	1.13288	9.32737
3727.428	0.78833	6.29986	1.19867	9.41848
3731.425	1.11782	6.63000	1.32401	9.28919
3735.425	0.96194	7.15416	1.35120	9.24488
3739.430	1.48277	7.67294	1.36501	9.21748
3743.430	1.55955	6.92051	1.61101	9.21947
3747.436	4.44990	6.48671	1.48012	9.25299
3751.453	1.78701	7.39948	1.15734	9.17409
3755.441	4.12172	5.35656	1.18024	8.97769
3759.430	1.50643	6.77442	1.38733	8.69338
3763.428	1.65614	6.67278	1.67747	7.37330
3767.425	1.71873	6.63586	1.72024	8.88263
3771.430	1.65123	6.55768	1.42833	9.48847
3775.430	1.27492	6.52944	1.50685	8.84135
3779.425	1.90745	6.17170	1.64910	8.26695
3783.424	2.00973	6.72510	1.68218	9.75415
3787.430	1.52409	8.74768	2.11903	9.70833
3791.434	3.61532	5.94054	1.58966	9.38677
3795.431	3.74599	4.62952	1.45953	9.85718
3799.431	3.90948	5.01508	1.39309	9.58021
3803.432	4.01356	5.41991	1.12995	7.40254
3807.425	4.05031	8.72253	2.73459	10.27428
3811.426	4.05750	6.18326	3.09505	15.21329
3815.455	4.87379	9.31037	1.96665	11.55776
3819.440	4.10046	10.02925	7.59953	10.34411
3823.301	NaN	NaN	NaN	NaN
3827.301	NaN	NaN	NaN	NaN
3831.301	NaN	NaN	NaN	NaN
3835.306	NaN	NaN	NaN	NaN
3839.310	NaN	NaN	NaN	NaN
3843.382	NaN	NaN	NaN	NaN
3847.566	NaN	NaN	NaN	NaN
3851.677	NaN	NaN	NaN	NaN
3855.672	NaN	NaN	NaN	NaN
3859.751	NaN	NaN	NaN	NaN
3863.855	NaN	NaN	NaN	NaN
3867.997	NaN	NaN	0.77419	15.12688
3871.311	NaN	NaN	NaN	NaN
3875.312	NaN	NaN	NaN	NaN
3879.306	6.87240	10.73633	NaN	NaN
3883.321	4.75945	6.89446	NaN	NaN
3887.308	NaN	NaN	1.21062	13.15348
3891.300	4.02485	1.89573	7.39420	9.46784
3895.297	6.44900	7.52670	5.69797	2.38812
3899.299	7.07302	3.83973	9.72342	-1.90496
3903.296	7.51266	1.32372	1.11571	-7.23921
3907.298	7.74776	0.21650	-1.09358	-6.17830
3911.302	5.54093	-0.40079	4.00606	-2.31945
3915.298	4.46507	-1.89581	5.54344	-0.19559
3919.304	5.29189	6.30758	1.08502	-2.60193
3923.302	1.59603	3.27482	0.96921	-1.26041
3927.302	4.34929	-0.67020	-2.76104	-1.87193
3931.299	2.90539	1.22841	-3.34076	-4.98043
3935.299	5.33290	-2.66033	1.97703	-2.30852
3939.297	5.53739	-2.75639	-2.66944	-1.75074
3943.305	6.17393	-2.26563	1.22519	-1.20736
3947.301	3.81372	-2.33966	-2.90109	-2.36962
3951.320	2.93329	-1.58552	2.20409	-2.04548
3955.300	2.17311	0.87965	3.90701	-5.73012
3959.299	3.81286	-2.63918	0.53595	-1.41553
3963.303	5.20647	-3.50026	1.13457	-0.58449
3967.303	4.26529	-2.73155	-3.04907	-1.81456
3971.300	4.72849	-3.08301	2.24024	-1.16380
3975.297	4.90400	-3.18789	2.15938	-1.32872
3979.296	3.80559	-2.76923	-0.40638	-1.58751
3983.302	3.49826	-2.56085	1.85524	-1.30464
3987.299	1.29814	-2.30012	-0.53607	-1.09557
3991.298	0.31821	-1.20238	1.44049	-1.26615
3995.296	1.64749	0.13763	1.53629	-1.40533
3999.299	0.31441	-1.84965	1.29189	-1.30882
4003.315	0.77568	-1.97981	1.42680	-1.28972
4007.306	1.02513	-1.88318	1.70732	-1.19742
4011.302	1.48600	-2.48327	1.88162	-1.02697
4015.298	1.21253	-2.83700	2.02604	-0.79035
4019.324	2.02160	-2.28689	2.77148	-0.35321
4023.300	1.38605	-2.19589	2.17105	-0.84319
4027.298	1.13226	-1.97290	2.05199	-0.38168
4031.302	1.78429	-1.79241	1.82033	-0.89608
4035.300	1.62279	-1.81524	1.85961	-1.49273
4039.300	0.99370	-1.50186	1.74189	-2.40962
4043.297	0.51299	-1.60974	1.57243	-2.12921
4047.305	2.40280	-1.61829	0.70417	-1.99726
4051.299	1.94488	-1.03068	0.30533	-2.00344
4055.299	1.08028	-0.88788	-0.21127	-1.44774
4059.296	1.59509	-1.78531	-0.01082	-1.50122
4063.299	0.33409	-0.78428	-0.16571	-1.57049
4067.298	0.47026	-1.42376	-0.10016	-1.72021
4071.294	0.20474	-0.87131	-1.22372	-2.18978
4075.298	0.66436	-1.51500	0.15370	-2.00564
4079.295	0.37392	-1.51345	0.25292	-1.84487
4083.298	0.08982	-1.93439	2.05194	-0.03320
4087.330	0.63595	-2.26666	1.64984	0.14488
4091.302	0.54379	-1.95868	0.12101	-0.41147
4095.325	0.41286	-1.78340	0.04601	-0.67860
4099.303	0.71690	-1.47192	0.47430	-1.48574
4103.300	0.53617	-1.63290	1.35370	-1.34588
4107.296	0.38395	-1.99719	0.68871	0.49450
4111.315	0.42710	-2.23585	1.07691	-0.29349
4115.303	0.59533	-1.31809	1.23451	-1.18104
4119.299	0.35280	-1.51599	1.31406	-1.09180
4123.296	0.81744	-1.28845	1.36908	-0.82626
4127.329	1.24786	-1.61324	1.39723	-1.11980
4131.305	1.63571	-2.09466	4.60656	-1.24518
4135.296	1.75709	-1.92882	4.35834	3.27622
4139.297	1.82891	-1.97236	4.11300	2.89786
4143.294	1.66098	-2.36683	4.13774	2.41943
4147.299	1.01581	-1.81523	4.52185	2.18822
4151.295	0.36007	-2.06810	1.67650	2.84745
4155.295	0.38881	-2.09993	2.79674	2.60461
4159.301	1.08339	-2.32637	3.78600	-1.22168
4163.295	3.14476	-2.79360	1.89882	-1.35117
4167.296	1.23337	-2.19791	1.66433	-1.36232
4171.298	0.35834	-2.24725	0.25900	-1.23530
4175.302	0.61980	-2.12058	1.06768	-0.26005
4179.295	0.56235	-1.91586	1.09125	0.23066
4183.296	0.28064	-2.42462	1.18830	-0.36560
4187.291	0.54017	-2.34331	1.19207	-2.15835
4191.299	1.25654	-2.21032	1.29390	-1.64357
4195.298	2.00586	-1.41644	1.98070	-0.53554
4199.300	1.05964	-2.00345	2.36175	0.05904
4203.294	0.74436	-2.92645	1.45244	-1.60559
4207.292	0.35529	-2.31898	1.52332	-0.47759
4211.297	0.57647	-1.72070	1.72158	-0.20143
4215.299	1.14759	-2.08976	1.26555	0.18237
4219.296	0.00275	-1.50981	1.13878	0.14196
4223.297	0.43512	-1.82400	1.00191	-2.40099
4227.298	0.61111	-2.49341	1.37330	-1.86116
4231.293	0.42095	-2.14836	1.47196	-1.72945
4235.298	0.11165	-2.26992	1.36362	-1.92454
4239.294	0.34886	-2.50998	1.64268	-2.06476
4243.294	0.33377	-2.67808	1.38165	-1.58754
4247.293	0.29367	-2.56381	1.37617	-1.82698
4251.319	0.02479	-2.42822	-1.71409	-2.08870
4255.308	1.06178	-2.01985	2.09043	-1.89833
4259.292	1.79958	-2.27342	4.70685	-1.84483
4263.297	4.69748	-2.61139	0.06604	-2.75419
4267.295	2.88114	-3.07021	-0.36077	-4.26834
4271.340	2.84613	-4.63746	1.90849	-3.67125
4275.297	3.65734	-3.48443	1.92049	-3.36304
4279.296	3.67813	-2.58735	-1.58130	-3.44466
4283.293	3.51347	-2.42535	-1.95257	-4.27366
4287.293	3.16676	-2.49049	-2.09765	-2.71821
4291.292	2.64121	-3.02772	1.92270	-1.87689
4295.301	1.82381	-3.34201	1.85430	-2.44926
4299.293	1.26850	-3.45901	1.58282	-2.29123
4303.291	1.03230	-3.29958	0.04127	-2.12301
4307.295	1.95939	-4.35370	1.48007	-2.40462
4311.291	1.62973	-3.49564	1.55229	-2.33571
4315.296	2.00289	-2.73765	1.56275	-1.92648
4319.296	1.82356	-3.21950	1.96313	-2.09458
4323.292	3.90857	-3.56831	3.71434	-2.46671
4327.292	4.94263	-2.75348	2.30472	-2.35745
4331.290	3.32580	-2.73991	-0.38472	-2.09643
4335.300	2.29765	-2.96219	3.36985	-2.79933
4339.296	1.37848	-3.40084	1.49726	-1.17552
4343.291	2.05593	-3.13137	1.64528	-2.15579
4347.291	2.19925	-3.38366	2.11606	-3.16244
4351.296	2.74801	-4.40068	1.76239	-3.49572
4355.290	2.35719	-3.78406	1.82125	-2.86296
4359.316	3.82457	-2.97182	1.73626	-2.32552
4363.298	2.04877	-2.63273	2.75928	-1.38054
4367.293	2.00227	-1.38008	1.86794	-0.95416
4371.292	3.87697	-3.61097	2.24004	-1.32319
4375.316	3.05736	-4.71672	2.12622	-2.72661
4379.306	3.04170	-3.97025	1.55526	-0.31330
4383.294	3.00933	-3.96459	2.63494	-2.56428
4387.289	2.88289	-3.96316	2.51646	-3.25074
4391.295	2.94290	-4.34679	-0.56113	-2.66213
4395.291	2.95067	-4.88129	2.58274	-2.52955
4399.290	2.01826	-3.14895	2.63915	-2.33927
4403.295	2.08114	-4.19242	2.70149	-2.43256
4407.292	1.50509	-5.20812	2.55824	-2.49910
4411.289	1.72877	-3.94600	2.29969	-2.51313
4415.290	2.85076	-3.45972	2.27639	-2.53025
4419.298	2.26138	-4.38917	2.46345	-2.67999
4423.294	2.12359	-3.98198	2.58024	-2.51960
4427.322	2.60604	-3.97391	2.51527	-2.50907
4431.300	2.16144	-3.67236	2.33157	-2.58144
4435.295	1.74008	-3.94244	2.18681	-2.47526
4439.293	2.32280	-4.52951	2.05819	-2.48558
4443.290	2.20669	-2.94818	2.03675	-2.60549
4447.293	1.56990	-3.75571	2.15834	-2.65651
4451.290	2.16032	-3.92804	1.87455	-2.55236
4455.290	3.33953	-4.20811	1.56652	-0.90867
4459.287	1.73995	-2.09165	2.38511	-2.26915
4463.298	4.35775	-0.99132	2.52636	-1.22235
4467.290	3.43593	-1.23341	1.71528	-2.95710
4471.291	2.32493	-4.11677	2.19110	-2.17661
4475.287	1.96132	-4.50076	-2.96973	-3.09722
4479.293	3.95930	-3.01881	-1.61567	-2.84999
4483.292	1.87780	-2.79866	-2.35179	-2.64412
4487.291	1.20125	-3.85127	-1.58009	-2.26569
4491.288	1.71823	-3.57236	-2.58618	-0.95017
4495.391	-2.68700	-0.40692	-2.85294	0.47578
4499.302	-4.76970	-3.42183	-7.96383	-1.54311
4503.300	-4.91302	-0.23092	-9.18647	-0.56273
4507.291	-7.95767	-2.02273	-10.73497	-1.83655
4511.289	-9.56735	-0.25533	-14.14796	-2.20629
4515.285	-11.10285	-1.81254	-15.06533	-3.56682
4519.291	-11.46311	-0.14578	-17.72383	-3.39989
4523.288	-16.26120	-0.16360	-17.53990	-3.61953
4527.289	-14.03944	-1.83742	-18.69811	-2.15501
4531.283	-15.36666	-0.62847	-21.44658	-3.81641
4535.317	-15.95289	-2.26356	-21.99952	-2.99636
4539.292	-20.20952	-2.55024	-23.16037	-4.21603
4543.297	-19.71261	-2.44938	-22.37604	-1.71113
4547.297	-18.95159	-5.71031	-22.64549	-1.95924
4551.289	-20.20246	-2.66919	-19.87197	-12.08646
4555.286	-23.24434	-0.64361	-22.30283	-8.73104
4559.291	-22.10154	-5.38070	-19.93095	-12.08207
4563.313	-20.00347	-12.07670	-19.95293	-12.08044
4567.297	-20.00161	-12.07684	-19.96387	-12.07962
4571.286	-20.00038	-12.07693	-20.01596	-12.07577
4575.284	-19.99951	-12.07699	-19.99602	-12.07725
4579.282	-19.99885	-12.07704	-19.99504	-12.07733
4583.287	-19.97717	-12.07865	-19.99486	-12.07734
4587.290	-20.01780	-12.07563	-19.99453	-12.07736
4591.287	-20.03016	-12.07471	-19.99440	-12.07737
4595.285	-19.99517	-12.07732	-19.99438	-12.07737
4599.286	-19.99497	-12.07733	NaN	NaN
4603.283	NaN	NaN	NaN	NaN
4607.281	NaN	NaN	NaN	NaN
4611.287	NaN	NaN	NaN	NaN
4615.285	NaN	NaN	NaN	NaN
4619.282	NaN	NaN	NaN	NaN
4623.281	NaN	NaN	NaN	NaN
4627.293	NaN	NaN	NaN	NaN
4631.306	NaN	NaN	NaN	NaN
4635.293	-23.50794	-4.72447	NaN	NaN
4639.288	-23.24887	-0.41208	NaN	NaN
4643.286	NaN	NaN	NaN	NaN
4647.288	NaN	NaN	NaN	NaN
4651.293	NaN	NaN	NaN	NaN
4655.290	NaN	NaN	NaN	NaN
4659.287	-23.11076	1.08292	NaN	NaN
4663.286	-19.99374	-12.07742	NaN	NaN
4667.290	-19.99374	-12.07742	NaN	NaN
4671.305	-19.99374	-12.07742	NaN	NaN
4679.177	-22.85080	-1.06271	NaN	NaN
4683.159	-22.72237	-0.61633	NaN	NaN
4687.192	-22.51824	3.03488	NaN	NaN
4691.176	-22.93711	0.25784	NaN	NaN
4695.167	-22.69853	0.27493	NaN	NaN
4699.174	-22.89447	2.31155	NaN	NaN
4703.165	-22.60984	1.80778	NaN	NaN
4707.165	-22.34214	-2.19858	NaN	NaN
4711.161	-22.93184	0.50513	NaN	NaN
4715.163	-20.01296	-12.07599	NaN	NaN
4719.161	-22.58810	1.52748	NaN	NaN
4723.162	-23.09407	2.02559	NaN	NaN
4727.159	-21.53869	-0.67707	NaN	NaN
4731.162	-22.62041	0.79756	NaN	NaN
4735.157	-20.11345	-12.06848	NaN	NaN
4739.163	-20.07503	-12.07136	NaN	NaN
4743.161	-20.05480	-12.07287	NaN	NaN
4747.161	-20.04177	-12.07384	NaN	NaN
4751.160	-20.02999	-12.07472	NaN	NaN
4755.162	-20.02429	-12.07515	NaN	NaN
4759.162	-20.02280	-12.07526	NaN	NaN
4763.160	-20.01842	-12.07558	NaN	NaN
4767.185	-20.01507	-12.07583	NaN	NaN
4771.169	-19.99385	-12.07741	NaN	NaN
4775.164	NaN	NaN	NaN	NaN
4779.163	NaN	NaN	NaN	NaN
4783.159	NaN	NaN	NaN	NaN
4787.165	NaN	NaN	NaN	NaN
4791.163	NaN	NaN	NaN	NaN
4795.162	NaN	NaN	NaN	NaN
4799.169	NaN	NaN	NaN	NaN
4803.212	NaN	NaN	NaN	NaN
4807.162	NaN	NaN	NaN	NaN
4811.162	NaN	NaN	NaN	NaN
4815.160	NaN	NaN	NaN	NaN
4819.183	NaN	NaN	NaN	NaN
4823.343	NaN	NaN	NaN	NaN
4827.544	NaN	NaN	NaN	NaN
4832.640	NaN	NaN	NaN	NaN
4836.880	NaN	NaN	NaN	NaN
4841.033	NaN	NaN	NaN	NaN
4844.064	NaN	NaN	NaN	NaN
4847.647	NaN	NaN	NaN	NaN
4851.815	NaN	NaN	NaN	NaN
4855.358	NaN	NaN	NaN	NaN
4859.169	NaN	NaN	NaN	NaN
4863.160	NaN	NaN	NaN	NaN
4867.166	NaN	NaN	NaN	NaN
4871.164	NaN	NaN	NaN	NaN
4875.210	NaN	NaN	NaN	NaN
4879.169	NaN	NaN	NaN	NaN
4883.183	NaN	NaN	NaN	NaN
4887.176	NaN	NaN	12.21987	10.46766
4891.161	21.26692	1.22151	7.03619	4.10913
4897.108	NaN	NaN	NaN	NaN
4901.837	NaN	NaN	1.51167	1.17613
4907.176	1.76720	2.64543	-2.94173	-3.97212
4911.273	1.58877	2.36860	-3.54764	3.62373
4915.162	2.59406	2.23558	-5.91270	8.11744
4919.173	0.57444	2.13293	-6.27763	6.61558
4923.163	-2.65436	5.64157	-3.83248	-1.65662
4927.170	2.70314	5.98892	-3.27042	0.78919
4931.164	3.10059	7.38700	-4.21390	2.59681
4935.161	4.96214	6.19486	-5.54309	-1.28676
4939.180	2.06131	3.14817	NaN	NaN
4943.159	2.78438	1.00403	-3.03390	-3.28266
4947.176	3.31539	3.60746	NaN	NaN
4951.166	1.82807	2.96774	NaN	NaN
4955.165	1.57004	2.46254	NaN	NaN
4959.159	0.86907	4.56892	NaN	NaN
4963.157	2.15787	2.03077	NaN	NaN
4967.165	1.28536	1.44873	NaN	NaN
4971.652	1.03275	1.54360	NaN	NaN
4975.240	1.58931	1.13296	NaN	NaN
4979.169	3.34709	1.49744	NaN	NaN
4983.158	3.90207	-1.78778	NaN	NaN
4987.161	1.03069	0.99403	NaN	NaN
4991.161	0.99638	-1.26850	NaN	NaN
4995.161	0.75124	-0.86856	NaN	NaN
4999.160	1.37965	-3.29173	NaN	NaN
5003.190	NaN	NaN	NaN	NaN
5007.172	NaN	NaN	NaN	NaN
5011.183	NaN	NaN	NaN	NaN
5015.165	NaN	NaN	NaN	NaN
5019.162	NaN	NaN	NaN	NaN
5023.163	NaN	NaN	NaN	NaN
5027.173	NaN	NaN	NaN	NaN
5031.165	NaN	NaN	NaN	NaN
5035.160	NaN	NaN	NaN	NaN
5039.778	NaN	NaN	NaN	NaN
5043.459	NaN	NaN	NaN	NaN
5047.163	NaN	NaN	NaN	NaN
5051.180	NaN	NaN	NaN	NaN
5055.162	NaN	NaN	NaN	NaN
5059.159	NaN	NaN	NaN	NaN
5063.163	NaN	NaN	NaN	NaN
5067.164	NaN	NaN	NaN	NaN
5071.160	NaN	NaN	NaN	NaN
5075.157	NaN	NaN	NaN	NaN
5079.161	NaN	NaN	NaN	NaN
5083.159	NaN	NaN	NaN	NaN
5087.159	NaN	NaN	NaN	NaN
5091.158	NaN	NaN	NaN	NaN
5095.190	NaN	NaN	NaN	NaN
5099.158	NaN	NaN	NaN	NaN
5103.156	NaN	NaN	NaN	NaN
5107.468	NaN	NaN	NaN	NaN
5111.207	NaN	NaN	NaN	NaN
5115.169	NaN	NaN	NaN	NaN
5119.156	NaN	NaN	NaN	NaN
5123.167	NaN	NaN	NaN	NaN
5127.169	NaN	NaN	NaN	NaN
5131.180	NaN	NaN	NaN	NaN
5135.171	NaN	NaN	NaN	NaN
5139.184	NaN	NaN	NaN	NaN
5143.162	NaN	NaN	NaN	NaN
5147.156	NaN	NaN	NaN	NaN
5151.202	NaN	NaN	NaN	NaN
5300.006	NaN	NaN	NaN	NaN
5367.558	1.63207	-0.30765	0.97090	-1.56456
5371.527	1.61907	-0.79552	0.84034	-2.85553
5375.294	1.64578	-2.38482	0.73469	-2.84536
5379.283	1.71035	-2.60268	-0.30042	-2.25364
5383.277	1.75424	-2.16381	0.74000	-3.85026
5387.275	1.69416	-1.98056	0.58300	-3.70734
5391.274	1.71151	-2.58404	0.51188	-3.67803
5395.272	1.80385	-2.44988	0.53391	-3.84856
5399.276	5.02275	-0.86631	0.30652	-4.06244
5403.274	5.57006	-2.55920	0.27520	-4.26064
5407.274	2.07824	-3.18602	0.38976	-4.11704
5411.272	1.75890	-2.51742	0.65436	-4.15019
5415.274	1.41402	-2.32283	0.83295	-2.46482
5419.278	1.21521	-2.51781	0.72719	-1.69247
5423.271	0.84309	-2.30131	0.86736	-1.86406
5427.276	0.60116	-2.61520	0.60330	-2.27945
5431.273	0.81801	-2.89371	0.47038	-3.05642
5435.276	0.94244	-2.60584	0.08989	-3.79462
5439.321	2.54933	-2.21164	0.51133	-4.60476
5443.281	1.27904	-1.84738	0.82372	-4.36249
5447.273	1.26192	-3.62395	0.86294	-4.39764
5451.276	0.95487	-2.71641	1.03344	-1.52322
5455.271	0.69776	-2.99406	-0.35923	-0.48215
5459.276	0.98005	-3.62989	-0.33275	-1.87635
5463.278	1.46197	-3.74630	0.43924	-2.20999
5467.274	1.18133	-3.00482	0.57865	-2.33858
5471.271	1.33949	-1.07254	0.77565	-2.42388
5475.271	1.19792	-2.71294	0.82061	-3.48288
5479.278	1.23044	-2.32476	0.46108	-2.50731
5483.273	1.89131	-2.62282	0.40720	-2.53146
5487.273	1.72039	-1.23267	0.69263	-2.27594
5491.278	1.05987	-2.20958	0.31799	-1.89577
5495.272	1.30600	-2.76352	0.65275	-2.06024
5499.276	1.19909	-2.28796	0.56600	-2.13817
5503.284	1.81372	-1.55579	0.31446	-2.20404
5507.299	1.77338	-2.43611	0.45738	-3.12142
5511.285	1.39101	-1.67458	0.61441	-3.96228
5515.273	-0.79749	-2.41137	0.56061	-3.80461
5519.270	1.24310	-2.48168	0.49599	-2.64743
5523.276	1.58758	-3.33485	0.49485	-2.93945
5527.273	4.75590	-3.54022	-3.50187	-2.32223
5531.271	6.03277	-2.33427	0.29044	-2.82112
5535.276	1.34653	-3.97654	0.48602	-2.29391
5539.272	1.18170	-4.04095	0.44860	-2.11689
5543.277	0.84515	-4.32469	0.47272	-2.37461
5547.272	0.48026	-4.30999	0.81645	-2.72823
5551.275	0.92671	-4.15768	1.06954	-4.63878
5555.277	1.57952	-4.07327	0.40874	-3.62490
5559.270	1.57714	-3.20144	0.02425	-3.10712
5563.269	2.30481	-2.88146	0.55265	-2.27071
5567.275	2.42299	-3.44940	0.54503	-2.66221
5571.272	1.01424	-3.69488	-0.24351	-2.43299
5575.271	0.64682	-2.70159	-0.65067	-0.07370
5579.272	0.16687	-2.76571	-1.94322	-0.55546
5583.277	-0.53843	-0.89801	-1.53947	0.33651
5587.273	-2.18332	-0.38036	-0.53920	0.63042
5591.277	-1.83072	0.28152	-2.62098	0.64406
5595.273	-1.84855	0.32925	-2.87772	0.74114
5599.274	-2.16102	-0.26232	-2.88205	0.62801
5603.268	-2.43791	0.21654	-2.94688	0.67083
5607.273	-2.99658	1.06529	-2.32714	0.60565
5611.271	-2.58509	1.06594	-1.93663	0.74421
5615.268	-2.49785	0.87553	-2.47536	0.66714
5619.273	-2.53223	-0.00166	-2.63826	0.77098
5623.270	-2.56723	0.57858	-2.55215	0.98581
5627.277	-2.61709	0.56290	-2.26651	0.83077
5631.278	-2.52163	0.36947	-2.72417	0.50924
5635.271	-2.74982	0.02673	-2.93094	0.94766
5639.269	-2.67541	0.42537	-2.72768	1.30372
5643.271	-1.90658	0.72277	-2.39755	0.39679
5647.275	-2.08443	0.51410	-2.59735	0.74226
5651.270	-2.13628	0.61849	-2.55641	1.25810
5655.145	-2.00938	0.71915	-2.54858	1.78580
5659.142	-2.41987	0.30527	-2.75111	-0.12775
5663.148	-2.24433	0.12825	-2.97398	1.18617
5667.144	-2.35075	0.77122	-2.56959	1.61798
5671.148	1.47119	0.65783	-2.40984	0.86702
5675.148	-1.63955	-0.07268	-2.62630	1.02595
5679.148	-1.89149	0.39533	-2.42307	0.43029
5683.147	-1.49421	0.59921	-2.71377	1.30609
5687.145	-1.79857	0.60888	-2.46498	1.13493
5691.149	-1.69108	-0.28507	-2.86311	0.53611
5695.145	-1.80593	0.21501	-3.22611	1.02947
5699.144	-1.96422	0.02896	-3.18004	0.47075
5703.143	-1.67601	0.10589	-3.63401	0.32608
5707.147	-1.64947	-0.10584	-3.76707	0.46453
5711.167	-1.63053	-0.07077	-3.93855	0.78668
5715.149	-1.78481	0.08129	-2.80419	0.73456
5719.148	-1.97582	0.17871	-3.01049	0.80239
5723.143	-2.45607	0.03111	-3.01665	0.95379
5727.145	-2.55542	0.32944	-3.02165	0.83443
5731.140	-2.47075	0.22981	-3.19328	0.78630
5735.147	-2.45126	0.12761	-3.15614	0.73597
5739.142	-2.47549	0.21859	-3.03326	0.79979
5743.145	-2.35851	0.07039	-2.80724	0.60398
5747.143	-2.23620	-0.11434	-2.89906	0.38638
5751.152	-0.22016	0.00907	-2.83742	0.83137
5755.151	-0.06740	0.02159	-2.93272	0.86452
5759.146	-0.01908	-0.32562	-3.24692	2.73634
5763.147	-1.31630	-0.03761	-3.08149	1.78330
5767.169	-2.31713	0.36240	-3.05343	2.12577
5771.154	-2.35137	0.70913	-2.96851	2.10007
5775.141	-2.29262	0.15302	-3.08750	1.37398
5779.190	-2.28685	0.12996	-2.94493	1.15341
5783.150	-1.73405	0.44941	-2.92824	0.91715
5787.211	-2.12295	0.01202	-2.98584	1.01440
5791.150	-1.75270	-0.44841	-3.00418	1.08014
5795.139	-1.97002	-0.43951	-3.04608	1.22714
5799.149	-1.43704	0.55335	-3.11740	1.33171
5803.146	-1.79475	-0.24797	-3.06120	1.25669
5807.142	-2.07412	-0.52016	-3.07181	1.68660
5811.139	-2.28893	-0.51137	-3.05286	1.52624
5815.146	-2.28856	-0.27791	-3.11190	1.70984
5819.141	-1.74214	-0.14843	-2.31923	1.08166
5823.145	-2.07380	0.73846	-1.21013	1.42191
5827.143	-0.48026	-0.80081	-3.21785	0.91233
5831.142	-1.66676	-0.44935	-3.07605	1.21413
5835.140	-0.82769	-0.59515	-3.44330	1.12637
5839.147	-1.90425	-1.01589	-3.15397	1.42061
5843.142	-2.12959	-0.28375	-3.25936	0.28014
5847.172	-2.19028	0.05977	-4.55204	0.96845
5851.154	-2.24190	0.29389	-4.20844	0.15997
5855.143	-1.48369	-0.38547	-4.23243	0.07122
5859.140	-1.52712	0.47340	-4.15803	0.99754
5863.140	-1.67586	0.60393	-4.07155	0.65438
5867.144	-2.03744	-0.47438	-4.00541	0.82188
5871.142	-2.13601	-0.06412	-4.22510	0.80832
5875.145	-1.64682	0.13945	-3.81407	-0.03813
5879.146	-2.08989	0.09620	-3.46036	0.31590
5883.147	-2.06376	1.05037	-3.63965	0.83242
5887.141	-0.88041	-0.05680	-3.55140	0.59251
5891.143	0.77898	-0.25932	-3.50815	0.68514
5895.142	-1.59115	0.42932	-3.63703	0.77098
5899.140	-1.66698	-0.21518	-3.57916	0.48673
5903.137	-1.84500	-0.06321	-3.29322	0.45807
5907.143	-2.56490	0.03456	-3.16020	0.50539
5911.146	-2.52309	0.23698	-3.21782	0.68936
5915.190	-1.42002	0.13057	-2.90589	1.17044
5919.147	-2.71349	-0.03142	-3.02784	0.72653
5923.144	-2.49332	-0.26417	-2.98237	0.49493
5927.145	-1.91695	-0.10582	-2.74729	0.40169
5931.140	-1.99758	-0.11431	-2.86091	1.06336
5935.141	-2.15913	0.34414	-2.55525	0.49422
5939.145	-2.25917	-0.20422	-2.82226	0.40018
5943.142	-2.45872	0.44617	-4.04236	0.80918
5947.141	-2.07504	0.03477	-2.86089	1.64904
5951.136	-2.09683	2.10240	-2.51846	2.76588
5955.143	-1.71625	1.43271	-2.93525	3.25394
5959.142	-3.77320	2.27155	-3.57515	3.01668
5963.147	-3.20605	3.28557	-3.51881	3.52546
5967.141	-4.49151	2.25247	-4.51857	5.54749
5971.143	-4.45244	2.95309	-4.22710	3.15786
5975.140	-3.79201	3.30796	-4.47955	4.25889
5979.139	-4.28246	2.86043	-4.93465	4.41008
5983.159	-4.51354	3.66009	-4.53302	3.55225
5987.145	-4.20247	3.62979	-4.37295	4.50409
5991.144	-4.38391	3.18895	-4.72408	3.32494
5995.138	-4.65387	3.79988	-4.68597	4.09330
5999.150	-3.90997	3.92207	-3.71503	3.63570
6003.157	-4.54422	3.68604	-5.03368	3.93128
6007.150	-4.59660	3.82615	-5.03706	4.56958
6011.139	-4.32831	3.95168	-4.51662	2.61596
6015.136	-4.48118	3.61565	-4.67653	4.35982
6019.136	-4.73490	3.86179	-4.87668	4.61838
6023.147	-4.40586	3.80779	-4.72317	3.71742
6027.139	-4.43700	3.49817	-4.63390	4.66420
6031.140	-4.45202	3.56362	-3.73495	4.31238
6035.135	-4.82207	4.01799	-4.57687	4.26405
6039.141	-1.86960	3.51023	-4.93578	5.09334
6043.138	-4.43221	3.51495	-4.25228	3.52065
6047.142	-4.12750	3.86574	-5.24710	4.38209
6051.146	-3.76067	3.24233	-4.41682	5.42944
6055.141	-3.67418	3.30907	-4.41882	3.95069
6059.139	-3.71945	3.97435	-4.47264	4.42846
6063.140	-3.93784	3.78076	-5.78588	5.29707
6067.137	-4.58237	3.24552	-5.47756	4.32450
6071.138	-4.91092	3.74235	-4.30092	4.00940
6075.137	-4.93536	4.29498	-4.41877	4.34068
6079.141	-3.18875	3.23163	-4.64963	4.75420
6083.139	-3.63525	3.67122	-5.65961	4.56151
6087.139	-3.98966	3.64100	-4.80083	3.89063
6091.140	-5.21301	4.04928	-4.60323	4.11556
6095.141	-3.36184	3.63377	-5.29117	4.35310
6099.140	-4.84558	3.54124	-5.56340	4.83590
6103.136	-3.59409	3.16343	-5.06868	3.87182
6107.135	-3.84154	3.49921	-5.66777	3.11699
6111.140	-5.13816	4.09499	-5.40766	3.99717
6115.136	-3.02608	3.64128	-5.68654	4.02191
6119.140	-4.45168	3.50768	-5.28192	4.44701
6123.140	-3.67546	3.44456	-4.79462	4.60723
6127.143	-4.59164	3.40078	-5.19532	4.96757
6131.144	-3.50707	3.81171	-3.33752	5.32003
6135.140	-4.71543	3.81727	-5.50943	4.08650
6139.136	-4.07821	3.51125	-2.93510	5.41930
6143.141	-4.04606	3.75348	-3.62600	4.38338
6147.138	-4.64071	3.91531	-5.75863	4.36362
6151.139	-3.90993	4.01620	-4.17018	4.69181
6155.133	-4.30623	4.04207	-3.96795	4.40730
6159.139	-4.47809	4.52288	-4.69943	4.75153
6163.139	-5.23421	4.87299	-5.88736	5.31832
6167.138	-6.51077	6.67845	-8.09358	5.42934
6171.139	-8.94515	5.56755	-8.89882	5.60845
6175.141	-9.97958	6.43270	-9.92215	7.97430
6179.137	-10.52187	6.28706	-12.15294	7.53546
6183.135	-11.57736	6.40712	-14.39029	7.53316
6187.140	-12.51941	6.02749	-14.21099	7.59818
6191.139	-13.67466	6.38608	-14.70451	8.12846
6195.137	-13.86572	6.92892	-14.34790	8.23962
6199.139	-13.51487	6.19070	-14.31976	7.29067
6203.206	-13.63759	6.41844	-14.39082	8.00217
6207.142	-13.87625	7.15219	-14.30109	7.31901
6211.132	-13.78101	6.59945	-14.15591	7.66460
6215.140	-13.81986	6.47230	-14.32964	8.00274
6219.137	-13.47301	6.59830	-14.14443	7.64660
6223.132	-13.13609	6.97313	-16.14547	7.35138
6227.140	-12.68772	6.99821	-14.49195	8.24511
6231.137	-12.82911	7.07916	-14.51900	7.59868
6235.136	-12.79645	6.86830	-14.28622	7.66693
6239.132	-13.62282	6.87866	-13.66723	7.72866
6243.138	-13.03098	6.54432	-13.52972	7.64165
6247.135	-12.74607	6.39699	-13.13044	7.96832
6251.136	-12.77558	6.88546	-13.49873	7.94921
6255.167	-12.51932	6.51258	-13.90714	7.39357
6259.142	-11.69088	6.90325	-13.66444	9.08239
6263.133	-13.11589	6.99814	-14.68872	7.57652
6267.132	-11.59825	7.12555	-14.40100	7.39985
6271.138	-12.97241	6.34729	-14.27294	7.19147
6275.134	-12.86150	6.63791	-13.96884	7.82829
6279.135	-12.85506	6.79903	-14.12560	7.44862
6283.133	-12.99668	6.89558	-13.41796	8.73113
6287.138	-13.32331	6.72374	-14.16802	7.11816
6291.134	-13.05288	6.38369	-14.45432	6.80860
6295.133	-12.52643	6.44594	-14.31095	7.09896
6299.136	-13.50215	6.48358	-14.33658	7.20555
6303.140	-13.49216	6.10916	-14.22748	7.03177
6307.135	-13.58707	6.05487	-14.24697	7.64074
6311.133	-12.73420	6.66050	-13.42507	7.27357
6315.140	-13.82190	6.75417	-14.33940	8.20010
6319.133	-16.10747	8.84893	-14.48501	6.54904
6323.157	-14.15223	6.14522	-13.15270	8.20709
6327.138	-13.90518	6.44146	-15.07799	6.83862
6331.132	-12.10924	6.27572	-14.36076	7.52463
6335.138	-13.24092	6.40062	-14.54551	7.86470
6339.139	-12.85449	6.56250	-14.10735	7.63985
6343.138	-13.70992	6.56139	-14.97004	7.82600
6347.132	-14.01232	6.63941	-14.68375	8.20497
6351.137	-15.94667	6.74609	-14.60662	7.75856
6355.134	-11.82433	6.19581	-14.89893	7.63268
6359.135	-14.05894	5.38808	-14.09322	7.16262
6363.134	-15.85148	4.82584	-13.39992	7.98061
6367.135	-11.03150	2.52682	-14.89355	8.07497
6371.133	-13.70603	6.78274	-15.29984	7.19762
6375.134	-11.72638	6.82975	-13.98246	7.81688
6379.141	-14.00384	6.96367	-15.46281	7.72400
6383.141	-16.15806	6.70877	-15.90180	6.74865
6387.134	-14.01935	4.38022	-16.26774	7.58945
6391.157	-13.70657	5.71214	-15.74502	6.56035
6395.142	-13.65521	8.53348	-14.94535	6.87736
6399.132	-13.69776	7.33163	-16.09758	7.80262
6403.131	-13.80449	6.47541	-15.23766	6.85152
6407.137	-13.82391	5.36658	-14.37408	7.45784
6411.134	-11.88599	6.66612	-14.29811	7.59446
6415.133	-13.65739	6.94375	-14.53770	7.06523
6419.135	-13.51708	7.01466	-14.95470	7.72016
6423.137	-13.21938	6.49912	-14.70179	8.07341
6427.173	-13.42040	7.20449	-15.39684	7.05242
6431.127	-14.47413	6.16826	-15.02126	6.89706
6435.130	-14.90663	7.18052	-15.30836	6.41165
6439.130	-13.32190	7.16113	-15.11516	6.71649
6443.133	-14.04250	6.55526	-14.98919	6.86981
6447.134	-13.82721	6.32395	-12.05525	7.59144
6451.132	-13.45569	6.54086	-15.20554	6.43982
6455.129	-15.41757	6.69703	-15.25676	6.60999
6459.150	-14.06142	6.63257	-15.04818	6.38577
6463.143	-13.35003	6.82712	-15.51741	5.85863
6467.136	-14.82453	8.21917	-15.43176	6.33824
6471.135	-13.98202	6.57853	-15.57661	5.86323
6475.131	-14.07548	6.43737	-16.14680	6.55179
6479.132	-15.77757	5.87842	-15.16749	6.60905
6483.132	-14.00952	6.05320	-15.95465	5.47984
6487.132	-13.98512	6.22689	-15.03818	6.87381
6491.130	-15.42848	6.45780	-15.99358	6.72801
6495.134	-12.69670	5.82357	-16.35762	6.16563
6499.131	-12.08675	4.64226	-16.83382	6.68562
6503.130	-12.78292	5.44630	-16.69912	6.99008
6507.008	-13.50746	5.91729	-16.47792	5.94772
6511.010	-11.89604	4.10534	-15.94210	6.71525
6515.006	-13.76544	5.29192	-15.24736	6.93299
6519.008	-13.78808	4.92685	-16.37259	6.75583
6523.005	-13.25797	5.04601	-15.50691	6.43313
6527.015	-14.60460	4.96024	-16.18505	6.56487
6531.009	-12.38235	4.92897	-15.90552	6.45646
6535.004	-15.96892	4.74854	-15.53359	6.44134
6539.004	-13.78733	3.92899	-15.90229	6.77780
6543.008	-15.14296	6.24418	-17.92848	6.07485
6547.006	-15.74575	7.26810	-14.73304	6.93405
6551.008	-13.62395	7.90778	-11.62875	10.05349
6555.007	-14.64057	6.73525	-14.09416	5.57126
6559.009	-9.90101	7.45280	-10.49879	6.10018
6563.008	-8.58143	6.26712	-7.61733	5.40907
6567.007	-3.02244	4.42587	-4.19798	5.25632
6571.009	-1.84994	4.91252	-2.27107	2.61793
6575.005	-4.21632	3.17871	-9.16840	2.93799
6579.004	-3.61411	3.79542	-2.28137	1.24329
6583.003	-0.94182	3.89075	-5.00125	2.84456
6587.009	-0.80290	3.73253	-2.17195	2.25191
6591.007	-1.01124	5.66955	-4.49842	1.18780
6595.034	3.93327	-0.53050	-4.86251	-2.14383
6599.017	3.57992	-0.02053	0.50371	1.26206
6603.005	4.80507	-0.05740	-1.09222	-0.55735
6607.004	2.24495	3.11306	-2.31909	0.79738
6611.002	1.11350	1.83888	-3.97187	1.01148
6615.013	-0.85161	2.19006	-4.62273	-1.16890
6619.007	-1.02141	2.13374	-1.30012	2.19530
6623.004	3.00720	-0.20485	-4.80115	-0.93981
6627.010	0.03211	1.16683	-4.69246	0.12871
6631.025	2.38762	0.00089	-0.48259	2.04841
6635.006	-0.46666	0.92306	-5.03053	0.67237
6639.006	-0.19345	0.40742	-1.50371	1.35584
6643.003	1.20641	0.44246	-0.68829	2.40885
6647.002	-0.41718	0.33672	-4.92262	-0.11881
6651.000	-0.77039	0.19920	0.99196	2.71110
6655.005	0.90639	0.32203	1.05443	2.98792
6659.003	-1.01050	0.22713	-2.18099	1.31870
6663.024	0.11022	0.27448	-3.99524	1.72772
6667.009	0.30865	0.07902	-1.51655	2.16741
6671.006	-0.70441	0.08798	1.27946	3.48511
6675.003	-0.07748	-0.00273	-0.21730	2.53738
6679.005	0.59114	0.09482	-0.07053	2.39625
6683.000	0.14781	-0.15014	-0.18775	1.44367
6687.005	-0.42666	0.19305	-2.55250	1.61838
6690.999	0.10232	-0.04694	-1.25036	2.55658
6695.003	-1.80102	0.04409	-0.59538	1.68914
6699.005	0.40899	0.14648	0.45840	2.37337
6703.002	-0.47113	0.06299	0.67831	2.67189
6707.003	-0.05653	0.16999	-0.19757	2.82976
6711.001	0.44641	0.26297	-0.00943	2.65351
6715.002	-0.55684	0.05444	-3.42497	1.58457
6719.009	-0.88582	0.47207	-1.39740	2.38619
6723.001	0.59856	0.19170	-0.66521	1.33740
6727.005	-1.63303	0.52262	-3.33446	0.95856
6731.009	0.66221	1.04986	-7.38073	-2.77099
6735.008	1.96489	4.29959	-2.77025	2.60491
6739.000	4.69376	0.11013	7.21980	11.17755
6743.002	0.88453	1.04203	NaN	NaN
6746.999	4.26615	6.67316	NaN	NaN
6751.001	NaN	NaN	NaN	NaN
6755.001	NaN	NaN	NaN	NaN
6759.004	NaN	NaN	NaN	NaN
6763.006	NaN	NaN	NaN	NaN
6767.011	NaN	NaN	NaN	NaN
6771.006	NaN	NaN	NaN	NaN
6775.003	NaN	NaN	NaN	NaN
6779.006	NaN	NaN	NaN	NaN
6783.008	NaN	NaN	NaN	NaN
6787.040	NaN	NaN	NaN	NaN
6791.010	NaN	NaN	NaN	NaN
6795.016	NaN	NaN	NaN	NaN
6799.420	NaN	NaN	NaN	NaN
6803.111	NaN	NaN	NaN	NaN
6807.007	NaN	NaN	NaN	NaN
6811.010	NaN	NaN	NaN	NaN
6815.010	NaN	NaN	NaN	NaN
6819.006	NaN	NaN	NaN	NaN
6823.004	NaN	NaN	NaN	NaN
6827.003	NaN	NaN	NaN	NaN
6830.999	NaN	NaN	NaN	NaN
6835.008	NaN	NaN	NaN	NaN
6839.025	NaN	NaN	NaN	NaN
6843.026	NaN	NaN	NaN	NaN
6847.073	NaN	NaN	NaN	NaN
6851.232	NaN	NaN	NaN	NaN
6855.188	NaN	NaN	NaN	NaN
6859.363	NaN	NaN	NaN	NaN
6863.501	NaN	NaN	NaN	NaN
6868.338	NaN	NaN	NaN	NaN
6872.342	2.17209	5.82246	NaN	NaN
6875.014	-0.43656	5.18213	NaN	NaN
6879.001	-0.42596	1.29354	-3.88715	13.22697
6882.997	0.30458	-0.02497	-1.54482	7.86596
6887.003	-0.00546	1.48818	-3.89958	11.97215
6891.000	-0.16524	-1.35946	0.72618	2.13224
6895.004	1.55824	-2.62358	-0.21929	7.76756
6899.002	2.27213	-3.25845	2.02378	-2.36391
6903.000	2.53761	-2.28307	0.01444	-0.77296
6907.001	1.33421	-1.90712	-4.46778	4.34673
6910.995	3.07817	-3.24194	-1.82182	1.23578
6914.998	4.52456	-2.55307	-3.92359	-1.18843
6918.997	6.50675	-2.47108	-7.09360	-3.00472
6922.996	1.86325	-2.19584	-3.15120	-0.84299
6927.006	2.12719	0.99177	-0.14399	-1.15269
6931.002	3.72027	3.13102	2.34835	-1.07467
6934.997	1.87788	2.71121	3.52301	-1.02940
6939.004	1.65664	-2.12413	2.15492	-1.13145
6943.001	1.62244	-1.62420	-0.59416	-1.89289
6946.996	1.16334	-1.77819	3.56316	-1.52652
6951.001	1.22015	-1.84519	-0.16747	-1.22033
6954.999	1.68384	-2.21124	0.09225	-0.69343
6958.999	1.25151	-1.82275	-1.67911	-0.06071
6962.996	0.65593	-1.86566	-0.87719	-0.55622
6967.006	1.32981	-1.55384	-0.48842	0.23141
6971.000	2.61999	-1.47405	0.00933	0.29985
6974.998	1.19770	-1.20035	-1.84545	0.40155
6978.995	0.94311	-1.85496	-2.51175	-1.56018
6983.001	0.61570	-2.33355	1.48099	-2.24241
6986.998	1.06565	-2.57842	0.62781	-0.93103
6990.997	1.60697	-2.08931	0.91867	-1.21168
6994.994	1.26532	-1.71865	0.68903	-1.30029
6999.064	1.95755	-1.53439	1.17937	-1.49596
7003.017	0.38814	-1.19472	1.32051	-1.61469
7007.006	1.06661	-0.44424	1.49879	-1.67478
7011.005	1.50001	-2.06853	0.92304	-1.51825
7015.006	1.84111	-3.03415	0.77754	-1.35805
7019.000	1.01169	-3.07069	1.04627	-1.41950
7022.999	2.59136	-1.61220	1.16887	-1.26738
7026.997	1.49892	-1.74275	0.68459	-1.12721
7031.001	1.42630	-2.67001	1.17493	-1.26380
7035.000	0.99923	-2.31465	1.44349	-1.09400
7038.998	1.95118	-2.66585	0.43043	-0.40813
7042.995	1.42094	-1.87829	1.42895	-0.81089
7047.002	1.49907	-2.10698	0.59057	-0.14086
7051.004	1.41447	-1.89370	0.49205	0.26828
7054.999	-1.54651	-2.94946	0.94815	0.50600
7059.023	1.48037	-1.72138	0.75005	-0.87239
7062.998	1.00645	-1.65163	1.19683	-0.71889
7066.997	1.37726	-0.96311	0.48795	-1.03916
7070.992	0.58540	-1.63293	0.68593	-1.91360
7075.021	1.03357	-1.38917	0.40246	-1.04057
7079.005	1.57771	-3.78567	0.42021	-1.06481
7082.996	1.11254	-1.15576	0.55463	-1.31890
7086.999	0.34849	-0.25728	0.80337	-1.02708
7090.992	1.07123	-1.33628	0.81004	-1.09185
7095.003	2.72729	0.44396	0.49408	-0.61340
7098.995	1.22769	-1.47272	0.57652	-0.97923
7102.995	2.78020	-1.47306	0.67953	-1.08371
7106.993	0.16923	-0.87777	1.92198	-1.25487
7110.998	2.07110	-1.36322	0.66677	-0.98826
7114.994	0.77796	-1.31010	3.32644	-0.77801
7118.997	0.76570	-1.32679	0.53021	-0.67132
7122.998	0.59617	0.34329	0.58084	-0.98775
7126.994	0.90862	-0.90171	2.58663	-0.91855
7130.994	1.83833	-1.57274	0.90396	-1.10834
7135.003	0.16898	-0.72210	3.21020	-1.08482
7139.019	2.22446	-1.91436	-0.00707	-0.57005
7143.004	0.58895	-1.94923	0.38638	-0.65538
7146.999	0.56032	-1.62144	2.73070	-1.31528
7150.994	2.39847	-2.58526	0.65206	-1.15088
7154.994	0.93822	-2.03446	-0.68513	-0.30073
7158.992	0.58317	-2.12230	0.07957	-0.98979
7162.997	0.54530	-1.68138	0.61064	-1.20079
7166.994	1.69334	-2.46487	0.48167	-0.46803
7170.993	1.10971	-2.08803	0.49877	-0.97199
7175.000	0.66910	-2.76779	-0.32590	-0.00383
7178.997	2.76849	-4.54793	0.67943	-1.00130
7182.996	0.57731	0.80296	0.40561	-0.40758
7186.995	0.83570	-1.46016	0.26535	-1.18170
7191.000	0.15360	-0.73000	0.88691	-0.58550
7194.998	1.07758	-1.31155	-0.80258	-0.58708
7198.994	-0.49818	-1.01313	0.91696	0.01026
7202.992	0.80553	-1.20101	-0.80880	-0.64514
7206.997	1.34383	-1.12099	0.61543	-0.01923
7211.019	0.93403	-1.83062	-0.29022	-0.09159
7215.005	1.10941	-1.08190	0.97189	0.30818
7219.000	-0.91292	-0.99454	-0.39189	0.32638
7223.003	1.28008	-1.08675	-0.76662	-0.86235
7226.994	0.10607	-1.60530	-0.64987	-0.54767
7230.995	0.88850	-0.73404	-0.83086	-0.61284
7234.991	-0.23872	-1.33926	0.72126	0.76478
7238.996	-0.28967	-1.54808	-0.18157	-1.28202
7242.996	0.74253	-1.11117	-0.32977	0.69325
7246.995	-0.03767	-0.51461	-0.84123	0.07476
7251.055	0.04666	-2.51538	-0.75953	-1.04604
7255.001	0.89848	-1.37725	0.19387	-0.60480
7258.995	-0.82994	-0.63798	-0.82846	-0.34509
7262.992	-0.04420	-1.05229	0.30466	-0.95624
7267.002	0.83089	-1.90691	0.36606	-0.08282
7270.994	-0.17030	-0.63276	-0.91800	0.22033
7274.990	-0.41420	-0.75766	0.31411	-1.50852
7278.995	0.04735	-1.78141	0.36005	0.59846
7282.993	0.16571	-1.22668	-0.27078	0.63148
7286.997	0.10684	-1.86310	-0.43939	-2.33528
7290.993	1.06364	-1.81113	0.33283	-0.37814
7294.993	2.89304	-1.44633	0.29501	0.27940
7298.991	-0.07860	-1.16280	-0.07775	0.51228
7302.998	0.58473	-1.59760	0.46425	-2.12783
7306.993	0.33801	-2.00954	0.16357	0.09994
7310.991	2.37714	-1.85863	-0.18509	0.50283
7315.016	2.15824	-1.54422	0.62136	0.19038
7319.002	2.32578	-2.66785	-0.82359	-0.20903
7322.993	1.20442	-1.48954	-0.12659	0.47133
7326.992	1.61684	-1.53619	-1.24223	0.34917
7330.990	0.92192	-1.10884	-3.80930	0.87410
7334.995	0.60387	0.03245	-2.36309	2.06594
7338.992	0.12396	-0.46748	-2.63475	4.17483
7342.995	-0.62394	1.68729	-2.79119	4.05792
7346.992	-2.99611	3.44332	-3.25038	4.35257
7350.997	-2.53895	3.96725	-3.42468	4.88871
7354.991	-2.84955	4.02208	-3.78375	5.41922
7358.991	-3.13853	3.63539	-1.98613	4.22191
7362.865	-3.12170	3.62055	-3.29137	4.15958
7366.868	-3.46612	3.53460	-3.95619	4.13821
7370.865	-3.47411	3.48989	-3.88078	4.55654
7374.867	-3.08624	3.50279	-3.41990	4.45911
7378.893	-3.19063	3.55548	-3.21988	4.64723
7382.872	-2.99222	3.75843	-3.64135	5.18796
7386.865	-2.91502	4.24533	-3.54887	5.02146
7390.868	-3.07097	4.95876	-2.87911	4.51208
7394.869	-2.20865	3.40069	-3.32333	3.99652
7398.868	-2.20022	3.34518	-3.52287	3.95487
7402.866	-2.80476	4.16437	-3.81605	4.31908
7406.863	-2.95963	4.50174	-4.51803	5.61468
7410.868	-2.99453	5.08751	-3.45059	4.12507
7414.902	-4.12154	4.96058	-3.41548	4.03332
7418.876	-3.22045	3.87426	-3.66706	4.57888
7422.864	-3.30663	3.66896	-3.89955	5.46998
7426.868	-3.16876	4.14414	-3.60961	5.16448
7430.871	-2.94067	3.70091	-3.21720	4.84160
7434.866	-3.21829	4.75616	-3.67521	4.96015
7438.872	-3.41795	4.91157	-3.91934	4.97180
7442.866	-3.58358	4.17686	-3.92166	4.65000
7446.866	-3.51557	4.03598	-3.77043	4.97859
7450.864	-2.95317	3.24501	-4.05898	5.44488
7454.870	-3.18638	3.71399	-3.98827	5.22258
7458.870	-3.02999	3.75067	-4.02374	5.06423
7462.867	-2.88901	4.02407	-4.03055	4.88654
7466.863	-3.11980	4.40655	-3.97946	3.92290
7470.874	-3.01838	4.31176	-4.19055	4.20493
7474.873	-3.13392	4.25289	-4.37848	3.88733
7478.918	-3.00279	4.45387	-4.67549	4.02443
7482.871	-2.98527	4.32509	-5.03378	4.14352
7486.875	-3.12670	4.28534	-4.17522	4.18854
7490.867	-3.08013	4.47762	-4.36138	4.04873
7494.862	-2.89012	4.28745	-4.41793	4.24835
7498.860	-3.10933	4.52704	-3.96162	4.18750
7502.863	-3.01541	4.53020	-3.97785	4.35429
7506.861	-2.47281	4.42530	-3.84325	4.81662
7510.868	-2.45706	4.24000	-3.99371	4.38607
7514.867	-2.83890	3.54128	-3.78689	4.15584
7518.861	-3.07125	3.88795	-3.94125	4.00835
7522.865	-2.84633	3.49892	-4.35491	4.15802
7526.865	-2.67878	3.12311	-4.56501	4.09015
7530.863	-2.89950	4.08786	-5.44480	4.14905
7534.867	-3.07659	3.99365	-3.99939	4.37909
7538.863	-3.23296	4.00799	-4.38822	4.54731
7542.862	-2.89205	4.01314	-3.87010	4.80460
7546.861	-3.24647	4.05403	-4.27898	5.04472
7550.889	-2.97364	3.91273	-3.90076	4.45552
7554.871	-3.02519	4.13705	-3.95315	3.91802
7558.867	-3.13692	4.01999	-3.47989	3.71259
7562.887	-3.04615	3.64510	-4.05100	4.09125
7566.872	-2.95327	2.99402	-4.29224	4.31394
7570.867	-2.85450	3.21553	-4.56466	4.77858
7574.864	-2.95114	4.02869	-5.01709	4.35404
7578.862	-2.99237	4.28533	-4.49593	5.24565
7582.862	-2.82261	4.27995	-4.13727	3.56237
7586.866	-2.43803	4.21302	-3.30873	3.57943
7590.863	-2.80013	3.04702	-4.13127	4.38910
7594.866	-2.57231	3.78490	-3.90429	4.36042
7598.866	-2.61278	3.88971	-4.37485	5.01222
7602.862	-2.58259	4.03399	-4.90412	4.67730
7606.862	-4.23508	4.25038	-5.33994	4.50940
7610.866	-2.90025	3.49906	-4.27454	4.23880
7614.866	-2.62053	3.90031	-3.53478	4.65376
7618.900	-2.67184	3.92009	-3.68824	4.83052
7622.874	-2.86192	4.09940	-3.75657	4.46634
7626.865	-2.72867	3.92954	-4.11063	4.32581
7630.862	-2.79761	3.67989	-4.57763	4.31927
7634.869	-2.64440	3.44241	-5.59838	5.04186
7638.870	-2.79597	3.29575	-4.56047	5.25848
7642.860	-3.15263	4.04386	-3.95199	5.45971
7646.860	-2.93599	4.28496	-3.85180	4.22521
7650.864	-2.73038	3.75365	-3.60838	4.34103
7654.863	-2.76624	3.65554	-4.18245	4.53444
7658.861	-3.05207	4.10831	-4.25702	5.04484
7662.859	-2.87131	4.19287	-4.64515	4.79912
7666.865	-3.19709	3.02412	-3.95594	4.19010
7670.862	-3.21416	3.40182	-3.96854	4.71373
7674.860	-3.51181	4.41329	-3.66342	5.51945
7678.863	-3.10898	3.71276	-3.22886	3.36187
7682.869	-3.11010	4.06409	-3.27784	4.82084
7686.927	-3.20021	3.66406	-3.26020	4.84847
7690.870	-3.30881	4.30572	-3.37220	4.10051
7694.858	-3.37185	3.48555	-3.35076	5.15715
7698.864	-3.69864	4.55999	-3.17633	4.62127
7702.863	-3.27099	3.64493	-3.40702	5.49155
7706.859	-2.96440	4.08239	-3.18170	4.95507
7710.858	-2.74962	4.46815	-2.64495	3.60723
7714.860	0.44728	1.86436	-2.49429	5.04206
7718.860	-0.64007	1.62554	0.09815	3.03080
7722.862	-0.20668	1.70905	-0.79000	3.52424
7726.864	0.86572	1.55122	0.22333	3.90188
7730.859	0.71092	1.45772	-2.31562	3.36976
7734.860	0.77007	2.10937	0.85044	3.48198
7738.858	1.06532	1.54088	-2.81637	2.85405
7742.862	0.68221	1.50168	-1.29918	3.82810
7746.860	1.16240	1.38096	-1.06999	3.06528
7750.887	1.29926	1.72255	-0.92976	3.50409
7754.869	0.84252	1.29907	0.48602	2.82827
7758.873	0.79039	1.86687	0.45631	3.28196
7762.865	1.07713	1.94777	0.25736	3.57662
7766.862	1.04156	1.24822	2.08173	3.48759
7770.863	0.48443	2.41692	-0.31813	3.05068
7774.860	-0.08172	2.39044	-0.05023	3.51967
7778.857	1.40901	1.77206	0.13679	3.78343
7782.857	1.08311	1.40116	-0.17893	3.45138
7786.862	0.50391	2.16057	-0.59059	3.64005
7790.861	0.97157	2.14293	-0.23137	3.50541
7794.860	0.73285	2.46064	-0.06654	3.11138
7798.857	0.71042	2.66771	-0.06333	3.46991
7802.862	0.67007	1.61585	-0.06837	3.72844
7806.864	-0.03537	1.91243	-0.22098	3.81073
7810.859	0.62751	1.70372	-0.08542	3.86569
7814.863	1.18354	1.17192	-0.08043	3.91074
7818.859	0.76811	1.38527	0.11399	4.08126
7822.861	0.99903	0.54941	-0.24748	3.98542
7826.864	1.02404	0.85009	-1.04674	3.52619
7830.881	1.04322	0.96618	0.09076	3.91261
7834.869	0.28575	1.46830	0.07865	3.54170
7838.858	-0.17943	1.56140	0.04030	3.77659
7842.857	0.86036	1.46259	0.18278	3.97309
7846.871	1.48002	1.34461	0.01871	3.97410
7850.861	1.34549	1.74766	-0.05850	3.98478
7854.857	1.66837	1.52528	-0.12377	4.01015
7858.856	0.59714	1.13328	-1.28740	3.37703
7862.862	-0.64429	1.60635	-0.18561	3.75059
7866.862	0.51997	1.58496	-0.31089	3.97686
7870.857	1.80075	1.54768	0.28560	4.02096
7874.856	2.14243	1.46592	-0.22998	4.08826
7878.862	1.51303	1.67124	-0.58736	3.58558
7882.862	-1.20142	1.77871	-0.90743	2.66510
7886.868	0.10515	2.02091	-0.47560	3.22696
7890.866	1.12112	1.68575	-0.19556	3.42260
7894.861	1.28437	1.55868	1.71734	3.69711
7898.857	1.32508	1.63903	-0.76819	3.99182
7902.856	0.38263	1.92703	-0.62144	3.47676
7906.861	1.10899	2.19302	-1.28646	2.98892
7910.894	1.19715	1.95896	-0.67119	3.45363
7914.856	0.96760	2.26248	-0.36459	3.43701
7918.860	1.31069	2.05912	-0.40594	3.80472
7922.858	1.31300	1.41135	0.25061	4.04587
7926.855	1.31511	1.45345	-0.30319	4.06734
7930.859	1.03010	1.48573	-0.72903	3.76973
7934.859	0.93785	2.59261	-6.51109	0.48308
7938.856	3.99292	2.77015	-0.05395	3.55710
7942.856	5.22013	2.38612	1.61892	4.55472
7946.859	6.42898	1.86331	1.38356	5.27446
7950.856	0.78786	2.89576	NaN	NaN
7954.853	0.87585	3.72578	0.68521	13.57693
7958.901	4.41309	8.56658	-13.71420	8.95999
7962.867	NaN	NaN	NaN	NaN
7966.856	NaN	NaN	NaN	NaN
7971.489	NaN	NaN	NaN	NaN
7978.860	NaN	NaN	NaN	NaN
7982.856	NaN	NaN	NaN	NaN
7988.234	NaN	NaN	NaN	NaN
7998.865	NaN	NaN	NaN	NaN
8002.862	NaN	NaN	NaN	NaN
8007.501	NaN	NaN	NaN	NaN
8014.865	NaN	NaN	NaN	NaN
8018.861	NaN	NaN	NaN	NaN
8022.858	NaN	NaN	NaN	NaN
8027.249	NaN	NaN	NaN	NaN
8030.868	NaN	NaN	NaN	NaN
8034.858	NaN	NaN	NaN	NaN
8038.853	NaN	NaN	NaN	NaN
8042.859	NaN	NaN	NaN	NaN
8046.863	NaN	NaN	NaN	NaN
8051.155	NaN	NaN	NaN	NaN
8055.303	NaN	NaN	NaN	NaN
8059.429	NaN	NaN	NaN	NaN
8063.649	NaN	NaN	NaN	NaN
8067.830	7.12674	12.45743	NaN	NaN
8070.866	6.51194	-3.28635	NaN	NaN
8074.858	6.48071	-3.06758	7.91436	5.36185
8078.854	5.90811	-2.62508	4.99477	3.78925
8082.853	3.37944	-3.00150	5.60037	2.35127
8086.857	6.29097	-3.16326	6.02372	1.70907
8090.855	1.93494	-3.33564	0.93869	-3.31557
8094.886	1.09939	-3.19654	-2.94562	-5.20050
8098.863	6.46132	-2.61388	1.22501	-0.18667
8102.890	1.52756	-2.86946	1.23327	-2.30747
8106.855	2.27810	-2.63139	1.34666	-3.99199
8110.851	3.82005	-2.11822	1.03280	-4.52824
8114.856	2.45302	-2.20689	-0.95457	-4.25400
8118.854	6.19003	-3.65436	5.86951	-0.80769
8122.854	4.97403	-3.22854	0.89716	-4.40487
8126.886	5.66821	-3.05310	0.65769	-4.03635
8130.858	6.20011	2.08916	0.74439	-1.62230
8134.851	6.11726	-2.67111	0.79086	-1.14655
8138.860	5.35291	-2.54665	-1.05830	-2.22824
8142.857	3.33822	-1.83140	-2.33836	-2.95863
8146.849	1.76691	-0.13621	1.13399	-1.26569
8150.849	2.04247	-1.19446	2.39936	-0.87505
8154.855	0.19097	-0.53200	-0.97395	3.56458
8158.852	0.85654	-0.65057	0.58414	-1.12757
8162.854	1.08145	-1.35992	0.71623	-1.41032
8166.857	1.20045	-2.28600	2.19227	-1.11388
8170.852	1.18929	-2.07708	1.70308	-1.34206
8174.853	1.55457	-1.48490	1.00422	-1.20209
8178.855	1.54272	-1.96761	-1.27120	-1.18867
8182.856	1.48002	-2.08767	-1.39887	-1.33845
8186.859	1.00355	-2.31376	-0.47756	-1.24426
8190.852	1.02498	-2.31739	-0.95718	-1.18301
8194.854	1.66891	-2.82957	1.60253	-0.95213
8198.853	1.94811	-3.36341	1.29469	-1.24808
8202.851	2.10374	-3.10540	1.58956	-1.37779
8206.850	2.78458	-2.93892	1.56394	-0.92697
8210.855	2.24002	-2.64863	-1.31121	-3.24408
8214.730	1.07736	-0.03476	0.13419	-0.00738
8218.728	0.80580	-0.82602	0.46222	-0.65743
8222.725	1.03347	-1.23096	0.83483	-1.12322
8226.735	2.01352	-2.51636	0.75734	-1.40822
8230.794	2.00329	-2.08049	1.30035	-2.90439
8234.736	1.38071	-2.83622	1.47588	-0.25713
8238.727	6.31642	-4.14788	1.20725	-0.18921
8242.728	2.29334	-2.92805	0.29138	-1.01678
8246.724	2.51836	-2.90008	0.54530	-1.33755
8250.731	2.06342	-2.28839	0.41879	-1.90113
8254.729	0.92800	-2.56494	0.12357	-0.59467
8258.727	1.92166	-2.76699	-3.15718	-1.59692
8262.731	1.20527	-2.81699	-2.50444	-0.85363
8266.737	1.55378	-2.18030	-0.82258	-2.70909
8270.734	1.76487	-2.17989	1.12722	-1.32583
8274.726	1.14255	-2.82872	-0.24259	-2.13155
8278.729	3.90864	-3.32463	-0.49833	-2.94388
8282.727	2.25050	-2.77925	-0.42698	-1.45352
8286.728	1.48701	-2.70739	0.49366	-0.82905
8290.725	1.28534	-2.54797	-0.56406	-0.96982
8294.730	2.24592	-2.41758	-2.63876	-3.50757
8298.733	0.86436	-1.72568	3.00264	-0.84194
8302.728	1.38185	-1.92577	2.26849	-1.36848
8306.728	1.95101	-2.18869	2.74110	-0.78451
8310.729	4.56264	-3.76850	2.19685	-1.60864
8314.732	2.46283	-5.23558	-0.57161	-3.19984
8318.725	1.33592	-4.29882	-1.16761	-3.02230
8322.787	1.05009	-1.82802	1.69616	-1.50505
8326.732	0.97430	-1.42264	1.98318	-0.15208
8330.724	1.26433	-1.67293	4.15823	-3.25133
8334.729	0.34300	-3.12312	2.14540	-1.35005
8338.725	2.99888	-3.23983	2.23333	-2.34272
8342.723	3.01997	-4.29729	4.43261	-1.01358
8346.721	1.55090	-1.35385	1.21355	-1.73680
8350.733	0.63285	-2.56661	1.26654	-0.50559
8354.727	0.93656	-2.53582	1.44056	-1.44799
8358.722	0.30962	-1.15966	1.85732	-1.48037
8362.722	3.97664	-2.97049	1.56414	-1.87715
8366.750	3.24021	-3.25689	1.72560	-2.21850
8370.727	0.53054	-1.65641	1.11549	-1.88082
8374.730	2.59693	-0.42674	2.77943	-1.68278
8378.726	1.95743	-1.99664	1.85125	-1.87245
8382.724	7.35817	-6.16810	2.35410	-2.03042
8386.722	1.78664	-2.89505	1.32704	-1.56682
8390.727	1.74382	-2.93738	3.33938	-1.78091
8394.728	1.60342	-2.13359	1.53381	-1.30620
8398.721	1.41630	-2.76557	1.11968	-1.26937
8402.721	1.01543	-1.54157	3.21562	-3.00024
8406.728	-1.99022	-2.54321	-2.42924	-1.36058
8410.725	-4.08945	-1.54914	-4.00880	-1.52866
8414.724	-4.11122	-1.46630	-3.52338	-1.80309
8418.722	-4.07577	-1.42343	-5.87395	-2.11330
8422.727	-4.09624	-1.22794	-5.30810	-3.44676
8426.724	-5.00034	-1.67363	-3.40781	-2.34271
8430.724	-4.03364	-2.33538	-5.74674	-3.37296
8434.756	-3.84915	-1.88957	-5.27016	-1.73433
8438.759	-2.41479	-4.32296	-5.43332	-1.09564
8442.737	-4.57051	-1.62518	-4.42212	-1.43386
8446.723	-3.09629	-2.58472	-4.63731	-0.88025
8450.728	-3.72091	-1.40976	-4.51494	-1.02934
8454.725	-4.90035	-2.11768	-4.75203	-1.36964
8458.722	-3.51557	-2.14195	-4.29890	-1.16147
8462.721	-5.96311	-2.26634	-4.85591	-1.50377
8466.727	-3.35644	-1.37310	-4.61250	-1.83015
8470.723	-3.37514	-1.37456	-4.20193	-1.24826
8474.729	-3.05489	-2.64972	-4.55517	-2.09647
8478.726	-3.16379	-1.34604	-4.34351	-2.22509
8482.727	-3.58482	-2.79197	-4.17171	-2.06836
8486.724	-5.13924	-2.25448	-4.40026	-2.01348
8490.722	-3.23732	-2.25546	-4.49297	-1.94775
8494.723	-4.00489	-1.76478	-4.25428	-2.17856
8498.726	-3.53221	-1.44875	-4.01927	-2.13943
8502.747	-3.43739	-2.70289	-4.65750	-2.28064
8506.732	-3.72407	-1.33023	-4.14722	-2.38642
8510.722	-3.28271	-1.92750	-3.84191	-2.25889
8514.720	-3.78066	-1.70366	-4.83701	-2.40448
8518.731	-3.77762	-1.69344	-3.83384	-2.31498
8522.724	-4.14863	-2.02127	-3.55355	-2.29018
8526.721	-3.62187	-2.27468	-4.86825	-2.40509
8530.726	-3.72311	-2.28970	-2.84375	-2.37276
8534.728	-2.68366	-4.78821	-4.42365	-2.47211
8538.723	-3.74468	-1.96831	-4.04648	-2.37709
8542.721	-4.17065	-1.63117	-7.20064	-4.89720
8546.746	-3.80809	-2.12796	-4.19504	-2.61631
8550.724	-4.79704	-1.82314	-3.76062	-2.42176
8554.722	-3.69412	-1.88904	-4.68003	-2.62245
8558.726	-2.35454	-2.02843	-4.26109	-2.55280
8562.718	-4.73505	-1.83525	-4.69830	-2.70890
8566.718	-4.17996	-2.27132	-4.32079	-0.33805
8570.722	-2.32139	-2.12092	-5.45904	-2.48833
8574.722	-2.23918	-2.23673	-3.75756	-2.43850
8578.744	-4.55258	-2.05917	-4.12243	-2.35074
8582.727	-4.77214	-2.25494	-4.06537	-1.84817
8586.723	-2.98077	-2.13330	-4.97243	-2.38919
8590.725	-2.86262	-2.00573	-3.22336	-2.41968
8594.719	0.98387	-2.23789	-4.46729	-0.71018
8598.718	-4.82222	-2.25119	-4.83247	-1.40598
8602.728	-4.48984	-1.23882	-3.73912	-1.87812
8606.720	-4.32659	-1.91911	-4.64049	-1.96440
8610.719	-3.41256	-1.80288	-4.86332	-1.58023
8614.719	-3.69214	-1.44983	-2.97309	-2.17968
8618.724	-4.63526	-1.87901	-4.28244	-1.27595
8622.718	-4.31605	-2.12731	-4.64635	-1.87930
8626.721	-4.53117	-1.60755	-3.53973	-1.19121
8630.726	-4.79994	-1.54116	-3.76040	-2.07865
8634.720	-4.32651	-1.64859	-4.22377	-1.65941
8638.752	-4.33670	-2.13035	-4.63302	-1.38683
8642.728	-4.21940	-2.30849	-5.21717	-1.73762
8646.721	-4.12789	-1.45130	-3.27794	-1.74965
8650.719	-3.68935	-2.32363	-3.18314	-1.95181
8654.717	-4.27390	-2.00924	-3.17371	-1.49847
8658.723	-4.24537	-1.01133	-4.58863	-0.63420
8662.720	-4.27632	-1.52708	-4.25406	-0.92332
8666.720	-4.48715	-2.02925	-4.22078	-1.36611
8670.718	-4.24322	-2.17386	-4.76295	-1.54144
8674.723	1.60957	-3.25841	-4.62907	-1.74739
8678.719	1.82995	-3.50366	-2.96181	-1.45430
8682.725	-3.84184	-3.41833	-2.89034	-1.66196
8686.724	-3.73982	-2.36031	-2.80617	-1.33033
8690.723	-4.04300	-1.31342	-5.18109	-1.36880
8694.717	-3.63473	-2.37564	-5.51371	-1.60322
8698.717	-3.43613	-2.55874	-5.33064	-1.41944
8702.724	-3.34042	-2.42125	-4.47037	-1.79498
8706.721	-3.28372	-2.11968	-3.77849	-1.62134
8710.721	-3.38051	-1.87533	-3.52910	-1.79116
8714.715	-4.26746	-2.37910	-4.09952	-1.09529
8718.723	-3.17035	-2.39972	-4.78664	-0.03140
8722.719	-3.57026	-2.36377	-3.76119	-0.69132
8726.722	1.95909	-4.65403	-2.66959	-1.15993
8730.722	0.97631	-1.50033	-2.26081	-1.80302
8734.718	-2.87012	-4.19746	-1.50681	-1.12335
8738.717	1.57669	-4.83219	-0.48319	-4.90841
8742.716	0.23850	-1.63434	0.00241	-4.01879
8746.721	-0.86307	-2.46825	-0.48589	-3.28004
8750.720	-0.16216	-5.05397	-0.66268	-4.20325
8754.722	-2.24210	-4.88991	-0.45137	-3.15499
8758.760	2.05628	-4.54430	-0.27282	-1.33094
8762.717	2.73843	-4.87504	-0.41998	-1.40974
8766.726	3.99954	-4.78094	-0.55505	-1.47833
8770.715	4.82493	-1.72755	-0.42182	-1.95010
8774.744	-0.24661	-4.75878	-0.62684	-2.31425
8778.719	0.65434	-1.54335	-0.66962	-2.80723
8782.721	1.46750	-4.18533	-0.38172	-3.27131
8786.717	-0.44864	-3.68146	-0.37261	-3.24038
8790.717	1.31463	-4.01786	-0.60781	-3.54502
8794.714	-0.45051	-3.61003	-0.29518	-3.85400
8798.720	1.62931	-3.83466	-0.49637	-3.94064
8802.717	3.57305	-4.24583	-0.56220	-4.12564
8806.718	0.27542	-7.51335	-0.95338	-3.34651
8810.721	-0.18618	-4.38532	-0.79109	-3.34925
8814.726	0.73082	-3.65635	-0.55654	-3.65230
8818.719	-0.04844	-3.82557	-0.25398	-3.53991
8822.715	0.03254	-4.25679	-0.01318	-3.48068
8826.720	0.19422	-4.38730	0.57272	-3.62125
8830.716	1.76351	-4.23754	0.32824	-3.31564
8834.715	-0.08503	-4.57042	0.34888	-3.24237
8838.718	-0.14968	-4.46348	-0.03832	-3.06423
8842.717	-0.08726	-3.50672	0.01494	-4.93412
8846.718	0.17303	-3.71286	-0.21837	-5.17384
8850.722	2.75955	-4.59534	-0.11548	-3.80409
8854.715	-0.38727	-2.35598	-0.50788	-5.42149
8858.719	-0.58940	-4.41727	0.03477	-3.79846
8862.719	-0.09431	-4.40278	0.02117	-3.62512
8866.720	0.26242	-4.33075	0.06636	-3.76506
8870.714	0.74384	-4.44576	-0.01199	-3.40658
8874.723	-0.02050	-4.65160	-0.06428	-3.44815
8878.719	-0.24912	-4.54594	-0.01658	-3.61141
8882.715	0.20676	-4.63262	-0.01355	-3.70256
8886.717	-0.01479	-4.43383	-0.20269	-3.64861
8890.720	1.52558	-4.55366	-0.07157	-3.36203
8894.720	1.70618	0.05298	-0.38457	-2.99337
8898.721	1.36005	-4.42516	-0.43304	-2.85612
8902.718	1.78134	-3.37635	-0.62146	-2.62789
8906.716	0.88163	-4.82123	-0.78608	-2.70996
8910.738	0.31300	-2.61488	-0.35824	-2.42046
8914.721	3.14070	-5.36946	-0.54674	-2.22583
8918.722	5.04681	-6.15418	1.50142	-2.65319
8922.716	2.97829	-4.58721	-0.36447	-2.13121
8926.716	2.00207	-4.37655	0.20199	-2.39149
8930.719	1.36903	-4.17681	-0.45795	-2.25993
8934.722	1.72304	-3.95145	-0.52478	-3.37915
8938.752	2.78837	-4.30952	-0.23497	-4.24237
8942.727	4.88513	-2.21131	-2.05541	-1.78354
8946.717	-2.06243	-2.09265	-3.34964	-1.98578
8950.717	-0.56228	-3.60614	-5.60322	-0.47177
8954.715	-6.94090	-1.39677	-8.31844	2.97169
8958.718	-6.77426	-0.38316	-8.89414	1.61234
8962.716	-9.73993	0.93746	-10.31359	2.72737
8966.717	-9.62094	1.40455	-11.79434	3.47279
8970.713	-10.50124	1.42793	-13.03244	5.03266
8974.723	-10.74683	2.83822	-12.29929	2.07333
8978.719	-10.53907	4.20091	-13.68926	4.97249
8982.779	-11.60539	4.29877	-12.85996	2.76718
8986.723	-11.88142	2.36796	-13.36490	5.08426
8990.715	-13.81691	4.19665	-12.87060	3.87994
8994.712	-12.06665	2.78413	-13.36149	3.78358
8998.710	-12.39788	3.24582	-13.50410	4.22575
9002.727	-12.40626	4.31009	-13.36687	4.29795
9006.726	-11.92740	3.64986	-13.08131	4.82661
9010.721	-10.41510	4.55018	-12.89020	4.59055
9014.713	-12.68399	4.13586	-13.17729	4.28304
9018.725	-12.49545	4.33467	-13.14581	4.78157
9022.711	-12.33392	3.60942	-12.87600	5.56944
9026.716	-12.17722	3.80100	-13.13279	5.09732
9030.711	-12.31670	4.04999	-12.96258	5.63387
9034.709	-17.03960	4.54874	-13.13296	4.64159
9038.716	-13.19854	3.80435	-12.99411	4.42309
9042.715	-12.88952	4.01056	-12.96484	4.59491
9046.716	-14.20187	3.26531	-12.69545	4.40360
9050.718	-12.31402	4.12541	-12.82727	4.95879
9054.711	-12.37373	3.98921	-12.89065	4.77750
9058.716	-12.24825	3.97154	-12.59091	4.75726
9062.710	-12.37915	4.07141	-11.91315	4.56322
9066.612	-14.65314	5.14660	-12.02755	4.50858
9070.597	-12.34932	4.59106	-13.13639	4.59683
9074.588	-12.44041	3.70612	-13.19395	4.38144
9078.590	-12.59559	3.57977	-13.57640	4.37452
9082.587	-12.65852	3.84903	-13.84988	4.59281
9086.588	-12.43107	3.49998	-13.61879	4.56980
9090.584	-11.88777	3.61329	-13.12646	4.65873
9094.591	-11.12194	4.15120	-12.82146	4.69473
9098.587	-12.57479	3.86241	-12.28235	4.69710
9102.590	-12.58590	3.89020	-13.88450	5.05511
9106.589	-12.25640	4.12216	-13.54835	4.81641
9110.593	-12.77521	4.53140	-13.59058	4.68879
9114.609	-12.65656	3.49446	-13.87847	5.13800
9118.592	-12.09427	3.92839	-13.56526	5.28248
9122.589	-10.62444	3.89663	-13.78021	5.35775
9126.590	-12.73018	3.92106	-13.54309	4.75282
9130.592	-12.58770	4.09032	-13.97258	4.73811
9134.591	-12.65675	3.91857	-13.68026	5.06322
9138.587	-12.27597	3.61529	-13.61583	4.77507
9142.588	-12.46765	3.93315	-13.65784	5.12407
9146.596	-10.88879	3.87676	-12.63724	4.74424
9150.587	-12.64354	3.64103	-13.42275	4.87650
9154.587	-12.42157	3.81089	-13.25865	4.87730
9158.582	-12.18713	3.77753	-12.93941	4.77075
9162.590	-12.32042	3.84990	-12.97490	4.87156
9166.588	-12.35483	3.80500	-13.28839	4.78875
9170.588	-12.45222	3.63065	-13.02295	4.84447
9174.585	-11.91617	4.28346	-13.36939	4.94559
9178.590	-10.53950	3.99997	-13.04087	5.08410
9182.627	-11.55576	3.68828	-12.67896	4.97742
9186.588	-11.64675	3.87209	-13.21046	5.02315
9190.588	-11.67089	3.88151	-12.67194	4.86664
9194.587	-11.34661	4.08494	-13.07639	3.12373
9198.586	-10.66630	4.25481	-13.45435	4.30421
9202.585	-12.88143	4.08174	-13.37709	4.79939
9206.582	-12.36779	4.36855	-13.15099	3.68138
9210.588	-11.37355	4.27063	-13.38607	3.00459
9214.585	-10.48596	4.18260	-13.57813	4.14571
9218.585	-12.63447	4.02229	-13.14800	3.59428
9222.582	-11.34857	3.88573	-13.44970	3.81605
9226.588	-12.88039	3.73880	-13.54227	3.84115
9230.588	-11.57293	3.74099	-13.53106	4.00610
9234.584	-12.44157	3.57059	-13.61363	3.40644
9238.587	-12.70437	3.95120	-13.35727	4.29505
9242.586	-12.87822	3.82093	-13.77101	4.35518
9246.585	-12.74048	3.63933	-13.70722	4.04017
9250.624	-12.53970	3.34046	-13.55745	4.57587
9254.596	-11.11513	3.81318	-13.76806	4.48462
9258.585	-12.85562	5.58758	-13.39882	5.04659
9262.582	-12.29310	3.64490	-13.18473	5.09709
9266.582	-12.60930	3.44354	-13.24609	5.39199
9270.593	-12.49339	3.52674	-12.75833	4.99860
9274.592	-12.55186	3.58048	-13.08112	5.17642
9278.584	-11.55671	3.55861	-12.72933	5.61100
9282.580	-12.77657	3.84831	-9.22874	6.34915
9286.590	-12.35014	4.02034	-3.80345	13.74920
9290.586	-11.91198	3.98704	-6.81248	5.80661
9294.582	-8.68189	3.35828	-4.70547	5.61144
9298.583	-3.43049	0.35609	-0.75099	5.06645
9302.586	1.48692	3.78885	1.79651	5.09701
9306.584	-0.41757	-0.25276	3.36334	5.44219
9310.585	1.66118	0.86201	3.05288	4.86692
9314.588	4.46835	0.44881	5.02408	4.99245
9318.592	4.34132	0.51445	8.36649	4.67346
9322.587	8.03093	0.95738	6.87103	4.52330
9326.583	10.93258	-0.50220	7.90207	2.67322
9330.584	11.60987	0.23323	8.32179	2.60954
9334.581	8.82007	-1.12032	8.48194	4.36857
9338.590	10.64257	0.36891	7.94124	3.20019
9342.585	10.06205	0.07582	8.00664	3.78893
9346.587	8.54467	-0.35073	7.40953	4.14313
9350.581	8.97077	-0.23063	8.32687	3.25092
9354.591	9.89463	-0.65206	7.98573	3.25290
9358.585	7.49593	-0.92641	7.98810	3.93008
9362.582	7.96485	-3.45231	8.32497	2.80661
9366.580	7.93230	-0.35327	7.79393	3.15877
9370.585	9.43262	-2.64366	8.37227	3.46847
9374.584	9.95712	-0.38320	7.44413	3.92799
9378.585	9.41136	-0.43537	7.37777	3.87812
9382.586	10.27059	-0.95614	8.46240	3.00730
9386.589	9.73964	-0.73278	7.06017	3.34996
9390.623	9.18173	-0.45896	7.26158	3.93507
9394.582	10.13152	-2.28967	8.20369	3.98149
9398.584	9.45184	-0.17006	8.30395	3.22880
9402.579	9.98480	-0.19943	7.12493	3.96928
9406.583	9.26904	-0.17984	7.27455	3.94322
9410.583	9.23937	-0.03544	6.98744	4.04652
9414.579	9.23756	-0.73736	6.92266	4.07270
9418.578	10.07930	-1.10028	7.13353	4.05545
9422.584	11.35859	-1.09939	7.82552	3.56533
9426.585	11.36293	-0.12388	7.44625	3.43571
9430.578	10.98466	-2.17786	7.50212	3.73351
9434.585	10.24175	0.59647	7.49895	3.53486
9438.614	11.21804	0.08624	7.52881	3.71940
9442.586	10.06458	0.13728	8.16486	3.85653
9446.584	9.05686	0.22049	7.98688	3.93041
9450.580	9.94238	0.20702	7.63306	4.04510
9454.582	10.46378	0.32617	7.36511	3.75781
9458.587	10.45310	-1.13528	8.93987	2.43363
9462.581	9.97243	-0.11326	7.70655	3.21056
9466.580	10.39028	0.03077	7.27839	3.51530
9470.578	9.87685	-0.73610	8.39734	3.32435
9474.582	10.15663	-0.78100	7.62019	3.56974
9478.587	10.36218	-0.57224	7.28139	3.76303
9482.584	10.51628	-0.07811	7.79257	4.28762
9486.577	9.96689	-1.02697	7.03384	3.51561
9490.583	10.38778	-0.46722	8.54569	3.60057
9494.579	10.05815	-0.27927	9.14039	3.09781
9498.603	9.97532	-0.23771	9.93138	3.41741
9502.586	12.48764	-0.60319	7.55115	3.72261
9506.587	10.04218	-0.24226	7.66041	3.72682
9510.582	9.85259	-0.36545	8.55547	3.79289
9514.580	9.38288	-1.14429	8.88140	3.24930
9518.577	9.52166	-0.49988	8.15932	9.37240
9522.606	10.03101	-0.27410	8.43469	9.05854
9526.591	11.54025	-0.28500	8.51581	9.20359
9530.582	11.07295	-0.34970	7.76435	3.89147
9534.584	9.83077	0.04057	7.55557	4.01754
9538.579	9.71351	0.80525	7.34340	4.00832
9542.578	9.50185	0.21008	8.97503	3.84795
9546.577	9.87170	0.15685	8.87014	3.80609
9550.580	9.29976	0.15204	9.58757	3.67402
9554.580	9.27129	0.16836	8.79552	3.42235
9558.577	9.62239	0.32582	7.37917	3.69308
9562.589	11.83155	-1.49464	7.10125	3.40776
9566.582	9.50361	-0.00304	9.33645	3.03682
9570.576	9.46208	0.23023	7.29855	3.98201
9574.583	9.39334	0.27877	6.94873	3.90184
9578.585	9.40818	0.28028	6.74817	4.02374
9582.578	9.92276	0.24896	6.67953	4.15131
9586.577	9.73207	0.23578	6.74800	4.06345
9590.605	9.42506	0.23820	7.58717	3.77028
9594.585	9.45013	-0.05648	7.03333	3.65689
9598.579	10.21906	0.66466	7.20814	4.09285
9602.583	9.58166	0.28425	6.63313	3.94680
9606.583	9.57756	0.99079	7.09546	4.31013
9610.578	13.29763	0.05185	7.43464	4.23473
9614.598	9.61563	-0.37813	7.33305	3.72819
9618.580	9.81843	0.04466	7.44481	4.26781
9622.581	10.33238	-0.16112	7.53901	3.95967
9626.602	9.78459	-0.09543	7.33630	4.24317
9630.592	10.12450	0.65644	7.89780	4.16735
9634.579	10.02740	0.63127	7.45299	4.02670
9638.577	9.45213	1.10039	7.71155	4.41453
9642.580	9.40057	1.17599	7.76352	4.15840
9646.582	8.98632	0.93076	7.97948	4.18596
9650.579	11.27856	-0.37426	8.01224	4.10499
9654.575	9.17430	0.51397	7.70363	4.12166
9658.882	11.33805	0.18658	7.51093	4.29767
9662.584	9.66282	0.54084	7.70075	4.14079
9666.579	10.17223	-0.29519	7.83020	4.00493
9670.576	9.27237	0.64188	7.56108	4.00021
9674.574	9.06480	0.87300	7.65229	4.05864
9678.581	9.11128	0.99553	7.97632	4.08325
9682.578	10.85057	-0.02953	8.91711	4.53569
9686.582	9.08130	0.81008	8.18891	6.87867
9690.580	11.99825	0.38126	8.29567	3.41537
9694.576	12.06610	1.22206	6.55102	9.08215
9698.576	11.97083	2.40930	6.04475	13.12303
9702.572	8.92493	2.23039	NaN	NaN
9706.585	NaN	NaN	5.79104	13.21759
9710.579	NaN	NaN	-12.75642	10.06480
9714.575	NaN	NaN	NaN	NaN
9718.575	NaN	NaN	NaN	NaN
9722.579	3.26082	14.16505	NaN	NaN
9726.599	NaN	NaN	NaN	NaN
9730.582	NaN	NaN	NaN	NaN
9734.581	NaN	NaN	NaN	NaN
9738.578	NaN	NaN	NaN	NaN
9742.577	NaN	NaN	NaN	NaN
9746.575	NaN	NaN	NaN	NaN
9750.574	NaN	NaN	NaN	NaN
9754.579	NaN	NaN	NaN	NaN
9758.576	NaN	NaN	NaN	NaN
9762.580	NaN	NaN	NaN	NaN
9766.576	NaN	NaN	NaN	NaN
9770.789	NaN	NaN	NaN	NaN
9775.044	NaN	NaN	NaN	NaN
9779.300	NaN	NaN	NaN	NaN
9783.538	NaN	NaN	NaN	NaN
9787.712	NaN	NaN	NaN	NaN
9792.732	NaN	NaN	NaN	NaN
9796.990	NaN	NaN	NaN	NaN
9801.192	NaN	NaN	NaN	NaN
9805.394	NaN	NaN	NaN	NaN
9809.460	NaN	NaN	NaN	NaN
9813.590	NaN	NaN	NaN	NaN
9817.561	3.27502	14.15648	NaN	NaN
9820.321	NaN	NaN	NaN	NaN
9822.912	NaN	NaN	NaN	NaN
9826.579	NaN	NaN	NaN	NaN
9830.580	NaN	NaN	NaN	NaN
9834.625	NaN	NaN	NaN	NaN
9838.734	NaN	NaN	NaN	NaN
9842.960	NaN	NaN	NaN	NaN
9846.929	NaN	NaN	NaN	NaN
9851.105	NaN	NaN	NaN	NaN
9855.356	NaN	NaN	NaN	NaN
9860.580	-20.15775	12.48187	NaN	NaN
9864.966	-19.00570	7.48561	-15.94667	4.50894
9869.248	-17.62384	7.33833	-18.66151	4.61122
9873.508	-17.52455	3.49957	-18.02642	2.90461
9877.746	-17.83441	6.71389	-15.11706	0.64850
9881.959	-17.83191	3.56431	-14.87413	-0.34060
9886.181	-16.40185	3.72955	-15.63654	0.59896
9890.560	-16.08814	3.43781	-19.98018	0.47561
9894.923	-15.99312	3.35877	-16.26763	1.94004
9899.285	-13.81717	1.05683	-17.39899	0.32694
9903.670	-14.05511	3.03110	-15.22615	0.62764
9908.101	-12.70936	3.48258	-15.85641	1.16846
9912.409	-14.07391	2.60827	-16.89218	0.19283
9916.742	-12.86822	3.41220	-15.51675	0.56035
9921.060	-13.61712	3.09036	-15.47715	0.55311
9925.380	-13.33666	2.06535	-14.50830	0.51653
9930.647	-13.22867	1.10553	-16.20867	0.62519
9935.085	-12.60004	1.46144	-16.05484	0.30067
9939.433	-12.57701	2.76743	-15.54089	-0.20575
9943.827	-13.65392	1.28348	-16.00356	0.68727
9948.145	-12.87282	1.18272	-14.21603	1.89483
9952.494	-12.04004	2.24933	-15.99067	-0.62105
9956.883	-12.85973	2.04946	-13.17543	0.59588
9961.225	-12.54623	1.53953	-15.35660	1.12889
9965.539	-13.46139	2.44564	-13.66189	2.47722
9969.756	-12.70799	1.83379	-14.07760	1.11341
9974.062	-12.64288	1.90240	-13.86722	0.27184
9978.360	-12.24258	1.58510	-15.80969	0.96467
9982.684	-12.33231	2.07230	-13.62186	0.47997
9987.001	-12.34768	1.62303	-13.55295	1.31754
9991.310	-12.62485	1.65032	-13.64640	2.64471
9995.644	-12.22488	1.61583	-15.40902	0.55530
10001.008	-9.28468	1.74721	-13.58568	1.53459
10005.465	-12.08582	1.42731	-13.42286	0.83131
10009.817	-12.26458	2.10625	-14.49164	0.50430
10014.171	-12.07614	2.10458	-13.76603	1.12903
10018.269	-11.66891	1.71563	-13.62594	0.95641
10022.643	-11.84021	1.86108	-13.62582	1.33401
10027.087	-11.97902	2.24244	-13.39565	0.60764
10031.234	-11.86053	2.27836	-13.69322	2.22133
10035.580	-11.87646	2.17221	-14.00893	0.76169
10039.785	-11.66979	1.96600	-14.22799	1.20937
10044.170	-11.78547	2.07484	-13.57201	1.88013
10048.566	-10.26374	2.17758	-13.47463	0.78570
10052.984	-11.96332	2.29308	-13.31330	1.26868
10057.317	-12.16598	1.97598	-13.89140	1.21626
10061.706	-12.36566	1.47749	-13.21448	1.12803
10066.059	-12.01635	1.95409	-12.91036	1.60664
10071.472	-12.32544	2.04229	-13.72849	0.67770
10075.895	-12.50621	1.64216	-13.95432	2.42001
10080.254	-12.82899	2.05782	-13.30940	1.30165
10084.644	-12.43322	2.15314	-13.29967	0.88028
10088.990	-12.85124	2.03789	-13.04231	2.23616
10093.353	-9.75174	2.46908	-12.76501	1.42884
10097.678	-13.28204	2.54126	-14.29103	0.78152
10101.861	NaN	NaN	-7.48397	15.08003
10104.678	NaN	NaN	NaN	NaN
10107.316	NaN	NaN	NaN	NaN
10110.454	NaN	NaN	NaN	NaN
10114.447	NaN	NaN	NaN	NaN
10118.444	NaN	NaN	NaN	NaN
10122.441	NaN	NaN	NaN	NaN
10126.449	NaN	NaN	-7.48502	15.08309
10130.448	NaN	NaN	-7.48156	15.08491
10134.442	NaN	NaN	-7.47985	15.08579
10138.446	NaN	NaN	-7.48090	15.08672
10142.450	NaN	NaN	NaN	NaN
10146.445	NaN	NaN	NaN	NaN
10150.446	NaN	NaN	NaN	NaN
10154.448	NaN	NaN	NaN	NaN
10158.443	NaN	NaN	-7.47905	15.08949
10162.445	NaN	NaN	NaN	NaN
10166.440	NaN	NaN	NaN	NaN
10170.448	NaN	NaN	NaN	NaN
10174.445	NaN	NaN	NaN	NaN
10178.444	NaN	NaN	NaN	NaN
10182.444	NaN	NaN	NaN	NaN
10186.446	NaN	NaN	-7.39508	15.10428
10190.450	NaN	NaN	-7.38139	15.10698
10194.448	NaN	NaN	-7.37580	15.10822
10198.447	NaN	NaN	-7.36972	15.10922
10202.444	NaN	NaN	-7.34375	15.11319
10206.444	NaN	NaN	-7.34301	15.11358
10210.447	NaN	NaN	-7.34668	15.11351
10214.443	NaN	NaN	-7.34990	15.11338
10218.443	NaN	NaN	-7.34831	15.11387
10222.447	NaN	NaN	-7.34296	15.11464
10226.448	NaN	NaN	-7.33476	15.11532
10230.442	NaN	NaN	-7.32426	15.11646
10234.446	NaN	NaN	-7.30783	15.11814
10238.448	NaN	NaN	NaN	NaN
10242.443	NaN	NaN	-7.28149	15.12099
10246.444	NaN	NaN	-7.25890	15.12314
10250.477	NaN	NaN	-7.23159	15.12574
10254.442	3.35785	14.15586	-7.19930	15.12884
10258.437	NaN	NaN	NaN	NaN
10262.445	NaN	NaN	NaN	NaN
10266.444	NaN	NaN	-7.13251	15.13532
10270.443	NaN	NaN	-7.10010	15.13891
10274.448	NaN	NaN	-7.06909	15.14234
10278.448	NaN	NaN	-7.03949	15.14547
10282.443	NaN	NaN	-7.02421	15.14703
10286.443	NaN	NaN	-6.99626	15.14989
10290.438	NaN	NaN	-6.96954	15.15260
10294.444	NaN	NaN	-6.94377	15.15528
10298.441	3.36696	14.15267	-6.91848	15.15787
10302.440	NaN	NaN	-6.90383	15.15938
10306.438	NaN	NaN	-6.88883	15.16089
10310.445	NaN	NaN	-6.86263	15.16360
10314.442	NaN	NaN	-6.83646	15.16630
10318.441	NaN	NaN	-6.81023	15.16900
10322.446	NaN	NaN	NaN	NaN
10326.442	3.37121	14.15075	NaN	NaN
10330.441	NaN	NaN	NaN	NaN
10334.438	NaN	NaN	NaN	NaN
10338.444	NaN	NaN	NaN	NaN
10342.455	NaN	NaN	NaN	NaN
10346.441	NaN	NaN	NaN	NaN
10350.437	NaN	NaN	NaN	NaN
10354.443	NaN	NaN	NaN	NaN
10358.443	NaN	NaN	NaN	NaN
10362.440	NaN	NaN	NaN	NaN
10366.437	NaN	NaN	NaN	NaN
10370.445	NaN	NaN	NaN	NaN
10374.440	NaN	NaN	NaN	NaN
10378.442	3.39149	14.15263	NaN	NaN
10382.444	NaN	NaN	NaN	NaN
10386.441	NaN	NaN	NaN	NaN
10390.444	NaN	NaN	NaN	NaN
10394.439	NaN	NaN	NaN	NaN
10398.447	NaN	NaN	NaN	NaN
10402.447	3.39117	14.15142	NaN	NaN
10406.440	NaN	NaN	NaN	NaN
10411.332	NaN	NaN	NaN	NaN
10414.446	NaN	NaN	NaN	NaN
10418.441	-21.89328	6.39288	NaN	NaN
10422.440	-19.99572	-12.07727	NaN	NaN
10426.437	-19.99569	-12.07728	NaN	NaN
10430.444	-23.48907	6.86517	NaN	NaN
10434.439	-19.99589	-12.07726	NaN	NaN
10438.501	-19.99583	-12.07727	NaN	NaN
10442.453	-19.99576	-12.07727	NaN	NaN
10446.444	-19.99550	-12.07729	NaN	NaN
10450.440	-19.99543	-12.07730	NaN	NaN
10454.444	-19.99537	-12.07730	NaN	NaN
10458.441	-19.99528	-12.07731	NaN	NaN
10462.440	-23.11756	8.20516	NaN	NaN
10466.436	-19.99374	-12.07742	NaN	NaN
10470.443	-21.40204	8.09504	NaN	NaN
10474.508	-22.37122	8.54750	NaN	NaN
10478.444	-20.00376	-12.07668	NaN	NaN
10482.450	-20.00358	-12.07669	NaN	NaN
10486.439	-20.00339	-12.07670	NaN	NaN
10490.434	-20.00310	-12.07672	NaN	NaN
10494.441	-20.00279	-12.07675	NaN	NaN
10498.436	-22.13163	7.70262	NaN	NaN
10502.438	-20.00512	-12.07657	NaN	NaN
10506.439	-20.00347	-12.07670	NaN	NaN
10510.438	-20.00301	-12.07673	NaN	NaN
10514.436	-22.36443	7.01088	NaN	NaN
10518.436	3.38746	14.11268	NaN	NaN
10522.442	-19.99539	-12.07730	NaN	NaN
10526.445	-19.99534	-12.07730	NaN	NaN
10530.453	-19.99528	-12.07731	NaN	NaN
10534.439	-19.99521	-12.07731	NaN	NaN
10538.448	-20.09675	11.07430	NaN	NaN
10542.438	-20.04006	-12.07397	NaN	NaN
10547.155	-20.03945	-12.07402	NaN	NaN
10551.043	-20.03857	-12.07408	NaN	NaN
10555.023	-20.03750	-12.07416	NaN	NaN
10558.952	-20.03264	-12.07452	NaN	NaN
10562.817	-20.02861	-12.07482	NaN	NaN
10566.569	-20.02760	-12.07490	NaN	NaN
10570.560	-20.02646	-12.07498	NaN	NaN
10574.444	-20.02523	-12.07508	NaN	NaN
10578.571	-20.02390	-12.07518	NaN	NaN
10582.627	NaN	NaN	NaN	NaN
10586.649	NaN	NaN	NaN	NaN
10590.750	NaN	NaN	NaN	NaN
10594.839	NaN	NaN	NaN	NaN
10598.906	NaN	NaN	NaN	NaN
10602.869	NaN	NaN	NaN	NaN
10606.865	NaN	NaN	NaN	NaN
10610.847	NaN	NaN	NaN	NaN
10615.723	NaN	NaN	NaN	NaN
10619.681	NaN	NaN	NaN	NaN
10623.620	NaN	NaN	NaN	NaN
10627.684	NaN	NaN	NaN	NaN
10631.730	NaN	NaN	NaN	NaN
10635.742	NaN	NaN	NaN	NaN
10639.881	NaN	NaN	NaN	NaN
10643.927	NaN	NaN	NaN	NaN
10647.963	NaN	NaN	NaN	NaN
10652.021	NaN	NaN	NaN	NaN
10656.063	NaN	NaN	NaN	NaN
10660.210	NaN	NaN	NaN	NaN
10664.301	NaN	NaN	NaN	NaN
10668.355	NaN	NaN	NaN	NaN
10672.453	NaN	NaN	NaN	NaN
10676.525	NaN	NaN	NaN	NaN
10680.590	NaN	NaN	NaN	NaN
10685.479	NaN	NaN	NaN	NaN
10689.561	NaN	NaN	NaN	NaN
10693.867	NaN	NaN	NaN	NaN
10697.921	NaN	NaN	NaN	NaN
10702.044	NaN	NaN	NaN	NaN
10704.634	NaN	NaN	NaN	NaN
10707.154	NaN	NaN	NaN	NaN
10710.440	NaN	NaN	NaN	NaN
10714.438	NaN	NaN	NaN	NaN
10718.436	NaN	NaN	NaN	NaN
10722.450	NaN	NaN	NaN	NaN
10726.442	-2.71305	9.17090	NaN	NaN
10730.611	NaN	NaN	NaN	NaN
10734.449	-1.07150	9.73329	NaN	NaN
10738.472	-0.70002	1.68863	NaN	NaN
10742.443	NaN	NaN	NaN	NaN
10746.453	NaN	NaN	NaN	NaN
10750.441	NaN	NaN	NaN	NaN
10754.477	NaN	NaN	NaN	NaN
10758.442	NaN	NaN	NaN	NaN
10762.434	NaN	NaN	NaN	NaN
10766.433	NaN	NaN	NaN	NaN
10770.437	NaN	NaN	NaN	NaN
10774.440	NaN	NaN	NaN	NaN
10778.328	NaN	NaN	NaN	NaN
10782.320	NaN	NaN	NaN	NaN
10786.327	NaN	NaN	NaN	NaN
10790.320	NaN	NaN	NaN	NaN
10794.310	NaN	NaN	NaN	NaN
10798.306	-22.04135	7.95054	NaN	NaN
10802.311	-19.99477	-12.07735	NaN	NaN
10806.309	-19.99477	-12.07735	NaN	NaN
10810.308	-19.99475	-12.07735	NaN	NaN
10814.304	3.26987	14.13273	NaN	NaN
10818.310	-19.99484	-12.07734	NaN	NaN
10822.340	-19.99480	-12.07734	NaN	NaN
10826.317	-19.99477	-12.07735	NaN	NaN
10830.312	-19.99473	-12.07735	NaN	NaN
10834.312	-19.99469	-12.07735	NaN	NaN
10838.310	-19.99464	-12.07735	NaN	NaN
10842.330	NaN	NaN	NaN	NaN
10846.314	NaN	NaN	NaN	NaN
10850.387	NaN	NaN	NaN	NaN
10854.315	NaN	NaN	NaN	NaN
10858.307	NaN	NaN	NaN	NaN
10862.312	NaN	NaN	NaN	NaN
10866.306	NaN	NaN	NaN	NaN
10870.312	NaN	NaN	NaN	NaN
10874.333	NaN	NaN	NaN	NaN
10878.310	NaN	NaN	NaN	NaN
10882.452	NaN	NaN	NaN	NaN
10886.577	NaN	NaN	NaN	NaN
10891.481	NaN	NaN	NaN	NaN
10895.683	NaN	NaN	NaN	NaN
10899.826	NaN	NaN	NaN	NaN
10903.866	NaN	NaN	NaN	NaN
10908.013	NaN	NaN	NaN	NaN
10912.011	NaN	NaN	NaN	NaN
10916.120	NaN	NaN	NaN	NaN
10920.242	NaN	NaN	NaN	NaN
10924.298	NaN	NaN	NaN	NaN
10928.338	NaN	NaN	NaN	NaN
10932.470	NaN	NaN	NaN	NaN
10936.650	NaN	NaN	NaN	NaN
10940.822	NaN	NaN	NaN	NaN
10944.940	NaN	NaN	NaN	NaN
10948.998	NaN	NaN	NaN	NaN
10953.122	NaN	NaN	NaN	NaN
10959.145	NaN	NaN	NaN	NaN
10963.392	2.96634	14.22053	NaN	NaN
10967.677	2.97421	14.21603	NaN	NaN
10971.919	2.97977	14.21293	NaN	NaN
10976.230	2.98636	14.20909	NaN	NaN
10980.477	2.99388	14.20515	NaN	NaN
10984.709	2.99906	14.20210	NaN	NaN
10988.984	NaN	NaN	NaN	NaN
10992.490	3.00401	14.19912	NaN	NaN
10996.582	3.00878	14.19629	NaN	NaN
11000.704	NaN	NaN	NaN	NaN
