time (ms)	lx (deg)	ly (deg)	rx (deg)	ry (deg)
0.000	0.24651	-1.23165	0.75250	-0.24695
4.002	0.77017	-1.16797	0.47125	-0.52796
8.008	3.70331	-0.29960	0.60248	-0.44385
12.007	2.15284	-0.56291	0.38730	-0.39727
16.002	5.01361	-2.18003	0.47418	-0.39426
19.998	6.17732	-1.27244	0.42998	-0.41220
24.003	1.24865	-1.24130	0.40246	-0.41772
27.999	2.14709	-1.15417	0.60560	-0.34923
31.993	0.93922	-1.77563	0.56131	-0.24669
36.004	0.36814	0.00701	0.53540	-0.23536
39.999	0.63052	-0.12538	0.84424	-0.06142
44.007	1.77005	0.66221	1.04099	0.02718
48.005	1.37111	-1.06304	0.85597	0.01044
52.002	0.72727	1.20046	0.86163	0.05722
55.992	-0.60454	-0.68696	0.65871	-0.35084
60.004	-0.16802	-1.06893	0.81322	-0.54403
63.998	-0.47197	-0.79882	0.77151	-0.60207
68.000	0.51150	-2.61695	0.91274	-0.30496
72.004	1.89077	-0.55871	0.86791	-0.43987
75.998	1.19797	-1.59704	0.53582	-0.64369
80.002	1.31019	-1.31064	0.40966	-0.33833
83.993	1.22796	-0.94744	0.69161	-0.59184
88.020	-2.32719	1.29184	-0.16864	-0.33760
92.001	-0.59992	0.28957	-0.34124	0.67141
95.997	-0.93381	0.07103	-1.18996	0.78728
100.002	-2.07945	0.34306	-0.66804	0.73383
103.999	-1.18763	0.44907	-1.02771	1.02669
108.002	-2.50536	-0.13349	-0.91619	-0.00447
111.994	-2.90728	0.21916	-0.95306	-0.42115
115.996	-1.38041	-0.27477	-0.91433	-0.41830
119.997	-1.84049	0.21657	-1.08718	-0.13369
124.002	-1.11058	0.12343	-1.07473	-0.43388
128.002	-1.00032	-0.23784	-1.10281	0.00104
132.003	-2.17358	0.10337	-1.21038	-0.11199
135.993	-1.72081	0.12253	-1.17783	-0.20700
140.003	-1.78096	0.05849	-1.14516	-0.26186
143.998	-2.18738	0.08872	-1.20596	-0.28975
148.001	-1.94679	0.00253	-1.20643	-0.44879
151.998	-0.84332	-0.54812	-1.14253	-0.49220
155.999	-0.85637	-0.75623	-1.15315	-0.62709
159.996	-1.36655	-0.61738	-1.23087	-0.65390
163.995	-1.38039	-0.03403	-1.17359	-0.59181
168.017	-1.82311	-0.25274	-1.23141	-0.73900
172.008	-1.64699	-0.02424	-1.27616	-0.67359
175.996	-1.71377	-0.07193	-1.19051	-0.68936
179.997	-3.32201	0.07938	-1.28720	-0.71159
184.357	-1.76351	0.05375	-1.30136	-0.29009
188.006	-1.68565	0.62578	-1.24245	-0.42315
192.002	-1.45150	0.70915	-1.06289	-0.04805
195.993	-1.65121	0.73993	-1.21427	-0.30388
200.002	-1.56315	0.38755	-1.20450	0.06795
203.998	-1.42945	0.84845	-1.03560	0.09575
208.002	-1.59591	1.29891	-1.10125	0.62479
212.038	-1.44607	1.71113	-1.10078	0.30159
215.999	-0.85051	1.23771	-1.02640	0.14080
219.994	-0.21547	1.00919	-1.03895	0.24952
223.994	-0.78352	1.05128	-0.88071	0.29445
227.994	-0.28781	1.12933	-0.77325	0.43499
231.997	-1.48044	-2.36227	-0.78992	0.34889
235.995	-0.37199	1.16638	-0.86406	0.45008
239.994	-0.01670	-3.19430	-0.73640	0.49715
243.996	0.13692	0.92128	-0.79496	0.45496
247.997	-0.14404	0.63688	-0.74876	0.65807
252.002	0.01022	-1.61953	-0.80146	0.53928
255.999	-0.04487	-1.48845	-0.80330	0.64897
259.997	0.23678	0.61457	-0.80568	0.51486
263.992	1.15106	0.40826	-0.78739	0.71133
268.012	3.97311	-0.51885	-0.78168	0.70308
272.001	2.09888	-1.61093	-0.88644	0.71024
275.991	0.39613	0.29753	-0.86371	0.82315
279.996	2.34919	-2.27228	-0.90694	0.67777
283.994	0.08009	0.28094	-0.91589	0.72492
287.995	-0.53371	0.39135	-0.91530	0.69590
292.000	-2.50851	1.32779	-1.04654	0.33881
295.999	-1.92456	1.33725	-1.10738	0.62606
299.998	-2.57048	1.09682	-1.25875	0.42739
303.990	0.16459	0.94224	-1.51293	0.09628
307.998	-0.29232	0.97053	-2.06902	0.78852
311.995	-1.30685	-1.76241	-1.51660	0.75662
315.998	-1.32622	-2.32698	-1.53910	0.55442
319.996	0.10642	0.13135	-1.36315	0.28538
323.999	-0.14843	-3.29805	-1.15116	-0.04753
327.996	-0.15925	-3.74931	-1.47632	-0.09497
331.994	0.15288	-0.57141	0.61215	0.26177
335.997	0.08463	-0.51364	-1.11658	1.70581
339.997	-0.16804	-0.65919	-0.54776	1.68145
343.993	-0.09716	-0.69721	-0.58461	1.75955
347.999	0.04172	-0.82317	-1.07398	1.83600
351.993	-0.28150	-0.76272	0.25182	0.48578
355.993	-0.21857	-0.78414	0.11893	0.39239
359.992	-0.09051	-0.67681	-0.00089	0.18175
363.993	-0.07857	-0.91772	-0.81181	-0.53193
368.013	-0.02767	-0.95484	-0.42013	-0.76072
372.000	0.05879	0.05623	-0.36072	-0.29386
375.995	-0.18653	-0.98710	-0.41616	1.20008
379.997	-0.05403	-0.01874	-0.28870	1.18475
383.994	-0.25296	-2.68700	-0.49014	1.29703
388.049	0.68116	-0.24278	-0.27632	1.34939
392.007	0.98025	-1.21109	0.11433	1.15689
395.992	0.90500	-1.10683	2.03053	-0.45802
399.994	0.60751	-1.14506	0.11089	0.74573
404.000	0.13761	-0.94674	0.15466	1.22189
407.993	0.30275	-1.10963	0.32955	-0.10715
411.997	0.30411	-0.87314	0.07661	-0.27262
415.990	0.19564	-0.91921	-0.00347	-0.31588
419.996	-0.74409	-0.28897	0.18784	0.00055
423.996	-1.20973	-0.08412	0.59808	-0.12573
427.992	-0.00481	-0.95434	0.43244	-0.06115
432.009	0.36519	-0.76067	0.10538	-0.28688
435.998	1.16032	-1.19798	-1.03126	-0.22400
439.996	0.19455	-0.91583	-0.16462	0.13346
443.992	0.25785	-0.00094	-1.43895	0.53956
447.987	-0.06942	-1.03128	-0.81952	0.61838
451.998	0.48081	-0.62762	-0.80496	0.26881
455.993	0.81263	-3.06851	-0.93453	-0.12311
459.998	0.98030	-1.24869	-0.63064	-0.48350
464.001	0.93043	-1.20152	-0.89783	-0.61698
468.009	3.09565	-1.02878	-0.62588	-0.78467
471.995	-1.16285	-0.59176	-0.55937	-0.69916
475.991	-0.03802	-1.07621	-0.25805	-0.77524
479.989	0.60064	-1.08010	-0.65588	-0.97038
483.992	1.52893	0.08769	0.11342	-1.09199
487.994	0.02621	-0.98122	-0.04921	-0.84305
491.991	1.06205	-0.59171	0.58679	0.53098
495.994	0.71953	-0.36744	0.10808	0.25786
499.990	-0.18899	-0.76680	-0.17551	0.19576
503.992	0.28260	-0.76729	-0.29684	-0.32239
507.996	0.21616	-0.06182	-0.13255	-0.57581
511.993	1.29499	-0.79686	-0.67064	0.29653
515.991	0.36082	-0.80162	-0.22356	0.79223
519.988	0.18169	-0.78995	0.09726	1.21062
523.997	-0.88294	-0.18553	-0.12468	1.04516
527.995	0.35466	0.90335	-0.19698	0.67124
531.996	0.46098	0.14049	-0.05775	0.47508
535.987	0.32491	0.05984	-0.46247	0.27412
539.996	0.41666	-0.45817	1.45053	0.31004
543.995	0.24614	-0.76945	1.85115	0.42901
547.997	0.66667	-2.26945	2.38259	0.56531
551.989	1.11938	-0.37972	0.48053	0.52702
555.991	1.10824	-0.37614	0.07914	0.74767
559.993	0.94656	-3.12991	-0.03800	0.61037
563.994	0.58714	-0.37145	-0.39194	0.63088
568.007	0.39070	-0.41519	-0.29558	0.56288
571.994	0.33925	-0.63488	-0.39325	0.59398
575.992	1.52454	-0.95232	-0.66712	0.59267
579.989	0.67119	-0.53406	-0.47438	0.58098
583.989	0.58890	-0.81818	-0.47495	0.55045
588.006	0.83114	-0.76786	-0.52940	0.25079
592.023	-1.51583	-0.61190	0.42368	-0.41109
596.004	1.20226	-2.23026	0.48632	0.45640
599.991	1.24602	-1.15580	0.11295	0.55295
603.992	4.61837	-2.33957	-0.70868	0.77228
607.992	-0.04187	-0.87445	0.65372	0.80660
611.985	2.38065	-3.79895	0.83315	0.68479
615.994	1.00935	-1.37718	-0.12985	0.47458
619.990	0.85175	-1.10230	-0.09049	1.17267
623.993	-0.20988	-1.04747	-0.14891	1.58968
627.989	1.37922	-0.08255	-0.33067	2.02311
632.004	0.89699	-2.58877	-0.07693	1.22254
635.992	0.41179	-1.00686	0.09195	0.91591
639.989	0.13709	-1.08364	0.08033	1.00547
643.989	0.50257	-1.88999	-0.63876	0.87961
647.989	0.28014	-0.47301	-0.25895	0.70972
651.992	-0.04785	-0.92960	0.27952	0.08245
655.987	0.18459	-2.13116	-0.16494	1.09449
659.990	0.33486	-1.57270	-0.86535	0.93136
663.987	0.08078	-0.62200	0.01702	1.95914
668.004	-0.51751	-2.48256	-0.31188	0.54087
671.996	-0.01444	-0.45726	-0.23080	2.14158
675.984	4.50604	-2.62334	-0.35556	1.74853
679.992	0.20130	-1.46535	-0.52719	1.31736
683.988	-2.47162	-0.00598	-0.11930	1.27768
687.988	-1.03550	-2.03535	-0.35109	1.00294
691.987	0.16873	-0.45040	-0.48029	0.83127
695.989	-0.21296	-0.28723	-0.38497	0.76315
699.992	0.54840	-0.58900	-0.44187	0.71699
703.983	-0.57272	-0.78430	-0.38065	0.44279
707.992	-0.57528	-0.87458	-0.53399	0.68225
711.992	0.18037	-0.78759	-0.37236	0.13779
715.990	0.09230	-1.00219	-0.28726	0.50027
719.992	-0.81024	-1.00393	-0.68928	0.50943
723.987	0.15437	-0.72185	0.13320	0.41366
727.991	-3.31103	-0.70924	-0.56657	0.61052
731.989	0.05500	-0.51551	0.50892	0.46815
735.987	1.38151	-0.83773	-0.70615	1.21070
739.985	0.11605	0.05280	-1.06649	0.68576
743.987	0.68766	-0.43877	0.57183	1.27739
747.860	1.79006	-0.82885	-1.02491	1.16788
751.859	0.57972	-1.05142	0.91068	0.35932
755.861	0.48803	-1.01460	-0.00678	1.20148
759.868	0.90016	-1.04563	1.13794	0.66957
763.865	1.06351	-1.44020	-0.77632	0.16280
767.874	-1.97448	-0.11491	-0.92207	1.55244
771.868	0.63781	-0.71721	-0.10523	0.29762
775.862	0.56920	-1.07062	0.00561	0.33457
779.863	3.50682	-1.63162	0.08614	0.61822
783.862	0.60637	-1.03057	-0.06135	0.28343
787.860	0.58729	-0.72057	-0.01434	1.67287
791.861	0.43333	-0.33654	-0.25118	0.45179
795.863	0.16079	-0.22610	-0.33141	0.44752
799.868	0.55094	-1.10997	-0.25574	1.75515
803.865	-0.16774	-0.95975	-0.24954	0.66356
807.860	0.49346	-1.17041	-0.23932	0.48911
811.865	1.78491	-2.32405	-0.22353	1.11031
815.862	-0.25431	-0.62363	0.33260	0.88256
819.865	1.31171	-1.03200	-0.02827	0.76126
823.859	0.88212	-0.76897	-0.22594	1.48732
827.865	-0.19077	-0.49187	-0.38742	1.14229
831.861	-0.31642	-0.89269	0.85138	1.20621
835.863	-0.44132	-1.08850	1.09703	1.30720
839.879	0.86932	-2.79518	-0.03939	1.73158
843.866	0.96145	-0.63317	-0.31518	1.09336
847.859	0.61764	-0.84287	0.89106	1.91388
851.889	1.66016	-0.18815	0.94894	3.05574
855.872	1.04186	2.61556	1.27333	2.93019
859.868	6.12102	0.34523	1.87733	3.46471
863.865	6.00656	0.03324	1.89446	3.66814
867.865	6.08428	1.14430	2.10848	4.05188
871.867	3.39137	0.69750	1.77841	4.12270
875.859	4.19445	0.75667	2.22071	3.76095
879.863	1.09976	1.10840	2.23011	3.82703
883.866	0.93314	0.52992	2.37119	3.82233
887.866	0.80106	0.96826	2.44967	3.76736
891.859	1.23186	0.82479	2.49174	3.79849
895.864	3.78360	0.93784	2.65458	3.73540
899.860	3.83764	0.70070	2.45911	3.75760
903.858	3.46632	0.68051	2.39696	3.69401
907.864	3.81152	0.73496	2.39710	3.77176
911.860	3.61767	0.80070	2.42463	3.76946
915.862	3.48654	0.94923	2.51301	3.84234
919.857	3.55577	0.94946	2.35266	3.96046
923.868	4.37924	0.86427	2.21172	4.29741
927.861	5.30727	0.92517	2.06091	4.75277
931.883	6.48191	0.69181	2.25385	5.10014
935.866	2.77007	1.33109	3.26537	4.18239
939.858	2.88859	1.76529	1.91385	4.32508
943.862	4.63962	2.49175	1.98517	4.70581
947.860	3.40759	2.02641	2.11829	4.34846
951.862	2.55943	1.35228	1.89107	4.17571
955.854	1.60389	0.45252	2.26502	4.07685
959.863	1.74147	1.90986	1.91888	4.30756
963.867	3.14164	1.48418	2.12815	4.05669
967.869	2.67853	1.34367	1.98869	5.72086
971.862	6.58849	0.58435	1.83677	4.00694
975.861	3.91096	0.28240	2.08079	4.07938
979.857	3.25325	0.97555	2.09279	3.47701
983.863	5.69522	0.85968	2.01278	3.92781
987.859	3.39357	0.62555	2.43216	3.95109
991.859	3.19585	0.71939	2.62761	3.74692
995.856	1.32523	0.65162	2.60557	3.94337
999.899	3.21708	0.75306	2.19447	4.08604
1003.864	3.26577	0.67509	2.20471	4.14829
1007.868	3.02848	0.83512	1.95753	5.60005
1011.865	3.18487	0.45237	2.29384	3.78870
1015.858	3.67692	1.35404	3.39203	3.64646
1019.858	2.29689	0.79267	2.84616	3.91539
1023.855	3.31437	0.51807	2.39143	4.57177
1027.862	3.27937	0.33831	2.26400	3.76383
1031.857	2.72531	0.16657	2.42111	3.29839
1035.857	5.74979	-0.04438	2.16706	3.65508
1039.861	2.42649	1.28626	2.91346	3.83065
1043.859	2.79065	0.40669	2.80867	3.78588
1047.860	3.53100	0.74439	2.68430	4.02274
1051.861	5.65521	2.48200	2.23871	4.05200
1055.858	3.58049	0.20031	2.21169	3.87155
1059.862	3.81320	0.86671	3.25483	3.95630
1063.855	4.16389	-0.17316	4.28747	3.79373
1067.918	2.74105	0.38484	2.44445	4.16532
1071.898	3.19887	-0.26202	1.86796	4.10416
1075.857	3.90842	0.26983	2.12379	3.95561
1079.860	4.52898	0.56841	2.18706	4.05896
1083.854	2.95557	0.63122	2.08500	4.21871
1087.856	3.42779	2.75695	2.99851	3.98401
1091.871	5.23630	0.67968	5.92869	4.16903
1095.858	9.31796	0.39827	7.75178	3.88786
1099.855	4.77557	1.04589	9.23877	3.78098
1103.859	5.17033	-0.99764	8.78323	3.70665
1107.855	11.98823	-0.77567	11.79558	1.74607
1111.853	14.45639	-1.22235	10.29027	2.86278
1115.860	13.80957	-0.37007	10.62159	2.45188
1119.857	13.98566	-1.74523	10.36927	2.29515
1123.859	15.58677	-2.05497	10.62161	2.36092
1127.851	14.04988	-1.70060	10.91162	2.46029
1131.860	14.93441	-1.24526	10.49133	2.83398
1135.872	13.81123	-1.47131	10.84415	2.41704
1139.859	15.17600	-2.46623	11.40419	1.79763
1143.858	13.80699	-1.58636	9.76710	2.00676
1147.854	14.12004	-2.29451	10.79174	2.07358
1151.868	14.41848	-1.47702	11.46063	1.69893
1155.861	14.44413	-1.67344	10.48262	1.98272
1159.855	14.04876	-2.14009	9.63990	2.34716
1163.855	15.07405	-1.91299	9.59421	2.48983
1167.864	13.85550	-1.27727	10.18322	2.45952
1171.855	14.36052	-1.39907	11.03035	2.15560
1175.862	14.38984	-2.04033	11.42408	2.11105
1179.853	13.73533	-2.02506	11.42899	2.18230
1183.859	14.06679	-0.86635	11.40443	2.46668
1187.852	14.07307	-0.98751	10.79071	4.03334
1191.859	13.92325	-1.71575	9.83419	4.35448
1195.855	13.93172	-1.97283	9.97623	4.36243
1199.857	13.88188	-1.37204	9.75690	4.03534
1203.857	14.09838	-0.74481	10.59459	3.17970
1207.860	13.89416	-0.81498	10.46748	3.12027
1211.856	13.98005	-1.08421	10.38346	3.99617
1215.859	13.76350	-1.51392	10.14376	3.37307
1219.865	13.86065	-1.74859	9.82657	3.43794
1223.855	13.95738	-1.94065	10.06583	3.69750
1227.858	14.32237	-1.44401	9.88297	3.50794
1231.850	14.33977	-1.15929	9.99368	3.13332
1235.859	14.12917	-0.73789	10.07853	2.96336
1239.855	13.93901	-0.20034	10.05625	2.99782
1243.856	13.80402	-0.45680	10.14492	3.25424
1247.853	14.31498	-0.82763	10.27035	2.93261
1251.857	14.49616	-0.90225	10.21536	2.96792
1255.860	14.95063	-1.10401	10.25877	2.93223
1259.860	14.22881	-0.76055	10.13311	2.95012
1263.852	14.73446	-0.99557	10.10225	2.98476
1267.870	13.62638	-1.07031	10.52139	2.90533
1271.852	14.31083	-1.11092	10.33944	2.86647
1275.852	14.61088	-1.21405	9.99674	2.88092
1279.856	13.65212	-1.25431	10.39057	2.92227
1283.892	14.40568	-1.33656	10.68422	3.05441
1287.854	14.81961	-1.29863	10.75794	2.86745
1291.853	14.28650	-1.27573	10.39813	2.92089
1295.851	13.28804	-0.96530	10.19274	2.80039
1299.857	13.79995	-0.68652	10.58349	2.65937
1303.857	14.20535	-1.03166	10.50985	2.50152
1307.852	14.49923	0.18681	10.58958	2.49536
1311.851	14.40293	0.33560	10.12070	3.02062
1315.856	14.52219	0.25198	10.07165	3.29258
1319.853	14.69009	-0.56432	10.39338	3.04005
1323.854	14.48692	-0.76871	10.48603	2.73589
1327.851	14.71264	-0.83566	10.46549	3.02327
1331.851	14.03351	-0.80012	10.45877	3.29992
1335.854	13.88960	-0.50625	10.45037	3.11720
1339.860	14.05852	-0.67642	10.05274	3.18256
1343.856	13.55904	-0.72031	10.26737	3.10642
1347.850	13.45132	0.15798	10.23803	2.87676
1351.856	13.90695	-0.35305	10.34184	2.41110
1355.852	13.55527	-0.21521	10.35385	1.91227
1359.855	13.14249	0.01711	10.58901	2.93790
1363.848	13.00598	-0.19587	10.78997	2.86829
1367.865	13.58587	-0.30825	10.82622	3.03654
1371.857	13.81776	-0.40111	10.63279	2.99920
1375.853	13.77839	-0.49370	10.04918	3.84474
1379.847	13.31013	-0.28563	10.44581	3.12921
1383.861	13.60400	-0.44555	10.34811	3.17874
1387.851	13.04869	-0.64951	10.41618	2.92676
1391.852	13.08357	-0.56522	10.39381	2.57607
1395.850	12.91105	-0.67283	10.59764	2.62201
1399.855	12.70501	1.05981	10.60332	2.20221
1403.854	12.83496	0.78931	10.57759	1.72434
1407.884	13.43186	0.25223	10.59805	1.62463
1411.857	12.96385	-0.11456	10.37806	1.59562
1415.853	13.28373	-0.17976	9.84204	2.76387
1419.855	13.08854	0.03234	9.56829	2.82404
1423.854	13.28444	0.00293	9.51956	2.72747
1427.860	13.35771	0.00353	9.77910	2.72144
1431.851	13.93803	-0.10158	10.09847	2.67183
1435.852	14.24081	-0.00222	10.25973	2.69229
1439.849	13.27330	0.09183	10.16211	2.97115
1443.850	13.76326	-0.07965	10.27857	3.16752
1447.853	14.36753	-0.61983	10.45745	3.30237
1451.850	14.02337	-0.58960	10.38716	3.28335
1455.850	13.64281	-0.40150	10.69659	3.43745
1459.854	13.42582	-0.55159	10.18031	3.86494
1463.910	13.29741	-0.21973	10.02093	4.16896
1467.870	12.99531	-0.54722	10.31211	3.92873
1471.854	12.98160	-0.33294	10.45082	4.12784
1475.859	13.03673	-0.48092	10.73339	3.97562
1479.855	13.06699	-0.57295	10.45776	4.11557
1483.850	13.15073	0.13042	10.65810	4.02633
1487.854	13.31206	0.69303	10.28902	3.99274
1491.845	13.06084	0.83610	10.88822	3.93882
1495.855	13.03863	0.72406	10.86084	3.85021
1499.852	12.76796	0.45335	10.69074	3.71132
1503.854	12.72882	0.08561	11.01916	3.11157
1507.880	12.65344	-0.13468	10.69223	3.50693
1511.853	12.66334	0.26739	10.81406	3.05322
1515.850	12.57666	0.27798	10.79330	2.65177
1519.852	13.48397	0.10528	10.76451	2.22797
1523.847	13.43127	-0.29445	10.78721	2.09118
1527.848	13.47613	0.13987	11.71915	2.39515
1531.851	13.47991	0.06773	12.40216	2.19530
1535.847	13.26206	0.08632	11.49905	2.26076
1539.853	13.39903	-0.17187	12.13776	2.09296
1543.885	13.38806	-0.12902	13.17569	2.23961
1547.859	13.42594	-0.14512	13.27489	2.22199
1551.846	13.53552	-0.14793	12.90529	2.14843
1555.852	13.50631	-0.19151	12.49838	2.15100
1559.845	13.72163	-0.29199	11.81173	2.24110
1563.854	13.71107	-0.42077	11.92156	2.29100
1567.864	13.73659	-0.37103	11.30751	2.49227
1571.851	15.44287	-1.51014	11.62261	2.54097
1575.847	14.02734	-1.02545	11.41402	2.59675
1579.849	14.01727	-0.86500	11.14142	2.73786
1583.850	13.99258	-0.90609	11.11767	2.70679
1587.857	13.70303	-0.72528	10.96913	2.74823
1591.853	13.50391	-0.65945	10.59205	2.95482
1595.850	13.36025	-0.98032	10.54579	2.90766
1599.722	13.28907	-0.76992	10.10208	3.01137
1603.729	13.55025	-0.68391	9.65975	2.87217
1607.723	12.68484	2.07298	10.32325	3.05431
1611.773	13.90368	-0.80779	10.48072	2.81297
1615.726	14.88625	-1.37002	9.73383	2.84904
1619.724	13.13712	-2.48704	15.52621	-0.53206
1623.726	13.64706	-1.67532	10.62022	2.52522
1627.721	13.98627	-2.87384	10.33497	-0.21547
1631.723	14.45276	-3.40717	10.17745	-0.75146
1635.721	13.77703	-4.96960	11.61037	-1.17695
1639.727	14.66807	-5.14916	11.47820	-0.82974
1643.724	14.65525	-5.46487	10.97229	-1.02179
1647.721	11.16870	-5.25948	10.77991	-0.93177
1651.728	10.06049	-5.44395	10.84659	-0.88220
1655.721	14.60653	-4.48627	10.91911	-0.39419
1659.726	15.68589	-5.29095	10.87051	-0.67572
1663.717	14.67955	-3.96773	11.35544	-0.47355
1667.725	14.75454	-4.00846	11.30393	-0.88365
1671.720	14.96559	-4.44848	11.00422	-1.06509
1675.721	15.02200	-4.28582	10.88365	-1.34509
1679.725	15.03999	-4.35915	10.87833	-1.50174
1683.726	10.27405	-5.32647	11.29763	-1.52184
1687.724	14.83910	-5.06597	11.17293	-0.85230
1691.723	14.82929	-5.35944	11.16507	-1.08003
1695.727	14.62231	-5.20916	11.04508	-1.13164
1699.720	18.82478	-6.67898	11.04023	-0.65156
1703.727	14.83819	-3.91166	11.06098	-0.39766
1707.723	14.81312	-3.24654	11.51058	-1.05489
1711.722	14.73116	-1.78366	11.14056	-0.85090
1715.728	14.60177	-2.95031	11.15021	-1.34605
1719.763	14.92996	-3.22750	11.02242	-1.13378
1723.725	14.96830	-4.84274	11.03925	-1.41115
1727.719	16.25136	-5.56674	11.03946	-1.58074
1731.719	11.62156	-5.49068	11.02701	-1.26470
1735.721	11.89789	-4.99521	11.28226	-1.26245
1739.720	14.24800	-4.80798	11.15649	-0.94411
1743.724	12.92852	-3.70220	11.14421	-1.02180
1747.719	13.62327	-4.63654	10.90834	-0.60776
1751.720	13.82204	-3.99977	10.93289	-0.76120
1755.719	14.97708	-4.52204	10.78860	-0.60051
1759.726	15.13619	-4.63268	10.58078	-0.66525
1763.725	12.03161	-4.98212	10.29793	-0.28568
1767.758	10.94098	-4.86346	10.77612	0.29200
1771.728	14.50293	-4.76786	11.15585	0.82217
1775.720	11.10727	-5.29020	11.24409	0.53773
1779.719	14.22890	-4.67657	11.08287	0.31377
1783.720	13.75870	-4.46350	10.86514	0.07836
1787.722	11.70978	-5.41371	10.68870	0.46444
1791.717	14.81375	-5.36030	10.77253	0.23588
1795.724	14.45849	-5.11743	11.30918	-0.16884
1799.719	14.30505	-5.09979	11.09169	-0.29940
1803.727	18.23571	-5.98492	10.99224	-0.41592
1807.714	14.72510	-4.81781	10.99492	-0.84330
1811.721	14.59789	-5.75792	11.00728	-0.84802
1815.716	14.21230	-5.37742	10.94014	-0.59081
1819.721	14.23261	-4.70444	11.03064	-0.59666
1823.722	14.77575	-5.12396	10.99013	-0.44493
1827.717	14.43107	-5.29093	11.07726	-0.79811
1831.724	14.39094	-4.94995	11.10787	-0.76129
1835.730	14.27977	-4.86414	11.10785	-0.71735
1839.721	14.53602	-5.03907	11.12792	-0.59224
1843.727	16.96423	-5.25836	11.09023	-0.69889
1847.721	14.75173	-4.66961	11.11664	-0.55077
1851.714	14.61206	-2.36257	11.06738	-0.18456
1855.724	16.67341	-3.57190	10.58553	0.57375
1859.718	14.41199	-2.26573	11.21207	0.11527
1863.722	14.41806	-2.02152	11.31889	0.73074
1867.722	14.24874	-0.99672	11.11466	2.97532
1871.718	14.87515	-1.15743	11.21181	2.89338
1875.721	15.56012	-0.85535	11.28075	2.36356
1879.716	15.30632	-0.74789	11.49595	2.08632
1883.718	15.16472	-0.80266	11.35391	2.31847
1887.727	14.89024	-0.68093	11.48435	2.56206
1891.720	15.19870	-0.81380	11.46099	2.25763
1895.722	14.82569	-0.50132	11.32345	2.70793
1899.720	14.78048	-0.61185	11.75046	2.49160
1903.718	14.74987	-0.53521	11.53012	2.59233
1907.723	14.82240	-0.44339	11.60813	2.68325
1911.719	14.80948	-0.33232	11.57722	2.61480
1915.749	14.59805	-0.24523	11.68253	2.65211
1919.714	14.48285	-0.24827	11.44497	2.70338
1923.721	14.35833	-0.17186	11.47863	2.70570
1927.721	14.48916	-0.18689	11.68208	2.77162
1931.720	14.37443	-0.18881	11.38070	2.84908
1935.714	14.26681	-0.08638	11.52731	2.92605
1939.720	14.14534	-0.12306	11.47043	2.90684
1943.716	14.06485	-0.13518	11.35458	3.06654
1947.719	14.14203	-0.06578	11.31223	3.07591
1951.733	13.95205	-0.09733	11.41132	2.98324
1955.719	13.88930	-0.03088	11.31903	3.11531
1959.714	13.82583	-0.10108	11.28104	3.03352
1963.724	13.83875	-0.23698	11.30522	3.00353
1967.720	13.96881	-0.14107	11.36317	3.04776
1971.726	13.45573	-0.05264	11.22955	2.90900
1975.716	13.83636	-0.04502	11.30068	2.67846
1979.719	13.84684	-0.11870	11.35050	2.47009
1983.715	13.91367	-0.09303	11.12104	2.56905
1987.721	14.08045	-0.09357	11.23912	2.20325
1991.716	14.61757	-0.18957	11.04766	2.23362
1995.719	14.46265	-0.17579	10.95705	1.90481
1999.714	14.55714	-0.24316	10.80125	1.74884
2003.720	14.58427	-0.36459	10.67617	1.40794
2007.716	14.48983	-0.25233	10.81468	1.65537
2011.724	14.55283	-0.43689	10.80177	1.36781
2015.714	14.62600	-0.43516	10.78003	1.27058
2019.764	14.57336	-0.37209	10.83872	1.22779
2023.724	14.66710	-0.45842	10.69343	1.20334
2027.720	14.76528	-0.61818	10.71346	1.21757
2031.716	14.86112	-0.61066	10.76844	1.85090
2035.719	14.71141	-0.47979	10.65745	1.93440
2039.717	14.53844	-0.15346	10.43126	2.72667
2043.718	13.41657	-0.04341	10.35757	2.82944
2047.715	12.83784	1.25847	10.34230	2.77490
2051.724	14.22288	0.46213	10.20293	3.02652
2055.717	14.54353	-0.00164	10.11045	2.99324
2059.719	14.51144	0.35697	10.03390	3.00857
2063.713	14.71524	-0.12673	9.96997	3.06995
2067.727	14.24263	0.33469	9.82424	3.29890
2071.715	14.12329	0.03928	9.92408	3.22169
2075.719	14.43054	0.28365	9.85442	3.31449
2079.716	13.85810	0.31062	9.71871	3.21968
2083.717	14.19135	-0.67495	9.79064	3.17248
2087.731	13.85817	-0.90621	9.77247	3.07773
2091.718	13.81418	-1.07102	9.74608	3.09912
2095.718	13.74910	-1.27167	9.73571	2.98706
2099.722	13.65751	-1.12733	9.70039	2.93049
2103.716	13.53146	-0.91464	9.65985	2.92075
2107.717	13.56305	-1.04715	9.69033	2.82761
2111.712	13.52111	-1.16993	9.78867	2.81689
2115.718	13.46061	-1.24211	9.70661	2.92833
2119.724	13.44914	-1.24500	9.68327	2.90948
2123.722	13.43632	-1.20407	9.73296	2.90531
2127.713	13.43852	-1.25831	9.70237	2.93064
2131.717	5.82503	-1.55478	9.67746	2.89597
2135.719	13.57797	-0.76616	9.77213	2.95924
2139.758	13.80037	-0.46378	9.89077	2.90998
2143.712	13.57159	-0.52208	9.84129	2.99203
2147.716	13.61389	-0.29452	9.86240	2.96310
2151.715	13.60289	-0.90372	10.00528	2.84865
2155.725	13.39734	0.01470	9.90349	2.87776
2159.715	13.30989	0.33501	9.87112	2.84964
2163.711	13.83613	0.38112	10.02095	2.83030
2167.727	13.07686	0.68010	10.07211	2.78770
2171.718	13.42568	0.50403	10.14160	2.68702
2175.717	13.10490	0.62758	10.10230	2.59985
2179.722	13.07669	0.73835	10.00300	2.48019
2183.714	13.82330	0.54637	12.42494	2.26571
2187.716	13.72463	0.41939	12.26135	1.98543
2191.710	13.96514	0.61760	10.40821	2.01181
2195.716	14.14116	0.32040	10.02442	1.63722
2199.711	14.00992	0.03703	10.36836	2.21259
2203.716	12.52854	-0.18964	9.95779	2.21602
2207.710	13.95869	-0.67472	9.79775	2.31895
2211.717	14.29422	-1.80205	11.12823	1.99018
2215.715	14.05869	-1.14066	9.60328	4.42351
2219.714	13.69973	-1.07140	10.19207	2.75118
2223.713	14.44862	-1.20286	10.09828	2.42227
2227.718	13.98599	-0.53309	10.54368	2.68531
2231.713	14.28559	-0.80607	10.50793	2.88011
2235.716	14.56186	-0.64415	10.64120	2.34546
2239.710	14.54102	-0.27416	11.10190	2.39444
2243.715	14.59905	-0.52264	9.19404	2.58644
2247.712	14.02449	-0.47042	10.75574	2.38339
2251.716	13.89379	-0.22178	10.55051	2.84518
2255.710	14.53086	-0.06807	10.72992	2.71715
2259.730	13.65193	-0.00903	10.95500	1.65269
2263.716	12.99109	0.01760	10.02088	2.93101
2267.712	13.74233	-0.06652	10.73715	2.02584
2271.717	14.06908	0.03832	10.78748	2.64339
2275.714	14.32234	0.07117	11.06545	1.94839
2279.710	14.21936	0.06354	9.80643	3.29815
2283.716	14.65319	-0.06789	10.52969	2.31667
2287.713	14.77626	-2.77832	11.08213	2.85509
2291.715	14.55546	-0.00183	10.89327	2.38420
2295.714	17.11444	-3.63675	10.14456	2.88448
2299.708	12.91029	0.18280	10.76547	1.95546
2303.722	12.28839	0.27875	7.66736	3.27816
2307.716	7.90842	1.78447	5.04696	4.50831
2311.714	2.74757	4.13010	3.25162	4.07336
2315.707	0.64570	1.99155	-2.56872	1.92521
2319.716	-2.19804	3.35333	-1.31888	3.54525
2323.711	-2.90280	2.47797	-0.31275	3.75370
2327.715	-3.18185	2.53518	2.49917	3.47723
2331.708	-3.23549	1.17444	0.13349	-10.95629
2335.716	-5.38412	1.17687	-7.03289	3.80716
2339.714	-6.53098	1.31855	-6.82794	3.82981
2343.713	-6.84822	2.38641	-8.65363	2.77799
2347.716	-9.95302	2.37613	-9.10584	3.77223
2351.710	-9.82448	2.67378	-11.08555	3.34413
2355.748	-10.57282	2.26257	-10.27160	3.56371
2359.754	-10.19250	2.43057	-9.26353	3.28643
2363.722	-10.03566	2.20271	-10.12977	3.71326
2367.713	-10.26910	2.26536	-9.64953	3.60908
2371.717	-10.28700	2.06960	-8.48396	3.47403
2375.708	-10.03002	2.32403	-9.91919	3.51221
2379.713	-10.01231	2.62575	-10.53864	2.94250
2383.712	-10.27169	2.57166	-10.40653	3.49277
2387.716	-10.26768	2.67780	-9.84925	3.58388
2391.708	-10.28952	2.70809	-9.10252	3.38659
2395.708	-10.37690	2.67092	-10.12277	3.43107
2399.709	-9.65548	3.03930	-9.97423	2.58561
2403.715	-9.66204	2.78149	-9.85638	1.74452
2407.709	-9.59168	3.18904	-9.97219	2.25140
2411.713	-9.47401	3.50080	-10.56102	2.80917
2415.710	-10.89654	2.36595	-10.74185	2.56329
2419.708	-10.28337	3.06543	-10.74099	2.99450
2423.707	-9.84170	3.19786	-10.52043	3.14578
2427.714	-10.32032	2.54237	-10.21601	3.28740
2431.707	-9.63530	2.77531	-9.70729	3.46674
2435.714	-9.59346	2.37662	-9.94934	2.78978
2439.709	-8.97344	2.66066	-9.88092	2.77317
2443.712	-10.43280	2.56478	-10.00213	2.90182
2447.708	-10.06876	3.25647	-10.05762	2.87882
2451.712	-9.57927	3.09342	-9.86946	3.16011
2455.584	-10.31540	3.27523	-9.90359	2.39995
2459.586	-9.81236	3.36972	-9.84635	2.57213
2463.755	-10.13393	2.47160	-10.05697	2.21407
2467.605	-10.09804	3.11797	-9.60910	2.25795
2471.584	-9.95341	2.67385	-9.72047	2.13404
2475.592	-9.84195	3.11138	-9.64683	2.21418
2479.584	-10.05284	2.42537	-9.80812	2.27113
2483.584	-8.20218	2.78267	-9.65249	2.28263
2487.582	-9.75517	3.15326	-9.49325	2.06109
2491.587	-12.31800	3.45241	-5.86644	2.29764
2495.592	-8.53620	3.00736	-10.17586	2.25926
2499.587	-9.92984	3.08942	-10.02283	2.77284
2503.583	-10.02526	2.90019	-9.43581	2.90484
2507.579	-10.04526	2.41759	-10.43421	3.16812
2511.587	-9.89797	3.23570	-10.37599	3.56395
2515.589	-9.92548	3.35422	-10.24997	4.78563
2519.586	-9.81445	2.97134	-9.91833	2.51062
2523.588	-10.02731	2.40637	-10.39160	3.22593
2527.583	-9.51838	2.94995	-10.46167	2.71365
2531.582	-9.30580	2.91246	-10.50702	2.04650
2535.582	-9.61701	3.03913	-10.47096	3.11439
2539.587	-9.99900	2.82747	-10.51139	3.19025
2543.596	-9.33422	2.91746	-9.96046	3.14469
2547.590	-9.71126	2.87520	-9.87179	2.82732
2551.580	-9.90135	2.07088	-10.58009	2.41876
2555.589	-10.14056	1.85530	-10.86842	2.30261
2559.589	-10.86093	1.82695	-10.02836	1.72348
2563.605	-9.34343	2.40226	-10.14961	2.06104
2567.582	-9.27919	2.78405	-10.32995	1.70412
2571.586	-9.82462	2.74973	-10.65736	2.01655
2575.584	-10.30966	2.16625	-10.38898	2.26587
2579.628	-11.11752	1.05685	-11.03224	2.20683
2583.578	-12.92269	1.71130	-11.38495	1.84878
2587.598	-13.60275	2.17137	-11.86322	1.74227
2591.588	-11.06872	1.95768	-12.56857	1.27025
2595.579	-11.35217	1.19094	-12.22421	1.59514
2599.586	-10.92514	1.75794	-11.96002	1.60298
2603.590	-10.95976	1.96574	-12.04809	1.82059
2607.580	-10.04875	1.63842	-11.89929	1.86104
2611.574	-10.40401	1.83503	-11.12818	2.76812
2615.584	-10.91712	0.86197	-10.04942	2.96179
2619.579	-13.01652	0.85498	-11.55333	1.81152
2623.584	-9.92410	1.54992	-11.24736	1.86964
2627.576	-9.52128	1.72968	-11.90117	2.32904
2631.596	-9.77999	1.86946	-11.97574	2.89928
2635.583	-10.89607	1.65791	-11.58310	2.60185
2639.585	-12.29855	0.94864	-11.50946	2.30183
2643.586	-9.67292	0.87654	-11.68907	2.09576
2647.582	-10.02969	0.83398	-11.40913	1.42819
2651.580	-10.35330	1.30629	-10.73056	2.90602
2655.579	-12.72060	1.40930	-11.17393	2.53863
2659.584	-9.74738	1.19626	-11.01792	2.23132
2663.582	-9.91960	1.07843	-11.53439	2.79062
2667.580	-10.32758	1.16479	-11.43560	2.65863
2671.585	-11.84344	1.85316	-11.56755	2.97798
2675.578	-10.35145	1.58432	-11.31555	2.82878
2679.583	-10.14708	1.14643	-11.72010	2.51240
2683.583	-11.56524	1.69647	-11.30350	1.65368
2687.582	-12.16420	1.53843	-11.80098	2.80894
2691.578	-12.10210	1.32140	-12.01480	2.76612
2695.578	-10.86658	1.99158	-12.25998	2.67977
2699.577	-11.40388	1.73470	-11.27137	2.58705
2703.585	-11.07281	1.92462	-11.71915	3.04075
2707.579	-12.63331	1.88202	-11.85174	2.79158
2711.584	-11.57012	2.58888	-12.20954	3.13345
2715.585	-12.14656	2.56436	-12.42219	3.06423
2719.578	-11.21823	3.01219	-12.22739	2.78941
2723.587	-8.63471	2.14526	-11.46416	2.68997
2727.574	-9.90843	1.81611	-11.24815	2.83165
2731.584	-10.45032	2.03826	-11.81555	2.80195
2735.578	-10.88850	2.26937	-11.76970	2.73541
2739.583	-11.77387	2.59220	-12.28159	2.61484
2743.582	-11.06158	2.04395	-11.85290	2.35973
2747.579	-11.65684	2.26969	-11.86519	2.43544
2751.578	-11.31517	2.23672	-11.66039	2.46004
2755.578	-12.34856	2.58026	-11.57472	2.32667
2759.577	-11.46299	2.36394	-11.60437	2.26929
2763.585	-11.42070	2.36828	-11.66068	2.28720
2767.626	-11.19363	2.47713	-11.63844	2.42116
2771.591	-11.29297	2.42203	-11.64432	2.53264
2775.585	-11.08400	2.60831	-11.73205	2.30629
2779.581	-11.88278	2.72729	-11.61918	2.22769
2783.579	-11.01096	2.34352	-11.64323	2.44226
2787.580	-10.63880	2.57854	-11.50227	2.38272
2791.610	-11.16753	2.85839	-11.61156	2.60477
2795.576	-10.94624	2.44588	-11.96741	2.50787
2799.576	-11.39439	2.10986	-12.49893	2.51865
2803.581	-11.62523	2.24701	-12.23976	2.49492
2807.584	-11.92959	2.09208	-11.89029	2.58217
2811.577	-12.24820	2.74740	-11.91348	2.66885
2815.581	-11.41032	2.24503	-12.08990	2.69645
2819.578	-11.20092	1.92609	-12.22068	2.76152
2823.590	-10.87134	1.93334	-14.68645	2.78265
2827.580	-10.46508	2.77879	-17.69502	2.99840
2831.576	-11.15532	4.56836	-21.24959	6.37286
2835.659	-19.60104	6.59108	-12.56914	7.49691
2839.584	-18.35403	14.49453	-0.63054	11.13342
2843.580	-19.79241	-12.09234	-20.15665	-12.06525
2847.579	-19.86376	-12.08707	-20.07998	-12.07099
2851.582	-19.89846	-12.08450	-20.05167	-12.07310
2855.587	-19.91911	-12.08297	-20.03686	-12.07421
2859.575	-19.93288	-12.08195	-20.02771	-12.07489
2863.701	-19.94279	-12.08121	-20.02146	-12.07536
2867.589	-19.95029	-12.08065	-20.01691	-12.07570
2871.579	-19.95619	-12.08021	-20.01399	-12.07591
2875.580	-19.96099	-12.07986	NaN	NaN
2879.578	-19.98960	-12.07773	NaN	NaN
2883.577	NaN	NaN	NaN	NaN
2887.577	NaN	NaN	NaN	NaN
2891.584	NaN	NaN	NaN	NaN
2895.581	NaN	NaN	NaN	NaN
2899.576	NaN	NaN	NaN	NaN
2904.093	NaN	NaN	NaN	NaN
2907.691	NaN	NaN	NaN	NaN
2911.587	NaN	NaN	NaN	NaN
2915.581	NaN	NaN	NaN	NaN
2919.575	-20.09318	9.69478	NaN	NaN
2923.574	-20.03426	-12.07440	NaN	NaN
2927.578	-20.03397	-12.07442	NaN	NaN
2931.582	-20.03351	-12.07446	NaN	NaN
2935.572	-20.03288	-12.07451	NaN	NaN
2939.574	-20.03209	-12.07456	NaN	NaN
2943.576	-20.03112	-12.07464	NaN	NaN
2947.578	-20.03001	-12.07472	NaN	NaN
2951.583	-20.02878	-12.07481	NaN	NaN
2955.579	-20.02744	-12.07491	NaN	NaN
2959.579	-20.02600	-12.07502	NaN	NaN
2963.600	NaN	NaN	NaN	NaN
2967.577	NaN	NaN	NaN	NaN
2972.413	NaN	NaN	NaN	NaN
2976.281	18.71213	10.24765	NaN	NaN
2980.328	NaN	NaN	NaN	NaN
2984.527	11.17410	13.66882	1.49634	12.80183
2987.583	11.19774	6.58297	3.86084	11.36767
2991.579	11.18267	10.46750	NaN	NaN
2995.607	10.80010	6.01964	7.85648	13.49325
2999.578	7.65834	4.25587	10.66445	13.52908
3003.573	9.81783	7.63576	8.15022	12.98082
3007.579	10.10612	5.37806	7.78869	13.09625
3011.575	9.57295	5.76599	9.46167	11.58916
3015.583	7.69909	0.52795	9.21336	11.78828
3019.573	10.27112	10.38886	9.49962	11.09439
3023.577	7.68510	12.20027	10.49601	9.49805
3027.588	7.53923	10.74417	8.86788	10.47454
3031.574	8.90226	10.25418	9.32219	9.38828
3035.577	9.44687	9.52797	9.28627	8.82953
3039.586	10.00370	9.60038	8.52061	9.07187
3043.582	7.92541	8.54025	9.10806	8.93069
3047.573	10.08616	5.86941	9.61407	8.79010
3051.578	9.38977	7.56471	6.88962	8.54797
3055.574	9.06455	7.46592	9.41975	8.26351
3059.578	8.75628	6.84432	9.04696	7.36816
3063.573	9.82043	6.64687	9.06523	6.95700
3067.574	9.94801	7.75937	8.07175	7.49520
3071.576	8.62923	7.40801	8.57114	7.57087
3075.574	8.48760	8.01512	10.31359	8.68575
3079.576	8.39290	10.10949	9.88292	8.94746
3083.568	9.71148	7.16200	8.84896	8.96424
3087.584	10.02235	6.77896	8.02754	8.33885
3091.579	9.60803	6.90791	8.81850	8.35615
3095.568	9.09601	6.56627	8.47498	8.27494
3099.582	8.75313	7.42225	8.51967	8.72072
3103.586	8.79572	7.79397	7.90603	8.69701
3107.573	8.00642	8.20992	8.11415	8.55812
3111.583	10.54574	7.05550	8.37553	8.39562
3115.571	8.91645	7.07158	8.19720	8.73676
3119.574	9.79775	6.76161	8.65686	8.73744
3123.569	8.66249	7.50972	8.38624	8.53820
3127.577	8.51217	7.85387	7.83985	8.47212
3131.572	8.84121	7.96861	7.58483	8.43982
3135.575	8.99208	7.07302	8.31858	8.30190
3139.574	9.19960	7.62086	8.42581	7.43084
3143.576	9.00477	8.02585	8.53816	6.84868
3147.583	9.49796	6.94896	8.79092	6.39542
3151.577	8.30388	7.91840	7.76791	7.26017
3155.577	8.53656	7.51721	7.92310	7.46512
3159.572	8.72929	7.51325	8.10124	7.20348
3163.574	8.17131	6.60826	8.05324	7.02372
3167.578	9.12570	7.81879	8.25455	7.11833
3171.576	8.93648	8.00224	8.43836	7.12467
3175.601	8.96775	7.27257	8.06954	7.19857
3179.589	8.45665	7.26069	7.98530	7.14724
3183.574	8.67767	7.28531	8.12962	7.23264
3187.576	8.71640	7.15463	8.26940	7.37177
3191.572	8.97692	7.24659	8.21419	7.39149
3195.574	8.93350	7.27363	8.26036	7.37192
3199.569	8.64565	7.00838	7.88945	7.45636
3203.577	8.07908	7.73409	8.18320	7.75404
3207.571	8.80706	7.18290	8.37189	7.99712
3211.574	7.93988	6.85528	8.19715	8.05117
3215.576	8.94726	4.33814	7.96556	7.83984
3219.570	9.27926	4.85026	8.02591	8.22221
3223.579	9.55719	4.30722	8.16058	8.24644
3227.566	6.79807	6.24822	8.27710	8.40555
3231.574	8.65851	7.84239	7.98975	8.38907
3235.569	7.96159	7.38881	8.15637	7.72337
3239.573	8.22137	6.21811	8.44640	8.52752
3243.573	8.35216	7.04750	9.86897	8.39517
3247.575	8.77475	6.64415	8.05572	8.40496
3251.572	7.31526	6.36088	7.94367	8.14587
3255.570	8.30539	5.20263	11.97455	7.56030
3259.569	8.63537	6.56134	13.03381	6.92898
3263.574	7.27777	7.52790	7.98858	8.36732
3267.586	8.47534	6.35133	11.98379	7.74919
3271.572	8.61902	6.69013	12.82443	7.00497
3275.568	7.21540	7.15326	7.58944	8.14336
3279.572	8.59456	7.12100	10.18647	7.23002
3283.569	8.86037	6.56078	7.71255	7.53444
3287.574	7.36530	7.25141	7.59329	7.12131
3291.570	8.97864	7.28387	7.58495	6.70618
3295.572	8.25547	6.66539	7.51235	7.15451
3299.567	8.79623	6.26618	7.43269	7.10388
3303.573	9.00227	6.17204	7.45270	7.06634
3307.458	7.77234	5.47721	7.22414	7.16598
3311.602	8.70885	6.40829	7.29064	7.10033
3315.448	8.70609	6.96784	7.23086	7.24158
3319.453	9.14167	6.71906	7.25516	7.85251
3323.445	8.10686	6.56362	7.86186	7.29707
3327.445	8.59293	6.40243	7.35505	7.90736
3331.442	8.27273	6.59823	7.25411	8.54014
3335.443	8.87377	5.44978	8.71496	7.31912
3339.451	10.56462	6.40810	8.86294	7.19582
3343.447	9.09947	5.40139	11.22293	2.56696
3347.443	11.07161	1.83284	11.21821	3.41662
3351.450	13.21564	1.96548	11.83215	2.95398
3355.444	12.48909	0.45962	12.32999	0.98675
3359.443	12.41774	-0.13590	12.05314	0.70886
3363.442	13.04101	-0.36627	11.50958	0.91605
3367.452	12.79685	-2.44190	13.34770	-1.26998
3371.451	13.25211	-2.10851	12.05974	1.82719
3375.447	12.90826	-2.27272	12.34799	0.06333
3379.447	13.06923	-2.31779	11.44733	0.07935
3383.444	13.02330	-2.24779	11.53892	0.77287
3387.443	13.12237	-2.41999	11.59320	1.12164
3391.450	13.22996	-2.41545	11.75258	1.54267
3395.448	13.25399	-2.63656	11.96439	0.54454
3399.443	13.16555	-2.84469	11.80552	1.95697
3403.445	13.31890	-2.63276	11.72044	0.12623
3407.445	13.30165	-2.26076	11.55559	2.30350
3411.442	12.86666	-1.39461	11.46409	0.54297
3415.447	14.15699	-2.41710	11.71092	1.59372
3419.445	12.77242	-1.16657	11.35878	0.66567
3423.445	14.14632	-1.64889	11.90217	0.35949
3427.465	11.87719	-1.25386	11.20168	0.58358
3431.439	13.48911	-1.56595	12.69745	0.13861
3435.451	13.08694	-2.24583	12.20368	0.25065
3439.443	12.30640	-1.91789	12.00098	0.29400
3443.444	13.06560	-2.49373	12.08134	1.02076
3447.444	12.86975	-2.56670	11.03016	0.36807
3451.443	12.95579	-2.74790	12.48393	0.17534
3455.444	13.17847	-2.50271	12.08568	1.93699
3459.437	12.72969	-1.81327	11.96893	-0.06471
3463.459	12.54121	-1.79629	12.22127	1.50526
3467.442	13.38116	-2.10490	11.37159	1.56354
3471.443	12.76893	-1.62362	12.21738	-0.25299
3475.441	14.18456	-1.65646	12.17777	1.13735
3479.448	12.54526	-1.39463	11.63268	1.54431
3483.439	13.12773	-1.58212	11.84154	0.45320
3487.445	13.77769	-1.78730	11.80383	1.13234
3491.441	13.05204	-1.55125	11.88974	1.33041
3495.442	13.20602	-1.61272	11.77444	0.31458
3499.439	13.70495	-1.72245	11.72008	0.63436
3503.444	14.00739	-1.77361	11.59311	1.41779
3507.440	13.82721	-1.93504	11.56996	0.87564
3511.443	13.84530	-2.34366	11.83388	0.76256
3515.444	13.90508	-2.29617	11.55126	0.74981
3519.442	13.89812	-2.50530	11.50308	1.07946
3523.451	13.83971	-2.47120	11.64270	1.02525
3527.450	13.16845	-2.07238	11.51933	0.89783
3531.439	13.92197	-2.18036	11.52524	1.01526
3535.449	15.37737	-2.38275	11.58591	0.60624
3539.440	14.06833	-1.77109	11.46699	1.20046
3543.444	14.05584	-1.46766	11.74727	1.05621
3547.438	12.42619	-1.40582	11.97156	1.06747
3551.444	13.87667	-1.14964	11.47331	1.04203
3555.441	13.96103	-0.94190	11.46957	0.79704
3559.447	14.08433	-1.08772	11.39442	0.81136
3563.443	14.39932	-0.98553	11.27216	0.87159
3567.442	13.83634	-1.27207	11.22520	0.60242
3571.443	14.01001	-1.58297	11.18348	0.33977
3575.438	13.91198	-1.39212	11.18057	0.00907
3579.444	13.93384	-1.34831	11.35795	-0.52875
3583.456	13.84740	-1.46956	13.82831	-0.52556
3587.439	13.79733	-1.61327	12.06662	0.38799
3591.449	13.51142	-1.80013	12.68534	0.17859
3595.439	13.68375	-2.09357	10.82665	1.14890
3599.444	13.70045	-2.25848	10.86742	1.76928
3603.450	13.62915	-1.97165	11.09124	1.51910
3607.441	13.30061	-1.47812	11.35632	1.56306
3611.437	13.68345	-1.04454	11.45898	1.09579
3615.444	13.49202	-0.72759	11.45210	1.37644
3619.440	13.49026	-0.60622	11.49974	1.21792
3623.443	13.54612	-0.61018	11.30450	1.12016
3627.436	13.55914	-0.72372	10.71463	1.47154
3631.443	13.71186	-1.39927	11.05852	1.21460
3635.441	13.50164	-1.26919	11.08698	1.19980
3639.442	13.59769	-1.05748	11.19187	1.15152
3643.443	13.53085	-1.21658	11.14643	1.12596
3647.444	13.51797	-1.19535	11.12125	1.08623
3651.451	13.46165	-1.03726	11.08976	1.06502
3655.441	13.27388	-1.06804	11.02421	0.98265
3659.438	13.47981	-1.33502	11.07895	0.86535
3663.438	13.29781	-1.25712	11.09513	0.61732
3667.439	13.27174	-1.36576	11.03925	0.52704
3671.435	13.37355	-1.38768	11.24504	0.35995
3675.443	13.29203	-1.33969	11.28858	0.45924
3679.437	13.45841	-1.27727	11.26056	0.64843
3683.441	13.11895	-0.91809	11.09375	1.25196
3687.447	13.13637	-1.04748	10.52597	2.56735
3691.440	12.84999	-0.96513	11.28942	2.03497
3695.443	11.93166	-0.75653	11.42532	2.22061
3699.437	13.00014	-1.34116	11.41273	2.28494
3703.438	13.19021	-1.18832	11.57010	2.29674
3707.437	13.93557	-1.39549	11.51261	2.27448
3711.441	13.34254	-1.23390	11.56610	2.17594
3715.438	13.63665	-1.49125	11.65406	-1.04547
3719.452	13.91404	-1.32687	11.57241	1.95735
3723.442	13.57614	-1.13409	11.43164	2.03029
3727.443	13.79489	-1.08477	11.34797	2.05473
3731.444	13.70067	-1.19802	11.40035	1.89803
3735.435	13.94965	-1.24158	11.39158	2.01040
3739.440	13.77684	-1.29205	11.28963	1.93348
3743.439	13.53411	-0.96516	11.19982	1.89417
3747.434	13.61921	-1.03638	11.03389	1.92894
3751.436	13.66728	-0.96049	11.01058	1.83470
3755.439	13.57138	-0.88723	10.80503	1.85848
3759.437	13.61131	-0.91175	10.81884	1.92912
3763.434	13.48538	-0.85926	10.82591	1.92710
3767.442	13.56545	-0.96511	10.84935	1.92612
3771.440	13.54861	-1.03222	10.80776	1.90588
3775.436	13.45073	-0.95997	10.74793	1.94935
3779.439	13.34907	-1.01589	10.73904	1.94646
3783.439	13.58913	-1.27326	10.81801	1.83350
3787.862	13.35635	-1.23141	10.77200	1.76526
3791.455	13.50605	-1.47544	10.83060	1.85825
3795.440	13.66046	-1.41958	10.87991	1.74419
3799.437	13.54523	-1.63853	10.96576	1.61838
3803.435	13.61131	-1.75404	10.97820	1.68368
3807.440	13.74905	-1.91732	11.03576	1.49621
3811.444	13.69158	-1.96978	11.10522	1.29551
3815.436	14.16819	-2.27533	11.04049	1.56413
3819.467	13.76221	-2.21690	11.07324	1.45339
3823.446	13.71025	-1.93451	11.12789	1.55638
3827.435	13.76331	-1.97149	11.13903	1.33789
3831.437	13.50713	-1.89855	11.12897	1.54466
3835.440	13.66620	-1.96895	11.17388	1.47703
3839.456	13.60313	-2.06479	11.16330	1.44895
3843.439	13.73041	-2.10634	11.20486	1.52793
3847.454	13.71331	-2.13306	11.19385	1.54645
3851.442	13.69748	-2.12228	11.21274	1.55853
3855.438	13.68984	-2.07524	11.15570	1.66149
3859.436	13.74556	-2.05151	11.20565	1.67531
3863.436	13.70898	-1.96621	11.20405	1.90700
3867.443	13.76048	-1.93241	11.19772	1.85759
3871.440	13.69507	-1.90785	11.20658	1.83277
3875.432	13.86558	-2.13218	11.15683	1.87948
3879.438	13.91526	-1.92282	11.14015	1.82810
3883.434	13.86083	-1.65118	11.15040	1.76480
3887.437	13.98361	-1.55132	10.98504	2.02477
3891.431	14.01828	-1.32878	10.96667	1.81962
3895.438	13.79042	-1.01806	10.92502	1.49582
3899.444	13.91002	-1.07557	10.92291	1.24649
3903.433	12.79199	-0.82421	10.96932	0.94001
3907.439	13.52848	-0.39331	10.92552	1.83806
3911.434	13.45777	-0.60606	11.12579	1.69029
3915.432	13.20717	-0.23168	11.25636	1.75902
3919.432	12.89487	-0.21299	11.55819	1.83751
3923.432	12.87827	-0.61609	11.72072	1.67484
3927.432	13.32552	-0.79988	11.56974	1.47676
3931.438	13.13004	-0.36746	11.02605	1.66611
3935.440	12.40387	-0.11960	10.77124	1.31661
3939.437	8.72910	0.62695	7.48122	4.00035
3943.432	5.25520	1.80329	7.29103	2.40170
3947.456	5.96078	0.47209	5.39163	2.38060
3951.439	1.93933	0.49743	1.47878	3.61939
3955.436	0.07855	0.00567	0.76223	2.24593
3959.431	-0.15263	-0.71097	-2.14704	2.77184
3963.442	-3.22374	0.36859	-2.25367	2.80946
3967.431	-3.27502	0.76927	-3.02858	2.70572
3971.443	-4.68417	0.58493	-4.84957	2.52724
3975.441	-4.97556	0.71173	-5.39485	2.17416
3979.438	-5.29447	0.47095	-5.73996	1.67202
3983.431	-6.73659	0.33492	-7.77183	1.40715
3987.437	-5.54833	-1.05720	-7.42866	1.06420
3991.451	-6.61851	0.40347	-6.77333	0.99386
3995.436	-6.17842	0.75091	-6.74518	1.50427
3999.437	-6.15139	0.77738	-7.02905	1.55860
4003.433	-6.63585	0.68230	-5.97656	1.70465
4007.437	-6.84333	0.53865	-6.93812	1.89592
4011.430	-7.19967	0.44015	-7.09429	1.70735
4015.436	-6.89872	0.60413	-5.42255	1.85524
4019.438	-6.03903	0.79822	-6.81468	0.53649
4023.437	-6.39322	1.04733	-6.70744	1.18929
4027.432	-6.44420	0.99092	-6.65478	1.34826
4031.434	-6.90339	0.77604	-6.03771	2.12583
4035.434	-7.11345	0.87748	-6.70039	2.20915
4039.429	-6.93694	1.01187	-6.94922	2.08538
4043.436	-5.88628	1.30558	-7.40784	2.27026
4047.433	-5.92925	1.45868	-6.98159	2.96203
4051.436	-6.20715	1.42594	-6.86917	3.42732
4055.430	-6.58910	1.43824	-6.69074	3.07372
4059.440	-6.73686	1.50511	-6.79080	2.98714
4063.436	-6.95643	1.54657	-6.42981	1.82127
4067.483	-6.25115	1.58081	-6.96939	2.68721
4071.437	-6.12769	1.87989	-7.03765	3.17658
4075.434	-6.13687	2.12768	-7.03758	3.30554
4079.429	-6.42447	2.30768	-6.79048	3.34715
4083.434	-6.57507	2.20288	-6.66004	2.95493
4087.437	-6.66134	2.22137	-6.77404	2.36988
4091.434	-6.47299	0.65057	-6.50665	2.24078
4095.430	-6.14980	0.25719	-6.65407	2.02338
4099.430	-6.35790	0.46233	-6.54293	3.06989
4103.441	-6.71175	1.49394	-6.10841	2.43613
4107.431	-6.86630	2.18644	-6.53865	2.06168
4111.430	-2.67172	-0.45170	-6.34996	1.83582
4115.430	-6.38043	1.03960	-6.39957	2.20123
4119.432	-6.25671	2.25373	-6.26971	1.85103
4123.426	-6.91153	1.54546	-5.63314	1.96290
4127.475	-6.10490	1.92945	-5.19463	1.87279
4131.435	-6.23148	2.19573	-6.65527	2.00847
4135.427	-6.71601	2.05197	-5.29678	2.38993
4139.434	-6.64897	1.75390	-6.44079	2.73093
4143.435	-4.19531	1.94184	-5.70937	2.25769
4147.435	-6.42988	1.77522	-6.34152	2.15450
4151.476	-6.76058	1.90710	-6.35930	2.38359
4155.432	-6.47171	1.01246	-6.64951	2.68578
4159.429	-6.14926	2.08223	-5.27855	2.60733
4163.303	-6.45552	2.09965	-6.48637	2.68910
4167.305	-6.78938	2.24742	-6.34339	2.81384
4171.308	-6.61878	2.01433	-6.53274	2.87781
4175.304	-6.27930	1.51206	-6.53056	2.74761
4179.308	-1.86823	1.51298	-5.39089	2.38485
4183.304	-3.38051	1.10390	-6.44248	2.63426
4187.309	-6.40065	1.19417	-6.69483	2.60593
4191.308	-6.36746	1.34338	-6.27334	0.74880
4195.325	-6.26230	1.97825	-6.64253	0.52831
4199.306	-6.02148	2.19662	-6.21585	2.01183
4203.308	-6.71287	1.98738	-6.46532	2.14981
4207.303	-1.97694	0.32878	-6.60825	1.84662
4211.304	-6.09130	1.13722	-6.87680	1.53620
4215.303	-5.48585	0.86471	-6.35589	1.53893
4219.303	-3.09265	-0.32423	-6.49166	1.26026
4223.308	-0.65655	-0.57615	-6.38908	0.57836
4227.304	-5.76770	1.69454	-5.69725	1.61717
4231.327	-6.44331	1.60820	-6.26672	2.70392
4235.306	-6.21671	2.07235	-6.44488	2.53595
4239.307	-4.22861	2.06291	-6.33083	1.67491
4243.303	-6.53588	1.47928	-6.39165	1.56683
4247.308	-4.57911	0.43408	-6.22490	1.19403
4251.300	-4.88934	1.21941	-6.15441	1.85294
4255.308	-4.59132	1.22474	-6.25173	1.28966
4259.302	-6.53370	1.15851	-6.34530	3.00087
4263.347	-4.74617	4.81545	-5.90163	3.74979
4267.307	-4.55369	8.19185	-14.54584	2.02264
4271.312	-1.37379	4.45847	-14.38337	3.66379
4275.309	-1.72976	5.22429	NaN	NaN
4279.336	-4.58814	11.96773	NaN	NaN
4283.302	NaN	NaN	NaN	NaN
4287.299	NaN	NaN	NaN	NaN
4291.301	NaN	NaN	NaN	NaN
4295.315	NaN	NaN	NaN	NaN
4299.303	NaN	NaN	NaN	NaN
4303.301	NaN	NaN	NaN	NaN
4307.301	NaN	NaN	NaN	NaN
4311.500	NaN	NaN	NaN	NaN
4315.311	NaN	NaN	NaN	NaN
4319.296	NaN	NaN	NaN	NaN
4323.422	NaN	NaN	NaN	NaN
4327.308	NaN	NaN	NaN	NaN
4332.357	NaN	NaN	NaN	NaN
4336.119	NaN	NaN	NaN	NaN
4340.227	NaN	NaN	NaN	NaN
4344.416	NaN	NaN	NaN	NaN
4347.303	NaN	NaN	NaN	NaN
4351.300	NaN	NaN	NaN	NaN
4355.309	NaN	NaN	NaN	NaN
4359.308	NaN	NaN	NaN	NaN
4363.304	NaN	NaN	NaN	NaN
4367.308	NaN	NaN	NaN	NaN
4371.307	NaN	NaN	NaN	NaN
4375.300	NaN	NaN	NaN	NaN
4379.304	NaN	NaN	NaN	NaN
4383.305	NaN	NaN	NaN	NaN
4387.301	NaN	NaN	NaN	NaN
4391.302	NaN	NaN	NaN	NaN
4395.302	NaN	NaN	NaN	NaN
4400.041	NaN	NaN	NaN	NaN
4403.486	NaN	NaN	NaN	NaN
4407.313	NaN	NaN	NaN	NaN
4411.299	NaN	NaN	NaN	NaN
4415.317	10.25610	-0.40485	21.08471	12.83481
4419.303	15.28095	-0.36392	NaN	NaN
4423.300	14.35468	-0.27340	15.64277	12.31275
4427.302	NaN	NaN	NaN	NaN
4431.301	9.10189	6.70408	19.82105	13.46173
4435.299	17.81127	-2.27580	19.25270	13.93802
4439.310	20.52996	-4.66004	13.23876	9.38520
4443.302	17.38701	-3.24202	13.73954	11.26490
4447.303	15.00711	-2.68708	13.81294	8.14802
4451.296	17.36124	-3.96518	15.38738	9.01306
4455.304	15.62229	-4.01169	14.24874	4.98522
4459.300	14.61206	-3.93298	12.02815	5.20968
4463.302	15.13614	-3.96921	10.82433	5.26660
4467.343	12.29074	-3.61376	11.18652	4.65235
4471.306	12.17480	-3.56129	11.52314	4.46782
4475.300	9.51126	-1.60255	11.42821	4.25467
4479.308	10.06157	-2.25814	8.19059	4.11072
4483.301	12.44387	-3.44657	0.29610	3.33001
4487.304	12.12003	-2.15051	0.73841	0.09109
4491.299	10.13470	-1.12687	1.84490	-0.14172
4495.304	7.18655	0.44258	2.59497	-0.15649
4499.296	6.75977	-0.89916	4.33251	1.23857
4503.304	8.97828	3.52671	4.65774	0.69570
4507.300	7.90258	3.92622	4.71242	1.43402
4511.328	7.91409	-0.89503	4.91462	2.74806
4515.297	7.66980	-1.05714	4.74496	2.34884
4519.298	7.64913	-1.08831	5.05819	1.94907
4523.317	7.80367	-1.04789	5.25318	1.88324
4527.298	7.49783	-0.71985	6.36704	0.96063
4531.303	5.40343	-0.57988	6.71167	1.50487
4535.297	6.73505	-0.24882	5.87319	1.43010
4539.299	6.58122	-0.00269	6.29509	1.44759
4543.297	5.53023	0.17566	6.55486	1.44690
4547.300	5.56468	0.22439	6.37143	1.44864
4551.300	5.47614	0.34672	6.38746	1.49733
4555.296	5.86364	0.37046	6.18458	1.57212
4559.300	4.57566	0.43555	5.92179	1.59640
4563.305	4.34791	0.50250	5.93721	1.44565
4567.297	5.00753	0.02272	5.92383	1.24798
4571.301	5.44353	0.41795	5.68185	1.20072
4575.295	5.82675	0.29724	5.80688	1.07717
4579.302	6.09187	-0.52055	5.61038	1.21879
4583.295	6.37832	-0.42917	5.23066	1.96542
4587.309	8.12860	-1.16458	5.53510	1.59975
4591.299	8.66770	-1.12863	5.50710	1.55596
4595.296	8.64941	-0.75174	5.57218	1.43656
4599.302	9.95033	-1.34022	6.03135	2.05522
4603.311	5.26214	-0.13191	6.15549	1.90760
4607.307	5.30399	-0.51127	5.66346	1.96551
4611.300	6.07749	-0.67849	5.69866	1.75784
4615.299	4.73438	-0.64924	5.59056	1.87006
4619.296	4.72588	-0.66711	5.64181	1.85448
4623.301	4.91075	-0.64625	5.85659	1.67567
4627.298	5.05479	-0.82871	5.70409	1.81639
4631.299	5.31573	-0.73990	5.89355	1.71742
4635.294	6.02985	-1.12098	5.64636	1.59792
4639.301	6.13270	-1.42051	5.64751	1.71708
4643.299	6.70401	-1.18473	5.67764	1.67059
4647.302	8.06976	-1.23966	5.63793	1.71555
4651.299	7.96536	-1.20128	5.66396	1.63580
4655.315	4.79689	-1.28927	5.63033	1.83152
4659.302	5.29312	-1.32209	5.62856	1.84803
4663.294	5.38080	-1.29347	5.62960	2.00211
4667.298	7.82728	-4.18728	5.65496	2.24842
4671.615	7.77061	-1.07729	5.62193	2.06648
4675.297	6.93484	-0.29393	6.11209	2.26412
4679.296	6.08625	-0.67166	6.45924	1.96548
4683.299	7.03406	-0.58792	5.67288	0.62496
4687.305	4.95615	-0.35928	5.64887	1.70579
4691.302	5.08729	0.02000	5.65978	1.81806
4695.294	5.32675	-0.07757	5.71431	1.81379
4699.299	7.39315	-0.27528	5.84348	1.78648
4703.296	7.49017	-0.23873	5.83132	1.85268
4707.299	7.04364	-0.03983	5.90860	1.80055
4711.313	10.56970	-1.59678	5.58963	1.98249
4715.300	3.13937	-0.16282	5.73755	2.05517
4719.299	4.92026	-0.63914	5.88279	2.20016
4723.324	5.50301	-0.81453	5.76558	2.10297
4727.299	5.68327	-1.32820	5.91575	2.31525
4731.301	6.32473	-1.80662	5.87170	2.19280
4735.298	6.43376	-1.81786	5.95292	2.29903
4739.298	6.76040	-2.30940	5.92410	2.32027
4743.296	7.79254	-2.61688	5.93600	2.35852
4747.293	7.59032	-3.22736	6.03810	2.21199
4751.298	4.02638	-3.53178	5.74910	2.08921
4755.295	3.46286	-2.88556	5.81648	1.79988
4759.298	3.29063	-3.66880	6.00835	0.69961
4763.291	2.78622	-3.71824	5.82230	1.12604
4767.304	3.93695	-0.62321	6.53301	1.86818
4771.306	7.99929	-2.48696	5.96876	3.36402
4775.294	4.89621	-0.31720	5.61239	2.33051
4779.295	4.56873	-0.00874	5.71753	2.30646
4783.297	4.88333	-0.36648	5.77168	2.14702
4787.292	5.31320	-0.72227	5.66951	1.95082
4791.294	5.35003	-0.80927	5.63402	2.04502
4795.299	5.63680	-0.89754	5.69372	1.63339
4799.301	6.06330	-1.75108	5.76600	1.45698
4803.289	6.13606	-0.26332	5.86052	1.32034
4807.294	5.48135	-0.64584	5.85789	1.28467
4811.292	5.72893	-1.12781	5.96186	1.53516
4815.306	7.15860	-1.03781	5.96873	1.47318
4819.316	5.46163	-0.87676	5.78114	1.26985
4823.301	6.33113	-1.36633	5.99573	1.26691
4827.293	4.77466	-0.85361	6.06814	1.43095
4831.293	4.58437	-0.81737	5.96235	1.66644
4835.294	4.80537	-0.74370	6.08816	1.45507
4839.303	4.67190	-0.53940	6.22333	1.70951
4843.299	4.47274	0.55607	6.03572	1.36495
4847.295	3.93114	1.51114	6.20408	1.49166
4851.290	5.57889	1.24577	6.34655	1.65734
4855.303	1.28147	3.03954	6.33787	2.24736
4859.294	2.21839	2.45035	6.18878	2.89875
4863.297	1.96814	2.17694	6.49134	1.69629
4867.305	3.02779	2.55063	6.60766	1.96113
4871.299	4.36836	1.98916	6.16900	2.03584
4875.297	8.32327	-0.80356	6.62197	1.53006
4879.296	8.38002	-2.24886	6.84685	1.86084
4883.288	6.31017	-1.34272	6.95482	1.37185
4887.298	6.80580	-2.65914	6.90742	0.53093
4891.293	8.47660	-3.35943	7.12430	-0.25510
4895.300	8.76246	-3.38487	7.11279	-0.87068
4899.292	8.82713	-1.71523	7.07676	-1.13775
4903.303	8.52100	-2.01612	6.94019	-1.21660
4907.299	8.69966	-2.06041	7.11662	-0.96568
4911.293	6.69894	-1.62727	7.17304	-1.06402
4915.292	6.40226	-1.70981	7.17424	-1.14685
4919.320	6.57735	-2.81776	7.31743	-1.12419
4923.292	7.39947	-3.47057	7.37121	-1.28402
4927.285	7.81639	-3.37718	7.17008	-1.37434
4931.297	8.19859	-3.49692	6.42957	-1.04447
4935.292	8.65846	-3.98206	7.04716	-1.11510
4939.299	10.11387	-4.53447	7.09289	-0.93314
4943.294	8.35576	-4.40487	7.03198	-0.92517
4947.292	7.47541	-4.00798	7.14897	-0.74097
4951.293	8.07389	-3.84927	7.17370	-0.77808
4955.291	9.84238	-5.25624	7.45167	-1.25335
4959.290	7.86970	-4.01322	8.86304	-0.69274
4963.294	7.30774	-4.11265	9.23321	-0.97349
4967.289	8.44091	-2.78898	6.72217	-1.05436
4971.295	8.37568	-3.87447	6.74680	-0.74681
4975.292	7.73650	-2.59386	7.10763	-0.70100
4979.299	8.20627	-2.65673	7.76404	-0.88362
4983.288	7.70231	-1.76822	9.08837	-1.23219
4987.295	6.78140	-2.16701	8.86093	-1.42312
4991.289	8.32228	-2.16770	6.71417	-1.36712
4995.294	8.89737	-2.24720	6.73825	-1.30808
4999.288	7.73475	-2.35205	7.41721	-1.27313
5003.295	8.41748	-2.12130	6.90300	-1.41502
5007.290	7.69108	-2.18552	7.42283	-1.63601
5011.293	5.30370	-3.40864	7.23247	-1.59419
5015.169	8.95484	-2.26483	7.16085	-1.59346
5019.167	9.48553	-2.38280	7.37228	-1.22564
5023.164	7.62996	-3.82741	6.95682	-1.16761
5027.183	8.98295	-3.30616	7.29736	-0.68050
5031.172	7.43347	-2.84561	7.31506	-0.35195
5035.163	8.38080	-3.61465	7.02839	0.20817
5039.168	9.75104	-4.08437	7.22133	-0.79020
5043.166	7.55922	-2.91993	7.41944	-0.52297
5047.168	7.86047	-2.84198	7.56183	-0.23386
5051.162	7.06703	-2.89584	8.24050	-0.09001
5055.169	8.39603	-3.40846	6.98983	-0.04205
5059.165	8.52797	-3.49447	7.33098	-0.09895
5063.169	10.28097	-3.94508	7.84002	-0.70164
5067.177	11.07494	-6.43127	6.94831	0.43526
5071.171	8.55923	-2.19638	7.80696	0.29685
5075.169	11.69909	-3.39703	7.81410	0.27696
5079.209	7.11440	-2.56920	7.52054	-0.45230
5083.167	8.21536	-3.02124	7.60217	-0.24510
5087.168	8.71380	-3.16676	7.28500	-0.07138
5091.167	9.03970	-3.41508	7.43305	-0.44778
5095.164	8.58498	-3.53272	7.64874	-0.55035
5099.168	8.25700	-3.31223	7.70258	-2.14905
5103.164	8.15871	-3.14980	9.75729	-1.03911
5107.168	8.19936	-2.53541	7.47441	-0.99390
5111.166	9.24515	-2.10060	7.39781	-0.59102
5115.177	9.22264	-1.97656	7.92062	-0.64373
5119.166	9.50549	-5.37330	7.74666	-0.79296
5123.164	10.23620	-5.89595	8.79228	-0.99260
5127.163	7.86250	-2.82903	10.13840	-1.29260
5131.164	6.84876	-1.91264	7.06633	-0.30810
5135.167	7.86895	-2.39661	7.65249	-1.06390
5139.163	9.53076	-2.24352	8.30364	-0.91472
5143.163	10.41842	-2.56075	8.45939	-1.00077
5147.242	12.47449	-6.27274	8.32223	-2.17247
5151.204	6.61756	-2.06534	8.31158	-2.46644
5155.174	6.54019	-1.95099	7.73831	-1.13457
5159.162	7.23655	-2.08457	7.80316	-1.19287
5163.167	9.12188	-2.20551	7.74622	-1.31908
5167.170	9.81927	-2.14062	7.26400	-0.93547
5171.167	7.49951	-1.85286	7.30476	-0.92201
5175.162	9.18533	-3.87635	7.28583	-0.87335
5179.163	9.04979	-2.17951	7.64647	-0.76958
5183.162	8.11783	-2.07240	7.56742	-0.68653
5187.165	7.22253	-1.84259	7.43098	-0.51756
5191.162	7.47626	-1.72450	7.59573	-0.55167
5195.165	8.25758	-1.72320	7.50530	-0.78511
5199.164	9.59942	-2.45315	7.52301	-1.10301
5203.164	15.89861	-8.04266	7.75870	-0.99080
5207.161	12.37986	-7.81307	8.34490	-1.03238
5211.161	8.22241	-2.97773	8.25938	-0.85395
5215.201	9.69778	-4.70356	8.50455	-1.47531
5219.172	11.46318	-5.65565	8.82604	-1.66200
5223.161	11.43624	-5.37094	9.32690	-1.86370
5227.165	10.81384	-2.93723	8.58070	-2.36933
5231.156	7.70716	-2.75726	7.88619	-2.09894
5235.169	7.77047	-2.76044	7.98462	-1.79252
5239.163	7.55062	-4.29926	7.90528	-1.98292
5243.165	7.66375	-4.46163	8.33829	-1.76527
5247.156	7.66080	-3.41887	7.87927	-1.74050
5251.165	7.77619	-4.11813	8.21466	-1.93073
5255.161	7.87192	-3.98868	7.76937	-2.02385
5259.165	7.85874	-4.12506	7.78655	-1.97753
5263.157	10.58107	-6.34675	7.87277	-2.12138
5267.174	8.70987	-3.54572	7.81074	-2.08715
5271.166	8.96315	-3.45195	7.93109	-1.78341
5275.166	12.84329	-8.32690	7.92790	-1.80091
5279.172	13.09487	-7.68261	8.04073	-1.80670
5283.197	14.32393	-7.99487	8.35668	-1.71721
5287.172	13.05976	-7.91590	8.37150	-1.77806
5291.165	13.80540	-8.21830	8.64565	-1.84003
5295.160	10.90490	-6.69452	8.59347	-1.75678
5299.164	9.98129	-6.57668	8.48214	-1.66430
5303.157	12.82012	-7.49980	8.59805	-1.65491
5307.160	10.47638	-7.16334	8.45890	-2.02139
5311.162	11.32676	-6.76592	8.51782	-2.31936
5315.160	10.05476	-4.53165	8.24254	-2.31105
5319.164	8.48245	-2.84548	8.23085	-2.11865
5323.169	12.99291	-5.13913	8.13098	-1.90712
5327.162	8.58294	-3.18584	8.13565	-1.89069
5331.160	8.18045	-2.93320	8.18995	-1.67710
5335.159	8.06399	-2.86958	8.10041	-1.65818
5339.164	7.81344	-2.81409	8.06883	-1.42541
5343.164	8.10372	-2.93011	7.98391	-0.88243
5347.158	7.35615	-2.70687	8.02105	-1.02948
5351.161	7.87121	-2.58180	8.12748	-0.57876
5355.162	7.54118	-2.44575	7.68457	-0.22220
5359.163	7.74647	-2.32458	7.56325	-0.23399
5363.199	7.32766	-2.11216	7.62894	-0.06224
5367.175	8.29961	-2.09665	7.72071	-0.18017
5371.165	7.97327	-1.95150	7.81028	0.13892
5375.159	8.05375	-1.92096	7.54201	-0.30943
5379.162	7.96069	-1.83703	7.48190	-0.05415
5383.154	7.65863	-1.82482	7.33274	-0.06886
5387.157	7.93503	-1.78192	7.59612	-0.17335
5391.161	7.82138	-1.78922	7.59968	-0.13951
5395.159	7.84318	-1.78195	7.41885	-0.19713
5399.164	7.83821	-1.90006	7.57588	-0.23817
5403.165	7.91507	-1.93852	7.69354	-0.28304
5407.159	8.23350	-5.87328	7.55366	-0.34341
5411.162	8.17172	-2.35871	7.58395	-0.38487
5415.158	8.36282	-3.17688	7.55571	-0.44630
5419.163	9.37564	-7.66461	7.67879	-0.41578
5423.157	10.20125	-7.40044	7.66322	-0.68751
5427.160	12.49315	-6.46368	7.71028	-0.98429
5431.157	12.74600	-4.91463	7.61760	-0.93913
5435.162	11.03623	-5.88612	7.59234	-1.13110
5439.153	8.19545	-2.59380	7.64335	-1.17451
5443.167	9.43298	-5.69914	7.49759	-1.10654
5447.158	8.40152	-2.80498	7.36926	-1.11401
5451.161	9.95505	-3.07597	7.46629	-1.16787
5455.160	9.12841	-2.99477	7.46126	-1.23448
5459.159	8.11250	-2.78254	7.44140	-1.24749
5463.158	8.38955	-2.85394	7.46341	-1.20650
5467.174	7.83734	-2.75137	7.55749	-1.14397
5471.165	6.68528	-2.70083	7.74198	-1.08250
5475.154	7.99749	-2.66462	7.48839	-1.05958
5479.163	8.02891	-2.97175	7.65027	-0.98652
5483.162	8.82342	-3.18681	7.72590	-0.96506
5487.166	8.43863	-3.67653	7.85692	-0.95570
5491.158	8.53833	-7.12555	7.83529	-1.04570
5495.169	8.55559	-3.58731	8.37121	-1.15723
5499.159	8.73822	-3.04561	8.58328	-1.05999
5503.162	8.96368	-3.43644	8.42598	-0.94171
5507.157	9.13320	-3.43580	7.97666	-1.87528
5511.159	8.81348	-2.98759	7.91431	-1.42683
5515.156	9.29145	-3.66630	7.69892	-1.52674
5519.156	9.16484	-3.00442	7.67287	-1.21972
5523.160	8.78454	-2.65404	7.55898	-0.99267
5527.165	8.39686	-2.43076	7.61541	-0.87132
5531.166	8.70095	-2.37800	7.74888	-0.37174
5535.157	10.63061	-4.08175	7.72020	0.12881
5539.160	7.96619	-5.50963	7.83437	-0.96146
5543.153	4.57196	-2.07198	11.28262	-0.79367
5547.160	7.07559	0.41184	5.26984	-0.09764
5551.158	1.84768	2.35759	4.55761	0.10119
5555.159	4.30588	-1.53244	2.53394	1.38650
5559.158	1.14295	0.71406	0.79268	2.44332
5563.158	1.44379	1.17930	2.24641	2.95892
5567.174	0.97574	2.03903	1.17366	3.53696
5571.161	0.59699	1.93372	-1.91895	2.46853
5575.156	-0.83580	2.59930	-4.43626	3.52002
5579.155	-1.23305	3.53745	-4.41272	3.56714
5583.156	-0.91470	4.02062	-4.27106	3.49988
5587.165	-1.63241	4.02754	-4.04070	3.39161
