time (ms)	lx (deg)	ly (deg)	rx (deg)	ry (deg)
0.000	-0.00812	2.32562	0.60526	3.13839
3.996	0.03353	2.33430	0.61719	3.01205
7.992	-0.07185	2.64071	0.50289	2.77253
11.993	-0.05500	2.19934	0.30590	2.84543
15.996	1.54006	3.58777	0.34970	2.66529
19.998	1.12866	4.22330	0.27974	2.50518
24.025	-0.35208	4.07130	0.33419	2.42034
27.995	1.67534	4.23615	0.39546	2.13140
31.997	-0.23986	2.85209	0.47222	2.10341
36.000	-0.11262	3.20730	0.62146	2.08003
39.994	-0.19363	3.30854	0.75826	2.36486
43.994	-0.06857	3.61871	0.64426	2.04794
47.992	0.04941	3.31701	0.72288	2.27815
51.998	0.10860	3.32495	0.73908	2.12147
55.995	0.35717	3.26689	0.66637	2.04946
59.989	0.13945	3.32428	0.69831	1.95832
63.992	0.26393	3.38497	0.39271	1.90806
67.994	0.24130	3.33248	0.45909	1.90380
71.996	0.40978	3.25882	0.46306	1.88496
75.992	0.27396	3.34753	0.55813	2.15296
79.991	0.36467	3.44991	0.43904	2.21676
83.993	0.44636	3.37849	0.37712	2.02107
87.996	0.37973	2.81993	0.25636	1.75565
91.991	0.75615	2.09744	0.23130	1.58533
95.996	0.60905	0.16521	-0.09570	0.85835
99.991	0.54185	-1.98660	-0.00174	0.28104
103.996	0.86892	-2.93526	-0.10379	-0.01720
107.990	2.51955	-1.42802	0.17896	0.00124
111.997	4.20721	-1.93347	0.09565	0.15106
115.999	4.40836	-1.96352	0.10106	0.11669
119.988	0.33250	-0.26451	-0.04234	-0.02723
123.991	1.05550	0.20681	-0.06438	0.22148
127.994	0.50431	1.02341	-0.18601	0.25159
131.991	0.22653	0.89327	-0.13282	0.11264
135.996	0.93443	0.85429	-0.17474	0.03653
139.991	0.13687	0.60428	-0.08676	-0.08553
143.991	1.02231	0.37049	-0.03743	-0.32468
147.991	0.07272	0.66739	0.15295	-0.11729
151.990	-0.12394	0.66207	-2.99710	-0.78877
155.998	-0.27051	1.14230	-0.28031	-0.11537
159.990	-0.06487	2.17527	-0.08753	-0.17730
163.990	0.12915	1.66042	0.07741	-0.28263
167.992	3.50079	1.50191	0.06698	-0.13697
171.994	5.09165	1.68704	0.09294	-0.00748
175.994	-0.74757	2.45510	0.18941	0.09751
179.989	-0.19251	1.86369	0.00936	0.15652
183.994	0.07284	2.01704	0.10684	0.37059
187.988	0.70198	1.64647	-0.22599	0.31466
191.995	0.15213	1.42875	-0.06740	0.42886
195.998	0.12243	1.10078	-0.12133	0.46459
199.994	0.82592	1.37706	0.04432	0.51163
203.991	0.36072	0.92213	-0.02857	0.66782
207.989	0.50009	1.32323	0.04318	0.83582
211.994	0.12161	0.62058	-0.22850	0.81049
215.989	2.23791	-2.20931	-0.40710	0.78179
219.990	3.29656	-3.05519	-0.39070	0.99307
223.995	3.51599	-2.78638	-0.37166	1.14942
227.995	4.25808	-2.97214	-0.20916	1.32856
231.990	0.16164	0.80081	-0.23187	1.20296
235.992	0.84148	1.71241	-0.12496	1.35882
239.994	0.25431	0.35869	-0.24478	1.33916
243.992	-0.29332	-0.21502	0.12359	0.78531
247.992	-0.28262	1.45268	0.07021	1.28528
251.982	-0.42088	-0.01486	0.44058	1.14961
255.994	-0.25959	1.31505	0.65729	1.10334
259.989	0.36955	-0.23934	0.17727	1.82683
263.992	-1.72775	-0.62338	0.46500	1.71427
267.984	-0.16050	-0.06861	0.16573	2.29507
271.990	0.30396	0.09942	0.12240	1.71929
275.988	0.16702	0.30142	0.21423	1.83544
279.992	0.11091	-0.02542	0.20827	1.54950
283.994	0.43924	0.19436	0.35695	1.58812
287.987	0.37695	0.13803	0.21368	1.28045
292.035	0.25158	-0.03829	0.34054	1.28980
296.001	0.37358	0.33918	0.32359	1.02157
300.000	0.55429	0.23111	0.10731	1.03806
303.995	2.23231	0.17503	0.01358	1.07897
307.989	0.45358	0.62720	-0.11143	0.99734
311.987	1.75086	3.18987	0.06113	0.85654
315.983	0.51734	2.95210	-0.06582	0.80069
319.992	-0.86768	-0.14930	-0.13545	0.68908
323.998	0.04346	1.24740	-0.19834	0.60351
327.989	-0.48870	1.85420	-0.25885	0.51379
331.987	-0.65893	1.99361	-0.29776	0.32651
335.991	0.52275	1.43398	-0.30592	-0.13016
339.986	0.06123	-2.05335	-0.38948	0.10956
343.992	0.05874	1.23948	-0.29582	-0.01399
347.989	0.59096	-2.55244	-0.22490	-0.20133
351.986	2.62259	0.90267	-0.13498	-0.36828
355.983	2.99507	1.99813	0.08463	0.19976
359.984	2.74650	-1.34741	0.19906	0.16569
363.994	1.58363	-2.00312	-0.22539	2.46449
367.996	2.65488	1.86277	-0.05609	0.93598
371.987	1.98705	-0.95551	-0.18360	1.53528
375.991	2.31676	1.68281	0.00735	1.74372
379.982	-0.88344	2.02432	-0.17392	1.12596
383.985	-1.21427	2.03274	-0.06180	1.09817
387.990	-1.36494	2.13913	-0.13158	1.23044
391.988	2.30613	-0.12052	-0.14618	0.92341
395.986	2.17658	0.83732	-0.24043	0.71690
399.991	-0.12362	1.37250	0.14801	0.40218
403.995	-0.09202	0.65395	-0.13682	2.41298
407.994	-0.05410	0.35830	1.94853	1.66411
411.986	-1.01514	0.41896	-0.25964	0.99013
415.987	-0.10562	0.89693	-0.25036	0.70910
419.989	-0.09093	1.23551	0.05390	0.46564
423.988	-0.42157	1.69325	-0.05964	0.22088
427.988	0.29386	0.87685	0.19179	1.79453
431.990	1.74744	0.31064	0.16198	2.23478
436.016	0.25818	0.41368	0.27875	1.25452
439.992	-0.50366	0.23514	0.30734	1.04209
443.986	1.99456	-3.28156	0.38380	1.14380
447.990	0.07559	0.91636	0.34938	0.51669
451.984	0.72913	1.16614	0.29682	0.83228
455.987	0.20142	1.12179	0.23495	1.70145
459.986	-0.08217	1.64305	0.32506	1.41286
463.986	0.12659	1.34198	0.29252	1.05325
467.983	-0.13657	-0.79216	0.45951	0.95151
471.990	0.15198	0.97548	0.29317	0.62694
475.985	0.14573	-0.66679	0.40911	0.16569
479.990	1.37332	-0.70508	0.73474	0.90009
483.983	0.24373	0.71181	0.41725	1.66791
487.995	0.26741	1.22779	0.38695	2.06246
491.989	0.01231	0.82871	0.88403	1.17799
495.997	0.59049	0.76894	0.57347	1.65962
499.985	0.70407	1.10726	0.44495	1.63980
503.990	1.77948	1.51633	0.69270	1.34916
507.986	-0.00509	1.38018	0.35146	0.08637
511.988	-0.50537	2.94415	0.42691	1.37113
515.981	3.83057	2.61216	0.30176	0.84410
519.989	0.15258	1.14415	0.65568	1.01442
524.001	0.18817	1.92666	0.45073	0.71955
527.987	-0.05676	2.40510	0.47614	0.46893
531.988	4.29019	6.16087	0.36489	0.81841
535.984	-0.09786	2.15646	3.09305	0.89240
539.987	1.42615	1.19013	3.38120	0.49263
543.984	-0.15357	1.68679	0.32312	1.20419
547.984	0.42847	1.36747	0.26426	2.95943
552.033	-0.53644	2.25030	0.39288	1.08093
555.983	0.16457	1.38924	0.41107	1.55717
559.989	-0.10890	1.37953	0.25408	1.09926
563.984	-0.03747	1.13109	0.52168	0.75082
567.985	1.70918	0.56748	0.30669	0.73302
571.994	0.67431	0.46310	0.18824	0.74319
575.985	0.31513	0.96049	0.94199	0.93894
579.987	0.20045	1.64070	0.96909	1.17923
583.980	2.10721	2.61997	0.40735	1.10786
587.989	0.11895	1.51887	0.71565	1.69237
591.985	2.32568	-3.97282	0.68486	1.37963
595.987	1.31843	0.43136	0.57798	1.08210
599.979	0.79349	0.06105	0.81129	1.01443
603.989	1.34522	0.12747	1.07125	0.46327
607.985	1.96415	0.18052	1.34596	0.88826
611.989	3.16663	0.74955	1.38019	1.35445
615.990	0.71838	1.00045	0.84086	1.27057
619.983	-0.09336	1.62996	-0.77027	1.08166
624.023	0.07244	2.69995	1.74060	1.07453
627.992	1.90054	3.18824	0.80719	1.40639
632.010	1.40177	3.26952	0.97611	1.55619
635.992	0.89059	1.44897	1.09142	1.73782
639.977	0.79357	2.78745	0.92894	1.85626
643.987	1.55479	2.27832	0.76188	1.95795
647.983	1.45281	1.82898	0.78625	2.08462
651.983	0.89820	2.00741	0.72384	2.15415
655.986	1.40398	1.92448	0.62739	2.16757
659.987	1.30489	1.78266	0.69605	2.25859
663.859	0.59888	2.30163	0.72985	2.29485
667.901	1.52037	2.16213	0.70871	2.35858
671.855	1.02851	2.49474	0.64920	2.24242
675.895	1.12606	1.09923	0.86200	2.23583
679.869	0.96462	1.48976	1.89173	2.15720
683.856	1.08674	2.15394	0.78476	2.35123
687.860	1.34554	2.21265	2.40647	1.85635
691.856	0.73030	1.81013	0.64243	1.97286
695.860	0.75531	1.17728	1.94491	-1.13627
699.860	0.61344	0.73483	0.97685	1.56026
703.874	1.13055	-0.29386	0.92979	1.41476
707.858	0.95274	0.16880	0.39308	-0.93718
711.859	1.00873	0.27290	0.66630	1.17691
715.854	0.95884	0.29790	0.03254	-1.00865
719.861	0.43050	1.23753	1.32312	0.84578
723.870	0.41221	1.22708	1.09021	0.77299
727.858	0.05266	1.41405	1.09527	1.00459
731.859	0.19683	1.32176	1.22958	0.88962
735.857	0.09488	1.19994	1.27408	0.45916
739.856	0.04465	1.00482	1.25669	1.06409
743.865	0.21715	1.05311	1.21541	1.19597
747.856	0.41638	1.20088	1.19869	1.15480
751.856	0.42847	0.45755	1.12345	1.48246
755.854	-0.07177	1.37918	1.12318	1.32824
759.860	-0.04733	1.30815	1.10564	1.31665
763.856	0.11017	1.32206	2.07269	0.79838
767.876	0.11952	1.47422	0.84173	0.80209
771.862	-0.60704	-1.78590	1.09765	1.32565
775.857	0.23738	0.91829	0.99333	1.57195
779.858	0.55997	0.82962	0.99405	1.56624
783.862	0.38045	0.68355	1.14913	1.42539
787.863	-0.33508	1.48326	0.93929	1.46606
791.856	0.45835	1.06436	-0.16702	1.70335
795.859	-1.35159	2.84441	-0.42097	2.58415
799.868	-1.39607	4.53365	-2.25444	3.09417
803.858	-2.20709	3.34848	-5.24055	2.45743
807.857	-4.04685	3.74160	-4.64574	2.36930
811.854	-7.72461	1.02392	-5.93198	2.40746
815.861	-6.35601	3.61913	-8.64044	2.67131
819.856	-7.59546	3.68512	-8.48037	3.07057
823.855	-7.66992	3.82001	-8.58750	3.49194
827.864	-8.16557	3.68403	-8.45441	3.71733
831.867	-8.07657	3.80596	-8.46565	3.72763
835.855	-7.69641	3.76826	-8.40594	5.08096
839.860	-7.51366	3.42539	-9.09055	3.28632
843.857	-7.68101	3.37252	-8.18879	4.36054
847.852	-7.96974	2.30591	-7.55559	3.68875
851.860	-7.83741	2.62254	-9.23299	1.29773
855.856	-7.63803	3.01126	-8.36681	1.98567
859.858	-7.61394	2.79718	-8.44676	1.38563
863.858	-7.62865	2.91037	-8.34720	3.48902
867.866	-7.53354	2.97533	-8.70000	1.79172
871.858	-7.62219	3.24360	-9.08590	2.98306
875.882	-7.59485	3.22001	-9.75719	2.53499
879.851	-7.56676	3.90535	-9.47642	1.73116
883.856	-7.55074	3.11339	-9.19691	4.88098
887.854	-7.51535	3.65118	-8.89824	3.42091
891.856	-7.44638	3.61382	-8.77606	5.62096
895.851	-7.38810	3.73286	-8.88346	4.15783
899.858	-7.37397	3.17565	-8.77844	5.80771
903.853	-7.42256	2.88240	-9.00072	4.59252
907.856	-7.38610	2.99037	-9.56950	3.23676
911.860	-7.31120	2.66357	-9.00000	4.13323
915.855	-7.34758	2.49652	-8.67750	4.21923
919.856	-7.26828	2.48011	-8.74469	4.14573
923.867	-7.28598	2.37800	-8.48250	3.91112
927.856	-7.28371	2.51075	-8.81268	3.83100
931.862	-7.25943	2.39795	-8.53702	3.62882
935.853	-7.19661	2.50073	-8.33083	4.17797
939.857	-6.97749	2.52211	-8.65055	3.92681
943.850	-7.12794	2.43958	-8.89264	3.74391
947.857	-7.22514	2.45240	-8.63238	3.66936
951.857	-7.12525	2.63590	-8.70160	3.55546
955.857	-6.57886	2.46079	-8.65409	3.46751
959.849	-7.09732	2.64802	-8.22980	3.01258
963.857	-7.35307	4.43787	-9.49550	4.18766
967.852	-0.95864	4.32070	-18.91049	11.76990
971.855	NaN	NaN	-19.77034	-12.09396
975.855	NaN	NaN	-19.86982	-12.08662
979.850	NaN	NaN	-19.90851	-12.08375
983.856	NaN	NaN	-19.92924	-12.08222
987.855	NaN	NaN	-19.94222	-12.08125
991.861	NaN	NaN	-19.95119	-12.08059
995.860	NaN	NaN	-6.12185	-9.11553
999.854	NaN	NaN	-19.95841	-12.08005
1003.855	NaN	NaN	-19.96349	-12.07967
1007.849	NaN	NaN	-19.96755	-12.07937
1011.857	2.95700	14.14050	NaN	NaN
1015.852	NaN	NaN	-6.67676	9.49583
1019.852	NaN	NaN	NaN	NaN
1023.853	NaN	NaN	NaN	NaN
1027.854	NaN	NaN	NaN	NaN
1031.851	NaN	NaN	NaN	NaN
1035.849	NaN	NaN	1.71065	-6.96611
1039.864	NaN	NaN	NaN	NaN
1043.851	NaN	NaN	NaN	NaN
1047.852	NaN	NaN	NaN	NaN
1051.875	NaN	NaN	NaN	NaN
1056.045	NaN	NaN	NaN	NaN
1060.360	NaN	NaN	NaN	NaN
1064.391	NaN	NaN	NaN	NaN
1068.414	NaN	NaN	NaN	NaN
1072.107	NaN	NaN	NaN	NaN
1075.854	NaN	NaN	NaN	NaN
1079.863	NaN	NaN	NaN	NaN
1083.855	NaN	NaN	NaN	NaN
1087.847	NaN	NaN	NaN	NaN
1091.974	NaN	NaN	NaN	NaN
1096.150	NaN	NaN	NaN	NaN
1100.198	NaN	NaN	NaN	NaN
1105.280	NaN	NaN	NaN	NaN
1109.373	NaN	NaN	NaN	NaN
1113.615	NaN	NaN	NaN	NaN
1117.641	NaN	NaN	-19.93005	2.14666
1120.127	NaN	NaN	-19.92904	1.96940
1123.858	-14.53100	6.49935	-19.72576	1.94667
1127.852	-11.83279	5.85734	-19.57262	1.82134
1131.854	-13.09678	6.24788	-18.06829	1.71122
1135.851	-12.38881	2.25825	-17.31004	1.83729
1139.854	-13.08039	2.82739	-5.82312	4.56014
1143.853	-12.29235	3.10134	-6.17933	3.16864
1147.846	-19.21469	2.44250	-7.44845	1.93570
1151.853	-8.90674	2.68706	-12.28834	-0.20147
1155.849	-9.50037	2.25847	-12.43424	0.95872
1159.862	-10.57889	2.55294	-10.85653	1.94119
1163.847	-9.56704	2.55953	-10.97782	1.85942
1167.854	-9.69108	2.38214	-10.98540	2.48444
1171.849	-9.46855	2.37834	-11.04532	2.85832
1175.855	-9.57611	2.57007	-10.82505	2.43447
1179.849	-9.04783	2.79015	-10.53003	2.04108
1183.852	-8.56593	2.48250	-10.98544	0.58987
1187.846	-9.12319	2.14934	-10.90688	0.90044
1191.853	-8.91328	1.86659	-10.93146	1.93617
1195.850	-9.19853	1.79821	-10.65832	2.31300
1199.852	-9.18015	2.30887	-10.83649	1.90531
1203.856	-8.90173	2.47495	-10.78525	2.07481
1207.859	-8.42032	2.12626	-10.95052	2.44168
1211.856	-8.84889	2.54804	-10.96052	2.30397
1215.845	-8.57141	2.28245	-10.59692	2.12096
1219.851	-8.62142	1.75925	-10.61823	2.03269
1223.855	-8.51928	1.79147	-10.33127	2.03147
1227.851	-8.63840	1.95401	-10.46414	1.69660
1231.851	-8.68162	2.23595	-10.51520	1.70713
1235.849	-8.69089	2.75796	-10.59476	1.37970
1239.855	-8.50323	2.36371	-10.60905	1.79524
1243.851	-7.94068	2.30182	-10.58280	1.57943
1247.855	-8.52481	2.22775	-9.93865	1.46182
1251.849	-8.47456	2.18929	-10.70152	1.72832
1255.853	-8.53370	2.05609	-10.79255	1.62868
1259.846	-8.60400	2.27321	-10.62547	1.51071
1263.852	-8.69906	2.58564	-11.17438	1.69312
1267.848	-8.70808	2.35909	-10.91284	1.56759
1271.851	-8.84988	1.89814	-11.03341	1.48625
1275.843	-8.54913	2.13841	-10.82196	1.82946
1279.848	-8.34869	2.45499	-10.94251	1.80066
1283.854	-8.67308	2.11065	-11.19468	1.60423
1287.846	-8.70194	2.07683	-10.90827	1.63417
1291.852	-8.47376	2.27425	-10.66797	1.72048
1295.848	-8.82669	2.20715	-8.03669	1.75800
1299.863	-8.74947	2.40846	-10.50273	1.71616
1303.850	-8.64781	2.44312	-10.65911	1.52591
1307.849	-8.58376	2.27070	-10.48087	1.75405
1311.850	-8.81467	2.45608	-10.71008	1.68870
1315.847	-8.23369	2.20535	-10.15935	1.57326
1319.849	-7.81315	2.64380	-10.10196	1.56384
1323.865	-8.60029	2.36632	-10.40257	1.42348
1327.856	-8.79329	2.16552	-10.32416	1.48484
1331.845	-8.80032	2.42367	-10.21286	1.33620
1335.850	-8.92624	2.45332	-10.41518	1.46372
1339.846	-9.01670	2.48828	-10.24269	1.33774
1343.849	-9.04105	2.73964	-9.38501	1.45871
1347.847	-8.78219	2.46855	-10.03520	1.50063
1351.851	-9.02711	2.73566	-10.10220	1.26583
1355.846	-7.28083	2.54177	-10.07050	1.26827
1359.849	-8.55629	2.18605	-9.76623	1.21227
1363.861	-9.13519	3.19083	-9.74068	1.34416
1367.853	-9.31694	2.59168	-9.56187	1.56855
1371.850	-9.37165	1.85868	-9.87449	1.37655
1375.848	-9.32903	2.67425	-9.72428	1.39859
1379.843	-9.38573	2.92517	-9.72428	1.50215
1383.851	-7.45121	2.80836	-9.62777	3.39787
1387.847	-9.25178	2.78163	-7.78891	-1.26590
1391.848	-8.05896	3.54780	-4.34904	0.71438
1395.840	-7.59451	4.10450	-8.27810	3.55436
1399.849	-6.03373	4.10137	-7.76789	3.31309
1403.844	-7.49959	11.64090	-8.59262	3.70951
1407.862	-4.77007	4.28510	-8.10528	3.68733
1411.848	-5.91047	4.05054	-7.53176	3.76171
1415.845	-4.77542	4.27479	-8.01095	3.84614
1419.846	-5.22955	3.95306	-7.56279	3.97627
1423.843	-5.92989	4.68133	-7.29975	4.51355
1427.846	-6.75688	4.81247	-8.03930	4.55367
1431.845	-7.88634	4.66676	-7.34172	4.58457
1435.844	-6.85498	4.79410	-6.77844	4.23634
1439.848	-6.86630	4.17143	-6.17403	4.27501
1443.844	-5.56510	3.60687	-7.32778	4.26801
1447.847	-4.50952	4.25504	-7.46275	4.44663
1451.853	-6.48213	4.91866	-6.76625	4.20241
1455.841	-6.69175	4.80640	-7.56198	4.29717
1459.848	-6.71821	4.99444	-7.36708	4.53381
1463.844	-7.43264	4.96362	-7.28857	4.55589
1467.848	-7.12642	4.89871	-7.10954	4.44807
1471.841	-6.47843	4.51202	-7.46465	4.72514
1475.849	-6.79173	4.16604	-7.51005	4.93240
1479.846	-7.16520	4.30899	-7.48549	4.73242
1483.848	-7.00727	4.19884	-5.97367	4.51958
1487.847	-4.21358	4.24670	-7.02482	4.41618
1491.857	-3.87957	4.81321	-6.88441	4.21826
1495.846	-6.17577	4.75842	-6.87516	3.87961
1499.839	-7.21801	5.07953	-7.00932	4.20166
1503.843	-7.36799	4.96689	-7.20829	4.23670
1507.879	-7.32382	4.99419	-7.34960	4.40306
1511.849	-11.04754	10.00884	-7.32944	4.54140
1515.722	-5.97993	5.23188	-7.23345	4.30817
1519.716	-5.40803	5.24977	-7.05012	4.26889
1523.733	-4.68851	5.29775	-7.05623	4.21098
1527.725	-7.19996	5.47280	-6.97453	4.02338
1531.713	-5.84038	5.46920	-7.19407	4.33196
1535.722	-5.58506	5.49297	-7.13561	4.25847
1539.723	-7.49859	5.23086	-7.25479	4.30589
1543.718	-7.55430	5.27386	-7.29475	4.20753
1547.715	-7.54627	4.94857	-7.31965	4.31188
1551.735	-7.48619	4.93731	-7.28075	4.28287
1555.724	-7.76881	4.76457	-7.29318	4.19256
1559.714	-7.62940	4.59614	-7.19886	3.93880
1563.722	-7.72473	4.57160	-7.31687	3.86967
1567.719	-7.02580	4.21984	-7.03883	3.60519
1571.721	-6.18600	3.79512	-7.44943	3.97431
1575.712	-4.49006	3.81039	-6.99971	3.74899
1579.720	-7.45787	3.39175	-7.61241	4.25752
1583.722	-6.22309	4.17976	-7.73377	3.67927
1587.718	-7.97456	3.96670	-6.78162	4.09592
1591.719	-7.67750	3.21843	-5.97703	4.21158
1595.712	-7.37384	3.29298	-6.80622	4.13975
1599.721	-7.33669	2.96194	-7.20609	4.21105
1603.716	-6.13458	2.70416	-6.13853	4.51418
1607.721	-5.18409	2.81995	-7.59027	4.62607
1611.715	-3.87181	3.08791	-7.49832	4.82007
1615.718	-9.28528	6.68610	-6.60340	4.59665
1619.715	-7.39447	2.70821	-7.26608	4.27146
1623.733	-7.42920	2.81019	-6.09594	4.26313
1627.723	-8.74910	4.00774	-7.48697	4.73808
1631.717	-8.73148	4.50260	-7.25247	6.70843
1635.721	-6.86449	4.82776	-5.84470	5.24639
1639.717	-7.88858	6.11572	-5.95928	6.17304
1643.716	-6.54276	5.87036	-5.51381	9.27246
1647.736	-6.91153	5.94951	-5.44193	9.35426
1651.719	-5.93090	6.83936	-4.86473	7.93736
1655.711	-3.85997	8.98585	-2.97802	9.09239
1659.719	-1.33909	8.80293	-4.05495	9.21797
1663.720	-2.27213	8.38094	-4.02902	9.42591
1667.716	-2.26926	8.05535	-4.28653	9.48709
1671.713	-2.14954	8.22827	-3.58737	9.56530
1675.733	-1.78505	7.40930	-4.62623	9.67203
1679.723	-1.67982	8.39789	-4.44524	9.63815
1683.712	-4.44928	8.35267	-4.03759	9.90695
1687.719	-3.61616	8.46036	-4.01621	9.86225
1691.716	-4.84499	8.57256	-3.90432	9.91925
1695.714	-5.61861	11.39485	-3.69227	9.95900
1699.709	-2.82719	8.81740	-1.57451	9.76648
1703.723	-3.50323	9.43302	-0.98169	9.73771
1707.721	-3.80606	9.93815	-3.83112	9.72263
1711.719	-9.66043	9.58731	-3.92751	9.71477
1715.747	-7.42285	10.03442	-4.00551	9.79980
1719.721	-6.81387	9.83667	-4.08335	9.34948
1723.717	-4.36397	9.63405	-3.92630	9.25813
1727.718	-2.00046	10.41866	-3.89103	9.37651
1731.712	-1.73733	10.05124	-3.84866	9.21213
1735.753	-2.74405	10.24705	-3.82519	9.22262
1739.716	-2.37416	10.27922	-3.80693	9.19773
1743.713	-6.98375	10.19616	-3.37183	9.15168
1747.718	-4.98709	10.04799	-3.62885	9.22409
1751.713	-4.82126	9.88016	-3.56628	9.32730
1755.714	-5.18680	9.87168	-3.91469	9.29044
1759.708	-4.90607	9.83816	-3.98012	9.24334
1763.717	-4.49896	9.79262	-3.93875	9.32011
1767.713	-4.35847	9.98229	-3.89599	9.49031
1771.718	-4.50634	10.07090	-3.91126	9.56443
1775.712	-4.51832	9.93064	-3.86867	9.58011
1779.713	-4.41127	9.88403	-3.86252	9.72444
1783.720	-5.40144	9.82137	-3.88347	9.72770
1787.719	-4.74148	9.80289	-3.92193	9.83750
1791.713	-4.74102	9.80701	-3.96101	9.81797
1795.712	-4.80638	9.82636	-3.98341	9.89076
1799.716	-8.69081	6.97234	-4.00781	9.92790
1803.719	-4.47943	9.68112	-4.01233	9.98217
1807.712	-4.40584	9.57345	-3.99176	10.08949
1811.715	-4.33508	9.34371	-3.91148	10.10374
1815.710	-4.22039	9.25511	-3.77713	10.10676
1819.716	-4.92794	9.64988	-3.88695	10.10263
1823.731	-4.80334	9.99929	-3.78719	10.10480
1827.716	-4.95903	10.09538	-3.90904	10.05659
1831.717	-7.45316	10.79687	-3.89449	9.97437
1835.714	-5.10238	9.68839	-3.80199	10.04663
1839.708	-4.65550	9.85568	-4.23705	10.10632
1843.712	-4.63541	9.77807	-3.97271	10.09609
1847.712	-5.33103	9.64631	-4.15258	10.10539
1851.721	-4.59388	9.59222	-3.97978	10.09286
1855.716	-4.69302	9.58107	-4.20731	10.13436
1859.710	-3.73475	9.98470	-3.78383	9.90140
1863.713	-3.30898	9.69689	-0.54667	9.86518
1867.717	-2.13898	9.15481	0.08887	9.67138
1871.713	-1.41993	10.05982	2.18971	8.38539
1875.718	-0.80595	8.58551	2.57677	8.97318
1879.712	1.94848	8.68616	2.37087	9.52788
1883.712	2.52191	8.01523	5.88532	7.76081
1887.711	4.13932	6.84676	6.47267	6.77560
1891.717	4.50491	8.26094	7.13361	6.06389
1895.714	5.37249	6.61871	5.12324	8.75420
1899.712	5.31285	5.54212	7.19586	5.64256
1903.707	3.73090	8.16965	7.20194	5.52149
1907.711	4.92408	4.78474	7.23328	5.45425
1911.720	0.93301	8.29856	2.68252	8.41479
1915.717	5.35148	6.56937	2.81236	7.67768
1919.772	4.66132	6.57529	2.89237	7.57117
1923.720	3.16646	6.63093	3.13526	7.46805
1927.725	1.82249	7.78302	3.07991	7.35393
1931.708	4.37754	7.65696	3.24155	7.50436
1935.715	4.19163	7.14556	3.10797	7.48910
1939.713	4.07708	7.09636	3.14293	7.48702
1943.714	5.27395	6.84647	3.27252	7.44284
1947.739	4.07458	6.60165	3.29127	7.49875
1951.710	5.64198	6.60546	3.36569	7.45632
1955.715	4.17697	7.18995	3.46555	7.40094
1959.710	4.17398	7.11259	3.44948	7.40521
1963.704	1.51152	7.80669	3.63406	7.39075
1967.708	3.11495	7.89616	3.64901	7.39812
1971.708	4.20871	7.22337	3.74113	7.40202
1975.714	4.09014	7.16992	3.81138	7.39843
1979.709	4.27432	7.08027	3.94616	7.39655
1983.710	4.12905	7.34074	3.89911	7.38677
1987.710	4.10014	7.19362	4.00018	7.36699
1991.716	4.28952	7.46579	4.09105	7.32458
1995.716	4.21242	7.38935	4.14411	7.33463
1999.715	4.34519	8.07717	4.05629	7.36583
2003.705	4.33636	9.36678	4.13554	7.39189
2007.708	4.21340	9.61953	4.12036	7.39052
2011.713	4.37300	7.19750	4.07843	7.35015
2015.708	4.29717	4.58696	4.08750	7.30432
2019.705	4.44699	8.89100	4.04967	7.28618
2023.722	5.57569	5.42713	3.99030	7.21793
2027.718	4.75696	4.84153	4.07182	7.17072
2031.705	4.60560	6.56014	4.06992	7.24019
2035.712	4.56797	5.90339	4.01280	7.18512
2039.716	4.27575	5.98091	4.13451	7.23920
2043.714	4.07908	6.03680	4.02552	7.57171
2047.707	4.38008	6.15924	4.03460	7.75454
2051.719	4.40848	6.37739	3.94468	7.77738
2055.710	4.71997	6.58081	3.96679	7.52849
2059.714	5.62675	6.34246	4.00880	7.55610
2063.708	3.47606	6.90707	3.80199	7.60311
2067.709	3.39567	6.79893	3.83057	7.72165
2071.712	3.92833	6.25214	3.81889	7.59736
2075.708	4.03322	6.20182	3.81731	7.50110
2079.713	3.99242	6.28529	3.88498	7.22950
2083.711	3.88517	6.31176	3.66941	7.33198
2087.709	4.18405	6.10144	3.73950	7.47086
2091.703	4.21901	5.90471	3.79737	7.50313
2095.711	3.84792	6.72222	3.80812	7.17441
2099.709	3.99674	8.15624	3.58655	7.60515
2103.712	3.14607	6.50351	3.79047	7.85047
2107.707	4.25931	6.71949	4.30337	7.18628
2111.713	4.39703	5.79931	4.94115	6.79998
2115.722	4.91755	5.65401	6.13613	5.67356
2119.717	4.66080	5.36597	5.85946	4.97684
2123.744	7.08182	3.61380	6.13235	5.48633
2127.716	5.23844	3.72466	6.10068	5.68942
2131.713	6.21171	3.47969	6.35927	5.60267
2135.710	7.04555	3.83507	6.49031	5.59821
2139.712	7.08268	3.82215	5.98839	5.68937
2143.712	5.40621	6.40659	7.54979	5.17171
2147.709	6.79829	4.22383	6.30387	5.22086
2151.708	7.04699	3.76621	6.04431	5.51866
2155.706	6.66393	3.39808	7.61075	4.59106
2159.713	6.39349	3.88116	6.00904	4.75049
2163.713	6.79875	3.24157	6.35275	5.03419
2167.712	6.60793	3.09225	6.61783	5.03923
2171.733	7.01194	3.48005	7.85874	4.85247
2175.707	7.09641	3.35204	8.94629	4.56704
2179.709	7.43217	3.51966	6.71209	4.67370
2183.709	10.44336	3.47975	6.90874	4.68674
2187.710	10.40000	3.01515	7.79934	4.51553
2191.704	5.93505	3.15947	6.48088	4.68482
2195.707	6.01675	2.92672	6.79200	4.61398
2199.712	5.99389	2.57796	6.96066	4.75754
2203.711	7.04281	1.75470	8.58587	4.72987
2207.709	-0.40643	2.72095	6.88328	4.83894
2211.701	2.74608	2.33430	6.76863	4.79572
2215.710	2.75249	2.67606	7.20819	4.77562
2219.707	2.90146	2.56390	6.08760	4.87253
2223.706	3.01534	2.32741	6.46598	4.99628
2227.711	3.83771	2.00388	6.60213	4.77102
2231.706	5.34321	1.57391	6.42895	4.80863
2235.709	5.47208	1.23707	9.06211	4.84917
2239.711	1.89982	1.87250	6.51263	4.93919
2243.708	3.18136	1.66821	6.63139	4.97165
2247.714	3.05323	2.09192	7.95648	4.96326
2251.706	3.21790	1.91296	5.96232	5.00617
2255.710	4.31556	1.49270	6.32480	5.00405
2259.706	4.53899	1.43532	6.13790	4.73422
2263.708	4.48355	0.59119	6.35785	4.65639
2267.702	5.21395	0.87125	6.43439	4.83741
2271.704	3.45114	1.37589	5.92424	1.81217
2275.704	3.29879	0.89944	6.45686	4.56443
2279.709	4.35104	2.89860	6.53776	3.99085
2283.706	5.58422	3.92141	6.30848	4.50608
2287.705	7.83875	3.30905	6.35373	4.75079
2291.711	4.35955	2.48375	6.25127	4.58389
2295.705	4.61627	3.18194	6.49884	4.09652
2299.709	5.41499	2.54231	6.40317	4.33455
2303.718	5.84915	2.50970	6.36501	4.25891
2307.709	7.16322	2.71952	6.37922	4.28161
2311.705	7.25106	2.84301	6.36319	4.18062
2315.710	6.93266	2.77027	6.39606	4.37382
2319.706	6.18578	2.70069	6.38555	4.55311
2323.722	5.38875	3.03860	6.20300	4.43642
2327.710	5.33576	3.00255	6.30485	4.39571
2331.714	5.86121	2.38973	6.28891	4.37939
2335.710	6.58418	1.96502	6.26613	4.49095
2339.707	6.85525	1.82438	6.22704	4.42782
2343.709	6.81480	2.10544	6.15357	4.36708
2347.703	6.89529	2.18613	6.20116	4.31958
2351.709	6.40307	2.48374	6.12610	4.53717
2355.707	4.65720	2.64073	5.91874	4.48638
2359.708	4.65562	3.07516	3.64303	4.49972
2363.718	4.07621	2.78186	3.44775	4.42643
2367.706	3.80683	2.44618	1.12655	4.57096
2371.581	2.28038	7.11508	0.77779	4.92429
2375.583	1.76780	5.18724	0.22537	4.63446
2379.578	0.20847	2.88841	-0.48947	4.58436
2383.576	-0.73960	3.05223	-1.13940	4.61492
2387.581	-0.75273	3.18159	-1.37828	4.68790
2391.577	-0.30039	2.71320	-1.23173	4.62761
2395.577	-1.28177	2.75514	-1.21578	4.62529
2399.580	-1.14025	2.83492	-1.07091	4.63631
2403.582	-0.19847	4.83956	-1.02320	4.54304
2407.573	0.22864	4.31028	-1.00347	4.52001
2411.576	-0.55136	2.93276	-1.07547	4.47190
2415.577	-0.55816	2.67411	-0.94740	4.38867
2419.585	-0.43912	2.38603	-0.95239	4.23090
2423.596	-0.53721	2.75841	-0.98846	4.20525
2427.577	-0.70878	2.15629	-0.93755	4.06448
2431.582	-0.59166	3.55095	-0.90143	4.06200
2435.577	1.90864	5.90949	-0.83322	3.95749
2439.578	-0.08604	4.16909	-0.83630	3.97316
2443.581	-0.38787	2.63148	-0.82915	3.97539
2447.575	0.23716	3.90544	-0.83143	3.88760
2451.576	-0.70640	2.90105	-0.83044	3.84009
2455.576	-0.13106	3.45168	-0.85463	3.84556
2459.586	-0.41611	2.82403	-0.83550	3.85487
2464.042	-0.34449	3.08120	-0.88111	3.98983
2467.589	0.21105	3.75197	-0.88401	3.97689
2471.581	0.21959	3.38194	-0.95182	4.14838
2475.581	0.48574	3.23872	-1.03429	4.21577
2479.576	-0.14759	3.82113	-1.06704	4.27688
2483.576	-0.39646	3.13740	-1.09748	4.37296
2487.579	-0.68181	3.25320	-1.24292	4.49626
2491.580	-0.17576	3.83122	-1.30881	4.36074
2495.577	-0.31506	3.12243	-1.43935	4.46834
2499.583	-0.72481	3.17069	-1.49562	4.21510
2503.586	2.89047	2.71066	-1.65416	4.32260
2507.573	-0.59191	2.98255	-1.61106	4.07773
2511.581	2.24978	2.64217	-1.67625	4.16193
2515.578	1.90440	2.27036	-1.65976	3.97573
2519.580	-0.86699	2.48883	-1.58631	3.96057
2523.593	-0.39802	3.17240	-1.54529	3.96426
2527.581	-0.42703	3.78653	-1.46943	3.83325
2531.579	-0.71950	4.20117	-1.45748	3.73268
2535.578	-0.75757	3.54130	-1.28120	3.58010
2539.577	-1.06599	2.18298	-1.17714	3.38016
2543.584	-0.62647	2.22516	-1.11524	3.41695
2547.575	-0.64161	3.05750	-1.11574	3.23122
2551.578	-1.23310	2.36511	-1.05761	2.78325
2555.580	-1.15940	2.21412	-1.12789	3.33598
2559.575	-1.16166	2.23111	-1.11690	3.19523
2563.582	-1.08830	2.07256	-1.25634	2.85805
2567.577	-1.15704	2.26634	-1.21358	3.42562
2571.580	-1.17406	2.11914	-1.24044	3.32433
2575.574	-1.01762	1.81791	0.05872	3.40762
2579.580	-1.30221	2.04672	-2.39284	3.08741
2583.614	-1.78357	2.70675	-2.24445	3.59991
2587.578	-4.64012	2.51315	-3.32884	3.55290
2591.575	-4.91733	4.41409	-4.02119	4.55871
2595.577	-7.07398	4.31063	-7.60270	4.80737
2599.603	-7.68727	4.15303	-8.72340	4.82330
2603.577	-11.37724	4.51406	-10.30891	4.87048
2607.574	-11.78400	4.73207	-10.85255	5.01773
2611.569	-9.06760	4.08569	-11.07792	5.05376
2615.580	-8.79424	5.00650	-11.97204	5.01395
2619.574	-10.76616	5.78317	-12.11512	5.08858
2623.584	-10.71384	7.55854	-12.23564	5.13240
2627.581	-10.98863	5.96374	-12.00400	5.24396
2631.575	-11.16502	5.88893	-11.60056	5.05032
2635.570	-10.70397	5.03311	-11.53813	5.09509
2639.573	-11.41213	5.65008	-11.65596	5.02698
2643.576	-10.48048	5.41461	-11.87092	4.79766
2647.574	-10.76094	5.60919	-11.78393	4.83422
2651.572	-11.07465	5.18225	-11.63666	4.77683
2655.573	-10.93686	5.08826	-11.54449	4.85791
2659.572	-10.81592	5.01241	-11.52981	4.62861
2663.578	-10.95751	5.05390	-11.62609	4.59946
2667.577	-11.30889	5.05262	-11.56286	4.76960
2671.576	-11.45720	4.72835	-11.52972	4.63741
2675.573	-11.26949	4.79240	-11.57505	4.61064
2679.573	-11.42656	3.94397	-11.64004	4.57903
2683.572	-10.99401	4.16531	-11.48914	4.57670
2687.577	-10.95607	4.07458	-11.55073	4.59697
2691.572	-11.16089	3.34733	-11.53324	4.64880
2695.578	-10.92330	3.64766	-11.60106	4.58618
2699.573	-10.97291	4.33773	-11.60444	4.52633
2703.578	-11.22637	4.19308	-11.63337	4.65236
2707.569	-11.00144	4.23512	-11.56100	4.66885
2711.577	-10.98217	4.30849	-11.68853	4.56624
2715.577	-11.02340	4.35627	-11.50298	4.51494
2719.577	-10.87958	4.29833	-11.48437	4.44902
2723.590	-10.95394	4.48704	-11.29228	4.41784
2727.576	-11.01027	4.48165	-10.73274	3.96538
2731.574	-11.03255	4.76780	-10.96815	4.13245
2735.573	-10.87986	4.58205	-10.58160	4.27683
2739.575	-11.16007	4.67725	-10.67802	4.14013
2743.576	-11.25712	4.81169	-10.60351	4.35278
2747.569	-11.38542	4.88702	-10.68631	4.22789
2751.578	-11.59570	5.04185	-10.50026	4.22970
2755.577	-11.50155	4.87608	-10.53178	4.32851
2759.572	-11.62968	4.96905	-10.66038	4.68385
2763.572	-11.80424	5.45239	-10.68111	4.57138
2767.572	-11.94178	5.39412	-10.92748	4.89650
2771.573	-11.84896	5.34788	-11.03040	5.04308
2775.576	-10.18909	5.62779	-11.38798	5.92729
2779.571	-10.43745	5.94590	-11.47782	4.98137
2783.571	-10.12075	5.74632	-11.16769	5.42088
2787.571	-10.24971	5.93724	-11.58363	5.35733
2791.581	-11.15642	5.98589	-11.67515	5.45256
2795.571	-10.42655	5.84586	-11.61054	5.65728
2799.571	-10.36795	5.98441	-11.53727	5.82078
2803.671	-10.43294	5.95032	-11.80897	5.75452
2807.585	-10.73217	5.91654	-11.79118	5.78371
2811.566	-10.79198	5.95606	-11.83731	5.96610
2815.576	-12.81979	4.29707	-11.92227	5.96281
2819.571	-12.64480	4.75227	-11.89965	5.98411
2823.571	-11.86811	5.11064	-11.93196	5.85938
2827.576	-11.64406	4.87663	-11.94422	5.95868
2831.572	-12.31516	4.65267	-12.03816	5.99727
2835.576	-12.06771	4.89293	-12.07327	6.04434
2839.574	-12.22094	4.80398	-12.06976	6.04163
2843.572	-12.72735	4.07740	-12.11818	6.03379
2847.565	-12.51960	4.40346	-12.18834	5.98724
2851.569	-12.48622	3.48514	-12.12317	5.45053
2855.572	-11.93562	3.23915	-11.90540	3.66129
2859.574	-12.45714	3.82279	-12.18725	3.77910
2863.567	-12.28114	3.34806	-11.35356	3.02090
2867.570	-12.20001	2.64199	-11.88278	3.56484
2871.573	-12.36558	0.88744	-12.06173	2.88049
2875.578	-12.25138	0.50226	-11.92622	1.13152
2879.568	-12.32956	-0.87768	-11.91769	0.65447
2883.570	-10.86268	-1.21494	-11.88361	0.53213
2887.572	-12.15569	-0.97115	-11.63554	0.92420
2891.574	-12.08309	-1.04613	-11.68472	1.39811
2895.565	-11.68334	-1.15723	-11.68008	0.90860
2899.590	-12.00374	-1.20255	-11.81415	0.95217
2903.573	-12.04220	-1.04753	-11.65385	0.86127
2907.570	-11.29221	-1.40510	-11.74368	0.84822
2911.565	-11.35549	-1.04816	-11.61954	0.77805
2915.579	-11.77196	-1.38741	-11.26080	0.66627
2919.576	-12.42191	-1.01466	-11.36491	0.63748
2923.567	-12.55453	-0.96004	-11.51776	0.61661
2927.573	-12.06805	-0.66134	-11.51082	0.71951
2931.571	-11.71411	-1.03145	-11.53217	0.64752
2935.568	-12.31978	-0.35451	-11.53210	0.53553
2939.569	-11.84506	-0.40660	-11.61542	0.53445
2943.571	-11.66465	0.01711	-11.71979	0.50050
2947.567	-11.81028	0.15455	-11.74499	0.48007
2951.573	-11.60411	0.24864	-11.72888	0.49229
2955.571	-11.84225	0.24826	-11.71718	0.43949
2959.577	-11.84556	0.43016	-11.80471	0.52956
2963.568	-11.79449	0.49095	-11.89000	0.62815
2967.573	-11.65701	0.53765	-11.91070	0.59261
2971.570	-11.91068	0.59507	-11.81708	0.62266
2975.569	-11.73878	0.62702	-11.76568	0.62647
2979.568	-11.64168	0.72779	-11.75324	0.67590
2983.572	-11.78833	0.71125	-11.75707	0.71165
2987.569	-11.76430	0.74527	-11.84841	0.73809
2991.569	-12.08217	0.81089	-11.60332	0.73848
2995.574	-11.76414	0.83646	-11.45553	0.66209
2999.603	-11.80540	0.91094	-11.51132	0.79330
3003.572	-11.71751	0.92242	-11.28658	0.86017
3007.570	-11.79391	0.87321	-11.59713	1.70751
3011.570	-11.81096	0.84551	-11.35401	1.50603
3015.564	-11.73200	0.89831	-11.34480	1.74178
3019.572	-11.52167	0.91494	-11.24614	2.08396
3023.586	-11.53344	0.93878	-11.34716	1.87714
3027.572	-11.46070	0.99716	-11.22730	2.08018
3031.570	-11.50375	1.17589	-11.20997	2.22739
3035.567	-11.42368	1.07577	-11.53358	1.53605
3039.571	-11.41242	1.09770	-11.49202	1.27588
3043.573	-11.32471	1.18574	-11.49972	0.84173
3047.576	-11.38116	1.02924	-11.60747	1.91757
3051.572	-11.02813	1.08548	-11.45400	2.24791
3055.570	-11.13129	1.25587	-9.63920	2.38875
3059.566	-10.59682	1.80827	-8.93973	1.97322
3063.567	-9.05570	2.78081	-5.54769	3.63959
3067.571	-5.83945	1.88350	-2.68891	3.66964
3071.562	-1.40388	2.13039	-2.66684	2.52009
3075.566	-1.45728	1.22816	-0.46143	3.02781
3079.573	0.03790	0.68893	-2.73737	1.63763
3083.572	-0.23763	-0.24061	-0.17571	2.19908
3087.567	2.12642	0.97422	-0.03204	1.87251
3091.561	3.15080	0.07287	-0.35968	2.24418
3095.571	3.65959	-0.42675	-0.15633	1.70998
3099.568	4.16077	-0.47576	-0.05336	1.95152
3103.567	4.69914	-0.96715	0.12029	2.38838
3107.587	5.27929	-1.45338	0.09805	2.25208
3111.568	5.06141	-1.35748	0.04368	2.38097
3115.575	3.69842	-0.79235	-2.24718	2.37562
3119.571	1.04074	-1.25798	-0.12359	1.99890
3123.586	2.14872	-1.47296	0.20380	2.12081
3127.569	3.98575	-1.13427	0.26473	2.26139
3131.571	2.82224	-1.72264	0.13342	2.52462
3135.565	2.94359	-1.47749	0.64895	1.89148
3139.566	1.78438	-1.00975	0.67925	0.66310
3143.566	1.74147	-1.10358	0.54957	0.79352
3147.561	1.54376	-0.83355	0.50972	1.69085
3151.565	1.32860	-0.89088	0.43611	0.67341
3155.564	1.52186	-0.57079	0.53659	0.47971
3159.569	2.14689	-0.33570	0.40906	0.51711
3163.561	1.93730	-0.52713	0.57138	0.26475
3167.579	1.32679	-1.14216	0.32583	0.62969
3171.571	1.23655	-0.44985	0.36727	0.42687
3175.569	1.72312	-0.42104	0.34901	0.47351
3179.581	1.92354	-0.40374	0.22601	0.37285
3183.573	1.22149	-0.81004	0.19365	0.41515
3187.569	1.92302	-0.21984	0.15943	0.45118
3191.562	1.76663	0.06882	0.17511	0.35864
3195.567	1.74853	-0.14699	0.08855	0.44521
3199.568	1.57213	-0.14723	0.08517	0.47177
3203.560	1.40623	2.19500	0.00851	0.54982
3207.575	1.57805	0.58610	-0.17360	0.53372
3211.626	1.73946	0.24001	-0.04127	0.54257
3215.577	1.59137	-0.27778	-0.02085	0.56443
3219.565	1.68411	0.67811	-0.03474	0.53471
3223.472	1.64030	1.02949	-0.05634	0.59763
3227.443	1.70950	0.41347	-0.03864	0.60463
3231.436	1.71112	0.02859	-0.03353	0.60963
3235.442	1.99654	-0.05327	-0.03281	0.62041
3239.442	1.91112	-0.02089	-0.00107	0.67132
3243.434	1.74360	1.67862	-0.04030	0.63025
3247.443	1.66765	0.08748	0.03661	0.62729
3251.440	1.94050	0.18887	0.07145	0.64881
3255.447	1.62282	0.74933	0.06731	0.69696
3259.437	1.54847	0.04804	0.08373	0.78720
3263.442	1.66976	2.25034	0.15372	0.79164
3267.437	1.72046	0.11016	0.23065	0.76630
3271.439	1.48394	0.03930	0.27870	0.79161
3275.436	1.36397	-0.70789	0.32953	0.77789
3279.437	0.93408	0.96840	0.41045	0.84742
3283.444	-0.00266	0.48328	0.44046	0.75796
3287.439	0.50996	0.93841	0.50016	0.77134
3291.437	0.89073	0.69163	0.62042	0.70325
3295.438	1.30303	-0.10069	0.72302	0.61470
3299.448	1.44183	0.58979	0.48530	1.19888
3303.484	1.58056	0.57196	0.37137	0.88849
3307.456	1.57476	-0.06759	-0.74054	1.63703
3311.438	2.75779	0.76259	0.48882	0.75157
3315.440	3.63663	0.63215	-0.04028	0.78461
3319.442	4.16788	-0.62311	0.11739	1.07405
3323.441	4.47629	-0.37187	-0.10548	1.59584
3327.435	4.68871	-2.16354	0.70218	1.70425
3331.438	5.36314	0.08439	0.45706	1.70817
3335.439	6.66570	-1.78163	-0.00710	1.80105
3339.444	2.99524	0.38788	0.26773	1.89188
3343.432	1.31987	0.21531	0.19983	1.94347
3347.437	0.79012	0.29786	0.07579	1.93640
3351.443	0.46604	0.09415	-0.37005	1.93314
3355.437	2.18082	0.00149	-0.21499	1.84815
3359.437	1.81473	0.00586	-0.08004	1.79399
3363.432	2.62863	0.11970	-0.02102	1.82354
3367.438	1.80650	-0.54940	0.20621	1.79855
3371.438	2.58625	0.16595	-0.27994	1.51203
3375.435	2.48634	-0.28140	-0.46733	1.86255
3379.446	0.37454	0.60681	-0.61995	1.38770
3383.439	1.58257	-0.09904	-3.28667	1.68229
3387.441	-4.39345	0.71540	-5.43780	1.39684
3391.434	-5.58034	1.35584	-5.52497	1.52749
3395.441	-7.26588	0.45414	-8.09253	4.41155
3399.437	-7.54271	1.52331	-9.06388	1.10740
3403.440	-9.00128	1.31457	-9.17357	1.14730
3407.434	-9.11126	1.37871	-9.59131	1.24163
3411.440	-9.73349	1.38294	-10.02093	1.13287
3415.435	-10.55721	1.36359	-10.34009	1.15062
3419.441	-10.61150	1.28430	-9.71763	0.91279
3423.484	-10.56469	1.25757	-9.43349	0.94085
3427.438	-10.34669	1.28437	-10.36603	0.91463
3431.444	-10.00006	1.28521	-10.47758	1.01191
3435.438	-10.19353	1.15365	-10.21476	0.96836
3439.434	-9.82284	1.21444	-10.53128	1.00331
3443.445	-9.99744	1.25039	-10.01003	1.00311
3447.439	-10.29764	0.94288	-9.77927	1.11434
3451.439	-10.12176	0.80848	-9.63602	1.12292
3455.433	-10.16694	0.20465	-9.72363	1.05848
3459.435	-9.95497	1.00744	-10.41578	1.15249
3463.439	-9.93578	1.05951	-10.58342	1.27060
3467.438	-10.06174	0.58621	-10.49135	1.28082
3471.432	-9.79566	0.98954	-10.16153	1.30185
3475.439	-9.76710	1.09186	-9.67878	1.33628
3479.436	-9.77705	1.15079	-9.95531	1.23846
3483.438	-9.84869	0.65996	-9.88964	1.26800
3487.438	-9.64463	0.47442	-10.13655	1.24606
3491.441	-10.06463	0.24733	-10.24113	1.66712
3495.435	-9.68838	0.61884	-10.20349	1.63257
3499.438	-9.66658	0.98062	-10.22913	1.76169
3503.438	-9.34401	0.43852	-10.09691	1.97794
3507.439	-9.28840	-0.50764	-10.12282	1.53552
3511.436	-9.89730	0.24726	-10.27773	1.68992
3515.434	-9.54732	0.29960	-10.23423	1.77373
3519.432	-9.31818	0.71179	-10.24944	1.77406
3523.447	-9.43535	-0.04187	-10.23377	1.47903
3527.437	-6.76346	0.50711	-10.39549	1.24289
3531.429	-9.68271	0.16243	-10.35750	1.24397
3535.439	-9.64070	0.91214	-10.25665	0.99952
3539.436	-9.46247	-0.08770	-10.14182	0.69534
3543.438	-8.95721	-0.09760	-10.12650	0.64726
3547.437	-8.00068	-0.13094	-10.36977	0.94499
3551.474	-9.42632	0.45690	-10.14513	1.45954
3555.441	-9.49093	-0.17884	-10.45802	2.07057
3559.432	-9.37455	-0.35121	-10.21962	1.48569
3563.439	-8.38396	-0.13260	-10.09325	1.51418
3567.434	-9.18659	0.14156	-10.08096	1.05794
3571.436	-7.55681	0.27769	-10.14345	1.25838
3575.432	-7.38341	0.68349	-10.09874	1.30851
3579.438	-9.12793	2.13253	-10.43620	1.39511
3583.436	-9.44269	0.86309	-10.13410	0.74985
3587.442	-9.54571	0.84039	-10.16964	0.53585
3591.434	-9.48625	0.64369	-10.10018	0.97539
3595.437	-9.07653	0.08191	-8.55270	1.37269
3599.449	-8.99254	-0.39895	-8.02348	1.33738
3603.441	-9.51273	-0.22086	-10.28859	1.26645
3607.429	-9.50445	-0.05154	-10.36550	1.95512
3611.436	-8.10892	-0.62624	-10.26413	1.95472
3615.442	-6.56627	-1.32469	-10.36639	1.68846
3619.440	-8.13877	-1.67299	-10.12813	1.82317
3623.441	-7.53091	-0.27884	-10.44696	1.96606
3627.434	-8.44509	-0.66704	-10.47393	2.38698
3631.432	-7.49473	-0.45454	-10.52247	1.89500
3635.432	-8.56224	0.42399	-10.40725	2.17176
3639.435	-8.10496	-0.55382	-10.53221	2.13302
3643.474	-8.42639	0.70733	-10.60713	2.16662
3647.430	-8.25960	0.94123	-10.67747	2.09804
3651.431	-8.31010	0.87019	-10.64415	1.95851
3655.429	-8.57459	0.76435	-10.53922	1.78718
3659.430	-8.13276	0.19320	-10.58857	1.61067
3663.423	-8.68616	1.09204	-10.69630	1.41917
3667.436	-8.76299	1.22286	-10.53783	1.70987
3671.438	-9.02220	1.00638	-10.41750	1.50425
3675.436	-9.12285	1.02608	-10.30295	1.36387
3679.466	-8.87295	-0.36945	-10.23281	1.37634
3683.443	-9.52159	0.06095	-10.07490	1.14654
3687.433	-9.18978	0.95088	-8.26026	1.40548
3691.430	-9.20313	0.67879	-7.86398	1.45788
3695.434	-9.31530	0.22327	-8.18886	1.48095
3699.426	-10.15997	-2.15751	-8.27652	1.33693
3703.436	-9.55760	-0.17077	-8.40905	1.63623
3707.431	-8.87820	-1.47306	-8.57260	1.69190
3711.439	-9.69564	-1.88278	-10.13645	1.67187
3715.431	-9.65225	0.52041	-8.99198	1.65911
3719.429	-9.57454	0.49870	-8.35806	2.31050
3723.445	-8.14475	1.87760	-5.30279	3.17609
3727.433	-6.76821	0.40354	-4.14174	2.40618
3731.435	-6.26454	2.51473	-1.49555	2.64579
3735.432	-3.02257	1.21449	0.41720	2.29849
3739.435	1.28871	2.46746	-0.39010	2.76482
3743.438	2.15604	-0.49342	1.99503	1.62111
3747.431	3.01024	-1.00257	2.59948	1.96174
3751.433	5.49202	0.38811	6.19020	-1.09034
3755.438	4.98997	-0.72400	3.56816	2.42270
3759.429	6.67615	0.75518	6.48467	-1.34201
3763.431	5.74986	-0.50688	6.42163	-1.20621
3767.431	5.09355	-0.46202	6.38619	-1.17371
3771.434	4.92797	-0.43124	6.29300	-1.21476
3775.426	4.09757	-0.41386	6.11675	-1.28658
3779.435	6.67211	-0.67213	6.05086	-1.28817
3783.431	6.27567	-0.86834	5.92825	-1.25568
3787.429	4.40443	-0.39799	5.82913	-1.23708
3791.425	3.95258	0.29978	5.66764	-1.25599
3795.434	1.79507	-0.62592	5.62122	-1.29304
3799.433	3.30564	-0.60529	5.31699	-1.28448
3803.427	3.67998	-0.87701	5.39571	-1.25550
3807.428	4.11214	-0.72874	4.94984	-1.22291
3811.429	3.69017	-0.67412	5.12112	-1.21410
3815.430	3.43687	-0.72413	5.04807	-1.27547
3819.429	5.84090	-1.00630	4.66926	-1.12005
3823.444	3.77814	-0.95309	4.78688	-1.05761
3827.432	3.70072	-0.77048	4.32975	-0.92620
3831.432	6.64760	-0.79918	7.89537	-1.06734
3835.431	6.98450	-0.64020	7.89354	-1.10244
3839.439	7.25785	-0.73160	7.45194	-0.98626
3843.429	6.68825	-0.77732	7.73587	-0.92604
3847.429	6.56035	-1.08055	7.79215	-1.03891
3851.426	6.67189	-0.95235	7.69256	-1.03965
3855.429	6.43305	-1.03520	7.80957	-1.03951
3859.431	6.12298	-1.27215	7.66102	-0.85406
3863.432	5.69966	-1.31929	7.68637	-1.00692
3867.446	5.83142	-1.65093	7.60802	-1.03439
3871.432	10.02653	-4.52387	7.74900	-1.17589
3875.427	6.37444	-1.28946	7.71813	-1.16557
3879.432	5.55133	-1.26823	7.70887	-1.14846
3883.434	5.79560	-1.80281	7.71893	-1.18469
3887.430	5.64786	-1.64953	7.70438	-1.30816
3891.455	6.16267	-2.17184	7.70896	-1.26055
3895.431	7.57612	-2.76403	7.64220	-1.23170
3899.426	6.31600	-2.58081	7.63377	-1.16082
3903.427	9.97897	-5.55993	7.56298	-1.25891
3907.422	8.02764	-2.75248	7.57347	-1.26211
3911.432	7.74576	-1.91068	7.50456	-1.24542
3915.427	6.93856	-1.34594	7.49773	-1.13083
3919.432	6.46135	-1.36707	7.48022	-1.07260
3923.440	6.25676	-2.67982	7.23057	-0.97174
3927.434	5.25722	-2.47532	7.24068	-0.74262
3931.428	3.82996	-1.85117	7.35429	-0.63366
3935.422	3.37821	-3.32587	7.27277	-0.37419
3939.426	3.07394	-1.79332	7.09815	-0.32391
3943.428	4.06559	-1.87340	6.93327	-0.67009
3947.426	4.73106	-1.28583	6.79530	-0.41063
3951.421	4.46638	-1.18785	6.58332	-0.00042
3955.426	4.50029	-1.06928	5.89716	0.03727
3959.428	4.42817	-0.95358	5.33069	1.76419
3963.432	4.63790	-0.87077	4.42284	1.27658
3967.431	4.77840	-0.98237	4.39970	1.04317
3971.429	4.51213	-0.88373	3.88327	1.22125
3975.427	4.85398	-0.94681	3.42769	1.13248
3979.423	4.51349	-1.24039	3.56309	0.60904
3983.427	6.64932	-1.12222	3.46216	0.78943
3987.479	6.07062	-0.99314	3.56064	0.46452
3991.427	5.89031	-1.71736	3.63646	0.81370
3995.430	5.22148	-1.82492	3.61040	0.96819
3999.426	4.56836	-1.30878	5.43752	0.84652
4003.431	2.98227	-1.09093	6.00860	0.96212
4007.422	3.78934	-2.35837	5.35399	1.47568
4011.432	4.37182	-1.72583	4.06261	1.44315
4015.425	5.03033	-1.73298	3.79794	1.67363
4019.426	5.21744	-1.40144	3.59204	1.59442
4023.444	5.17361	-0.65351	3.53661	1.44772
4027.431	5.43376	-1.34851	3.37902	1.63786
4031.436	5.19160	-1.01668	3.43264	1.50921
4035.422	3.93680	-0.77253	3.68045	1.29421
4039.425	4.65091	-1.62482	5.82228	1.18300
4043.425	3.00873	-1.67307	5.31595	1.61238
4047.430	4.96379	-0.68742	3.66782	1.91597
4051.447	4.88020	-0.34538	3.23242	1.87154
4055.430	5.44862	-0.54914	3.36794	1.21817
4059.429	4.15732	-0.58039	3.30722	1.86434
4063.423	4.50831	-0.63959	5.63773	1.73702
4067.425	3.25881	0.07815	3.82887	1.81399
4071.425	4.31832	-0.42648	3.16315	1.78945
4075.452	4.46016	-0.52940	3.36644	2.43624
4079.298	4.55475	-0.07696	5.81435	2.13172
4083.300	6.83264	-0.38748	5.81990	2.20467
4087.298	5.53377	-0.51362	4.07977	2.21493
4091.303	4.77148	-0.43622	3.48971	2.23900
4095.303	4.79191	-0.31894	3.37996	2.16762
4099.304	5.16669	0.49406	3.33522	2.12886
4103.301	4.63405	0.01583	4.77200	2.65596
4107.299	4.39814	0.21644	-2.45597	1.09223
4111.297	3.74132	0.85865	-1.94585	2.18364
4115.301	6.22027	0.74554	-5.04410	2.34359
4119.301	6.43903	0.44228	4.36343	4.11762
4123.303	5.83879	4.64514	0.91649	8.79518
4127.298	NaN	NaN	NaN	NaN
4131.301	2.43615	10.03427	21.11681	13.55516
4135.304	NaN	NaN	NaN	NaN
4139.298	NaN	NaN	NaN	NaN
4143.300	NaN	NaN	NaN	NaN
4147.303	NaN	NaN	NaN	NaN
4151.313	NaN	NaN	NaN	NaN
4155.294	NaN	NaN	NaN	NaN
4159.299	NaN	NaN	NaN	NaN
4163.879	NaN	NaN	NaN	NaN
4167.625	NaN	NaN	NaN	NaN
4171.302	NaN	NaN	NaN	NaN
4175.310	NaN	NaN	NaN	NaN
4179.300	NaN	NaN	NaN	NaN
4183.298	NaN	NaN	NaN	NaN
4187.299	NaN	NaN	NaN	NaN
4191.296	NaN	NaN	NaN	NaN
4195.298	NaN	NaN	NaN	NaN
4199.311	NaN	NaN	NaN	NaN
4203.301	NaN	NaN	NaN	NaN
4207.299	NaN	NaN	NaN	NaN
4211.299	NaN	NaN	NaN	NaN
4215.297	NaN	NaN	NaN	NaN
4219.311	NaN	NaN	NaN	NaN
4223.300	NaN	NaN	NaN	NaN
4227.301	3.09396	14.12273	NaN	NaN
4231.298	NaN	NaN	NaN	NaN
4235.294	NaN	NaN	NaN	NaN
4239.299	NaN	NaN	NaN	NaN
4243.300	NaN	NaN	NaN	NaN
4247.291	3.10819	14.11580	NaN	NaN
4251.301	3.11680	14.11161	NaN	NaN
4255.300	NaN	NaN	NaN	NaN
4259.304	NaN	NaN	NaN	NaN
4263.298	NaN	NaN	NaN	NaN
4267.301	NaN	NaN	NaN	NaN
4271.311	NaN	NaN	NaN	NaN
4275.294	NaN	NaN	NaN	NaN
4279.298	NaN	NaN	NaN	NaN
4283.296	NaN	NaN	NaN	NaN
4287.292	NaN	NaN	NaN	NaN
4291.340	NaN	NaN	NaN	NaN
4295.301	NaN	NaN	NaN	NaN
4300.451	NaN	NaN	NaN	NaN
4304.698	NaN	NaN	NaN	NaN
4308.836	NaN	NaN	NaN	NaN
4313.059	NaN	NaN	NaN	NaN
4317.184	NaN	NaN	NaN	NaN
4321.402	NaN	NaN	NaN	NaN
4325.708	NaN	NaN	NaN	NaN
4329.927	NaN	NaN	NaN	NaN
4334.165	NaN	NaN	NaN	NaN
4338.349	NaN	NaN	NaN	NaN
4342.582	3.14422	14.09709	-7.25352	15.03435
4345.306	NaN	NaN	NaN	NaN
4347.884	NaN	NaN	-7.84737	13.01157
4351.300	-1.50614	14.67507	NaN	NaN
4355.307	NaN	NaN	-4.37835	12.16971
4359.294	-3.29787	14.38030	NaN	NaN
4363.501	NaN	NaN	-4.41516	12.61992
4368.671	-3.80782	14.27020	NaN	NaN
4372.924	NaN	NaN	-4.05989	12.76905
4377.167	-5.20858	14.20417	NaN	NaN
4381.335	NaN	NaN	-4.35595	12.89690
4385.585	-4.54496	13.91760	NaN	NaN
4389.820	NaN	NaN	-4.84171	12.81768
4394.089	-4.12006	13.75924	NaN	NaN
4398.317	NaN	NaN	-4.87808	12.64491
4402.629	-3.75247	11.70750	NaN	NaN
4406.798	NaN	NaN	-5.45395	12.95998
4411.028	-4.13759	13.10215	NaN	NaN
4415.239	NaN	NaN	-4.47203	13.00295
4419.520	-4.12108	13.03631	NaN	NaN
4423.701	NaN	NaN	-5.20482	13.04182
4428.052	-4.70227	13.44125	NaN	NaN
4432.524	NaN	NaN	-4.75287	12.98995
4437.794	-4.00774	12.99193	NaN	NaN
4442.042	NaN	NaN	-4.66985	13.05516
4446.309	-5.04023	13.05725	NaN	NaN
4450.536	NaN	NaN	-4.37631	12.77437
4454.963	-3.81669	12.90444	NaN	NaN
4459.201	NaN	NaN	-4.25356	12.59542
4463.563	-5.87157	12.83453	NaN	NaN
4467.802	-5.77249	12.81975	-3.90395	12.48195
4472.128	-5.31406	12.76103	NaN	NaN
4476.361	NaN	NaN	-3.18487	12.56509
4480.620	-5.57488	12.66716	NaN	NaN
4484.839	-5.46352	12.47888	-4.91181	12.42645
4489.170	-4.95356	12.51950	NaN	NaN
4493.397	-5.33600	12.46052	-4.61001	12.15692
4497.710	-5.14279	12.44516	NaN	NaN
4501.901	-5.33128	12.46326	-5.00196	12.15063
4507.098	-5.25749	12.45340	NaN	NaN
4511.413	-5.30488	12.59737	-5.08163	12.33983
4515.830	-5.22613	12.64566	NaN	NaN
4520.063	NaN	NaN	-5.09387	12.35871
4524.299	-5.28416	12.72307	NaN	NaN
4528.528	-5.26635	13.27335	-4.89015	12.54980
4532.851	NaN	NaN	NaN	NaN
4536.155	-5.48246	12.59253	-4.76460	11.80185
4540.443	-5.30857	12.21620	NaN	NaN
4544.688	-5.45435	12.23930	-4.51854	12.70399
4549.044	-4.97315	13.12055	NaN	NaN
4553.310	NaN	NaN	-2.63878	13.69885
4557.614	-4.66679	13.34883	NaN	NaN
4561.862	NaN	NaN	-1.58088	13.43672
4566.171	-4.28111	13.97704	NaN	NaN
4570.400	-4.20837	14.06357	-2.46340	13.58433
4575.611	-2.53496	11.73629	NaN	NaN
4579.903	NaN	NaN	-2.23776	12.96916
4584.165	-3.41894	11.83366	NaN	NaN
4588.355	-3.32946	12.00583	-2.08002	12.84452
4592.796	-2.96931	12.22163	NaN	NaN
4597.095	-2.67038	12.24784	-1.90396	12.55504
4601.427	-2.72545	12.16611	NaN	NaN
4605.664	-2.68814	12.04495	-1.86707	12.73690
4610.025	-2.52701	11.89160	NaN	NaN
4614.293	-2.30734	11.92029	-1.75419	12.44945
4618.640	-2.26262	11.94615	NaN	NaN
4622.838	-2.28182	12.18522	-1.83603	12.54593
4627.209	-2.10392	12.10259	NaN	NaN
4631.462	-2.61590	12.27555	-1.76941	12.67202
4635.805	-2.79808	13.09643	NaN	NaN
4640.038	-2.26103	13.17972	-1.90014	12.64921
4645.327	NaN	NaN	NaN	NaN
4649.579	NaN	NaN	-1.57887	12.47355
4653.881	NaN	NaN	NaN	NaN
4658.064	-1.86927	12.51775	0.48627	12.70009
4662.455	-17.04475	12.78171	-2.14748	12.91083
4665.336	-2.33467	13.08603	-1.77028	13.00891
4668.165	-2.82226	13.39242	-1.36925	13.11898
4671.331	-3.04036	13.20650	-1.23104	13.10839
4675.300	-2.92584	13.24807	-1.58554	13.13476
4679.294	-2.87378	13.29114	-1.73229	13.20321
4683.287	-2.89047	13.21696	-1.37481	13.31660
4687.294	-2.79941	13.14180	-1.53076	13.33224
4691.290	-2.81627	13.15936	-1.64994	13.16309
4695.290	-2.85759	13.01964	-1.96063	13.11970
4699.288	-2.99807	13.22043	-1.84914	13.14208
4703.288	-3.05514	13.10031	-1.73433	13.08996
4707.292	-3.07548	13.09689	-1.55390	13.14227
4711.288	-3.14825	13.13480	-1.48292	12.90199
4715.295	-3.15186	13.05866	-1.77930	12.77686
4719.292	-3.28353	13.13333	-1.68654	12.70291
4723.305	-3.42171	13.14671	-1.64575	12.56684
4727.296	-3.38380	13.12827	-1.56563	12.44298
4731.290	-3.67442	13.14813	-1.75391	12.53308
4735.287	-3.52821	13.15981	-1.80985	12.51231
4739.298	-3.49176	13.17131	-1.65220	12.39326
4743.287	-2.04624	13.00716	-1.66465	12.64103
4747.297	-3.15592	13.16014	-1.42469	12.61949
4751.288	-4.42217	13.58381	-1.85928	12.72124
4755.289	-4.51941	14.32824	-3.45578	12.95941
4759.291	NaN	NaN	-7.34228	13.60755
4763.300	-11.63044	14.51217	-9.79705	14.38432
4767.289	NaN	NaN	-10.66057	14.36479
4771.288	NaN	NaN	-12.37456	14.49554
4775.283	NaN	NaN	-13.01395	13.90668
4779.286	-14.02557	14.41084	-15.29894	9.31757
4783.286	-14.96334	14.39357	-12.62596	14.06261
4787.291	-15.13082	12.13248	-12.62098	14.32883
4791.287	-14.62470	14.42471	-11.78300	14.18645
4795.282	-14.64663	13.87246	-11.62751	14.37827
4799.316	-11.79831	12.51288	-12.43021	14.30792
4803.296	-13.79747	13.83738	-13.11716	14.17296
4807.284	-12.27735	12.76511	-12.91173	13.40244
4811.287	-12.90661	13.69027	-13.01300	13.50694
4815.288	-13.02332	14.09802	-13.22693	9.27501
4819.292	-13.16715	14.30177	-12.87721	13.91182
4823.282	-13.12119	13.89691	-13.40464	9.47836
4827.286	-14.74247	14.19519	-12.09916	14.17082
4831.290	-14.51793	14.14161	-12.60540	14.19548
4835.286	-12.67211	14.22353	NaN	NaN
4839.286	NaN	NaN	-12.55817	10.62032
4843.299	-13.09654	13.58048	NaN	NaN
4847.283	NaN	NaN	NaN	NaN
4851.286	NaN	NaN	NaN	NaN
4855.292	NaN	NaN	NaN	NaN
4859.285	-14.68761	14.44326	NaN	NaN
4863.294	-12.93924	14.54501	-12.03145	14.58826
4867.291	NaN	NaN	-11.97496	14.70799
4871.291	-14.68477	14.53715	-12.76359	14.74252
4875.310	-14.99158	14.59542	-13.04408	14.77136
4879.286	-13.73062	14.35419	-12.96625	14.72561
4883.289	-13.17226	14.17259	-13.20044	14.65711
4887.286	NaN	NaN	-13.16470	14.60337
4891.284	-13.69275	14.00459	-12.99868	14.52401
4895.285	-14.33676	13.89722	-13.10641	14.43616
4899.285	-14.25224	13.50499	-13.11434	14.44043
4903.286	-13.87732	12.53339	-13.09322	14.31128
4907.284	-14.25636	13.63056	-13.07455	14.17265
4911.286	-14.38598	14.19158	-13.10337	13.60347
4915.284	NaN	NaN	-13.00160	13.67919
4919.292	-11.29424	13.47643	-13.12110	13.28998
4923.289	-14.47192	13.69394	-13.09047	13.16017
4927.313	-14.48332	13.71875	-13.04389	13.41243
4931.163	-14.49258	12.92017	-12.92932	13.58256
4935.168	-14.71124	13.47003	-12.68848	13.45956
4939.159	-14.99352	12.86567	-12.17181	13.36402
4943.167	-16.27028	11.39934	-11.61316	13.33726
4947.167	-15.75573	13.02518	-11.65642	13.59696
4951.160	-16.67398	12.69764	-12.63849	13.55153
4955.160	-11.44552	13.59204	-12.55138	13.63340
4959.159	-14.55830	14.06984	-12.54367	13.93485
4963.159	-14.40661	13.65414	-12.46860	14.00578
4967.156	-14.58210	13.25224	-12.44287	13.99901
4971.163	-14.32060	11.94663	-12.72971	13.88920
4975.159	-14.41899	12.10296	-12.96326	13.79513
4979.160	-14.83596	13.66177	-12.89643	13.97573
4983.159	-15.25993	13.86214	-12.95838	13.88119
4987.163	-14.74463	13.76100	-12.85463	13.69539
4991.163	-14.85709	13.70399	-12.75490	13.69424
4995.158	-14.68336	14.07219	-12.52270	12.69823
4999.161	-14.98451	13.76579	-13.06968	12.48790
5003.159	-15.12560	13.76793	-13.08934	13.56161
5007.163	-14.95649	13.03644	-12.76713	13.73075
5011.155	-13.64584	12.50547	-12.19486	13.68040
5015.162	-14.97138	13.48632	-12.01442	13.60593
5019.160	-12.35062	11.25522	-11.61068	13.57715
5023.163	-13.81736	13.42941	-10.70083	13.67524
5027.154	-12.69712	13.09364	-12.95914	13.70679
5031.159	NaN	NaN	-12.99986	13.78907
5035.162	NaN	NaN	-12.58902	13.70191
5039.158	NaN	NaN	-12.99274	13.80701
5043.177	-13.91766	11.70801	-12.19723	13.75588
5047.162	-13.57236	12.16181	-13.10897	13.75424
5051.165	-16.41553	13.83469	-12.41026	13.84511
5055.162	NaN	NaN	-12.80282	13.81469
5059.164	NaN	NaN	-13.01878	13.85953
5063.158	-16.68095	13.44252	-12.86225	13.74590
5067.160	-16.69074	13.30301	-13.00294	13.84057
5071.158	-19.99370	-12.07743	-12.81226	13.72009
5075.157	-19.99370	-12.07743	-12.94481	13.49744
5079.159	-14.16641	14.44866	-13.13065	13.40147
5083.158	-19.99370	-12.07743	-12.82021	13.85499
5087.163	-19.99370	-12.07743	-12.75840	13.77515
5091.153	-19.99370	-12.07743	-12.28671	14.24226
5095.161	-14.73996	13.60744	-15.34808	13.10018
5099.161	NaN	NaN	NaN	NaN
5103.163	NaN	NaN	-7.27411	14.05008
5107.154	-16.21098	12.99318	NaN	NaN
5111.184	NaN	NaN	-7.92449	14.56151
5115.158	NaN	NaN	NaN	NaN
5119.158	NaN	NaN	NaN	NaN
5123.158	NaN	NaN	NaN	NaN
5127.173	NaN	NaN	NaN	NaN
5131.156	NaN	NaN	NaN	NaN
5135.156	NaN	NaN	NaN	NaN
5139.179	NaN	NaN	NaN	NaN
5143.166	NaN	NaN	NaN	NaN
5147.156	NaN	NaN	NaN	NaN
5151.165	NaN	NaN	NaN	NaN
5155.163	NaN	NaN	NaN	NaN
5159.155	NaN	NaN	NaN	NaN
5163.153	NaN	NaN	NaN	NaN
5167.161	NaN	NaN	NaN	NaN
5171.158	NaN	NaN	NaN	NaN
5175.157	NaN	NaN	NaN	NaN
5179.162	NaN	NaN	NaN	NaN
5183.157	NaN	NaN	NaN	NaN
5187.173	NaN	NaN	NaN	NaN
5191.774	NaN	NaN	NaN	NaN
5195.434	NaN	NaN	NaN	NaN
5199.487	NaN	NaN	NaN	NaN
5203.514	NaN	NaN	NaN	NaN
5207.631	NaN	NaN	NaN	NaN
5211.671	NaN	NaN	NaN	NaN
5215.577	NaN	NaN	NaN	NaN
5219.656	NaN	NaN	NaN	NaN
5223.486	NaN	NaN	21.93070	12.98138
5227.167	3.64847	9.19257	NaN	NaN
5231.164	4.69448	8.39654	NaN	NaN
5235.155	0.17720	13.34536	NaN	NaN
5239.161	0.40405	10.41321	NaN	NaN
5243.153	0.33977	9.81778	0.83300	7.19714
5247.154	0.37643	0.33068	9.25272	1.15969
5251.153	2.13534	0.52987	9.04645	-0.37502
5255.154	2.48215	0.37566	-2.26435	-5.65652
5259.158	2.90173	7.57404	0.58930	-2.84730
5263.162	3.47252	5.31210	3.96656	-1.60181
5267.152	5.92537	-2.92250	-0.45738	-3.13660
5271.160	1.83219	4.70319	-2.07093	-3.18232
5275.157	2.83796	4.37406	3.53053	-1.84589
5279.156	2.58053	4.40303	4.04562	-0.28505
5283.150	8.37254	-2.47086	-2.02140	-2.14148
5287.169	5.62775	3.23218	-0.49887	-1.42125
5291.158	5.77278	2.95801	-1.66859	-3.08040
5295.156	2.90819	-0.52137	-0.74134	-2.82325
5299.194	3.23979	-1.74329	-1.38128	-4.01740
5303.170	6.09025	-3.40249	2.83410	-0.73062
5307.191	0.90200	-3.06539	1.34527	-0.37347
5311.154	2.88777	-4.04803	-0.61131	-1.87811
5315.152	5.39765	-3.33682	2.11819	-0.36242
5319.149	6.15333	-2.58134	1.87557	-1.21926
5323.158	3.49072	-1.70924	-0.33871	-2.27954
5327.153	5.00667	-2.58737	-0.78493	-2.67054
5331.159	6.38543	-2.84512	1.94196	-0.46214
5335.151	3.84061	-2.67326	2.17242	-0.51799
5339.148	3.47477	-2.78596	2.37258	-0.43964
5343.166	3.40813	-4.17693	2.46553	-0.53238
5347.158	3.31769	-4.06855	5.01465	-1.42237
5351.181	3.26653	-4.57036	5.89588	-2.10675
5355.161	3.22047	-4.98881	2.38720	-1.13631
5359.153	1.86367	-4.03508	2.67645	-0.83610
5363.147	2.73529	-5.07304	2.75230	-1.01721
5367.153	3.63280	-5.28060	2.84103	-0.83347
5371.156	6.62015	-7.71192	2.54975	-0.62339
5375.148	6.76337	-3.99383	2.58729	-0.48671
5379.152	3.04964	-5.41817	2.51973	-0.41648
5383.156	6.95264	0.25707	2.60535	-0.58671
5387.158	6.74760	-3.11694	2.62172	-0.47173
5391.147	6.80475	-3.92908	2.59943	-0.37565
5395.149	6.46777	-3.54783	2.54516	-0.33384
5399.156	6.71265	-3.02469	2.69859	-0.24640
5403.152	3.12618	-3.60976	2.66543	-0.24629
5407.151	5.97153	-3.86456	2.72830	-0.26558
5411.152	3.70475	-3.50152	2.77666	-0.25319
5415.153	3.71849	-3.91534	2.90408	-0.27917
5419.156	3.60647	-3.91393	2.98242	-0.30108
5423.169	3.47616	-3.85327	2.68276	-0.51720
