time (ms)	lx (deg)	ly (deg)	rx (deg)	ry (deg)
0.000	-4.03942	-0.45427	-5.96132	-2.29532
4.002	-3.88196	-0.09138	-1.91563	1.20555
8.005	-3.77913	-0.00412	1.00821	-4.51612
12.006	-1.09085	-0.59156	0.77583	-4.26910
16.003	-1.02662	-0.54230	0.65392	-4.43202
20.002	-6.14111	-0.89114	-5.13186	-1.96397
24.000	-6.25948	-1.00654	-4.64527	-1.61449
28.004	-0.26537	-1.06644	-4.52984	-1.10022
32.001	-0.53213	-1.11365	-1.87389	-2.05272
36.000	-4.45123	-2.47618	-4.37934	-1.08600
40.004	-4.10369	-2.37329	-4.21010	-1.15645
44.003	-4.26965	-0.34434	-4.22903	-0.92392
48.004	-1.86699	-1.50191	-3.16174	-0.83742
52.003	-2.95940	-0.00144	-3.12108	-0.86244
56.014	-3.40440	-2.20987	-3.57706	-0.86895
60.002	-6.70034	-3.56675	-3.60408	-1.31680
63.999	-4.30724	-2.75031	-3.27635	-0.73910
67.995	-2.60790	-2.44077	-6.07305	-2.09934
72.001	-2.96272	-2.74782	-4.66916	-1.62829
76.005	-3.14229	-2.34170	-0.81925	-0.68002
80.003	-3.96837	-2.63874	-1.55239	-0.62244
83.996	-4.06041	-2.45363	-4.61368	-0.61332
88.000	-3.94537	-3.88230	-1.24163	-0.73145
92.003	-3.06798	-2.79573	-1.38255	-0.89394
96.000	0.55237	-3.00309	-3.06214	-0.49973
100.005	-2.18753	-2.40714	-4.82597	-1.68500
103.997	-1.11871	-0.28946	-1.71451	-0.46593
107.996	-1.30680	0.10819	-4.47610	-1.85386
112.004	1.03637	-2.30054	-4.60394	-1.37068
116.000	4.85255	-2.39177	-4.48937	-0.48881
120.002	2.95893	-2.06291	-3.10876	-0.16734
123.999	7.10523	-0.69563	-2.73100	-0.32222
128.002	3.25120	-2.40260	-2.16399	-0.27004
132.006	0.25877	-0.78935	-0.68503	0.17920
136.013	1.00280	3.72198	0.70250	0.09397
140.005	3.33859	2.49911	0.90267	0.17656
143.999	1.80298	0.24129	0.74764	0.44751
148.002	1.93968	1.56845	-0.83049	0.35421
151.998	5.10886	2.23566	0.00921	0.48077
155.998	-4.88141	3.08568	-0.72288	0.46394
160.004	-4.57978	4.37494	-1.44589	0.52041
164.000	-2.74799	-0.67886	-2.24961	0.57502
168.000	-2.68796	2.72764	-1.34529	0.45304
172.061	1.21174	0.88374	-7.02264	-5.33486
176.011	-1.95874	1.61395	-0.72737	-0.00636
179.999	2.85309	-2.11646	0.12488	0.49168
184.001	2.11579	-0.11102	-5.38877	-0.30847
188.000	3.15013	-0.49672	-2.55014	-3.12477
191.998	-1.24917	0.87821	-2.93426	-0.92875
196.002	3.58855	-0.50011	0.16208	-0.01501
199.997	3.27052	0.66896	-2.99510	0.32609
204.005	3.30616	1.38363	-2.85544	-0.57676
207.997	2.63911	-0.03336	-1.16394	0.90859
211.999	-0.40601	0.03146	-0.01057	0.58463
216.000	3.88404	1.75614	0.62037	0.27789
219.996	2.29768	-0.01323	-0.35032	-0.08573
223.998	-2.21606	-2.38715	-0.58292	-0.00330
228.001	0.75176	-1.62662	0.13469	0.33859
231.996	-0.63134	-1.52901	1.33949	0.57262
235.999	-0.49537	-2.41523	3.29520	-1.23652
239.999	-1.76802	-0.44791	0.17045	0.57131
243.998	-0.37531	-1.26427	0.12630	2.85806
248.000	-0.62516	-1.54537	0.56575	1.77817
251.998	-0.24966	-0.39084	0.25748	3.10300
255.995	-0.93683	-1.97235	0.24835	2.16761
259.996	-0.46023	-0.18798	-2.08746	3.70105
264.011	-0.98574	0.09903	-0.50309	3.42422
267.999	-0.42423	3.65811	-0.13143	3.15433
271.997	-0.80074	-0.33230	-3.61777	2.33122
276.030	-0.10262	-0.00427	-0.34188	3.01611
280.005	-0.06190	3.15124	-0.36911	3.20474
283.998	-0.74938	0.30134	-0.17248	3.65186
287.999	-0.13012	2.62575	0.34114	2.26599
291.997	-0.07783	1.96365	-0.13377	2.82588
296.001	-0.25852	3.09453	0.79124	1.59505
300.003	2.10515	-0.16044	0.89557	1.36116
303.996	0.52073	2.24440	1.41740	1.37491
307.996	0.66486	0.11798	0.19966	0.43120
311.998	0.48048	2.36034	-0.72757	1.45933
315.997	-0.98975	0.34589	-0.08329	0.16716
319.999	0.48542	-0.19449	-0.57111	-0.19543
323.996	-0.37586	-0.29326	-0.21713	1.12951
328.000	0.77258	2.50870	0.03623	0.07952
332.000	0.68806	0.30194	-0.00903	-0.37477
335.997	0.58195	0.90538	-1.90041	1.98748
339.996	-1.39654	0.23639	0.34293	-0.38572
344.026	0.39003	-0.36336	0.26155	0.78088
348.003	0.81960	-0.26141	-1.14675	0.76652
351.992	0.81138	-0.27356	-0.46676	0.91946
355.994	-0.62893	1.47726	-0.59272	0.26423
359.998	-0.12645	0.12457	-0.45708	0.73768
363.997	-1.93631	-1.58853	0.03921	1.04288
367.995	0.33682	0.96926	-0.39512	0.84867
371.993	0.25954	0.28919	-0.10744	1.00696
376.026	-1.58611	-0.52830	-0.67928	1.64914
379.994	-1.01841	-0.78148	-1.42275	2.42576
383.998	-0.32568	-2.22989	-0.88493	1.05490
387.999	0.79295	0.40102	-0.58034	2.47619
391.997	3.41016	-3.69271	-0.58848	2.68047
395.994	3.16010	-2.66463	-1.32240	2.19751
399.998	-0.93381	0.60155	-1.69210	0.38365
403.995	3.85283	-1.74679	-1.25848	1.10273
407.993	3.04635	-1.35226	-2.37553	-1.25653
412.022	2.79129	-0.83232	-3.05645	-2.29829
415.998	2.27682	-0.39943	-4.85793	-2.92835
419.998	1.50286	-0.59156	-0.52036	1.21246
424.001	0.10279	-0.29212	-1.68677	0.63276
427.995	-1.35474	-0.08138	-1.77967	2.20778
431.991	1.41640	-1.30306	-1.45284	1.86730
435.994	-0.11394	-0.90421	-0.13059	1.58032
439.996	1.40184	-2.38534	-1.38091	0.84909
443.993	2.03729	-3.36803	0.29170	0.42575
447.998	2.61491	-2.85591	-1.18817	-1.00182
451.996	1.04759	-0.68882	-1.20083	0.49281
455.992	1.49631	-1.72968	0.29565	1.58711
459.996	-1.32369	-0.35050	-1.22727	2.97707
463.995	-0.40668	-0.16606	0.42931	2.01607
468.000	1.11318	0.74045	-0.36352	2.44204
471.997	1.51159	0.04124	1.04458	2.05323
475.998	2.47712	-1.00157	-3.00287	1.48549
480.012	-1.47345	0.62604	0.87503	1.43840
483.992	1.19083	4.15980	-0.35069	1.19793
487.997	-1.08867	0.26894	-1.24783	2.13848
491.995	-1.75557	-1.73851	0.19184	1.09084
495.995	3.07288	-0.64418	-1.30258	1.84523
499.987	-0.78977	0.70780	-0.96351	1.29943
503.997	-0.31359	0.72699	-1.33416	1.35823
508.002	2.60270	0.16326	-1.08453	1.22766
511.995	0.48614	0.77040	-1.01650	2.74382
515.994	5.23745	1.54589	-1.02925	1.38601
519.996	2.58083	-1.55099	-0.43569	2.18565
523.991	2.23856	-0.58729	-1.69686	1.34132
527.990	0.76779	0.67757	-1.61513	1.45194
531.993	-1.45832	-0.83443	-4.19578	0.58681
535.996	0.10657	0.48872	0.00447	-2.68971
539.991	0.35613	1.39801	-0.70173	0.93042
543.991	-0.25177	1.53726	-1.34591	3.15786
547.991	-0.22467	1.32690	-1.04188	2.62409
552.000	-1.32689	1.40771	1.74233	1.38853
555.995	1.07909	0.06728	-0.74580	2.50582
559.990	0.51885	1.26685	-1.27812	4.98766
563.991	-0.86992	0.89601	-0.95785	2.94562
567.994	-0.53850	0.90266	-0.89647	3.50833
571.994	0.15496	1.00996	-0.52317	3.29651
575.996	0.45753	1.61000	1.92723	3.19814
579.995	-0.27604	1.23013	-0.95956	4.16815
583.994	-0.33191	0.98386	-0.44797	3.51179
588.021	-0.54620	1.17351	-1.25600	4.59871
592.000	0.41837	2.02587	-0.39559	3.14832
595.991	-0.70218	1.26470	0.75915	3.05670
599.993	0.84870	0.98010	-1.35085	5.03531
603.988	-0.75980	1.80275	-1.40160	4.80117
607.993	-0.98638	1.58715	-0.39060	3.12266
611.994	-1.27611	1.67680	-0.18157	2.83621
616.021	-1.29720	1.51769	-0.67764	3.31720
619.997	-1.36586	1.26033	0.93103	2.38013
623.991	-1.27785	-0.33689	0.33511	2.41870
627.989	-1.24957	0.45467	0.68476	1.43046
631.998	-1.00015	0.50932	-0.31228	1.84265
636.001	1.76663	0.14927	-0.79625	0.61585
639.994	2.44232	-1.23716	-0.55625	0.95286
643.991	2.93871	-0.65562	-5.84247	0.83244
647.990	3.14996	-1.58474	0.26158	1.09339
651.990	3.20278	-0.97919	-0.55195	0.93542
655.990	3.09406	-1.85320	-0.19199	0.85929
659.987	4.90548	-1.04329	0.21365	0.91809
663.988	-0.36757	-0.66989	0.18968	0.85909
667.993	5.41020	-0.49421	-3.60865	-1.01947
671.991	-0.31833	-0.77186	-0.60550	-0.14504
675.995	-0.39998	-1.35946	-2.77730	0.87863
679.988	0.33240	-0.94044	-0.77900	0.95875
683.991	0.07227	-1.05912	-0.64397	0.38300
687.990	0.21105	-2.39978	0.21800	0.89143
691.994	0.08517	-1.71500	-0.97350	3.84328
695.991	0.66873	0.40359	-1.19837	6.19306
699.990	1.64980	-0.92425	-0.46912	1.13959
703.993	2.42882	-0.61856	-0.37762	1.19085
707.988	3.25441	-0.51899	-0.47165	1.01182
711.990	2.95079	-1.43705	-0.23266	1.39340
716.002	2.93549	-1.30614	-3.05031	2.25351
719.989	3.51028	-2.95367	-0.87064	1.43102
723.992	5.52470	-1.70086	-0.51433	1.48914
727.986	5.91283	-2.95629	-4.17771	1.09818
731.993	5.93839	-2.67964	-1.83248	2.51563
735.992	6.55271	-2.79423	-3.43229	1.72588
739.986	2.01590	-0.73506	-0.78387	2.28626
743.993	5.27041	-0.79060	-0.47545	1.56741
747.990	5.83888	1.07056	0.60684	1.78747
751.987	0.36390	-1.31632	0.91907	2.28199
755.998	0.47664	-0.58563	-0.27694	2.50471
759.992	6.42334	0.76186	-1.54706	2.50822
763.992	0.66786	-0.84721	-0.96668	3.31941
767.993	0.78280	-0.64505	0.06304	2.86855
771.990	1.57892	-0.60150	0.13084	2.94825
775.992	1.92694	-0.80969	0.38881	2.98056
779.990	0.22519	-1.06326	-0.23147	2.81878
783.988	-3.09998	-0.78153	0.09331	2.72295
787.990	-2.10833	-0.93776	0.10845	2.84673
791.992	-1.67159	-1.15077	0.32593	2.81238
795.988	-2.41264	-0.58806	-0.19452	2.59946
799.996	0.88994	-0.75555	0.72300	0.88819
803.988	-0.98993	1.92435	-0.20951	0.17573
807.988	-1.87379	-0.66291	0.23966	2.28360
812.007	3.72773	-1.20100	-0.87701	1.91605
815.988	-1.72351	0.57855	-3.96491	2.39426
819.990	-4.47274	-0.26584	-7.33486	2.64515
823.865	-3.09371	-0.09692	-4.14683	2.66344
827.858	-4.81717	-1.03625	-6.14621	2.34268
831.865	-7.35288	-1.29349	-6.44410	2.54761
835.862	-4.84477	0.18585	-8.18410	2.82439
839.861	-5.36607	1.01073	-7.56881	2.68735
843.865	-7.19141	0.45009	-7.79152	2.90139
847.868	-7.55579	0.20056	-7.92685	2.98106
851.865	-7.24200	0.29152	-7.67421	3.08205
855.860	-7.33896	0.38698	-7.69588	2.82077
859.864	-7.54854	0.36871	-7.74627	2.69969
863.861	-7.45838	0.43472	-7.77885	2.02877
867.864	-7.35629	0.83951	-7.66519	2.28839
871.860	-7.36537	0.10010	-7.54974	2.11596
875.866	-7.25680	0.41177	-7.44935	2.11731
879.862	-7.08014	0.19530	-7.19422	1.90583
883.861	-7.32185	0.43071	-6.83284	1.28644
887.869	-7.16791	-0.72639	-6.23346	1.36242
891.863	-7.05340	-1.74108	-6.12359	1.50897
895.867	-7.04892	0.37312	-6.62608	1.78678
899.867	-7.18909	-0.06050	-6.46103	1.81655
903.860	-6.97008	0.44469	-6.75891	1.65341
907.858	-6.81272	0.36650	-6.77281	2.22387
911.865	-6.73196	0.46354	-6.82572	1.85373
915.861	-6.46762	-2.53687	-6.68886	1.84360
919.859	-6.68090	-0.70025	-6.58516	2.04006
923.860	-6.82464	-1.36002	-6.58215	2.15739
927.866	-6.63666	-0.41538	-6.55136	2.49762
931.867	-6.77284	-0.62538	-6.55802	2.39535
935.861	-6.81617	-0.42063	-6.82657	2.38364
939.864	-6.78182	-0.49339	-6.84245	2.60585
943.860	-6.63673	-0.60339	-6.96502	2.89537
947.862	-6.71099	-0.36796	-7.19825	3.54100
951.859	-6.88436	-0.25358	-7.31848	3.67599
955.889	-6.78666	0.01587	-7.34609	3.19497
959.871	-6.64334	0.05393	-7.59007	3.74016
963.860	-6.83516	0.68026	-8.95944	6.51739
967.866	-6.91933	0.92919	-7.12283	2.93828
971.867	-6.92493	0.85591	-7.63720	2.94640
975.863	-9.03982	0.08005	-7.54101	2.66036
979.857	-9.73680	0.82792	-7.63708	2.30420
983.858	-8.74195	1.33141	-8.48585	2.68323
987.861	-9.17786	1.47019	-7.43308	2.49901
991.862	-8.54668	1.86700	-7.45645	1.88268
995.856	-6.73471	1.62242	-7.10734	2.83144
999.864	-6.55302	1.99682	-7.24070	2.44463
1003.862	-6.75769	1.25310	-6.48935	2.48026
1007.861	-6.37996	0.93782	-3.72259	2.58675
1011.865	-6.71921	0.84730	-4.22177	3.34868
1015.861	-6.58545	0.00605	-4.06322	2.60299
1019.860	-6.52515	0.10663	-4.12745	2.14377
1023.887	-6.49991	0.98010	-4.44040	2.45673
1027.901	-6.40900	0.90449	-5.05176	2.49374
1031.858	-5.61389	1.50900	-6.57749	2.70927
1035.861	-5.86246	0.82460	-7.02832	2.60643
1039.859	-6.16449	0.07678	-8.59599	2.67111
1043.859	-6.20803	0.27678	-7.59493	2.84890
1047.863	-6.38199	0.94073	-8.36239	2.00752
1051.857	-6.53588	1.04953	-7.79371	2.65004
1055.863	-6.64143	1.35957	-7.92765	2.62408
1059.858	-6.75864	1.82041	-8.35146	3.11177
1063.861	-5.87909	1.33233	-8.00618	5.09083
1067.858	-6.14091	1.56317	-7.63740	3.48897
1071.858	-6.13444	1.73209	-7.85329	5.11210
1075.856	-6.17975	1.73414	-7.73048	5.19024
1079.857	-6.44978	1.82929	-7.15584	3.25722
1083.860	-6.28543	0.78760	-7.21059	3.33729
1087.856	-6.20634	0.50629	-7.44345	2.62978
1091.856	-6.21156	0.07801	-3.48897	3.27164
1095.869	-6.15406	0.07399	-3.41884	2.59617
1099.867	-6.08438	0.08110	-3.97341	2.84057
1103.858	-5.97904	-0.02637	-4.06278	1.24811
1107.860	-6.10922	0.03899	-4.63213	2.39553
1111.859	-6.16000	0.00828	-5.07377	1.88904
1115.857	-6.19969	-0.00222	-5.88243	1.98779
1119.859	-6.22471	-0.00620	-6.28580	2.57968
1123.857	-6.26829	0.12674	-6.89275	2.02049
1127.859	-6.32699	0.35517	-6.96690	2.18809
1131.856	-6.45603	0.11309	-6.89458	3.61797
1135.868	-6.47676	0.07750	-7.20729	4.42293
1139.863	-6.17111	0.29532	-7.13251	4.07079
1143.864	-6.08313	0.44075	-7.14824	4.45742
1147.859	-6.08139	0.61830	-6.96812	4.25433
1151.858	-6.26691	0.44492	-6.96164	2.42465
1155.856	-6.82288	-0.09388	-7.62955	3.91851
1159.860	-6.25740	0.23570	-7.11261	3.03622
1163.858	-7.93527	0.50740	-3.89629	3.15619
1167.856	-6.24114	0.60594	-6.03132	2.20877
1171.858	-6.53771	0.79829	-5.16428	3.63869
1175.863	-6.28746	0.71778	-5.31595	1.71991
1179.862	-6.19817	0.90275	-5.24390	1.82308
1183.860	-6.20033	0.70978	-6.33954	1.62156
1187.854	-6.32088	0.53067	-6.52642	2.27278
1191.861	-6.35959	0.55841	-6.95254	2.94150
1195.857	-6.45733	0.71384	-7.01521	3.27087
1199.860	-6.43888	0.79245	-7.25682	2.59319
1203.861	-6.43216	0.75876	-6.92926	5.55488
1207.856	-6.34765	0.83193	-6.94521	5.33990
1211.859	-6.32735	0.81692	-7.20008	6.02605
1215.855	-6.26794	0.79627	-7.35725	4.69502
1219.864	-6.47206	0.69689	-7.04670	1.85052
1223.859	-6.39636	0.66255	-7.13632	2.72345
1227.856	-5.99598	1.58218	-4.73451	6.00857
1231.857	-4.48517	3.46380	-4.95721	7.24552
1235.859	-3.63527	0.84058	-2.05789	4.60157
1239.854	8.37082	0.79108	-1.79757	5.07720
1243.855	4.90957	4.11940	-0.68489	5.20397
1247.859	4.90863	4.29451	-1.25215	5.99026
1251.857	4.82400	4.64971	-1.27160	5.97098
1255.915	3.58217	4.35681	-0.91726	5.01274
1259.858	3.19947	6.78502	-1.59822	4.82161
1263.872	8.64352	1.16183	-1.61441	5.30541
1267.857	5.37190	3.50588	-1.47640	5.20148
1271.855	4.58543	4.71894	-1.44783	4.88890
1275.855	3.18168	4.85369	-2.60017	4.73427
1279.857	0.81796	5.08001	-1.27559	5.43157
1283.853	4.81441	4.89347	-1.19626	5.26416
1287.859	4.88776	5.18492	-1.43265	5.69851
1291.854	4.85349	5.15970	-1.27001	5.28616
1295.853	8.95535	1.15403	-1.24067	4.71063
1299.855	4.77880	5.10275	-1.49468	4.53686
1303.857	4.16292	4.52288	-1.19257	4.54224
1307.853	3.86289	4.23524	-1.15508	4.47489
1311.891	2.28881	5.31021	-1.50026	5.07704
1315.864	2.56391	4.03244	-1.86402	4.93033
1319.855	1.86340	5.31013	-3.91800	4.50793
1323.854	1.59043	4.74597	-1.28028	4.41495
1327.859	4.82446	3.79071	-1.41504	4.30317
1331.852	4.48776	1.00016	-1.23774	4.18763
1335.853	4.31121	1.65274	0.33444	3.84564
1339.854	3.56062	0.03740	-0.02946	4.21863
1343.857	3.74607	0.12415	-0.82124	4.07202
1347.855	1.32714	0.09708	-1.25257	4.14574
1351.851	5.61716	-2.09000	3.90654	0.23919
1355.853	0.61039	-0.00432	3.81239	-0.45407
1359.856	0.69511	0.40826	3.95649	-4.57655
1363.857	3.81867	0.33139	3.84980	-4.52877
1367.859	6.14403	-2.02883	3.80471	-4.48818
1371.856	1.06317	1.06552	3.51384	-5.19173
1375.854	0.91691	1.72446	3.14103	0.13269
1379.849	3.42720	5.32598	2.65763	-0.11398
1383.859	1.41869	5.46675	2.56218	-0.09272
1387.860	0.72533	4.98100	1.89317	-0.18537
1391.856	0.45502	4.59300	2.68613	-0.24055
1395.853	-0.16605	2.20193	2.18049	-0.20183
1399.853	4.06288	2.35505	2.33683	-4.55458
1403.857	4.16290	2.81118	1.57669	-5.66889
1407.849	-0.23152	4.63194	1.84709	-5.22751
1411.858	-0.54476	2.94270	1.43255	-5.28295
1415.856	-0.47557	0.56784	1.64595	-5.48397
1419.856	-0.24743	0.94154	1.09490	-0.40481
1423.852	1.79051	0.59339	0.99477	-0.56842
1427.857	-0.12081	2.64083	0.82148	-0.86216
1431.851	-0.43001	1.01575	0.67268	-0.81693
1435.867	-0.59920	1.93987	0.57647	-1.01426
1439.851	-0.80501	1.82050	0.29374	-1.51336
1443.854	0.11049	2.56257	0.16844	-2.53481
1447.853	3.07157	1.05187	2.97829	-3.46692
1451.890	2.05063	5.41625	2.10461	0.48611
1455.855	-0.57151	1.76988	2.49887	-0.00988
1459.857	-0.50952	3.11076	1.57109	-1.08453
1463.851	3.96488	2.28766	1.93695	-1.83252
1467.849	3.58682	1.48898	1.87309	-0.70481
1471.854	3.37390	2.03733	1.38597	-3.12531
1475.857	3.04350	1.93709	1.03831	0.64855
1479.856	-0.96140	1.70299	0.20787	0.13983
1483.850	-0.78493	1.39249	0.65039	-0.11176
1487.846	-0.29230	1.60804	0.29282	-1.04808
1491.849	0.95589	1.90903	2.85336	-2.34712
1495.851	-0.52153	1.77637	1.79222	0.69016
1499.878	-0.23242	1.79510	2.28663	-0.05778
1503.861	-0.55481	1.37626	1.50695	0.16986
1507.850	3.63171	1.76076	1.61634	-1.25979
1511.864	3.78741	2.12957	1.35876	-2.36098
1515.855	3.46733	1.49031	1.75887	-2.48923
1519.849	3.14884	1.73968	1.82472	-5.62008
1523.850	0.45338	1.60407	-1.16240	-0.95877
1527.853	-0.26058	1.29513	0.45150	0.10424
1531.851	-0.64397	0.29650	-0.27803	-1.56583
1535.848	-1.03312	1.42214	-0.18809	-1.51131
1539.853	-0.56870	1.76419	2.32137	-2.16667
1543.850	1.69847	1.54017	1.95361	-2.53536
1547.853	1.19257	3.53067	2.05705	-2.94805
1551.852	0.82642	1.93236	-2.18136	4.93731
1555.858	2.63824	1.94603	1.44455	4.60445
1559.851	1.90658	1.57509	-0.43693	6.28486
1563.851	2.73462	6.73639	1.90666	6.51788
1567.882	3.08933	2.37070	4.93442	0.88373
1571.850	4.91159	3.34426	3.47759	7.23763
1575.851	5.65167	3.81882	4.17833	7.64958
1579.853	5.75718	5.95009	4.12443	7.69079
1583.850	5.83716	6.05025	4.15969	7.88275
1587.850	4.99918	5.75341	4.20425	7.81202
1591.850	4.92992	5.12539	4.07355	7.93179
1595.860	4.85418	5.13560	4.19667	7.94195
1599.852	4.70660	4.38157	4.06999	7.91724
1603.855	4.53322	4.96437	4.07221	7.95541
1607.849	4.63560	4.41838	4.07056	7.98333
1611.853	4.58528	4.93901	4.12058	7.98141
1615.849	4.40715	4.39580	4.13473	8.03000
1619.848	4.37152	4.67493	4.17129	8.05254
1623.847	4.35156	4.65908	4.18435	8.10505
1627.853	4.27728	4.40097	4.13626	8.09233
1631.850	4.15490	3.52252	4.18978	8.08945
1635.863	4.16307	4.56536	4.23624	8.10139
1639.860	4.13352	4.60853	4.31556	8.15479
1643.857	4.13369	4.65591	4.28552	8.22468
1647.852	4.11700	4.56477	4.40813	8.26772
1651.852	4.08495	4.35384	4.32106	8.38285
1655.849	4.09340	4.46765	4.34263	8.53376
1659.855	4.15529	4.59870	4.35812	8.58578
1663.851	4.15991	4.47521	4.33053	8.19354
1667.906	4.28582	4.41355	4.22170	8.01750
1671.852	4.29285	4.54909	3.76999	7.66988
1675.725	4.76542	4.19408	3.62153	7.54638
1679.723	4.55213	5.86619	3.96866	7.39175
1683.725	7.19652	3.94442	3.87912	7.13833
1687.725	7.34421	3.98112	3.75301	7.04492
1691.723	7.05440	3.88969	4.19578	6.79846
1695.725	7.41104	4.22758	3.42104	7.26408
1699.721	4.96467	4.62370	3.92729	7.47172
1703.724	4.84442	8.74767	3.83557	7.20381
1707.729	2.26294	4.35715	3.71814	7.15871
1711.722	2.86789	5.00423	3.49480	7.29766
1715.723	4.61630	4.49435	3.63520	7.36848
1719.721	4.96849	4.34050	3.80194	7.49651
1723.730	6.03677	4.17745	4.06861	7.41254
1727.727	6.78975	4.45356	4.20178	7.12637
1731.725	7.11894	4.26536	3.97271	6.46084
1735.728	7.63618	4.76566	3.92685	6.18955
1739.723	1.61052	8.27401	3.83453	7.30434
1743.724	2.18981	4.45924	3.86022	7.34682
1747.719	5.14338	4.55282	3.71669	7.52448
1751.726	5.33719	4.62513	3.84532	7.69427
1755.723	6.05687	4.66002	3.79119	7.83445
1759.723	8.03136	4.39335	4.61610	7.55303
1763.720	7.53786	4.36077	4.43988	7.68362
1767.727	7.40472	4.27612	4.49684	5.62480
1771.727	7.95336	4.21344	4.65553	5.93565
1775.724	3.86862	7.44820	3.53765	7.47549
1779.717	5.21875	4.63718	3.61824	7.43236
1783.724	3.58709	4.91170	4.22155	6.32478
1787.723	4.37719	4.88074	3.83329	7.66024
1791.723	4.56498	4.61038	4.47474	7.54789
1795.720	4.61867	4.11885	4.59179	7.42991
1799.723	4.98337	4.64485	4.71634	7.58995
1803.722	4.24623	5.11577	4.40530	7.71330
1807.731	4.33929	5.05910	4.09011	8.01100
1811.727	4.51721	4.91763	3.58910	7.28865
1815.723	5.69254	5.37772	3.61023	7.26125
1819.723	4.69026	5.00712	3.52512	7.12433
1823.719	3.66258	5.19922	4.18758	6.62749
1827.723	4.45703	5.23094	3.87593	7.13125
1831.724	4.43830	5.20759	4.00687	7.13107
1835.722	4.34852	5.47015	4.19097	6.93874
1839.728	4.28663	5.39955	4.16529	6.87993
1843.724	4.21456	5.51083	4.06851	6.93553
1847.719	4.16796	5.31657	3.81360	7.26641
1851.729	4.38879	5.04004	3.46209	7.11291
1855.722	5.42545	5.20362	3.79176	7.21327
1859.724	5.07656	5.08609	3.87774	7.56860
1863.720	5.05580	5.21538	3.81397	7.70269
1867.719	5.05683	4.73389	3.81753	7.86638
1871.722	4.58365	4.23280	4.00047	7.82474
1875.724	4.74434	5.00150	4.12011	7.83041
1879.721	4.95085	5.07016	3.95673	7.97960
1883.723	4.91366	4.91779	3.99176	8.04404
1887.726	4.80884	4.64667	4.21123	7.98274
1891.724	3.79144	4.58400	4.22982	7.91320
1895.723	4.94046	4.90722	4.28036	8.15406
1899.719	4.82397	6.74610	5.90762	7.28595
1903.722	5.24988	4.75986	5.60312	7.11448
1907.721	5.23487	5.48836	4.44136	7.74338
1911.724	4.76938	4.68437	4.48752	7.84136
1915.718	4.49023	4.85218	4.53332	7.69431
1919.721	5.90728	4.65363	5.81295	7.45956
1923.717	5.77205	4.72000	4.53080	7.60184
1927.723	6.30551	5.70605	4.42834	7.60307
1931.723	5.73040	4.62136	4.51129	7.74343
1935.720	5.49409	4.63175	4.81924	7.31653
1939.722	5.76986	4.44766	4.00215	7.67077
1943.717	5.42210	4.37072	4.36737	7.67280
1947.721	4.80901	4.05268	5.00159	7.61226
1951.715	5.02423	7.75784	6.27111	7.16466
1955.720	6.92963	4.67414	7.10250	6.40595
1959.719	7.87516	3.72740	9.24607	4.49114
1963.716	9.00804	3.15479	11.15594	2.24570
1967.721	10.15369	2.10086	12.56805	2.10391
1971.717	9.81720	2.27684	12.05886	1.79677
1975.725	12.51877	1.46423	11.37550	0.64583
1979.729	11.96543	1.43110	11.44957	0.84480
1983.724	11.70307	1.37110	9.48806	1.02986
1987.718	14.66257	0.79137	9.42274	1.21049
1991.716	12.40195	0.79421	15.62125	0.59630
1995.716	12.71476	0.58755	12.92741	3.23691
1999.715	12.68120	0.97069	13.09466	2.84669
2003.717	11.90718	1.00345	12.75932	2.75264
2007.719	11.88114	1.29161	12.36198	3.18819
2011.718	10.70337	1.12479	11.21059	3.12976
2015.740	13.65645	0.54857	10.19115	3.11275
2019.726	11.74787	0.67514	10.21459	3.17732
2023.716	11.71839	0.59412	9.90323	3.22884
2027.721	11.53198	0.69192	9.83151	3.36440
2031.719	11.17099	0.87972	9.78153	3.39565
2035.716	10.90856	0.84977	9.72956	3.41861
2039.722	10.57562	0.75854	9.75466	3.52149
2043.715	10.69798	1.36225	9.68816	4.19856
2047.719	11.16301	1.54041	9.74044	4.14999
2051.723	11.74408	0.97268	9.83098	4.16908
2055.717	11.88492	0.95363	9.63139	4.75453
2059.724	11.74311	1.29204	9.63344	4.53571
2063.716	11.32925	1.64411	9.65438	3.99755
2067.720	11.95249	1.05651	9.63744	4.13491
2071.717	11.40601	1.16678	9.64519	4.20575
2075.719	11.99806	1.08162	9.62376	4.19863
2079.722	12.05072	1.13031	9.69477	3.94929
2083.719	12.09045	1.15582	9.67924	3.68793
2087.716	11.95448	0.59755	9.80359	3.28210
2091.715	12.04498	0.68827	10.00779	3.25133
2095.715	12.09413	0.87695	9.84370	3.14874
2099.723	11.93698	0.82793	9.87526	3.41931
2103.753	11.88967	0.98256	9.77139	3.20242
2107.718	11.93648	0.96633	9.97842	3.29006
2111.713	11.95819	0.83591	9.81744	3.28709
2115.715	11.94878	0.90351	10.02273	3.37936
2119.714	11.92990	0.92391	10.02333	3.52576
2123.716	11.81898	1.02836	10.14768	3.39168
2127.717	11.87558	1.00802	9.92919	3.60051
2131.713	11.84729	1.03465	9.99424	3.78691
2135.717	11.87334	1.21611	10.07273	3.85515
2139.718	11.80576	1.13941	10.07870	4.08257
2143.720	11.82164	1.26279	10.20060	4.02865
2147.711	11.86952	1.26262	10.16747	3.90417
2151.718	11.92258	1.16096	10.10526	4.06383
2155.715	11.65308	1.21423	10.21353	4.13572
2159.717	11.80336	1.15967	10.13114	4.14583
2163.713	11.62785	1.21009	9.96191	4.26954
2167.718	11.64428	1.02592	9.90532	4.33609
2171.716	11.75472	1.14616	9.98658	4.43976
2175.716	11.76157	1.14628	10.07608	4.50779
2179.768	11.69536	1.12585	10.10502	4.61347
2183.725	11.47336	-0.12848	10.32628	4.48031
2187.715	11.60499	1.03994	10.12065	4.78154
2191.716	11.68150	1.19643	10.11445	4.90664
2195.713	11.64561	1.17359	10.43683	4.76416
2199.715	11.76378	-0.62377	10.31991	4.95120
2203.717	11.88482	0.91058	10.52214	4.26324
2207.714	11.85671	1.31722	10.93739	3.01237
2211.716	15.15205	-0.34265	10.55742	3.77058
2215.715	15.09541	0.00581	10.58150	2.74114
2219.713	15.07121	0.23274	10.54221	2.92589
2223.722	14.79700	-0.38718	10.60430	2.42384
2227.715	14.80540	-0.26748	10.47007	2.37225
2231.715	11.74599	4.32446	10.25317	2.66524
2235.718	5.85409	5.34331	10.24298	2.66091
2239.713	6.79545	5.08952	10.04032	2.63864
2243.715	6.81104	5.10627	10.07870	2.65278
2247.725	6.76070	5.07096	9.56786	2.66694
2251.718	6.91618	5.18666	9.56682	2.82544
2255.715	6.91542	5.34931	9.41308	2.71687
2259.716	7.18328	5.14344	9.34814	2.60241
2263.713	7.15349	5.16791	9.23319	2.63577
2267.723	7.07757	5.24257	9.20888	2.67528
2271.713	7.21809	5.15319	9.14699	2.77041
2275.717	6.89351	5.18659	9.04998	2.71139
2279.714	7.27228	5.07056	9.00758	2.77097
2283.716	7.05736	4.98146	8.90175	2.61436
2287.712	7.37724	4.92102	8.90831	2.70226
2291.717	7.30647	4.90379	8.90601	2.76285
2295.714	7.14453	4.64237	8.89051	2.72419
2299.716	7.36242	4.52083	8.85933	2.63966
2303.713	7.47095	4.46200	8.88135	3.01321
2307.727	7.39198	4.58273	8.96753	3.38164
2311.733	7.47895	4.42323	8.94510	3.24206
2315.721	7.51900	4.35765	8.96743	3.55313
2319.717	7.50212	4.09498	9.04543	3.49748
2323.711	7.50935	3.90472	9.09464	3.44974
2327.712	7.46260	3.83210	9.15485	3.31908
2331.714	7.43918	3.99247	9.21996	3.63580
2335.716	7.45950	3.61310	9.16315	3.49257
2339.712	7.41419	3.75877	9.19425	3.60950
2343.715	7.41951	3.86411	9.16511	3.63895
2347.721	7.32610	3.71887	9.13233	3.79322
2351.716	7.35788	3.54740	9.05732	3.68582
2355.709	7.23467	3.51997	9.01227	3.68168
2359.714	7.22502	3.42177	8.96811	3.68328
2363.713	12.54240	3.36511	9.05662	3.72813
2367.712	12.44929	3.20162	9.00077	3.75744
2371.709	12.50172	2.87583	9.07806	3.63184
2375.714	12.46746	2.72929	9.21234	3.62451
2379.711	12.33004	3.03733	9.20833	3.70944
2383.725	12.42707	3.03199	9.40774	3.99936
2387.714	12.30438	2.78227	9.52743	4.02289
2391.719	12.29021	2.60933	9.36162	5.17226
2395.712	12.15296	2.71588	9.49579	5.36152
2399.713	12.32340	2.61847	9.45276	5.68462
2403.712	12.08024	2.49035	9.38600	5.97401
2407.713	12.10663	2.40021	9.40347	5.77423
2411.709	12.34110	2.18042	9.34084	5.70244
2415.713	12.03657	2.45787	9.26225	5.88595
2419.711	12.08013	2.20806	9.19491	5.81958
2423.712	11.95289	2.11606	9.10548	5.81603
2427.709	11.87320	2.05844	8.94651	5.75366
2431.718	11.81543	1.81739	9.01668	5.75913
2435.717	13.08230	0.63802	9.11404	5.69574
2439.713	11.73952	1.49570	8.98395	5.61276
2443.710	14.61831	0.30969	8.99593	2.83533
2447.709	11.00989	1.56503	9.04645	5.29176
2451.723	11.57579	0.13496	9.41199	4.08505
2455.715	12.20330	-3.33922	10.70799	1.89795
2459.710	12.15562	-1.87912	10.82648	1.07617
2463.711	12.46370	-2.93937	11.12032	1.52523
2467.713	14.93552	-3.24427	11.20882	1.16617
2471.714	14.75398	-3.18428	11.32822	1.16890
2475.712	14.35708	-3.09308	11.17417	1.07037
2479.719	14.62408	-3.16924	11.14433	1.27126
2483.713	14.58578	-3.44452	11.23853	1.36836
2487.713	13.74036	-3.38910	11.42828	1.34121
2491.709	14.06333	-2.94493	11.60125	1.11847
2495.715	14.06023	-2.78025	11.56460	0.90460
2499.711	13.97026	-2.86257	11.61561	1.22878
2503.712	13.83680	-2.46437	11.63654	1.08291
2507.709	14.00466	-2.40001	11.33967	1.21990
2511.714	13.64980	-2.52671	11.55009	1.05820
2515.717	13.30700	-2.90008	11.20216	0.97852
2519.724	13.60714	-2.69840	11.07350	1.17943
2523.747	13.58873	-2.52946	11.27166	1.29282
2527.708	13.72645	-2.44452	11.40841	1.29081
2531.586	13.89660	-2.31909	11.49283	1.39406
2535.585	13.50706	-2.80192	11.59139	0.98533
2539.583	13.48103	-2.32258	11.39494	1.80859
2543.582	13.99592	-2.58081	11.17756	1.72898
2547.584	14.15552	-3.11054	11.23714	1.95223
2551.582	13.74952	-3.56204	11.48895	2.08496
2555.580	13.34155	-3.04201	11.37667	2.00503
2559.581	13.30336	-2.70197	11.22394	2.16128
2563.589	12.71502	-2.43437	11.28739	2.35951
2567.585	12.98758	-2.45355	11.51654	2.09691
2571.581	12.50536	-2.77568	11.22778	2.36801
2575.586	12.94957	-3.13928	11.53482	2.24632
2579.587	12.60734	-7.82446	11.18967	2.30662
2583.580	12.63128	-3.06545	11.29610	2.05401
2587.605	12.61382	-3.00269	11.23442	2.28262
2591.585	12.58583	-3.01775	11.55814	2.11627
2595.579	12.66549	-3.03869	11.63973	1.63199
2599.586	12.58907	-3.16079	11.15112	2.40263
2603.588	12.58680	-2.29909	11.58625	2.33805
2607.582	13.16358	-6.70451	11.26739	2.31987
2611.581	14.59705	-6.52493	11.77099	2.21092
2615.584	12.79480	-2.85313	11.68438	2.30392
2619.584	13.06077	-2.27746	11.49524	1.96694
2623.583	14.95327	-6.30710	11.42868	2.23133
2627.579	13.29528	-2.59933	11.49219	2.23288
2631.585	12.83826	-2.14765	11.45200	2.24438
2635.585	14.93471	-5.79541	11.60035	2.31110
2639.586	16.20739	-6.50497	11.61289	2.15735
2643.584	16.85653	-6.49264	11.69926	1.94277
2647.588	16.24121	-6.41207	11.69031	1.81909
2651.582	13.39999	-6.30875	12.03501	1.97294
2655.586	15.22726	-6.15941	11.89217	1.69228
2659.583	14.91033	-6.17682	12.04322	1.51222
2663.581	15.97654	-6.36518	12.15168	1.63514
2667.582	14.44699	-6.41186	12.11875	1.46753
2671.580	13.24127	-6.06657	12.19107	1.38368
2675.582	14.88894	-5.95730	12.29114	1.31686
2679.578	14.94465	-6.20282	12.14146	1.24977
2683.579	12.58777	-2.59359	12.20292	1.17723
2687.589	14.62740	-6.03631	12.28301	1.11061
2691.583	12.68399	-2.58272	12.17568	1.08795
2695.583	14.16597	-5.93761	12.32179	0.93598
2699.578	14.56781	-5.82008	12.21674	0.88192
2703.583	13.83159	-5.89477	12.26503	0.79902
2707.582	14.75245	-5.82469	12.18953	0.87938
2711.580	15.11930	-6.00494	12.19173	0.81039
2715.580	13.29927	-2.47393	12.13073	0.79092
2719.584	13.16885	-2.40688	11.92047	1.05928
2723.588	12.84890	-2.56298	11.90096	0.89419
2727.587	12.69578	-2.44495	11.83790	1.30297
2731.585	13.17433	-2.27146	12.02777	1.49399
2735.582	13.04514	-2.11096	12.06199	1.04838
2739.582	12.93802	-2.00344	11.99889	0.83831
2743.580	13.05401	-1.84036	12.13998	0.95581
2747.615	13.04780	-1.79356	11.16748	1.77534
2751.580	13.15113	-1.65099	11.16258	1.25057
2755.582	13.02026	-1.38712	11.94798	1.61133
2759.577	12.81360	-1.68609	11.12794	1.68367
2763.599	12.89725	-1.66905	11.24951	1.51839
2767.584	13.12192	-1.53379	11.11953	1.67973
2771.583	13.08192	-1.49106	12.22815	1.63656
2775.587	13.14720	-1.50307	12.42207	1.11994
2779.583	13.37134	-1.52463	12.52625	1.54758
2783.581	13.44515	-1.62101	12.54500	1.69773
2787.577	13.04664	-1.48421	12.78304	1.70123
2791.599	12.28725	-1.77139	10.99286	1.51210
2795.584	12.59966	-2.38395	11.19306	1.48071
2799.578	12.95973	-2.29967	11.59158	1.38136
2803.579	12.57238	-2.16758	11.46075	1.27334
2807.582	12.57401	-2.33947	11.32610	1.23435
2811.587	12.96024	-2.62233	10.88623	1.21404
2815.582	13.00130	-2.66420	11.90055	1.09161
2819.578	11.72113	-2.49267	11.51609	1.31488
2823.583	11.74903	-2.55795	11.55657	1.29099
2827.580	12.82677	-2.62858	12.32864	1.20596
2831.580	12.56881	-2.53639	11.56643	1.18787
2835.580	12.39056	-2.50875	13.00796	1.01019
2839.579	12.37435	-2.22292	11.50043	1.37363
2843.578	12.30978	-2.17660	11.64718	1.19769
2847.582	12.47487	-2.42308	11.86662	1.26446
2851.579	13.13609	-2.23777	11.70587	1.25977
2855.585	13.20531	-2.59003	10.59498	1.55225
2859.615	11.25894	-0.76330	11.37557	1.12049
2863.588	7.17705	-0.28291	9.74538	1.87685
2867.583	4.57571	0.28847	5.04011	3.72429
2871.580	6.19486	0.08834	4.02053	2.63566
2875.580	4.57004	0.15174	0.50890	3.36809
2879.578	-1.18778	-0.10882	-6.13876	3.68576
2883.580	-1.44386	0.18887	-3.27972	4.31916
2887.583	-1.88988	1.03685	-5.49246	3.34150
2891.578	-2.87623	0.47617	-5.98741	2.49023
2895.587	-5.87378	0.62810	-8.19786	2.29464
2899.583	-8.33025	0.45765	-9.07506	2.24029
2903.579	-9.73629	1.09898	-10.48567	2.85994
2907.576	-9.98509	1.07166	-11.93874	3.16306
2911.584	-10.63856	1.13482	-12.41578	2.75625
2915.578	-12.13114	1.04381	-13.88429	2.98738
2919.579	-12.77731	1.21212	-14.45886	2.48576
2923.577	-14.16739	1.07591	-14.16112	2.37414
2927.579	-14.18766	1.24737	-14.10926	2.45186
2931.582	-14.26921	1.44224	-13.90310	2.65728
2935.580	-14.31419	1.45644	-13.68593	2.66329
2939.586	-14.38372	1.22889	-13.70650	2.69387
2943.578	-14.11855	1.21010	-13.81858	2.46798
2947.579	-13.73479	0.98867	-12.95405	2.64931
2951.580	-13.14859	0.78405	-13.27196	-0.49538
2955.580	-13.10779	0.82573	-9.77474	-0.05603
2959.577	-13.51506	0.66295	-9.81672	-0.55619
2963.575	-13.42979	0.58177	-10.20257	-0.38413
2967.578	-13.29426	0.19726	-10.31374	-0.41903
2971.577	-13.44064	0.27059	-10.73691	-0.34631
2975.577	-13.25242	0.49701	-10.65462	-0.28086
2979.584	-13.27313	-0.10821	-11.01225	-0.31367
2983.579	-13.00785	0.22396	-13.35689	2.68726
2987.575	-12.89444	0.14863	-11.25168	3.11966
2991.576	-12.82408	0.14150	-11.07482	3.14833
2995.579	-12.72185	0.09664	-11.35537	3.17574
2999.576	-12.76222	0.24841	-13.94415	0.82672
3003.581	-12.62258	0.28448	-14.02162	1.11930
3007.575	-12.70589	0.42782	-14.18057	1.15606
3011.579	-16.54634	1.40389	-14.20038	2.06481
3015.579	-12.66436	0.66485	-14.25245	1.28755
3019.582	-12.65526	0.70973	-14.17980	1.35842
3023.578	-12.60491	0.71709	-13.95675	2.22508
3027.574	-12.62450	0.78984	-14.04659	1.74549
3031.578	-12.59557	1.07199	-14.02342	1.90241
3035.577	-12.57562	0.98496	-13.92533	1.80896
3039.574	-12.49415	1.29629	-13.84649	1.57069
3043.578	-12.44673	1.66339	-14.04414	1.18640
3047.575	-12.50101	1.76918	-13.94759	1.68499
3051.575	-12.55779	1.81134	-13.74868	1.69121
3055.578	-12.50368	1.53651	-13.91612	1.43618
3059.576	-12.52833	1.63153	-13.97419	1.26162
3063.582	-12.63655	1.63944	-13.93679	1.34287
3067.575	-12.61736	1.61771	-14.23319	1.17178
3071.578	-12.73595	1.54328	-13.48021	1.24073
3075.576	-12.95588	1.23028	-13.50105	0.99641
3079.577	-12.83342	1.54625	-13.48883	1.24571
3083.579	-13.08526	1.48523	-13.36492	1.87511
3087.575	-13.00990	1.50202	-13.83538	2.26236
3091.577	-12.94174	1.19358	-13.26770	2.83742
3095.580	-12.86117	1.20316	-13.37094	3.30189
3099.577	-12.76992	1.64812	-13.12477	3.27503
3103.579	-12.64732	1.14698	-13.23170	3.16955
3107.582	-13.18779	0.24455	-13.28503	2.88539
3111.576	-12.62937	1.01588	-13.42103	3.02732
3115.577	-12.45312	0.94732	-13.51156	3.16186
3119.573	-13.20470	1.48857	-13.32905	3.61833
3123.573	-12.47870	1.07190	-13.45986	3.60421
3127.576	-12.36009	1.12640	-13.50227	3.46014
3131.985	-12.26960	1.07212	-13.39436	3.55773
3135.584	-13.49350	1.10311	-13.44198	3.40596
3139.580	-12.37603	1.14826	-13.35409	3.69698
3143.584	-12.98400	0.69548	-13.46317	3.82474
3147.577	-12.33932	1.11382	-13.50762	3.69903
3151.573	-13.74451	1.10551	-13.62563	3.64697
3155.573	-12.83378	1.27885	-13.49314	3.64154
3159.572	-12.22082	1.27830	-13.34639	3.67427
3163.573	-12.45092	1.72111	-13.45057	2.89850
3167.572	-12.84748	1.39528	-13.42944	3.53328
3171.574	-12.36880	1.82377	-13.55006	3.29334
3175.606	-10.08892	1.66036	-13.31471	4.61098
3179.572	-11.86640	2.92373	-13.31135	5.45099
3183.576	-11.90079	5.16152	-13.67778	8.50743
3187.579	-12.66897	6.63897	-12.08770	11.84397
3191.572	-12.92814	9.39237	-13.92393	11.69091
3195.568	-12.98782	9.54910	-13.59412	11.57933
3199.611	-12.61651	9.36600	-13.68251	11.50834
3203.582	-12.96654	9.53589	-13.82712	11.36725
3207.576	-12.79352	9.54007	-13.75835	11.40886
3211.574	-12.94702	10.67006	-13.43108	11.11496
3215.574	-14.18543	9.24306	-13.55133	11.06272
3219.576	-14.95869	9.63452	-13.41746	10.99679
3223.571	NaN	NaN	-13.27746	9.00616
3227.578	NaN	NaN	-13.00424	10.20775
3231.571	-15.22645	13.00096	-13.09880	10.68625
3235.572	-14.99454	9.44089	-13.13421	9.43227
3239.574	-14.37319	12.87776	-13.07309	9.32345
3243.569	-14.30014	13.01150	-12.88749	11.93192
3247.569	-13.33297	13.04170	-13.10885	12.55643
3251.570	-14.22801	11.90930	-13.07980	13.42860
3255.571	-13.19070	12.43790	-13.22392	13.66497
3259.570	-14.63815	11.00892	-13.14364	13.43778
3263.637	-13.33377	12.99770	-13.15047	13.60356
3267.597	-13.20517	12.78862	-13.13185	13.49198
3271.581	-14.45216	12.08338	-12.96508	13.68184
3275.572	-13.08312	12.01550	-12.96753	13.73373
3279.574	-14.37855	13.22783	-13.08004	13.79975
3283.574	-13.97251	11.72429	-12.71469	13.75158
3287.571	-14.55386	11.68747	-13.03227	13.82265
3291.572	-14.47361	12.59819	-12.98888	13.89740
3295.569	-13.77570	11.88526	-12.84871	14.02491
3299.570	-14.33252	12.62691	-13.03333	13.82657
3303.570	-14.15997	12.65357	-12.92767	13.89032
3307.572	-14.10079	12.53200	-13.02582	13.83300
3311.574	-14.05126	13.32661	-13.00474	13.88902
3315.570	-13.75975	11.53170	NaN	NaN
3319.568	-13.98501	11.28320	-13.64874	14.22871
3323.570	-13.70584	11.56056	-13.14355	13.78288
3327.573	-13.87742	11.43194	-13.40126	13.33133
3331.576	-13.42956	11.09164	-13.62540	13.54942
3335.578	-13.83072	11.09967	-12.99804	13.83554
3339.573	-13.81574	10.52878	-13.11057	13.89789
3343.569	-13.95570	10.44984	-12.99156	14.00891
3347.577	-13.47564	10.89890	NaN	NaN
3351.576	-13.88464	10.68884	-13.23511	14.37781
3355.578	-13.76277	10.41216	-12.89541	14.12673
3359.567	-13.65952	10.06362	-13.05573	13.91909
3363.569	-13.92377	10.20323	-12.84227	13.91421
3367.570	-13.92503	9.98737	-12.73649	13.74330
3371.569	-13.82494	8.15758	-12.65236	13.77009
3375.566	-13.51034	8.14106	-12.63910	13.74132
3379.600	-13.94932	10.11994	-12.63189	13.66628
3383.443	-13.96035	8.29949	-12.62672	13.52495
3387.444	-13.54133	8.17891	-12.56902	13.53123
3391.446	-13.91189	10.18206	-12.55391	13.59099
3395.447	-13.59185	8.52978	-12.55744	13.39748
3399.447	-12.78661	9.04201	-12.52632	13.17493
3403.445	-12.51068	9.96051	-12.50389	13.56007
3407.446	-13.12352	9.95188	-12.56408	13.44307
3411.443	-13.28688	8.58515	-12.66188	13.50762
3415.446	-13.91303	10.33405	-12.57354	13.24092
3419.443	-12.80126	10.54999	-12.51768	13.52181
3423.450	-13.32435	10.27422	-10.94083	13.68240
3427.443	-12.81585	12.66310	-9.10664	13.14788
3431.442	-8.80059	11.14742	-7.99837	12.32478
3435.448	-8.80141	10.63101	-7.51447	11.70655
3439.451	-8.32262	10.97452	-5.38626	11.42274
3443.450	-7.92352	10.81159	-7.64040	11.81759
3447.440	-7.40211	11.14236	-7.65049	11.60468
3451.445	-7.61102	11.20822	-5.63862	8.89374
3455.444	-6.96695	11.09112	-6.87257	10.68971
3459.443	-7.09133	11.10482	-7.21557	10.82780
3463.448	-7.25941	10.86981	-7.82679	12.46589
3467.443	-7.49866	10.24783	-7.45704	12.36071
3471.449	-7.04572	10.64964	-7.48693	11.82432
3475.445	-7.31855	10.26692	-7.34748	11.80156
3479.441	-7.48039	11.37990	-7.55981	12.07996
3483.451	-7.36633	11.14113	-7.14577	11.85235
3487.444	-7.47739	10.90232	-7.49185	11.43417
3491.445	-7.71130	10.38304	-7.45960	10.39685
3495.443	-7.01841	10.25322	-7.32695	10.61608
3499.442	-7.58827	9.68349	-7.66414	12.68058
3503.441	-7.85407	11.46376	-7.72271	12.08185
3507.441	-7.70970	10.88520	-7.47787	12.06651
3511.446	-7.87202	10.55307	-7.48944	11.15303
3515.445	-7.96422	10.38573	-7.17925	10.69271
3519.441	-8.09304	10.23488	-7.38148	10.44039
3523.452	-8.00606	10.01677	-6.23440	11.64652
3527.443	-8.07085	10.15741	-7.60195	13.00454
3531.446	-7.98204	10.06557	-7.76518	12.10032
3535.445	-8.07017	10.53421	-6.40969	10.95811
3539.439	-8.14699	11.16063	-7.49393	12.39956
3543.448	-8.15297	10.60297	-7.22024	11.93476
3547.443	-8.09567	10.82078	-7.24818	11.88229
3551.441	-8.34584	10.84087	-7.10372	11.81803
3555.438	-8.27000	10.44762	-7.01563	11.53821
3559.441	-8.38818	10.13751	-6.77803	10.76071
3563.441	-8.47507	9.99742	-7.42275	11.48656
3567.449	-8.24052	10.37316	-7.57556	11.37867
3571.442	-8.07110	10.14436	-7.14089	11.29686
3575.445	-8.37745	10.67285	-2.61952	7.02006
3579.469	-7.66946	10.84915	-7.13133	10.96984
3583.439	-8.03146	12.34025	-6.65257	10.42135
3587.439	-8.05022	10.83574	-6.74092	10.53759
3591.441	-8.45623	10.42738	-6.60331	9.62693
3595.439	-8.40395	10.69507	-6.81272	10.89468
3599.434	-7.97933	11.12063	-7.15051	11.21530
3603.438	-8.15185	10.62377	-7.26342	11.22361
3607.442	-8.36236	10.84493	-6.80607	11.72564
3611.444	-7.80021	11.61745	-6.15046	10.13519
3615.446	-8.40847	11.06649	-2.64842	6.43201
3619.439	-8.05616	11.10517	-5.10106	9.99447
3623.439	-8.14351	11.35394	-6.31429	9.62549
3627.440	-7.98194	10.98853	-6.74068	11.09214
3631.442	-8.29331	11.79172	-6.47103	9.34347
3635.442	-7.90986	11.04431	-6.92877	11.48612
3639.442	-8.28558	11.10375	-6.58998	9.29394
3643.439	-7.78704	11.29936	-6.27003	9.33709
3647.448	-8.21942	10.97289	-6.26503	9.68006
3651.466	-8.32801	10.93487	-6.80866	10.75319
3655.441	-7.95127	10.89133	-5.68101	10.83662
3659.436	-7.72931	10.12512	-6.74736	11.10499
3663.439	-7.50620	10.60341	-6.46135	10.32736
3667.440	-8.59517	10.63056	-6.88854	11.53937
3671.437	-8.52627	11.04108	-7.05366	11.04901
3675.440	-7.57856	10.05739	-7.32365	11.67741
3679.443	-8.28716	9.23770	-6.74386	11.37907
3683.439	-8.09326	11.30648	-6.15468	10.94542
3687.439	-8.20223	10.65724	-6.95448	11.49416
3691.445	-8.39236	10.55067	-6.27878	11.59734
3695.443	-7.74425	11.35227	-7.20966	11.35656
3699.439	-7.63413	10.06998	-7.49583	11.67495
3703.480	-9.01486	10.61662	-3.81459	11.34467
3707.443	NaN	NaN	-5.98547	10.86463
3711.439	NaN	NaN	NaN	NaN
3715.437	NaN	NaN	NaN	NaN
3719.437	NaN	NaN	NaN	NaN
3723.443	NaN	NaN	NaN	NaN
3727.441	NaN	NaN	NaN	NaN
3731.449	NaN	NaN	NaN	NaN
3735.457	NaN	NaN	NaN	NaN
3739.443	NaN	NaN	NaN	NaN
3743.743	NaN	NaN	NaN	NaN
3747.447	NaN	NaN	NaN	NaN
3751.433	NaN	NaN	NaN	NaN
3755.443	NaN	NaN	NaN	NaN
3759.437	NaN	NaN	NaN	NaN
3763.437	NaN	NaN	NaN	NaN
3767.442	NaN	NaN	NaN	NaN
3771.439	NaN	NaN	NaN	NaN
3775.444	NaN	NaN	NaN	NaN
3779.452	NaN	NaN	NaN	NaN
3783.442	NaN	NaN	NaN	NaN
3787.438	NaN	NaN	NaN	NaN
3791.439	NaN	NaN	NaN	NaN
3795.439	NaN	NaN	NaN	NaN
3799.441	NaN	NaN	NaN	NaN
3803.496	NaN	NaN	NaN	NaN
3807.436	NaN	NaN	NaN	NaN
3812.151	NaN	NaN	NaN	NaN
3815.754	NaN	NaN	NaN	NaN
3819.872	NaN	NaN	NaN	NaN
3823.653	NaN	NaN	NaN	NaN
3827.859	NaN	NaN	NaN	NaN
3831.952	NaN	NaN	-4.09058	-2.82886
3835.440	NaN	NaN	NaN	NaN
3839.443	-1.55903	2.02218	-5.99146	4.93766
3843.440	-4.20333	-2.00501	-8.51979	6.20051
3847.435	-8.35733	2.04396	-8.46662	4.06878
3851.434	-9.17773	3.28151	-7.25255	0.43211
3855.443	-4.12658	0.90558	-7.28415	3.32314
3859.441	-6.16932	1.70996	-7.65641	4.72043
3863.439	-8.46296	4.02357	-7.10829	3.38159
3867.434	-8.77851	3.88873	-15.95371	1.02436
3871.439	-7.79712	4.03073	-10.16406	3.05684
3875.438	-7.80786	3.59761	-10.46858	3.08450
3879.451	-7.96629	2.91438	-10.25069	3.75458
3883.435	-9.28550	2.79349	-9.02837	3.80505
3887.433	-9.82012	2.95864	-8.00104	3.01912
3891.456	-8.66496	3.50833	-7.92746	2.96679
3895.442	-8.58398	3.16040	-9.10712	2.77769
3899.440	-9.02174	3.21684	-7.82957	2.85251
3903.440	-8.43885	2.80893	-7.54247	2.56443
3907.436	-9.03222	2.75202	-7.45665	2.66970
3911.439	-8.65737	2.79779	-7.50354	2.70931
3915.434	-8.56801	2.85791	-7.93036	2.99765
3919.438	-8.12994	2.86141	-7.84608	2.74311
3923.439	-7.88200	2.41703	-7.55371	2.83441
3927.437	-8.58226	2.19296	-6.63465	-5.91112
3931.434	-8.22667	2.74504	-6.91082	-5.73580
3935.437	NaN	NaN	-6.75292	4.20233
3939.442	NaN	NaN	NaN	NaN
3943.440	-5.93414	2.88698	-7.85322	-4.41503
3947.464	-5.77838	1.61697	-7.20157	2.83442
3951.440	-7.79035	1.75128	-7.62616	2.83086
3955.432	-7.94686	2.21249	-8.13150	2.94016
3959.440	-7.87343	2.34142	-8.13777	2.66779
3963.437	-7.99630	2.22117	-8.52870	2.60863
3967.438	-7.31616	2.00873	-7.91468	2.50201
3971.431	-7.71464	1.99194	-7.39200	2.52802
3975.433	-7.82762	1.72431	-7.27956	2.97535
3979.434	-7.66763	2.46246	-7.27738	2.48474
3983.443	-7.82007	1.76886	-7.43930	2.24100
3987.440	-7.53376	2.34529	-7.65205	2.40149
3991.435	-6.11849	2.48196	-7.97549	2.66822
3995.435	-7.59885	1.94458	-7.69285	2.43926
3999.433	-7.82082	2.20719	-7.88595	2.67745
4003.434	-8.07516	-2.97554	-8.34587	3.61068
4007.434	-8.57546	-3.98638	-8.13351	4.29689
4011.435	-9.16344	-3.31761	-7.88802	4.08480
4015.449	-7.78708	-4.73140	-8.22936	2.97768
4019.439	-8.43642	-4.96145	-8.18779	4.53547
4023.494	-8.22963	-5.87078	-8.15010	3.96462
4027.442	-7.76508	-5.79490	-6.14302	5.83043
4031.434	-8.78091	-5.92857	-10.40358	3.86443
4035.431	NaN	NaN	NaN	NaN
4039.430	NaN	NaN	NaN	NaN
4043.434	NaN	NaN	NaN	NaN
4047.432	NaN	NaN	NaN	NaN
4051.434	NaN	NaN	NaN	NaN
4055.437	NaN	NaN	NaN	NaN
4059.437	NaN	NaN	NaN	NaN
4063.439	NaN	NaN	NaN	NaN
4067.442	NaN	NaN	NaN	NaN
4071.436	NaN	NaN	NaN	NaN
4075.433	NaN	NaN	NaN	NaN
4079.437	NaN	NaN	NaN	NaN
4083.975	NaN	NaN	NaN	NaN
4087.499	NaN	NaN	NaN	NaN
4091.444	NaN	NaN	NaN	NaN
4095.438	NaN	NaN	NaN	NaN
4099.436	NaN	NaN	NaN	NaN
4103.435	NaN	NaN	NaN	NaN
4107.440	NaN	NaN	NaN	NaN
4111.437	NaN	NaN	NaN	NaN
4115.434	NaN	NaN	NaN	NaN
4119.435	NaN	NaN	NaN	NaN
4123.439	NaN	NaN	NaN	NaN
4127.436	NaN	NaN	NaN	NaN
4131.435	NaN	NaN	NaN	NaN
4135.451	NaN	NaN	NaN	NaN
4139.434	NaN	NaN	NaN	NaN
4143.434	NaN	NaN	NaN	NaN
4147.439	NaN	NaN	NaN	NaN
4151.803	NaN	NaN	NaN	NaN
4155.442	NaN	NaN	NaN	NaN
4159.432	NaN	NaN	NaN	NaN
4163.438	NaN	NaN	NaN	NaN
4167.452	NaN	NaN	NaN	NaN
4171.439	NaN	NaN	NaN	NaN
4175.438	NaN	NaN	NaN	NaN
4179.438	NaN	NaN	NaN	NaN
4183.437	NaN	NaN	-14.45814	1.61107
4187.437	NaN	NaN	-13.46705	3.19145
4191.437	NaN	NaN	-13.86619	2.04802
4195.440	NaN	NaN	-13.48474	1.35091
4199.433	NaN	NaN	-10.21978	2.97091
4203.431	NaN	NaN	-13.29744	1.97219
4207.432	NaN	NaN	-12.62878	1.94588
4211.431	NaN	NaN	-13.15423	2.43593
4215.431	NaN	NaN	-13.06845	0.98843
4219.433	NaN	NaN	-12.82535	1.36063
4223.437	NaN	NaN	-13.21611	1.27657
4227.432	NaN	NaN	-13.09042	2.05271
4231.434	NaN	NaN	-13.21848	2.26542
4235.433	NaN	NaN	-13.01918	2.51346
4239.308	NaN	NaN	-12.90440	1.65946
4243.336	NaN	NaN	-12.82141	2.43595
4247.307	NaN	NaN	-12.26924	2.55906
4251.306	-15.00575	-0.85872	-12.72955	1.71360
4255.302	-16.43135	-2.92174	-12.98626	2.52179
4259.303	-13.41237	-1.42476	-12.70858	2.51471
4263.322	-12.52878	-0.21766	-12.54710	2.41037
4267.309	-14.42500	-1.81549	-12.83953	2.42086
4271.302	-12.72464	-4.48444	-12.64983	2.57322
4275.303	-12.40716	-1.00184	-12.31071	2.14185
4279.308	-14.50311	-1.15811	-12.81094	2.28071
4283.303	-13.44998	-1.32811	-11.25736	1.99684
4287.303	-13.71104	-1.21643	-11.71189	1.48440
4291.308	-13.29958	-3.64329	-10.88106	2.38708
4295.306	-12.23092	-1.08862	-11.87142	2.14986
4299.302	-15.22507	-2.44685	-13.19284	2.13956
4303.299	-13.40774	-1.24751	-12.56815	1.42917
4307.308	-11.91963	-0.12730	-13.06442	1.28982
4311.304	-13.50424	-1.32066	-12.43303	0.77179
4315.302	-13.09346	-1.03244	-12.33155	1.99552
4319.316	-13.13067	-1.12641	-12.56952	2.53222
4323.310	-12.91378	-1.48723	-12.27294	2.37631
4327.306	-13.16955	-1.58264	-12.62937	2.52827
4331.304	-13.05967	-1.22800	-12.67808	2.76798
4335.305	-12.82776	-0.56280	-12.53336	2.39093
4339.305	-13.75629	-1.63410	-12.91781	2.74233
4343.303	-13.11627	-0.70090	-12.46945	2.26876
4347.303	-13.02189	-0.90391	-12.65857	2.89244
4351.304	-12.74272	-0.25379	-12.50839	2.39061
4355.306	-13.08618	-0.74865	-12.58030	2.69761
4359.306	-13.31248	-1.21614	-12.72716	2.70131
4363.307	-13.06273	-0.78677	-12.59335	2.42359
4367.305	-13.73531	-0.33057	-12.47231	2.36299
4371.304	-13.03835	0.45748	-11.80792	2.67236
4375.305	-13.17974	0.18485	-10.36154	2.49225
4379.301	-12.17905	0.14817	-7.62621	3.31277
4383.306	-8.83362	-0.03310	-8.53086	5.78105
4387.305	-5.46745	0.61858	-5.68197	5.78078
4391.303	-5.30087	0.20138	-2.42116	3.90061
4395.304	1.45142	-0.40903	-1.23198	3.72055
4399.302	1.79505	-1.69039	1.57505	2.43422
4403.309	6.07974	-0.14198	2.61209	2.19158
4407.301	3.42492	-1.13722	3.48246	1.86130
4411.310	6.45561	-0.23536	3.87448	0.94916
4415.303	6.78681	0.56997	3.38672	-0.02781
4419.302	5.47365	0.45174	2.90661	4.94095
4423.301	6.97881	0.01759	3.11398	3.80843
4427.304	6.11797	-0.36142	3.14387	3.31566
4431.304	5.96903	-1.52111	1.94377	2.36626
4435.299	3.64689	0.91981	3.13076	3.20621
4439.301	3.82309	-0.21516	3.09908	2.90077
4443.307	3.95414	0.10298	3.14486	2.32267
4447.311	3.78430	-1.60899	3.76109	2.71388
4451.297	6.44047	-1.74738	2.87849	2.96994
4455.302	6.61577	-1.93452	2.82467	2.70554
4459.301	5.75197	0.35686	2.75249	3.27393
4463.298	5.74431	0.09707	3.31635	2.79602
4467.304	3.82786	0.92792	3.35147	2.96787
4471.300	4.14532	-0.91391	1.63023	3.20685
4475.303	3.94715	-2.18479	2.99183	2.87514
4479.298	4.34791	-2.27856	3.43660	1.56110
4483.305	3.74753	-2.49261	3.19083	1.63780
4487.305	2.64611	-1.24292	2.92881	1.74046
4491.314	2.53516	-6.00705	2.95163	1.29367
4495.301	1.54874	-3.18145	3.17492	2.07305
4499.295	1.73795	-1.95020	3.10458	2.02538
4503.303	1.79656	-5.79275	2.71005	2.30996
4507.301	1.88643	-6.38813	2.98371	2.59155
4511.297	1.25761	-7.45059	3.89834	2.10842
4515.305	4.65390	-6.10527	3.41112	2.68035
4519.301	0.09803	-3.47204	2.69096	3.85680
4523.301	1.10026	-6.02287	2.93713	2.59951
4527.304	4.73143	-4.53425	3.14602	1.70178
4531.306	1.77856	-5.60123	4.30976	0.69940
4535.303	5.98186	-0.90319	2.66110	1.90583
4539.300	6.03140	-1.15798	2.87933	1.99573
4543.299	3.27284	-0.96774	2.79961	2.35553
4547.320	4.79060	-1.29965	2.91475	2.17092
4551.309	4.77535	2.45349	2.38593	2.54019
4555.295	2.14501	-0.88709	2.90987	2.90082
4559.301	4.61134	-1.64706	2.59440	3.49510
4563.302	5.51005	-0.70435	2.26396	3.27938
4567.303	4.38736	3.20487	2.40828	2.57280
4571.299	4.99108	-0.85997	3.10532	3.36410
4575.309	4.22384	-0.15863	2.13913	2.37770
4579.303	5.07365	3.74377	2.68244	1.75808
4583.297	5.30554	-1.58456	3.09062	1.86131
4587.299	4.01307	-2.84498	2.45740	2.17520
4591.299	3.81405	0.36536	4.24014	1.73564
4595.297	5.89547	-1.82973	2.74365	2.65305
4599.294	4.66105	0.08265	2.26671	3.37227
4603.299	4.50604	-1.43127	2.70166	3.64194
4607.301	4.77582	-0.44552	2.34463	2.97907
4611.304	4.81039	3.42357	5.77455	2.22922
4615.297	7.56037	-0.82249	1.05133	3.30414
4619.304	4.06947	0.90604	2.16449	2.04911
4623.300	3.96022	0.27390	4.75477	3.28535
4627.325	3.81447	1.13453	2.26470	3.13121
4631.306	3.86662	3.45193	2.56188	1.78908
4635.295	6.90503	-1.36430	2.50717	1.78774
4639.302	3.80688	-1.48450	2.85046	1.67965
4643.296	4.71644	-1.40288	2.62645	1.66831
4647.298	4.76808	2.02973	3.16423	1.61689
4651.313	3.75200	1.01801	2.96723	2.29174
4655.304	5.54294	1.02826	2.78079	2.76666
4659.332	3.36470	1.14339	3.13264	3.18778
4663.296	6.87655	-0.03155	2.80528	2.76261
4667.301	2.87215	1.22557	2.95995	4.53099
4671.298	4.61608	-1.24754	3.17708	1.79786
4675.295	3.04187	-0.67943	2.90490	1.37203
4679.295	3.79776	0.60658	2.83229	1.70487
4683.296	6.48796	-1.29482	2.91893	1.64379
4687.298	3.57859	1.21441	2.80976	1.75132
4691.298	8.15370	-2.34506	2.79731	2.72893
4695.303	3.46679	1.03966	2.27245	2.34839
4699.308	7.05498	-1.27407	3.09834	1.61030
4703.302	4.03004	-0.20251	2.51368	2.07171
4707.296	6.65365	-0.32227	2.74757	2.11383
4711.298	3.90817	1.50489	1.75602	1.68178
4715.292	4.35442	-0.48620	2.25367	1.71315
4719.299	3.94144	3.24820	2.38392	2.55416
4723.300	4.53860	-0.89813	3.03573	2.16761
4727.295	4.21303	0.16968	2.15016	2.37530
4731.294	4.27449	0.47024	0.89758	-0.83959
4735.303	4.69551	1.93825	1.95316	2.12351
4739.298	4.56641	-0.44638	3.02581	2.26171
4743.292	4.26240	3.15856	1.98041	2.46653
4747.300	4.71876	-0.32306	2.85056	2.10316
4751.296	4.81645	1.48498	2.18030	1.94378
4755.325	5.43455	-0.43930	4.39247	1.41498
4759.294	3.90395	2.15277	-2.16518	1.86264
4763.300	4.42306	-0.64328	5.86764	2.39898
4767.299	2.67915	2.67587	2.49513	3.92142
4771.295	3.06008	0.85574	2.12518	3.71480
4775.295	4.33150	1.18133	4.15520	3.24452
4779.305	2.69708	-0.06265	-3.10445	-2.64781
4783.300	5.99974	-0.91048	2.75284	1.70749
4787.295	2.76470	1.59533	2.91960	2.15788
4791.295	4.20407	-0.71483	3.50719	2.05404
4795.296	3.77115	2.70599	1.53813	1.65531
4799.293	4.35689	-1.25039	2.67709	3.36495
4803.299	2.56968	1.37053	2.83281	3.69004
4807.296	9.26096	-4.74569	1.07944	2.43005
4811.297	4.76906	3.38612	1.03027	5.14810
4815.295	2.42237	-0.08272	-4.59862	3.62017
4819.305	-1.04550	-1.19728	0.73543	2.45369
4823.299	2.51400	-1.75479	-4.39637	3.21333
4827.300	2.33593	3.53954	0.52897	4.83311
4831.297	5.72156	1.82743	-3.56376	4.08749
4835.295	-0.74786	1.49319	0.66005	1.40643
4839.300	2.10419	3.30087	0.66727	3.48025
4843.297	2.29106	-4.23932	1.12782	0.93605
4847.299	-0.54644	1.01829	0.43589	4.61447
4851.291	1.40008	2.37887	1.88536	2.19034
4855.299	0.60863	2.65995	0.66273	5.04187
4859.300	1.77767	3.17875	-3.29129	3.68048
4863.301	1.27403	2.84212	0.17012	5.04019
4867.294	0.21859	3.64969	-0.35787	5.55704
4871.300	1.09973	2.58789	-0.26585	3.41843
4875.295	1.02198	2.61731	0.23584	4.81073
4879.298	1.06470	2.95612	-0.89855	1.22363
4883.293	0.76357	2.59213	-0.28925	4.89210
4887.325	0.91249	2.68689	2.05722	4.55775
4891.299	1.08631	2.45990	0.44805	3.68161
4895.296	1.01035	2.22197	-0.33248	3.72281
4899.325	0.89158	2.58495	-2.38036	3.81877
4903.300	0.85424	2.05263	-0.22522	3.83554
4907.293	2.08632	2.23582	-0.24085	4.01010
4911.298	0.94852	2.69886	0.38521	3.05832
4915.293	0.73655	2.16243	-0.47651	4.40970
4919.295	1.15074	1.96199	-0.12811	3.87185
4923.294	0.88103	2.90962	-0.42735	4.74366
4927.296	1.13970	2.22817	-0.28848	4.46757
4931.293	0.81684	3.61881	-2.05095	1.92675
4935.292	1.98663	1.75037	-0.40276	5.17626
4939.296	1.09182	1.35520	-0.45011	5.19513
4943.297	1.14141	1.51701	0.92443	3.96394
4947.295	1.26584	3.50117	-0.34645	4.58758
4951.296	1.11008	1.71093	-4.02231	1.79939
4955.294	1.13434	1.47011	0.87858	4.84667
4959.294	1.33951	1.84857	0.46969	4.22010
4963.290	1.09631	1.73117	-0.06316	5.09100
4967.341	0.83947	1.77226	0.92425	4.94798
4971.307	1.02094	3.89182	0.44207	3.91792
4975.295	1.16287	2.03732	0.58473	5.19625
4979.295	1.11306	1.57459	1.19415	3.83676
4983.292	1.68493	3.02177	0.41834	4.24563
4987.303	1.99880	1.94515	0.29255	5.78598
4991.294	1.15543	1.96219	0.68771	4.49872
4995.293	0.57620	4.80853	0.13598	4.82701
4999.291	2.52773	2.05205	0.21554	5.45235
5003.295	0.17531	2.53578	0.20581	4.87293
5007.294	0.46701	3.32569	-0.01055	4.48029
5011.294	0.52629	3.23863	0.20676	5.34649
5015.299	3.38271	1.27756	0.05959	5.49444
5019.293	0.64605	1.96730	0.06135	5.37433
5023.294	-0.15670	3.04103	-0.10212	4.71449
5027.295	0.61399	3.85573	0.04725	5.24325
5031.296	0.29558	2.92108	-0.01358	5.47706
5035.368	0.19819	3.05713	0.07743	5.49670
5039.297	0.58272	3.79495	0.01762	5.88386
5043.295	0.81441	3.99309	0.02273	5.52711
5047.294	0.43661	3.06548	-0.11801	5.65287
5051.291	0.69211	3.08210	-0.07388	5.47348
5055.295	1.28864	3.31181	0.74635	5.24542
5059.293	3.60353	4.84636	2.15861	5.88284
5063.291	4.03154	3.33567	6.00310	6.26801
5067.294	2.38586	5.97142	6.31983	6.53707
5071.294	9.37515	4.90572	8.78670	5.63799
5075.292	11.90096	3.34125	9.35532	6.32004
5079.292	9.50885	3.72245	9.93203	6.07246
5083.296	12.41078	3.95904	9.35790	6.48597
5087.290	12.32094	1.64263	10.36598	6.09564
5091.170	13.66843	1.38727	9.81674	6.08965
5095.166	12.52908	3.44703	9.21851	6.12001
5099.170	11.80866	-0.50990	10.29675	5.97601
5103.219	9.58905	1.43924	10.92437	4.86766
5107.168	13.47510	1.26916	9.93831	5.84957
5111.165	13.22970	1.23203	10.17846	6.06382
5115.174	13.04596	-0.43522	10.85981	5.66019
5119.165	12.78878	0.43637	10.70121	4.23087
5123.166	10.69968	0.76514	10.51223	4.99978
5127.159	18.36597	-4.44650	10.63372	5.70551
5131.163	13.71156	1.32679	9.59035	5.93249
5135.166	11.11774	1.85077	9.68426	4.78751
5139.169	8.75832	0.30952	10.55531	5.08894
5143.164	11.82953	1.26927	9.90038	5.63841
5147.162	11.81910	2.67099	9.60490	6.15231
5151.168	12.48580	2.60558	9.87582	4.68566
5155.164	12.36885	2.46499	10.46054	4.68011
5159.167	9.38825	3.35749	9.78276	4.91739
5163.162	14.47778	1.90187	9.62072	5.86772
5167.162	11.52943	1.95925	9.55145	6.04277
5171.181	7.89413	-0.17136	9.87309	5.56991
5175.171	13.13025	-0.10123	9.52109	5.68106
5179.163	11.46931	3.07246	10.02786	5.65587
5183.162	11.44492	4.81014	10.34410	5.85682
5187.162	10.50743	5.70037	9.75326	6.27676
5191.179	11.61328	3.84161	9.26394	6.31850
5195.188	13.33574	1.73287	9.52985	6.11548
5199.176	12.57713	4.48039	9.66904	6.14631
5203.166	12.38159	3.34499	9.78978	6.18518
5207.162	10.81595	3.90370	9.74094	5.98519
5211.159	11.31631	4.23460	9.96073	5.74517
5215.160	11.50999	1.29454	9.91842	5.74831
5219.164	14.32661	0.42918	9.92666	5.91618
5223.167	14.27079	-4.88520	10.19363	5.30995
5227.160	13.87983	-5.53147	10.03390	6.00345
5231.167	14.00335	-5.81727	9.90332	6.67519
5235.166	10.08529	-5.63573	9.75577	6.09267
5239.170	8.06728	-6.54707	9.85630	5.97450
5243.170	10.36466	-6.89207	9.87044	5.96335
5247.167	10.91006	-8.22635	9.74998	5.84328
5251.176	11.11712	-3.84321	9.69957	5.75428
5255.172	10.90961	-7.29921	9.80122	5.48456
5259.163	10.14660	-6.87254	10.11320	5.59353
5272.373	13.58934	-5.65187	9.95187	5.43499
5275.250	10.46702	-5.43063	11.12445	5.51306
5279.173	12.25019	-7.86154	9.94941	5.51441
5283.168	12.04733	-7.20005	9.92232	5.55815
5287.161	10.11192	-10.08801	9.97820	5.46594
5291.160	9.44807	-8.97276	9.94344	5.47753
5295.165	14.30729	-10.83954	10.01554	5.53732
5299.162	14.65579	-10.91943	10.08132	5.59105
5303.160	5.95722	-10.23896	10.02865	5.62874
5307.162	17.73641	-10.04705	10.16476	5.65004
5311.164	14.48376	-2.38918	9.95786	5.83258
5315.164	14.61492	-3.57675	10.01178	5.90593
5319.158	14.28380	-4.35657	9.98338	5.80851
5323.178	13.74605	-8.62348	9.96833	5.88967
5327.165	12.68623	-6.26071	9.85134	5.72145
5331.162	9.00167	-7.04567	9.82698	5.57653
5335.165	13.14470	-7.28279	9.53919	5.91168
5339.162	13.31307	-6.70640	9.46884	5.84335
5343.157	11.64011	-2.72714	9.20992	5.71886
5347.159	10.21765	-6.12477	9.43747	6.02290
5351.162	13.38757	-6.08351	9.26063	5.96255
5355.159	11.73129	-3.94240	9.37337	6.20134
5359.158	13.26751	-5.88654	9.60258	6.24699
5363.164	12.82743	-3.28572	9.94886	6.03103
5367.165	15.89193	2.32426	9.63662	6.17196
5371.160	12.62644	2.40481	6.57081	6.34993
5375.163	16.29754	2.44581	11.18642	6.45634
5379.162	15.54722	2.78912	9.88942	6.41621
5383.160	13.26817	2.42898	4.71575	14.82352
5387.165	NaN	NaN	NaN	NaN
5391.163	NaN	NaN	NaN	NaN
5395.167	NaN	NaN	NaN	NaN
5399.163	NaN	NaN	NaN	NaN
5403.185	NaN	NaN	NaN	NaN
5407.176	NaN	NaN	NaN	NaN
5411.171	NaN	NaN	NaN	NaN
5415.168	NaN	NaN	NaN	NaN
5419.165	NaN	NaN	NaN	NaN
5423.165	NaN	NaN	NaN	NaN
5427.164	NaN	NaN	NaN	NaN
5431.164	NaN	NaN	NaN	NaN
5435.162	NaN	NaN	NaN	NaN
5439.163	NaN	NaN	NaN	NaN
5443.489	NaN	NaN	NaN	NaN
5447.278	NaN	NaN	NaN	NaN
5451.176	NaN	NaN	NaN	NaN
5455.170	NaN	NaN	NaN	NaN
5459.164	NaN	NaN	NaN	NaN
5463.162	NaN	NaN	NaN	NaN
5467.161	NaN	NaN	NaN	NaN
5471.164	NaN	NaN	NaN	NaN
5475.166	NaN	NaN	NaN	NaN
5479.161	NaN	NaN	NaN	NaN
5483.189	NaN	NaN	NaN	NaN
5487.158	NaN	NaN	NaN	NaN
5491.169	NaN	NaN	NaN	NaN
5495.181	NaN	NaN	NaN	NaN
5499.380	NaN	NaN	NaN	NaN
5503.258	NaN	NaN	NaN	NaN
5507.167	NaN	NaN	NaN	NaN
5511.179	NaN	NaN	-13.60484	11.49605
5515.168	NaN	NaN	-19.88213	-7.66940
5519.155	-5.87440	9.43670	-13.55391	-3.85152
5523.157	-10.81173	4.95882	-15.01888	-4.39208
5527.162	-11.82388	7.76640	-13.81411	-3.59447
5531.166	-5.86551	0.12016	-8.92713	-4.92557
5535.158	-10.76563	-0.60920	-2.37567	-3.75637
5539.156	0.20894	-2.27452	-2.60428	-3.05902
5543.158	-10.70390	-0.51159	-1.28154	-2.38662
5547.156	-12.58134	0.42317	-2.46870	-1.81299
5551.162	0.49180	-2.98763	-8.67500	-3.44084
5555.158	1.36236	-3.00218	-9.03357	-4.18165
5559.156	0.53840	-2.42362	-10.01226	0.95970
5563.156	-3.93878	0.84529	-10.92461	-4.43410
5567.161	-3.25941	-3.04031	-10.46162	2.39468
5571.159	-4.58649	-0.77066	-5.70342	-1.74271
5575.160	-4.87609	2.51731	-8.49437	1.16194
5579.160	-8.16605	2.92548	-5.94497	-3.55496
5583.159	-5.53392	4.04230	-6.92053	-1.59835
5587.155	-2.93049	-4.25282	-5.06740	-1.56807
5591.161	-3.18239	-3.20776	-2.37585	-4.09548
5595.157	-3.57661	-0.67276	-7.20465	-3.33341
5599.159	-9.29285	-0.71846	-4.33964	-3.47929
5603.157	-3.65030	-4.20633	-5.51396	-1.32492
5607.160	-5.13730	-7.34261	-5.76102	-2.53033
5611.158	-2.65968	-4.68444	-4.94770	-2.51902
5615.160	-5.21715	-4.64115	-9.58702	-7.38551
5619.152	-5.73441	-1.90336	-4.84240	-2.67884
5623.155	-4.94869	-4.16199	-5.03226	-2.96279
5627.159	-3.70952	-4.68430	-4.83292	-3.00590
5631.155	-2.09973	-5.82782	-3.50823	-4.17982
5635.152	-1.67871	-4.93302	-4.25494	-2.80016
5639.160	-6.05334	-1.61604	-5.05693	-2.51889
5643.156	-1.64746	-1.95803	-5.16423	-2.02928
5647.161	-6.90923	-1.93184	-5.43066	-2.04066
5651.162	-2.87814	-4.09275	-5.57483	-2.25283
5655.164	-5.05883	-5.05956	-5.63432	-2.46313
5659.160	-3.54035	-4.53404	-5.62284	-2.39367
5663.157	-2.76183	-5.08482	-3.72230	-2.17442
5667.156	-5.79162	-4.84995	-3.68246	-2.35526
5671.173	-5.25131	-4.33291	-4.56291	-2.89327
5675.166	-2.56213	1.35106	-4.57320	-3.40941
5679.156	-11.21324	3.41155	-5.75642	-3.46024
5683.155	-10.19865	2.64754	-4.26151	-2.38275
5687.158	-9.50131	1.42552	-4.47698	-2.40220
5691.160	-8.60975	0.85040	-4.77885	-3.61531
5695.153	-3.94858	4.81914	-3.70304	-4.09560
5699.163	-3.20266	5.30131	-3.52643	-3.55958
5703.193	-1.46663	-3.62629	-4.21864	-3.99691
5707.155	-4.51603	-4.58579	-4.73081	-3.74137
5711.154	-4.37695	-4.42571	-5.03723	-3.95691
5715.153	-5.56460	-4.73571	-4.41716	-2.05859
5719.159	-4.91846	-4.43227	-4.91819	-2.17790
5723.155	-1.16406	-4.55729	-5.04134	-2.26553
5727.153	-3.34212	-5.44838	-5.24142	-2.28923
5731.150	-3.23123	-4.35936	-4.47124	-2.00089
5735.157	-6.21583	-2.98767	-5.10389	-2.43679
5739.158	-5.98790	-3.75287	-4.75691	-2.76755
5743.157	-7.45731	-4.46033	-4.52471	-4.07480
5747.158	-6.24188	-4.67409	-5.05676	-1.40709
5751.153	-6.83237	-4.57805	-5.09982	-3.26278
5755.157	-5.99340	-4.74243	-4.44765	-1.96344
5759.150	-5.08114	-4.31374	-3.52292	-3.40520
5763.153	-3.68325	-2.43997	-3.18423	-3.38823
5767.154	-3.98269	-4.10301	-3.79391	-3.53653
5771.154	-4.41627	-4.03579	-4.44146	-3.92810
5775.154	-4.74696	-3.11930	-4.51403	-3.78952
5779.170	-6.05412	-4.05536	-4.64690	-3.79114
5783.166	-4.83688	-2.53542	-4.21289	-3.16464
5787.158	-4.49302	-4.11333	-3.73371	-2.93694
5791.154	-8.19304	-4.36198	-4.21913	-2.04517
5795.156	-3.74468	-2.77123	-2.99109	-3.07932
5799.153	-4.61420	-4.29216	-2.86254	-3.75810
5803.152	-2.49885	-4.29495	-2.75131	-3.66204
5807.151	-5.77851	-4.41503	-3.93986	-3.54012
5811.154	-5.12277	-4.06145	-4.32809	-3.82636
5815.158	-4.32387	-2.90194	-4.41926	-2.42121
5819.158	-5.72954	-2.92914	-4.44941	-1.27868
5823.162	-7.95309	-4.54732	-4.67545	-1.17166
5827.157	-5.40675	-2.00682	-4.79945	-3.66833
5831.157	-5.24663	-1.86336	-3.38780	-3.67019
5835.153	-5.21351	-4.53953	-7.91687	-1.27916
5839.157	-5.03164	-3.63594	-5.16221	-3.38132
5843.157	-5.72662	-3.88781	-3.69654	-3.50738
5847.151	-5.69804	-2.55077	-2.13871	-8.34432
5851.152	-4.64875	-3.04940	-0.78779	-7.73474
5855.155	-4.34265	-2.67334	-5.40442	-0.72827
5859.158	-4.86882	-1.77976	-4.14221	-1.09583
5863.154	-1.07252	-3.07891	-3.95985	-1.29810
5867.158	-4.92908	-1.39720	-3.50912	-1.13623
5871.165	-3.66184	-1.50237	-3.91543	-0.98052
5875.151	-1.61453	-1.65232	-4.42104	-0.34078
5879.151	-2.85868	-0.96829	-4.12113	-1.15266
5883.151	-1.79341	-1.35106	-3.60865	0.16184
5887.153	-0.20336	-2.53448	-3.51525	-0.82656
5891.150	-2.72095	-2.23119	-3.78734	-0.89036
5895.155	-2.48458	-4.12741	-3.64827	-0.73710
5899.153	-1.37580	-1.53541	-3.45578	0.16217
5903.155	-1.59970	-0.58542	-3.32642	0.76211
5907.155	-2.98604	-1.31618	-5.03541	1.06444
5911.161	-2.62065	-0.61969	-3.21362	-0.53702
5915.152	-1.59484	-0.98616	-3.19905	-0.49466
5919.192	0.26227	-1.33437	0.01606	-0.04992
5923.154	0.96822	-1.50490	-3.17868	-0.68495
5927.151	-3.13046	-0.91650	-3.26220	-0.59237
5931.152	-3.61129	-0.84725	-3.61132	-0.96065
5935.150	-1.88150	-4.80204	-3.14209	-0.87326
5939.148	-2.97034	-4.09200	-6.31745	-0.31944
5943.155	-2.81815	-4.49110	-5.69539	-0.33017
5947.023	-3.47688	-4.39710	-4.94524	-0.21177
5951.026	-3.40138	-5.06298	-3.98178	-0.23133
5955.035	-3.65124	-4.42245	-3.68278	-0.20542
5959.027	-3.56077	-5.18037	-4.86327	0.75696
5963.027	0.39050	-3.39714	-3.20523	0.38954
5967.026	-0.89312	-3.23307	-3.31054	1.37785
5971.029	-3.59246	-1.96203	-3.50432	0.09011
5975.025	-0.52696	-3.01120	-2.89522	0.13555
5979.026	-3.55387	-2.63059	-3.36681	0.80084
5983.025	-2.61699	-1.47279	-3.35526	1.06180
5987.024	-2.13490	-3.43517	-3.58373	2.24655
5991.030	-3.11413	-0.96139	-3.09540	0.79389
5995.037	-2.02480	-1.34425	-2.92698	0.78642
5999.029	-2.92272	-2.53111	-2.91101	0.40761
6003.024	-3.05073	-1.24460	-2.57962	0.21833
6007.027	-2.58142	-2.19567	-2.31267	-0.15727
6011.023	-2.68106	-1.41313	-5.66828	-0.36238
6015.025	-3.53060	-1.00383	-4.55578	0.10557
6019.026	-2.25184	0.42322	-4.45288	0.19200
6023.020	-2.51371	-0.14615	-3.92717	-0.79856
6027.023	-2.57251	-1.25915	-4.91767	-0.40077
6031.026	-3.97405	-1.43642	-5.08333	-0.50818
6035.033	-1.63249	-0.84668	-4.55539	-0.07976
6039.025	-1.83040	-1.61069	-4.51933	-1.27893
6043.027	-4.67924	-1.13041	-6.69385	-0.49124
6047.027	-3.42621	-1.23273	-4.62540	0.50885
6051.019	-1.84369	0.95966	-4.39901	0.45849
6055.023	-0.43919	-0.94420	-4.25643	0.47384
6059.025	-2.00601	0.08935	-4.50015	1.06153
6063.027	-2.14791	-0.23344	-3.60529	0.74520
6067.024	-4.68977	-0.08646	-3.03031	0.57567
6071.023	-1.32138	-1.24764	-3.04890	0.54646
6075.026	-0.76831	-2.97949	-3.42490	-2.18063
6079.026	-3.84419	-1.31252	-2.76859	-2.20574
6083.033	-1.26143	-1.10923	-3.12749	-2.02410
6087.024	-1.36094	-1.04825	-2.30229	0.61259
6091.026	-1.28060	-0.58672	-3.01804	0.48358
6095.023	-2.03985	-0.98631	-3.00032	0.14097
6099.023	-4.50079	-2.58245	-3.80485	-0.91295
6103.026	-4.36755	-3.11788	-3.44211	-0.44069
6107.024	-3.14768	-0.44720	-4.70870	0.32286
6111.024	-3.03291	-1.13635	-3.29946	-0.21876
6115.026	-1.69113	0.15335	-3.65954	-0.15980
6119.031	1.33966	-1.21593	-2.61640	0.42827
6123.051	-3.77639	-0.67911	-3.26191	0.10943
6127.025	-3.13157	-2.13322	0.72330	-4.08517
6131.025	-3.27042	-2.73029	-3.42792	-1.43480
6135.027	-3.51832	-3.20231	-3.42287	-1.82854
6139.026	-3.52109	-2.91425	-2.51093	-2.47270
6143.029	-4.09184	-2.94291	-3.58477	-1.55451
6147.022	-3.64237	-1.95021	-4.35536	-1.75800
6151.020	-3.59399	-0.11639	-4.44504	0.61032
6155.019	-2.24931	-1.11974	-6.60448	0.73135
6159.022	-2.93337	-1.35808	-5.37797	-1.50747
6163.029	-1.96940	0.79056	-3.79705	0.01726
6167.018	-2.59601	-1.17097	-6.28298	0.40053
6171.026	-2.54975	-1.12024	-4.44395	0.86825
6175.023	0.69980	-3.62161	-2.19298	0.58361
6179.020	-3.80740	-0.81399	-3.02148	0.38809
6183.020	-3.09698	-1.43374	-4.39466	1.07471
6187.025	-3.47895	-0.88318	-4.87941	-0.83752
6191.026	-3.42589	-1.12966	-5.55356	0.05211
6195.024	-3.56976	-0.80372	-6.23494	0.62790
6199.021	-3.04308	-1.18592	-1.85544	-1.46869
6203.028	-1.22395	-0.18585	-3.27868	-0.87969
6207.033	-3.16441	-0.20472	-5.01731	0.18768
6211.023	-3.40173	-1.05716	-5.64287	-0.26380
6215.025	-3.11935	-0.18892	-4.97696	-0.39908
6219.021	-3.50200	-0.17268	-4.67017	-0.13114
6223.024	-1.27591	-0.50989	-3.71281	0.54393
6227.020	-4.35674	-3.93136	-2.75215	0.49337
6231.027	-1.11837	-1.25040	-2.22847	0.95608
6235.025	-1.47893	-1.23058	-2.04750	0.89333
6239.022	0.19807	-0.27572	0.50446	0.38238
6243.026	-1.07602	-0.39088	-0.61434	-0.29926
6247.025	-0.74002	0.80514	-0.71491	0.02179
6251.022	-1.03091	0.06462	-0.93348	0.15037
6255.018	2.16206	-1.27528	-0.94859	0.42207
6259.018	-0.15298	0.01449	-1.74571	1.32512
6263.038	-0.85352	-0.65748	-1.58859	1.71975
6267.026	-1.00479	-1.36378	-1.83010	2.09226
6271.021	-0.25024	0.15046	-1.88685	2.08471
6275.024	-1.35745	0.33917	-4.33505	2.12869
6279.019	-0.13414	0.12951	-1.98291	1.45130
6283.025	0.95777	-1.30544	-0.85061	0.76845
6287.028	0.81188	-0.46574	-0.64513	0.20325
6291.020	-0.49386	0.29681	-2.24517	0.37622
6295.021	-0.08835	0.72908	-1.87545	0.17179
6299.020	-1.42263	-0.79736	-1.26098	0.14180
6303.022	-1.09686	0.05309	-0.89180	0.21984
6307.019	-1.40383	-1.57774	-2.06136	0.38026
6311.019	-0.75903	-1.44420	-1.10264	0.20045
6315.018	-1.16059	-2.00405	-2.40050	1.94415
6319.021	-1.20435	-1.09403	-0.67134	0.29499
6323.023	-1.44919	-1.34006	-0.60027	0.17933
6327.036	-1.49262	-1.67084	-0.76171	2.14359
6331.025	-0.93661	-1.77132	-0.74496	0.26758
6335.046	-1.49113	-1.70610	-0.75957	0.26981
6339.024	-1.72580	-1.97688	-0.72325	0.30910
6343.021	-1.43084	-1.76313	-0.74868	0.31839
6347.018	-1.76859	-1.79728	-0.91435	0.37445
6351.018	-4.57485	-1.96762	-0.84426	0.39769
6355.020	-3.29941	-0.81469	-4.80428	0.61942
6359.018	-1.98658	-0.41425	-4.79272	0.45827
6363.018	-1.21866	-1.29639	-3.77634	0.48374
6367.022	-1.63628	-1.23831	-3.11779	0.67705
6371.023	-0.73856	2.22436	-1.97277	0.67112
6375.020	-0.86808	2.24935	-1.23627	0.89138
6379.018	1.29524	1.65075	-1.21427	1.01071
6383.018	1.60695	-0.26248	-2.65065	0.36777
6387.020	0.50741	0.35172	-0.93564	0.72829
6391.016	2.17534	-0.12458	-0.80861	0.90618
6395.026	3.01660	-0.64694	1.41630	0.64856
6399.017	1.42246	-0.31285	0.15084	0.69480
6403.020	-0.63191	-0.14290	-1.67216	0.51171
6407.019	-1.05401	-4.53722	-1.86982	0.62333
6411.026	-0.71637	-0.07887	-2.57387	1.91538
6415.017	-0.90019	-0.74010	-1.22258	0.44919
6419.016	-0.28054	-0.25964	-1.39205	0.25858
6423.020	0.39740	-0.29189	-1.35975	0.33991
6427.017	1.22759	0.97638	-1.35588	0.81601
6431.014	1.54351	0.50141	-1.24439	1.25913
6435.016	2.34131	2.59879	-0.88572	0.83383
6439.018	-1.77035	0.71259	-0.93951	0.93092
6443.015	-1.34408	2.80447	-2.12146	0.72126
6447.022	-0.27845	0.36160	-1.40891	0.71632
6451.022	-2.99571	0.22095	-1.37188	1.97282
6455.024	-5.60293	0.37926	-1.69983	3.04825
6459.021	-3.53624	0.47375	-1.58877	0.38093
6463.019	-3.60249	0.56133	1.30960	-0.26254
6467.022	-3.66686	1.58852	1.13501	0.55013
6471.014	-3.56331	0.64012	-0.40844	1.63861
6475.018	-3.65601	1.22766	-6.04468	0.77929
6479.018	-2.08961	0.98973	-3.88238	0.53626
6483.020	-3.90931	0.62241	-2.27944	-0.19158
6487.017	-1.89136	-1.90843	-2.26817	1.71160
6491.022	-3.17762	0.47797	-0.44822	0.77599
6495.023	-1.34271	-1.22275	-2.14392	2.17608
6499.018	-2.69720	-0.20316	-2.10397	2.59022
6503.016	-3.33248	-2.20838	-0.77660	1.57795
6507.019	-0.98772	-0.61674	-0.75752	1.67183
6511.024	0.14853	-1.94958	-1.41898	0.20892
6515.020	0.81327	-2.62287	-0.46319	-0.06431
6519.017	0.67250	-2.34466	-0.84441	1.28698
6523.018	-1.20919	-0.20193	-2.22111	1.74058
6527.014	-7.50986	-5.26734	-1.98943	0.74111
6531.036	-7.65644	-6.03789	-2.28586	0.18088
6535.022	-7.49222	-2.47898	-3.78432	0.50925
6539.020	-5.09163	-2.60702	-3.10960	0.02020
6543.021	-2.20780	-0.24768	-1.75974	-0.18337
6547.017	-6.76026	1.65118	-6.32650	1.80222
6551.018	-5.68905	-3.50457	-3.65334	-2.95266
6555.016	-5.74809	-2.84404	-2.82132	-2.91377
6559.020	-2.84071	-2.11748	-1.29340	-1.55505
6563.069	-1.59378	-2.56808	-2.45047	0.08178
6567.022	-5.16255	-2.54498	-1.49599	-2.26821
6571.013	-1.93903	-2.68862	-0.58990	-1.36165
6575.018	-2.86153	-2.75171	-1.01300	-0.15804
6579.022	-0.95085	-1.51702	-4.90040	0.73791
6583.014	-2.03586	-1.16177	-1.44178	-0.68892
6587.019	-3.12858	-1.24475	-6.35327	-0.03295
6591.015	-1.65302	-0.78523	-5.30973	-1.14132
6595.015	-1.43694	-1.34658	-3.56616	-2.36958
6599.039	-4.44489	-0.84368	-3.80725	-1.79678
6603.020	0.16045	-1.15210	-1.21730	-2.13886
6607.014	-3.39720	-0.76902	-1.15210	-2.70330
6611.017	0.60146	-4.35119	0.19343	-1.54096
6615.013	-3.56534	-0.96631	-6.10073	-1.78325
6619.023	-4.35543	-1.20190	-2.51794	1.99774
6623.013	-3.67736	-1.30301	-2.20191	0.16656
6627.017	-3.50524	-0.86366	-1.75994	-0.87056
6631.014	-3.87917	-1.05301	-1.87795	0.05196
6635.014	-3.96496	-1.48236	-1.53862	0.32381
6639.017	-4.38761	-1.68938	-1.65322	-2.12525
6643.019	-4.07913	-1.46566	-1.86313	-1.62238
6647.015	-4.01863	-1.73860	-2.76287	0.35661
6651.017	-5.05316	-1.68499	-2.79580	-0.67628
6655.013	-4.69852	-1.10147	-1.79284	-2.03932
6659.023	-4.44445	-1.80660	-1.94771	-1.61019
6663.018	-4.46283	-1.80329	-1.90611	-1.50719
6667.018	-4.75965	-1.35807	-1.56218	-0.31482
6671.013	-4.80877	-1.47601	-1.11536	0.06646
6675.016	-5.24892	-1.96816	-3.89943	1.35751
