time (ms)	lx (deg)	ly (deg)	rx (deg)	ry (deg)
0.000	-2.18064	-3.22947	-2.44113	-0.51884
3.997	1.43563	-5.16058	-4.14332	-0.99850
8.000	2.38298	-2.98402	-2.89131	-0.54892
11.996	-2.06889	-4.58163	-1.28772	-1.69627
15.999	1.43176	-3.60996	-2.75155	-1.11045
19.994	-2.45872	-3.50301	-0.97790	-2.10786
23.994	-3.50089	-4.80311	-1.66113	-2.39472
28.007	-2.55086	-6.17290	-1.39609	-3.83530
32.000	-1.94964	-6.45085	-1.03856	-3.46006
35.998	-1.66797	-8.59003	-1.11710	-2.93303
39.995	-2.71857	-5.14491	-1.64838	-2.97615
43.994	-1.92106	-4.68172	-1.13454	-2.89768
47.994	-2.92837	-4.18147	-0.91800	-2.69122
51.998	-1.59246	-3.71041	-1.66919	-1.46920
55.993	-1.43064	-6.25924	-1.82519	-1.85033
59.995	-1.53104	-4.94772	-1.77692	-3.14072
64.001	-1.59722	-3.78692	-1.54507	-2.80992
68.007	-1.85641	-5.89795	-1.89010	-2.64421
71.997	-2.33068	-3.26329	-2.65790	-1.59202
75.992	-1.63906	-4.39180	-1.65004	-1.81685
80.002	-3.44881	-2.72167	-2.06386	-1.74287
83.999	-2.12330	-2.72642	-2.09807	-1.87262
87.995	-1.36536	-3.33889	-2.24666	-2.37532
91.991	-2.36777	-3.32878	-2.20862	-2.66725
95.998	-3.41083	-5.44895	-1.29807	-2.92324
100.001	-1.88531	-6.06038	-2.04483	-2.62798
103.998	-3.14268	-6.20679	0.91274	-4.82183
107.999	-1.89798	-2.96898	0.67918	-6.23562
112.003	-2.44180	-2.83611	0.28416	-5.89200
115.995	0.73538	-3.39691	-1.82197	-3.19333
119.997	1.06329	-3.01262	-1.93410	-3.26269
123.991	-2.00338	-2.84032	-1.85051	-2.84711
127.999	-2.36192	-4.73438	-2.00450	-2.51456
131.995	-3.81261	-5.92284	-2.11264	-1.88243
135.996	-3.28954	-5.65820	-2.60741	-1.42482
139.996	-2.49159	-3.54148	-2.39557	-1.64732
143.992	-3.97884	-5.79267	-2.52901	-1.22063
147.994	-2.11437	-5.40814	0.44269	-1.41391
152.001	-0.05410	-4.48323	-2.13088	-1.03461
155.999	-1.03890	-4.37477	-1.78810	-2.81899
159.993	-1.93943	-2.36741	-2.51168	-2.43506
163.993	-1.89808	-4.42484	-2.67231	-1.80360
167.996	-1.80729	-3.63379	-2.65119	-1.56562
171.994	-0.43854	-3.36418	-2.66882	-1.39818
175.998	2.94230	-5.04594	-2.91488	-1.60638
179.994	-2.00224	-2.92234	-3.28617	-1.28357
183.995	-2.49642	-2.80796	-2.27188	-0.94193
187.993	-1.73259	-0.92637	-2.33606	-0.48201
192.000	3.58803	-3.99129	-1.86360	-2.84585
195.994	0.22614	-2.69497	-2.12164	-2.41060
199.886	-2.69896	-3.61055	-1.87262	-1.99580
203.873	-1.55869	-1.97779	-2.46758	-1.55738
207.868	-0.89619	-2.47944	-2.13477	-2.97519
211.868	-0.49669	-2.38688	-2.23102	-2.14201
215.863	-0.45872	-5.34185	-2.07940	-2.25874
219.871	-2.53362	-2.16043	-1.77318	-1.44917
223.869	4.17719	-1.94367	1.27703	-2.52894
227.865	5.15005	-3.46346	3.07172	-1.34244
231.866	0.62280	-1.13266	0.90381	2.07042
235.871	-0.24177	-1.97262	0.90919	-1.20726
239.874	3.20587	-1.31387	0.38809	-0.37516
243.869	3.25483	-2.16106	1.52094	-2.51316
247.866	4.07132	-3.64221	-0.76245	-0.31421
251.869	1.77521	0.84994	-0.12913	-2.47638
255.869	0.21351	-0.37494	1.66787	-2.38611
259.866	2.71315	-2.10995	-0.25783	-0.18053
263.866	4.50251	-3.29479	1.32716	-1.38713
267.864	2.17150	-2.91633	-0.38152	-0.62415
271.872	1.70636	0.08023	-0.29776	-0.06868
275.866	0.62521	0.49682	-0.42916	0.61624
279.871	1.39745	0.23587	-0.45884	0.33913
283.871	-0.92175	0.20774	-0.56069	0.95579
287.865	0.91542	0.24237	0.30066	-1.76281
291.865	-1.04223	0.14524	-0.66935	0.93214
295.864	-1.21117	0.01642	-1.23032	0.53094
299.869	-1.18490	0.00470	-0.19283	-4.23979
303.868	-1.12529	-0.13023	-0.72124	-1.15911
307.865	1.03898	-3.32557	-0.68523	-1.39381
311.865	-1.03340	2.33216	-0.91810	-1.06125
315.866	-1.21727	1.97036	-1.01017	0.90564
319.865	1.76926	-0.47982	-2.10213	-1.41030
323.875	-1.18413	-0.29415	-0.86999	-1.48468
327.869	-1.14952	2.76192	-0.66913	-1.48455
331.869	-1.19460	2.15649	-0.73149	-0.15457
335.865	-1.16406	3.47177	-0.87570	-1.27520
339.868	-1.03853	2.84087	-0.76007	0.52391
343.867	1.10432	1.79237	-1.14446	-1.60871
347.871	-0.88637	3.40528	-0.73139	1.14150
351.863	-0.86002	2.94535	-2.59941	-0.84548
355.871	1.90296	5.70050	-0.64161	-0.05469
359.865	-0.27014	2.45213	-0.40941	-1.84469
363.872	0.20097	5.85434	-0.65967	-0.33772
367.866	0.90304	2.89947	-0.64285	-2.11491
371.867	-0.98296	5.92723	-0.73975	-0.59432
375.865	-0.17680	3.69803	2.74541	-2.69138
379.871	-0.43301	8.37572	-0.78295	-0.84779
383.867	0.54257	6.10995	-0.25552	1.73333
387.865	1.11663	4.30003	-0.14409	-2.98488
391.864	-0.13751	6.27147	2.19631	-3.40116
395.870	0.26155	6.99832	-0.12940	1.47797
399.883	0.68841	5.38713	-0.74747	0.24810
403.865	-0.17154	4.68469	-0.47971	-3.20670
407.872	-0.16360	7.86219	-0.56927	-2.02821
411.862	-0.26006	7.90815	-0.47331	2.64893
415.868	2.37689	5.38086	0.02231	2.00319
419.865	1.80707	4.68619	-0.43715	1.15669
423.865	-0.09557	5.60801	-0.34762	1.55261
427.864	-0.23046	6.22996	-0.59389	1.16170
431.863	0.47197	2.25732	-0.64223	1.40237
435.864	-0.90145	5.79405	-0.82545	1.18233
439.906	-1.31148	5.52400	-0.96678	1.19545
443.876	2.41447	5.97164	-0.84262	0.47153
447.869	0.43661	6.52387	-0.94026	1.38034
451.863	1.24736	6.32875	-1.03478	1.36193
455.868	0.07076	6.75093	-0.99616	1.32489
459.864	0.88686	6.80568	-0.80119	0.75473
463.862	2.54474	6.12285	-1.02675	-0.83414
467.863	-0.67637	6.96873	-1.01538	-0.04485
471.916	-0.32449	4.12407	-1.01469	-0.10815
475.870	-0.71446	4.95001	-1.09093	0.20300
479.866	0.29870	4.30338	-1.08949	0.44421
483.862	4.60464	1.89594	-1.01747	0.24358
487.868	4.02275	4.28193	-0.83280	0.75469
491.873	1.26078	4.89562	-0.92862	0.54731
495.864	1.48716	5.08345	-0.95480	2.71271
499.866	-0.72007	5.82766	-0.83463	1.51794
503.863	-0.07272	5.28759	0.57503	1.40934
507.866	4.75842	4.20028	-1.01327	0.36048
511.861	2.40206	4.57775	-0.81535	0.54962
515.863	5.50055	4.55672	1.02484	0.89642
519.867	-0.19239	5.20648	-0.40331	4.17663
523.864	1.66953	4.27448	-0.87230	0.47356
527.864	3.68804	3.74222	-0.76759	-0.18392
531.865	3.95789	4.16536	-0.13198	-5.08840
535.870	4.63785	3.59764	1.24307	0.23857
539.892	-0.03420	2.42075	-0.56379	2.35094
543.868	1.16178	2.72847	-1.21834	2.97301
547.865	2.61491	3.04664	-0.37891	2.09929
551.864	3.90960	2.52349	-0.53783	0.73576
555.862	8.39035	-3.49243	-0.69583	1.49912
559.859	4.93841	2.12886	-0.46599	1.46278
563.866	2.04314	1.81464	-0.94433	1.45108
567.867	1.92808	1.23486	-1.02186	1.76370
571.874	2.94891	-0.07604	-1.08450	1.24231
575.865	5.02585	-0.97337	-1.19130	1.08078
579.863	4.49839	-0.64468	-1.01702	1.03268
583.861	3.51399	-1.09351	-1.24533	0.78997
587.867	4.58412	-1.18927	-1.11876	0.60760
591.864	4.99815	-1.58850	-0.63558	1.10879
595.865	1.68106	-1.08221	-1.16580	1.34774
599.861	2.67863	-1.06152	-1.26721	1.66613
603.866	4.81803	-1.26272	-0.81196	3.67737
607.860	4.90272	-0.90917	-1.29107	0.98231
611.863	5.35278	-4.54055	-1.28755	0.08392
615.868	5.98407	-3.17121	-1.19505	-0.38848
619.893	6.24818	-0.40868	-1.17664	0.00373
623.864	6.48886	-3.98524	-0.98291	0.41938
627.868	3.82284	-3.18580	-1.22923	1.51418
631.861	7.20038	-4.42462	-1.29635	1.84012
635.866	2.85274	-1.96351	-1.24327	0.19037
639.860	5.14239	-6.80751	-1.36781	-0.25637
643.863	2.89354	-1.58511	-1.24426	-0.40645
647.861	-1.88001	-0.82551	-1.29181	0.00452
651.865	1.03253	-2.10669	-1.36308	-0.31370
655.881	0.62563	-2.14231	0.39809	1.30191
659.868	0.74064	-2.16988	-1.02293	1.43853
663.864	0.82389	-2.21630	-0.77059	2.50379
667.861	2.88213	-2.83046	-0.69628	2.00337
671.857	0.92071	-2.24329	-1.14109	1.98309
675.861	0.87729	-2.47533	-1.17203	2.26218
679.864	2.93549	-2.37901	-1.14012	1.96766
683.862	1.31774	-1.15619	-1.06289	1.47710
687.862	0.04204	-0.82575	-1.23310	1.38748
691.864	0.30461	-1.42493	-1.32751	1.17667
695.866	-0.47207	-1.99161	-1.42752	1.21129
699.867	-0.99556	-0.75846	-1.59953	0.18302
703.858	-0.64722	-0.96946	-1.50844	-0.26105
707.858	-0.28510	-1.75222	-1.37096	-0.40075
711.860	-0.50217	-1.31126	-1.33165	-0.67345
715.861	1.88385	-1.84615	-1.22581	-0.82750
719.857	2.78773	-1.56973	-1.13779	-0.60031
723.861	3.92803	-1.00702	-1.03402	-0.70706
727.861	0.18114	-1.02668	-1.09959	-0.68461
731.858	0.13645	-1.44725	-1.28832	-0.34554
735.863	0.47666	-1.73870	-0.97199	1.30886
739.868	-0.09845	-1.55262	-1.06242	-0.16994
743.860	0.90699	-0.64366	-1.18334	0.24036
747.862	0.41467	-0.33597	-1.07505	1.03703
751.858	0.54419	-1.50815	-1.33078	0.49261
755.862	0.66322	-2.65511	-1.31017	-0.58279
759.860	2.61583	-3.07805	-1.19259	0.32160
763.861	0.89503	-1.32709	-1.17128	0.66897
767.859	0.68667	-1.55608	-1.02903	1.29220
771.860	0.96212	-2.35459	-0.99216	-0.19682
775.857	0.33645	-1.05203	-1.24778	-0.27951
779.862	-0.08066	-0.97700	-0.91078	0.79972
783.861	0.16568	-2.54917	-1.39103	1.71531
787.881	1.92518	-2.57246	-1.40973	-0.21162
791.864	2.33410	-2.35282	-1.69448	-0.35320
795.857	2.66810	-2.08127	-5.01928	-3.19607
799.858	3.77093	-2.02120	-1.55467	0.38340
803.859	1.41038	-1.10728	-1.14203	0.42669
807.858	1.52191	-0.98659	-0.93740	-0.06669
811.858	1.77600	-0.72918	-1.49225	-0.49986
815.875	0.77516	-0.74179	-1.51563	-0.22632
819.860	1.55871	-0.59986	-1.27070	-0.32914
823.863	1.49096	-0.28246	-1.39421	-0.14746
827.861	1.03148	-0.24492	-1.43458	-0.21940
831.856	1.97567	-0.53437	-1.43079	-0.14140
835.857	1.00615	-0.35436	-1.62130	-0.05072
839.856	1.27810	-1.21665	-1.71459	-0.23574
843.857	0.01799	-0.78295	-1.87366	-0.20507
847.859	0.80213	-0.64306	-3.56821	-0.95951
851.857	1.06530	-0.64259	-2.87262	-0.73705
855.855	1.19430	-0.91102	-4.88589	-3.77264
859.858	0.41750	-1.81914	-5.01546	-3.76303
863.861	-0.95363	-0.66238	-5.15802	-3.86743
867.856	-0.91887	-1.06636	-4.41302	-3.53758
871.858	2.23194	-1.48077	-4.61297	-1.16102
875.856	2.46573	-2.28550	-3.61345	-0.70621
879.858	1.29023	-2.08012	-3.90032	-0.59758
883.858	2.38333	-1.17721	-3.26416	-0.21670
887.854	-0.88813	-0.10366	-3.39282	-0.69514
891.861	2.47316	-1.43536	-1.86694	-0.36123
895.857	-0.99621	-0.39071	-1.20231	-0.40919
899.856	-0.48068	-1.01803	-3.16517	-3.23314
903.867	-1.14955	-0.86799	-2.49927	-2.09682
907.863	-1.24808	-0.93609	-2.70297	-1.00720
911.856	-3.96869	-1.91215	-3.10772	-1.65362
915.856	-2.57298	-1.42689	-3.35330	-0.58929
919.860	-2.40994	-2.16864	-1.67092	0.17280
923.857	-0.85731	-1.16677	-3.05885	-0.44011
927.858	-1.07830	-0.69463	-3.41058	-1.37449
931.856	-1.06170	-0.70628	-1.69304	0.00636
935.854	-0.68672	-0.94238	-2.06456	-0.20614
939.859	-0.79416	-0.72583	-1.63921	0.14712
943.856	-0.63920	-0.72270	-1.50800	0.24652
947.862	-0.11625	-1.07755	-1.46784	0.14117
951.857	-0.12180	-0.55578	-1.48962	0.28231
955.858	-0.23822	-0.41999	-1.37377	0.15250
959.858	-0.17707	-0.31774	-1.16200	0.11369
963.859	-0.40906	-0.12153	-1.02320	0.03478
967.854	-0.43028	0.06043	-1.04875	-0.15036
971.856	0.28788	-0.15458	-0.99685	-0.44274
975.857	0.29431	-0.12310	-1.02097	-0.47021
979.855	0.01908	0.13657	-0.99611	-1.30155
983.859	0.30714	-0.16425	-0.19790	0.59755
987.863	4.86598	-0.05204	-0.83563	1.80465
991.858	5.72669	-2.15257	-0.83501	1.36392
995.852	7.09974	-2.13149	-0.90073	1.41745
999.859	-0.05884	-0.03327	-0.88706	0.30975
1003.859	0.09669	0.27943	-0.93212	-0.23032
1007.854	0.56175	-0.37341	-0.29245	0.82959
1011.859	5.23489	-2.80146	-0.82766	1.73528
1015.854	4.46882	-0.23451	-0.92912	1.11390
1019.860	0.45401	-0.46262	-1.16113	0.54946
1023.911	3.30769	-0.03964	-1.31888	1.43617
1027.858	-1.94761	-0.13935	-3.02046	1.68547
1031.856	-0.06013	0.84374	-2.94988	-0.13860
1035.854	-2.96247	-0.30218	-5.38307	1.22586
1039.857	-4.07347	-0.42609	-6.29627	0.09717
1043.852	-2.89990	-0.65267	-5.88113	-0.89107
1047.856	-3.85049	-0.87681	-5.37239	-1.30958
1051.855	-3.45316	-1.50662	-5.33062	-0.97678
1055.727	-3.21612	-2.97955	-5.69861	-1.20600
1059.727	-2.59255	-1.37140	-5.84890	-2.24492
1063.728	-2.58665	-3.11208	-5.87111	-2.89068
1067.731	2.96116	-3.99398	-5.84996	-3.41866
1071.732	1.41871	-3.83736	-6.01066	-3.22383
1075.733	-0.49527	-2.42510	-6.10791	-3.07316
1079.738	-1.91117	-2.21138	-6.26772	-2.05767
1083.728	-1.96472	-2.93996	-6.53051	-1.63792
1087.732	-1.54847	-3.20168	-6.07530	-1.71999
1091.728	-2.58440	-2.73109	-6.67052	-0.90332
1095.730	-1.37937	-2.07967	-6.69598	-0.23478
1099.724	-1.85775	-2.58782	-6.38699	-0.60821
1103.726	-1.56337	-2.69396	-6.22677	-0.65563
1107.729	-2.42936	-2.88754	-6.32409	-0.78433
1111.726	-5.80337	-2.53330	-6.46184	-0.46031
1115.727	-5.36772	-2.65265	-5.82741	-0.81375
1119.732	-5.30114	-2.47554	-6.15993	-1.65650
1123.728	-2.50135	-2.60072	-6.51378	-2.15577
1127.725	-2.28636	-2.54579	-5.95297	-2.05818
1131.730	-3.59149	-2.04699	-5.62326	-2.45592
1135.729	-4.01517	-2.17295	-5.89760	-3.00745
1139.727	-4.40794	-2.53218	-3.64869	-2.32141
1143.722	-3.32956	-3.13223	-7.32837	-0.56817
1147.726	-4.03379	-2.47397	-6.44785	-0.74531
1151.724	-3.39493	-2.67797	-5.89478	-0.57833
1155.732	-4.18731	-2.32536	-4.47521	-2.57099
1159.733	-2.88633	-1.95524	-4.26993	-3.00780
1163.728	-1.84632	-2.59959	-6.88988	-2.28525
1167.726	-3.68364	-2.65890	-6.12050	-1.70915
1171.730	-3.33082	-1.47191	-5.73910	-2.57477
1175.729	-2.55165	3.88681	-3.80073	-2.50617
1179.726	-3.37645	3.77642	-6.27638	-1.94817
1183.732	-3.48692	2.46282	-8.10095	-1.66240
1187.727	-3.53978	0.61543	-5.95584	-0.22619
1191.728	-0.96164	-0.86980	-4.93144	-0.03164
1195.730	-0.41688	1.16210	-4.67118	-1.83945
1199.726	0.02301	1.69839	-3.40079	-3.91054
1203.733	-3.45143	2.84608	-6.31164	-2.09286
1207.728	-3.53891	2.04359	-6.14440	-1.42028
1211.732	-2.17514	0.43397	-6.14827	-0.56440
1215.727	-2.44705	0.63968	-6.06343	-0.64283
1219.725	-2.26963	0.89243	-6.06882	-1.29989
1223.726	-3.93226	1.34098	-6.23925	-1.81620
1227.725	NaN	NaN	-6.43770	-2.79053
1231.727	NaN	NaN	-5.31160	-4.27952
1235.729	NaN	NaN	-4.03715	-1.78506
1239.758	-3.42272	7.80373	-3.59246	-1.09773
1243.734	-3.61760	6.36696	-5.50063	-1.49683
1247.726	NaN	NaN	-5.64240	-1.46783
1251.725	NaN	NaN	NaN	NaN
1255.723	2.11318	-0.38204	-4.99371	-1.46212
1259.727	-0.48215	0.08473	-5.05622	-0.43507
1263.727	-0.72556	1.63289	-3.67156	-0.14621
1267.724	-0.54699	-4.16476	-2.62390	0.06576
1271.726	4.45079	-1.56574	0.53838	0.29099
1275.728	4.41285	-4.58776	0.83377	-0.34169
1279.720	9.10204	-3.82408	1.18808	-1.75966
1283.732	4.58940	-3.29906	5.03514	-0.72588
1287.727	12.21174	-6.73501	2.97668	-0.87744
1291.728	8.12308	-3.86983	3.67909	-2.13580
1295.720	10.57299	-5.94916	4.92964	-1.83844
1299.723	10.70596	-3.85294	4.74523	-2.41158
1303.724	14.97759	-6.78338	4.66502	-3.22053
1307.725	9.08866	-4.74170	3.94759	-1.05451
1311.723	10.42552	-6.98341	3.29580	-0.47782
1315.725	8.58063	-7.14999	4.08162	-1.60765
1319.726	13.12547	-6.67100	5.75301	-2.08455
1323.724	8.71286	-7.28504	4.58698	-0.02735
1327.735	7.14963	-7.42554	3.32909	0.54646
1331.724	9.00762	-7.76903	4.02932	-0.10480
1335.727	10.87094	-10.53705	4.11952	0.12990
1339.721	4.70801	-7.83899	5.17789	-0.11369
1343.724	10.29788	-10.91873	3.77738	-0.38861
1347.726	14.49379	-12.96324	3.79509	-0.47503
1351.723	5.48046	-12.25246	3.60561	0.00451
1355.749	6.39302	-11.75709	4.79605	-0.87136
1359.728	9.10959	-14.10487	4.43298	-1.40968
1363.723	6.79665	-13.63126	4.47878	-0.32500
1367.730	7.54115	-13.72956	4.43261	-0.91753
1371.726	10.84942	-14.03009	4.36471	-2.13982
1375.724	11.36956	-10.75126	4.35795	-1.60490
1379.728	7.44567	-8.25889	4.11108	-1.58577
1383.720	12.18969	-11.88697	4.20701	-2.49327
1387.722	8.07920	-12.61836	4.32984	-2.14554
1391.723	6.90532	-9.92075	4.10814	-2.17864
1395.721	8.53544	-5.71987	4.18371	-2.05244
1399.723	8.77441	-14.23790	4.81446	-2.49861
1403.726	7.99245	-1.34039	3.54868	-2.13573
1407.730	5.51991	-4.33002	4.26923	-1.81323
1411.726	7.15872	-4.19682	4.56634	-2.23775
1415.719	8.69350	-3.55686	3.14209	-1.60156
1419.721	9.04415	-6.19708	4.17127	-1.84673
1423.720	7.18501	-4.04609	5.12511	-2.14659
1427.725	8.17135	-3.35991	3.60949	-1.37035
1431.724	4.30013	-3.84108	4.39044	-1.58906
1435.720	5.80921	-4.73806	4.57312	-2.20008
1439.741	5.17235	-2.01998	5.80111	-1.56898
1443.729	3.67657	-4.32887	4.27921	-1.44803
1447.755	5.63129	-4.77987	4.40090	-1.37215
1451.727	7.62348	-4.40082	4.57936	-2.31143
1455.724	5.56266	-3.44782	4.29374	-2.65806
1459.720	3.47688	-4.53583	4.29502	-1.46003
1463.725	5.84109	-3.68976	4.25504	-1.59058
1467.723	7.97987	-4.37867	5.24882	-3.21890
1471.721	7.81656	-1.96883	4.48727	-2.49910
1475.724	8.21208	-4.41410	6.18622	-1.55807
1479.720	5.79317	-2.12055	4.30675	-0.90602
1483.724	4.96844	-3.59593	4.44023	-1.30567
1487.722	6.53105	-4.31229	4.42720	-2.40078
1491.727	5.39480	-4.12412	4.41327	-1.24705
1495.728	5.93495	-2.29834	5.89208	-1.82887
1499.721	6.23001	-2.74700	4.39136	-1.54833
1503.728	8.00245	-4.35325	4.51642	-1.76945
1507.723	8.85281	-4.26606	4.52126	-2.39790
1511.721	6.03844	-4.45915	5.15871	-1.19562
1515.724	3.73102	-4.14253	4.38578	0.09690
1519.721	1.58845	-8.76116	4.60047	-0.66240
1523.722	3.41075	-7.07496	5.02226	-1.23265
1527.719	4.17462	-7.55850	4.89612	-1.56979
1531.725	4.75450	-5.22995	4.92548	-1.67446
1535.726	5.00270	-5.85901	6.05911	-1.69039
1539.719	6.25853	-5.61682	5.15116	-0.87381
1543.719	8.50209	-3.56318	3.44236	0.70034
1547.724	7.96356	-5.38968	4.97024	-1.81767
1551.721	6.33870	-3.94878	6.31764	-0.46160
1555.721	11.43567	-1.33224	8.67784	0.15078
1559.751	11.78780	-2.98658	9.45829	-0.73839
1563.731	9.87883	-5.98439	12.33264	-1.54844
1567.726	12.60795	-5.22626	12.15386	-1.79473
1571.719	16.33500	-5.67250	13.44705	-0.84055
1575.730	16.36032	-7.89619	15.05836	-2.12657
1579.721	18.04938	-7.42611	12.93203	-2.43348
1583.722	18.52864	-6.56844	12.53646	-1.88705
1587.718	18.55053	-6.74575	12.44709	-0.95991
1591.723	18.97181	-7.28998	12.67022	-1.54504
1595.720	21.26865	-8.52463	12.58420	-3.58131
1599.722	18.48644	-7.55638	12.54795	-2.00892
1603.719	17.61678	-6.73157	13.04346	-2.48258
1607.723	19.17263	-8.31649	12.19462	-2.50536
1611.721	19.86113	-8.28461	12.88657	-2.04319
1615.722	19.18691	-7.33269	12.80610	-1.99808
1619.721	13.83292	-8.72039	12.91505	-1.88644
1623.723	18.30582	-7.05423	12.70364	-1.62164
1627.739	14.65188	-7.12230	12.91333	-2.15975
1631.724	18.05368	-6.79172	12.75528	-2.27942
1635.721	18.37151	-7.29767	12.82205	-2.37604
1639.719	18.93216	-8.10204	12.79260	-2.49312
1643.725	18.98868	-7.85177	12.97340	-1.92003
1647.721	18.73362	-7.80537	13.19087	-1.75005
1651.722	18.39438	-7.45483	12.79180	-1.98021
1655.718	18.61639	-7.74100	12.82925	-1.44448
1659.729	18.48735	-7.89706	12.91475	-1.46200
1663.722	18.32906	-7.78043	12.72756	-1.45507
1667.717	18.34433	-7.87390	12.87414	-1.50087
1671.719	18.48671	-8.08709	12.54568	-1.65987
1675.720	18.66971	-8.30151	12.59193	-0.51642
1679.715	17.97068	-7.57056	12.58980	-0.13023
1683.717	18.03966	-8.14054	12.52542	-0.02135
1687.722	18.13412	-7.97939	12.61351	-0.05788
1691.717	17.61703	-7.42370	12.65763	-0.18324
1695.719	17.41621	-7.62212	12.43757	-0.15637
1699.724	16.68291	-6.97969	12.55001	-0.96957
1703.721	17.23971	-5.74655	12.54074	-0.57291
1707.718	16.09205	-3.91780	12.54682	-1.41348
1711.717	18.37142	-6.64973	12.53523	-0.89064
1715.720	18.35108	-6.93896	12.69056	-1.13542
1719.715	17.69570	-6.83745	12.33011	-1.14817
1723.720	17.98470	-6.78815	12.44119	-0.84470
1727.718	17.82708	-7.23784	12.75103	-1.23419
1731.716	17.07356	-6.43056	12.69764	-1.23930
1735.716	16.71075	-6.30417	12.51011	-1.24333
1739.715	18.25890	-6.68432	12.52757	-1.33177
1743.723	15.89007	-6.41480	13.03788	-1.66702
1747.721	18.24694	-7.18965	12.66866	-1.62184
1751.737	18.42193	-8.83136	12.74360	-1.87269
1755.721	18.10632	-7.27697	12.72662	-2.04291
1759.716	16.96543	-6.71621	12.52906	-1.99635
1763.720	17.26633	-7.43673	12.22457	-2.09560
1767.716	18.01644	-7.72906	12.49916	-2.18917
1771.722	18.16997	-7.81690	12.30895	-3.23729
1775.720	14.92586	-6.40110	12.16515	-2.22133
1779.717	18.30595	-6.32810	12.38301	-2.11535
1783.726	18.14665	-5.95250	12.62065	-2.27276
1787.720	17.85960	-5.31839	13.37256	-2.23022
1791.718	17.66463	-5.58526	12.16823	0.37801
1795.716	17.96096	-6.68263	12.30014	-1.90312
1799.720	17.20009	-6.61091	12.72433	-1.87237
1803.716	16.49257	-5.03208	12.60987	-1.27959
1807.719	17.63948	-8.22126	12.91845	-0.15036
1811.715	16.94436	-6.53115	12.36236	-1.55763
1815.733	19.48275	-8.22493	12.64650	-1.73470
1819.718	17.35654	-6.16457	13.16974	-2.23285
1823.721	17.48516	-5.83772	12.42796	-1.78144
1827.722	17.95521	-6.99479	12.77584	-1.89145
1831.719	17.97331	-7.23155	12.61826	-0.70908
1835.721	18.24813	-6.65372	12.84305	-1.36223
1839.717	18.95519	-7.91208	12.86834	-0.78743
1843.718	14.71728	-11.04391	15.43127	-2.03867
1847.715	16.90822	-11.98027	12.89364	-1.96577
1851.720	16.86005	-12.26339	12.79149	-2.03211
1855.715	18.33017	-8.81268	12.89687	-2.27534
1859.718	-19.99372	-12.03320	12.52899	-2.29118
1863.741	20.15025	-6.77799	12.40223	-1.99367
1867.724	20.75278	-8.25658	12.53405	-2.09130
1871.719	20.49842	-8.92639	12.58340	-1.71749
1875.720	18.02844	-8.34298	12.93747	-1.58278
1879.713	18.44087	-8.61170	13.22984	-1.60626
1883.712	23.11404	-10.74565	16.60233	-2.46890
1887.718	16.80073	-7.31452	13.38729	-1.15009
1891.716	9.72250	-12.10244	13.32127	-1.22137
1895.716	23.25528	-13.61705	13.30660	-0.77150
1899.715	22.96223	-11.24831	13.49094	-0.96582
1903.717	23.13007	-11.95222	19.05793	-0.62556
1907.592	20.55688	-11.24753	17.09785	-2.81957
1911.592	-19.99372	-11.82144	19.32358	-2.50307
1915.600	17.62713	-6.06058	13.54187	-0.73058
1919.592	17.52439	-5.68799	13.24252	-0.69359
1923.589	20.37913	-8.03979	18.90409	-2.71873
1927.589	20.35782	-7.24633	18.92002	-0.95663
1931.590	18.35202	-5.92370	13.40225	-2.55925
1935.587	17.39404	-7.91419	13.54488	-1.96094
1939.634	14.67783	-0.89379	13.49331	-2.47780
1943.589	15.26261	-6.37154	NaN	NaN
1947.590	14.71891	-6.21699	13.32407	-1.38562
1951.589	7.19019	2.51034	11.16583	-2.00965
1955.599	6.91334	1.10247	1.59710	-2.69189
1959.590	9.76129	-3.23753	0.72613	-3.39818
1963.588	6.65404	-3.01616	1.64947	-0.79690
1967.607	6.24043	-3.30343	2.51509	1.35181
1971.592	-0.43596	-2.70111	-3.82452	0.51741
1975.588	2.45143	-4.92775	-3.98225	-1.38215
1979.591	2.44336	-2.86629	-4.67559	0.64977
1983.589	-4.43796	-3.33911	-6.22194	-0.05039
1987.589	-1.64531	-2.77326	-5.74308	-2.48039
1991.586	-4.62875	6.95322	-7.14726	-0.61206
1995.597	-6.94809	5.11964	-7.61433	-0.83249
1999.594	-12.97189	9.65804	-10.91076	0.64379
2003.588	-19.50773	10.50233	-12.14444	-0.60410
2007.592	-14.45409	9.55422	-10.90820	-3.35005
2011.591	-18.64612	6.08263	-12.29685	-1.08711
2015.591	-19.74122	-12.09611	-11.32784	-1.98661
2019.586	-22.59916	11.48505	-12.38879	-0.53840
2023.592	-19.36121	12.23995	-12.89725	-2.59033
2027.587	-14.00080	-6.32200	-11.11535	-2.54902
2031.590	-14.94171	-6.50082	-10.40877	-0.18812
2035.630	-14.12868	-5.18906	-11.10954	-0.04584
2039.596	-10.22719	-1.64278	-9.88547	-2.85480
2043.589	-10.43791	-3.43978	-10.20714	-0.38009
2047.590	-14.08633	-4.83158	-12.61055	-1.07309
2051.588	-10.29017	-5.29026	-10.73593	-1.62030
2055.593	-14.52667	-1.70844	-10.91583	-3.55916
2059.588	-9.48574	-1.51913	-10.90624	0.04180
2063.587	-9.93020	-1.45278	-12.39442	0.18348
2067.592	-10.39844	-1.38490	-12.95808	-1.13436
2071.589	-10.18781	-1.35046	-11.50391	-0.45981
2075.586	NaN	NaN	-12.57777	-2.65086
2079.643	NaN	NaN	-12.58583	-3.19737
2083.595	NaN	NaN	-15.73649	-2.23666
2087.589	NaN	NaN	-12.41696	0.05555
2091.585	-15.64229	14.61637	-12.27882	-0.46985
2095.588	NaN	NaN	-13.24572	-1.53722
2099.585	NaN	NaN	-11.93482	-3.09691
2103.611	NaN	NaN	-12.42458	-2.56953
2107.588	NaN	NaN	-11.12075	-2.10088
2111.585	NaN	NaN	-12.52468	0.45681
2115.590	NaN	NaN	-12.54166	0.30570
2119.585	NaN	NaN	-12.74860	-1.90993
2123.592	NaN	NaN	-15.71701	-1.85435
2127.595	NaN	NaN	-12.72260	-0.59725
2131.587	NaN	NaN	-12.14119	-2.03874
2135.586	NaN	NaN	-9.88389	-2.45730
2139.584	NaN	NaN	-12.78682	-1.15692
2143.587	NaN	NaN	-9.87967	-2.08745
2147.586	NaN	NaN	-13.12978	-0.16381
2151.588	NaN	NaN	-7.88731	-1.53326
2155.585	NaN	NaN	-5.38981	-1.75475
2159.588	NaN	NaN	-12.36473	-1.35092
2163.590	NaN	NaN	-8.94261	-1.95064
2167.586	NaN	NaN	-9.89176	-1.12866
2171.608	NaN	NaN	NaN	NaN
2175.587	NaN	NaN	-10.33456	-1.49713
2179.588	NaN	NaN	NaN	NaN
2183.589	NaN	NaN	-8.13835	-1.93574
2187.586	NaN	NaN	NaN	NaN
2191.588	NaN	NaN	-9.20284	-2.69210
2195.590	NaN	NaN	-15.78288	-3.60371
2199.584	NaN	NaN	-10.38087	-1.93469
2203.592	NaN	NaN	-12.15996	-1.93179
2207.588	NaN	NaN	-10.10418	-1.88484
2211.589	NaN	NaN	-10.28844	-3.18570
2215.584	NaN	NaN	-10.94751	-0.18202
2219.587	NaN	NaN	-8.84121	-1.51121
2223.584	NaN	NaN	-10.35837	-2.08681
2227.588	NaN	NaN	-8.77424	-5.00085
2231.584	NaN	NaN	-12.21255	-2.00969
2235.588	NaN	NaN	-9.84493	-1.99996
2239.590	NaN	NaN	-12.16339	-2.82611
2243.591	NaN	NaN	-12.40579	-0.92207
2247.591	-10.09513	-1.06266	-15.60270	-1.44626
2251.587	-10.07235	-3.34010	-13.00968	-0.67960
2255.586	-6.86068	-3.48121	-8.67039	-2.22073
2259.585	-7.22663	-1.67732	-8.70577	-3.72687
2263.583	-9.34838	-1.82878	-11.47240	-2.35818
2267.587	NaN	NaN	-9.38859	-3.95707
2271.587	NaN	NaN	-10.96590	-3.35295
2275.583	-9.83660	-1.22836	-10.65498	-3.94031
2279.589	-13.41333	-5.29608	-9.05625	-4.16379
2283.584	-15.94447	-6.55369	-14.48674	-1.66072
2287.591	-9.88721	-5.81566	-15.07047	-1.65729
2291.586	-10.00454	-1.41264	-16.04315	-2.94582
2295.587	-7.90647	-5.91336	-6.68474	-1.96092
2299.583	-9.08036	-4.31559	-6.85304	-2.59289
2303.619	-15.94743	-7.64443	-6.94985	-3.42823
2307.584	-13.99244	-2.25426	-6.94315	-4.75779
2311.584	-10.16766	-1.14560	-7.04931	-4.38275
2315.588	-10.16430	-1.06114	-10.49534	-3.31855
2319.583	-10.19361	-1.23806	-15.21160	-5.44583
2323.584	-13.89865	-4.79333	-15.03552	-5.12605
2327.582	-18.04063	-2.60213	-6.43202	-5.89314
2331.589	-17.06887	-3.36020	-10.59697	-0.61567
2335.586	-10.30495	-2.82294	-15.21282	-4.00197
2339.583	-10.67516	-2.53549	-11.39508	0.99564
2343.580	-16.25383	-3.41941	-17.28756	-3.67379
2347.585	-10.88585	-2.93027	-15.25415	-0.65395
2351.579	-18.79142	-4.24119	-20.41668	-5.68839
2355.586	-13.31911	-3.02787	-15.58704	-1.71823
2359.581	-11.99823	-4.19553	-16.42414	-1.92563
2363.581	-12.56127	-4.73141	-18.65853	-4.06992
2367.581	-14.45397	-4.81536	-18.75316	-4.45957
2371.588	-14.64408	-4.55651	-15.86721	-3.68415
2375.582	-15.18495	-3.93422	-13.34456	-4.55186
2379.583	-20.05040	-4.76637	-19.82575	-5.92918
2383.584	-14.86585	-4.12465	-22.53506	-4.26753
2387.607	-19.25301	-6.93790	-16.51372	-4.58873
2391.584	-14.79206	-4.78172	-23.06355	-4.86416
2395.579	-14.02571	-4.45907	-22.94142	-6.52078
2399.586	-17.64597	-7.18885	-23.16304	-7.64762
2403.582	-18.76473	-5.78199	-22.71126	-6.96169
2407.584	-18.64086	-7.99620	-16.03625	-3.21846
2411.578	-20.57550	-5.49497	-19.71481	-4.46340
2415.590	-19.06398	-5.94863	-19.70082	-4.23552
2419.581	-20.04948	-4.87573	-18.64866	-3.49245
2423.580	-18.97119	-9.01844	-20.00819	-4.59645
2427.577	-13.67653	-2.85139	-15.83896	-3.60831
2431.580	-17.93354	-5.67726	-21.06025	-7.36007
2435.580	-13.68239	-3.18399	-22.87614	-7.25151
2439.582	-17.92848	-5.38852	-19.91687	-4.86407
2443.585	-13.53810	-2.98855	-22.33823	-6.56495
2447.579	-20.48821	-4.34451	-16.93532	-3.12391
2451.580	-13.69823	-2.50691	-18.89987	-5.76078
2455.584	-15.50665	-2.33109	-19.04210	-4.90798
2459.591	-20.97355	-8.64153	-19.71120	-4.76701
2463.580	-23.19370	-4.13833	-16.56164	-1.50487
2467.582	-17.50178	-2.72256	-16.70748	-2.13954
2471.583	-17.02753	-2.60032	-16.35146	-1.74813
2475.585	-18.15814	-4.76464	-21.72726	-5.17104
2479.582	-17.07025	-2.77186	-21.08488	-4.79931
2483.580	-16.62503	-3.03807	-21.17015	-4.59945
2487.584	-18.77894	-4.43284	-21.46361	-4.43506
2491.580	-23.01267	-7.81187	-16.38091	-1.13845
2495.588	-16.54084	-5.76042	-18.84552	-1.76837
2499.582	-16.67047	-5.91401	-16.66004	-1.44213
2503.585	-17.46116	-7.05045	-16.61746	-1.65640
2507.583	-18.82169	-4.91503	-16.35861	-1.44450
2511.582	-15.20963	-4.72199	-21.64947	-4.29684
2515.607	-19.81703	-8.84970	-22.23242	-4.35410
2519.580	-20.31126	-6.81129	-16.48248	-1.84265
2523.575	-17.87439	-9.19327	-16.40857	-1.04845
2527.577	-16.79097	-9.32766	-16.58694	-1.30449
2531.579	-16.15799	-2.32760	-17.90379	-1.11767
2535.580	-15.67393	-2.39015	-18.47191	-0.13496
2539.581	-18.79331	-0.51804	-22.13093	1.89690
2543.586	-22.36687	2.23951	-22.27952	3.30034
2547.579	-21.30082	8.34011	-19.83715	-12.08903
2551.581	-20.12550	-12.06658	-19.90991	-12.08365
2555.577	-20.08751	-12.06993	-19.93218	-12.08200
2559.581	-20.04238	-12.07351	-19.94782	-12.08084
2563.577	-19.96516	-12.07935	-19.95757	-12.08011
2567.580	-19.97334	-12.07885	-19.96426	-12.07961
2571.578	-19.97720	-12.07865	-19.96913	-12.07925
2575.581	-19.98000	-12.07844	-19.97617	-12.07873
2580.058	-19.98217	-12.07828	-19.99558	-12.07728
2583.647	-20.00687	-12.07644	-19.99394	-12.07741
2587.588	-20.00503	-12.07658	NaN	NaN
2591.581	NaN	NaN	NaN	NaN
2595.580	NaN	NaN	NaN	NaN
2599.579	NaN	NaN	NaN	NaN
2603.581	NaN	NaN	NaN	NaN
2607.582	NaN	NaN	NaN	NaN
2611.585	NaN	NaN	NaN	NaN
2615.582	NaN	NaN	NaN	NaN
2619.585	NaN	NaN	NaN	NaN
2623.584	NaN	NaN	NaN	NaN
2627.579	NaN	NaN	NaN	NaN
2631.595	NaN	NaN	21.36320	6.29729
2635.587	NaN	NaN	NaN	NaN
2639.575	4.22491	10.84515	-2.60228	14.96894
2643.578	3.53288	8.35267	NaN	NaN
2647.579	3.46192	-1.85480	-7.71369	14.60202
2651.578	0.59213	3.99718	-6.77328	11.88199
2655.577	3.69543	4.88302	2.21172	14.31211
2659.584	1.55375	-2.55655	-5.77674	-0.03036
2663.586	2.34121	-6.16505	-2.42510	2.66528
2667.580	3.58811	2.68189	-5.46795	6.51365
2671.572	3.52282	-4.33680	-2.55544	0.65834
2675.579	1.09986	-2.64541	-2.10305	-0.56820
2679.577	2.21856	-4.31860	-2.56154	-0.16923
2683.579	6.92234	-3.46970	-0.83937	-1.19370
2687.575	1.47375	-2.89352	5.55607	4.15726
2691.580	6.59454	-2.18335	3.28813	1.64324
2695.576	6.31350	-4.33618	3.17970	2.76338
2699.573	2.04805	-1.68602	8.00151	4.95573
2703.579	3.72786	-1.48134	4.96588	4.63299
2707.577	3.59196	-3.25568	6.67145	6.13314
2711.575	3.58106	-2.11022	0.68873	-0.96650
2715.577	-4.38280	-12.27013	1.67563	-1.31470
2719.581	-0.80602	-12.42401	1.51246	-2.73376
2723.578	-19.99372	-11.84446	1.65984	-0.38097
2727.578	-19.99372	-11.90869	1.30355	-0.73856
2731.575	-19.99372	-11.94588	-0.53572	-1.49859
2735.597	-19.99372	-11.97029	1.76837	-1.20034
2739.574	-19.99372	-11.98765	1.56365	-0.48389
2743.578	-19.99372	-12.00072	1.21246	-0.22799
2747.579	-19.99372	-12.01098	1.46700	0.16097
2751.606	-19.99372	-12.01924	0.95237	-1.05945
2755.582	-19.99372	-12.02610	-0.15675	-0.79800
2759.575	4.64695	-4.06427	1.44894	-1.94355
2763.449	2.40253	-2.25437	-0.88116	-0.34208
2767.451	4.54535	-1.77774	0.00886	-0.73768
2771.449	3.70517	-1.71662	-0.44507	-1.68431
2775.450	3.75924	-3.08287	1.02838	-0.53378
2779.449	2.61015	0.22718	2.17715	-0.13568
2783.466	2.24723	-3.24650	1.37808	-0.47874
2787.457	3.54789	-3.14786	0.07607	-1.49893
2791.444	3.92927	-2.30994	0.24564	-0.10620
2795.458	3.42163	-2.93693	1.85623	-0.57968
2799.449	2.21697	-1.10807	0.94294	0.39758
2803.450	7.36352	-3.37096	0.24830	-0.27426
2807.449	2.17237	-2.73787	1.73983	-0.00847
2811.453	3.98450	-5.36688	0.41576	0.01645
2815.463	3.74323	-2.69298	0.63409	0.37050
2819.455	3.78902	-3.00058	2.47994	-0.53990
2823.449	4.30828	-2.49094	2.37416	-0.62340
2827.452	4.24707	-1.48897	4.59600	-0.76552
2831.446	3.09062	-2.89225	2.88354	0.06909
2835.453	6.33213	-2.15809	3.87406	-0.67549
2839.450	4.51736	-2.05712	2.38004	0.32449
2843.451	5.08527	0.31426	3.14927	0.33791
2847.444	4.74627	-1.74438	2.74155	0.86409
2851.447	4.56809	-9.67690	3.56020	-0.92919
2855.445	0.61421	-3.86901	3.12630	-1.21051
2859.448	0.22745	-3.75335	3.45546	-0.47960
2863.448	3.35496	-10.53664	3.70759	-0.73547
2867.451	4.36636	-10.83133	3.39322	0.33544
2871.449	3.57147	-12.56094	3.52628	0.38882
2875.451	1.77747	-9.60268	3.56062	1.13830
2879.448	3.92282	-11.36247	3.55634	-0.43950
2883.449	3.03459	-9.97977	3.51337	-0.99926
2887.450	0.66268	-12.08744	3.40200	-1.13623
2891.448	0.76446	-15.24712	2.68972	-0.57935
2895.454	-19.99372	-11.79992	3.95347	-1.09839
2899.449	-0.37367	-14.72484	2.97317	0.15026
2903.449	-19.99372	-11.89652	3.35315	0.41330
2907.445	-0.42499	-13.40584	3.24593	0.08065
2911.452	-19.99372	-12.04234	3.49325	0.35530
2915.448	6.99864	-10.53015	3.10141	-0.51701
2919.452	-19.99372	-12.05797	3.09332	-1.14050
2923.455	-19.99372	-12.09636	4.60824	-1.05352
2927.448	5.74003	-2.77896	3.09555	-0.78974
2931.451	5.54066	-3.19778	5.19581	-0.82004
2935.481	6.30602	-0.57655	2.95686	-0.89760
2939.446	5.62476	-2.60635	3.34076	-0.77281
2943.447	5.55361	-3.60672	2.16523	-1.66562
2947.443	5.60278	-0.65498	3.87850	-1.12304
2951.445	8.02034	-2.83698	4.97652	0.70953
2955.447	-19.99372	-12.07175	4.86130	-2.41735
2959.451	5.80000	-2.51419	5.24432	-1.27021
2963.450	NaN	NaN	0.96018	-1.81556
2967.447	NaN	NaN	3.23761	0.28315
2971.444	NaN	NaN	3.19058	0.92935
2975.450	NaN	NaN	3.31618	-0.43202
2979.447	2.94794	-12.84942	3.40563	0.50438
2983.448	-19.99372	-12.10660	3.26715	1.27670
2987.445	-19.99372	-12.10301	3.52408	-0.34229
2991.448	-19.99372	-12.10015	3.46508	-0.11308
2995.449	-19.99372	-12.09779	3.20065	0.77734
2999.441	-19.99372	-12.09732	3.29523	-0.37197
3003.468	-19.99372	-12.09531	3.58324	0.65662
3007.454	-19.99372	-12.09479	3.21055	-0.40227
3011.442	-19.99372	-12.09421	3.38674	-0.22087
3015.444	-19.99372	-12.09359	3.58709	-0.72542
3019.445	-19.99372	-12.09292	3.39438	-1.34536
3023.445	9.60524	-2.66059	3.41241	-0.47431
3027.446	1.54748	-14.97122	3.81869	-1.65122
3031.446	6.77037	-2.64897	3.65131	-1.95469
3035.448	8.36914	-2.81716	3.69056	-1.33970
3039.449	10.07952	-3.51979	3.89533	-1.52000
3043.449	5.56069	-2.72134	3.50336	-1.59450
3047.449	6.93628	-2.77401	3.66249	-1.18879
3051.446	-19.99372	-12.08073	3.84214	-1.27144
3055.447	5.47992	-12.79190	4.00843	-1.25590
3059.448	-19.99372	-12.09580	3.78694	-1.20894
3063.446	-19.99372	-12.09477	3.66150	-0.92597
3067.449	-19.99372	-12.09116	3.87663	-1.18557
3071.447	7.63723	-3.21326	3.71612	-1.03992
3075.447	9.04466	-4.08360	3.47144	-0.71542
3079.441	1.82324	-3.23983	3.57587	0.45092
3083.447	7.38781	-3.52613	3.67793	-0.12806
3087.448	7.44828	-6.08361	3.76665	-0.49334
3091.443	15.25037	-7.03181	4.65720	0.06056
3095.443	14.90250	-3.76704	4.50148	3.96430
3099.449	7.14768	-2.05713	7.41097	3.39852
3103.445	8.94147	2.80343	7.41534	5.17784
3107.447	17.66114	-6.45522	9.86045	4.54492
3111.442	12.44988	-1.70255	9.71117	4.35716
3115.448	12.52537	-1.57049	7.52598	5.73360
3119.446	12.88822	-6.10843	8.39117	5.61496
3123.446	13.27924	-6.64072	8.58665	5.64239
3127.449	14.81268	-3.05822	7.95353	5.59661
3131.447	13.76177	2.47214	7.80445	6.09302
3135.445	13.02533	1.28733	7.90287	6.86994
3139.444	13.02891	0.88462	8.76091	7.22867
3143.448	10.12313	-1.25254	9.75755	5.58929
3147.445	6.62424	-3.16770	8.32835	6.15644
3151.474	12.77521	1.90801	8.47585	5.06051
3155.442	12.95207	2.27822	8.75255	5.35913
3159.447	12.70128	2.37364	9.01210	6.20369
3163.445	10.51004	2.66371	8.87333	5.87814
3167.450	12.23277	2.88063	8.36664	6.22890
3171.445	9.71905	-1.69434	8.18947	6.88739
3175.443	13.59602	1.91967	8.38627	7.15508
3179.446	15.25198	1.53691	9.31414	6.44160
3183.444	12.31042	2.77925	8.92382	5.07882
3187.447	10.33500	2.88661	9.08578	5.07802
3191.446	10.56068	2.25434	7.53674	6.09926
3195.446	11.21861	2.58850	8.04662	6.30429
3199.440	12.31627	2.29038	8.43426	6.71719
3203.447	13.19880	1.54266	8.77012	6.76767
3207.448	13.37486	1.76191	9.26469	6.00460
3211.449	13.12394	2.03481	9.25915	7.18295
3215.440	13.49936	-5.42377	9.18850	6.24999
3219.441	7.75648	-2.40143	8.46480	5.39719
3223.441	7.73134	-2.32479	8.19851	5.87625
3227.444	9.22392	-2.12304	8.46002	5.83458
3231.438	11.04011	-4.71182	8.11379	5.78444
3235.446	11.18160	-5.63487	8.43486	5.89149
3239.443	11.43109	1.80272	8.71671	6.26848
3243.441	12.71151	2.01570	9.47164	5.77552
3247.441	13.24026	1.99529	9.15050	6.73013
3251.445	15.55835	1.77085	11.33597	5.66324
3255.440	11.68695	2.43925	8.23571	6.15330
3259.447	11.50539	2.12516	8.52469	5.99882
3263.442	11.35442	2.41108	8.72175	6.58774
3267.442	11.62259	2.83282	9.07426	5.94374
3271.447	11.31142	2.71889	9.60878	6.14466
3275.443	11.12689	3.14130	9.91433	5.87099
3279.443	11.12625	2.11433	11.18740	4.51081
3283.441	11.66103	-0.81871	11.47443	5.38050
3287.444	10.85923	0.32770	11.23583	5.85064
3291.447	15.47425	-4.24197	11.21336	5.78150
3295.443	7.60597	-1.66756	11.77306	5.66259
3299.440	12.43899	3.48882	8.91435	6.06906
3303.445	12.46024	6.78138	9.11307	6.02348
3307.441	10.78987	4.90163	8.62455	5.80641
3311.443	11.52703	5.96616	9.29096	5.48585
3315.440	10.61301	3.88968	11.81639	1.25980
3319.461	10.99606	3.74893	9.23783	5.84672
3323.450	11.60830	3.89426	9.93641	5.62286
3327.446	10.54207	3.75165	9.78298	5.77746
3331.441	12.00630	3.57464	9.82151	6.05424
3335.446	10.85923	3.57963	9.65712	6.08968
3339.444	10.58728	3.90484	9.85963	6.25565
3343.443	10.61565	3.84430	9.92394	6.33557
3347.439	13.81006	3.16450	9.87769	6.39504
3351.441	8.62217	-1.69295	9.90879	6.43570
3355.438	10.53104	3.43906	9.52150	6.20318
3359.440	11.60837	-3.22951	8.99276	5.57538
3363.442	12.68269	-1.86420	9.15577	3.81110
3367.443	10.84326	-0.29140	9.36419	3.20596
3371.464	13.47597	-1.67785	10.75004	6.29878
3375.445	12.37716	-0.83525	10.21464	6.22475
3379.442	14.94671	-3.63216	10.82292	5.64505
3383.441	13.80088	-0.42042	10.46894	5.85275
3387.439	19.44557	-6.28791	10.80137	5.96995
3391.440	13.42610	1.60778	8.89262	3.28740
3395.443	15.22736	-1.29457	8.55962	3.98554
3399.443	13.40586	2.18371	8.56527	3.41784
3403.442	12.63289	0.48489	8.35061	3.30096
3407.436	11.52655	2.17460	8.57105	3.05896
3411.443	12.03558	1.58767	11.04023	5.39227
3415.448	11.05715	1.97624	10.94598	4.90255
3419.447	11.38127	1.54274	8.46905	3.84241
3423.438	11.36033	1.26469	8.41602	3.38803
3427.443	9.52920	1.95484	8.48032	3.19495
3431.438	10.32654	0.42994	11.49843	6.18724
3435.437	12.20340	-1.28159	11.50672	5.66805
3439.462	17.13668	-4.92118	8.60686	5.41153
3443.447	5.19234	1.95496	10.40171	5.36396
3447.440	10.65664	-1.77125	11.01223	3.84997
3451.435	10.47595	1.21355	10.92114	6.28118
3455.441	9.24172	0.34344	13.78476	5.47659
3459.445	6.45297	-1.43498	13.37230	4.40628
3463.440	5.85328	1.41760	10.04413	3.55437
3467.438	9.57944	2.30140	8.96605	3.40135
3471.442	12.95027	-1.72437	8.97230	4.09279
3475.440	10.52576	1.05811	8.48037	4.04435
3479.436	9.22625	-0.03326	8.39491	3.44426
3483.442	5.55211	2.18031	8.49780	2.55628
3487.437	8.80754	0.91326	8.45946	3.18581
3491.437	11.37445	1.17594	8.21925	4.68419
3495.434	9.30972	0.99902	8.42020	3.56129
3499.467	9.37745	4.86726	8.30843	3.14971
3503.436	9.30090	3.99599	8.27263	3.42373
3507.438	8.61640	2.28368	8.99099	4.40492
3511.436	8.96835	2.19353	8.11994	4.20636
3515.440	8.66452	2.22204	8.27256	3.34543
3519.442	8.54777	2.34677	8.21553	2.71127
3523.437	8.30177	5.88264	8.10773	3.12307
3527.436	8.13877	6.23551	10.53725	3.28817
3531.473	12.86588	-0.50954	8.47702	4.93149
3535.442	14.16986	1.70789	12.03769	4.73501
3539.437	10.01053	6.67407	14.37925	6.31427
3543.440	15.08840	6.65683	14.49509	11.32036
3547.437	NaN	NaN	NaN	NaN
3551.436	NaN	NaN	NaN	NaN
3555.437	NaN	NaN	NaN	NaN
3559.438	NaN	NaN	NaN	NaN
3563.440	NaN	NaN	NaN	NaN
3567.441	NaN	NaN	NaN	NaN
3571.440	NaN	NaN	NaN	NaN
3575.439	NaN	NaN	NaN	NaN
3579.439	NaN	NaN	NaN	NaN
3583.444	NaN	NaN	NaN	NaN
3587.545	NaN	NaN	NaN	NaN
3591.555	NaN	NaN	NaN	NaN
3595.443	NaN	NaN	NaN	NaN
3599.894	NaN	NaN	NaN	NaN
3603.966	NaN	NaN	NaN	NaN
3607.476	NaN	NaN	NaN	NaN
3611.447	NaN	NaN	NaN	NaN
3615.316	NaN	NaN	NaN	NaN
3619.398	NaN	NaN	NaN	NaN
3623.319	NaN	NaN	NaN	NaN
3627.531	NaN	NaN	NaN	NaN
3631.619	NaN	NaN	NaN	NaN
3635.328	NaN	NaN	NaN	NaN
3639.320	NaN	NaN	NaN	NaN
3643.313	NaN	NaN	NaN	NaN
3647.314	NaN	NaN	NaN	NaN
3651.313	NaN	NaN	NaN	NaN
3655.390	NaN	NaN	NaN	NaN
3659.323	19.44317	12.40408	NaN	NaN
3663.312	17.76566	2.43226	NaN	NaN
3667.947	19.30347	1.07079	NaN	NaN
3671.677	14.50586	1.99693	NaN	NaN
3675.350	NaN	NaN	NaN	NaN
3679.317	NaN	NaN	NaN	NaN
3683.314	NaN	NaN	NaN	NaN
3687.318	NaN	NaN	NaN	NaN
3691.310	NaN	NaN	NaN	NaN
3695.313	NaN	NaN	NaN	NaN
3699.313	NaN	NaN	NaN	NaN
3703.310	NaN	NaN	NaN	NaN
3707.310	NaN	NaN	NaN	NaN
3711.311	NaN	NaN	NaN	NaN
3715.316	NaN	NaN	NaN	NaN
3719.308	NaN	NaN	NaN	NaN
3723.307	NaN	NaN	NaN	NaN
3727.311	NaN	NaN	NaN	NaN
3731.308	NaN	NaN	NaN	NaN
3735.321	NaN	NaN	NaN	NaN
3739.312	NaN	NaN	NaN	NaN
3743.309	NaN	NaN	NaN	NaN
3747.311	NaN	NaN	NaN	NaN
3751.309	NaN	NaN	NaN	NaN
3755.314	NaN	NaN	NaN	NaN
3759.313	NaN	NaN	NaN	NaN
3763.311	NaN	NaN	NaN	NaN
3767.311	NaN	NaN	NaN	NaN
3771.310	NaN	NaN	NaN	NaN
3775.311	NaN	NaN	NaN	NaN
3779.309	NaN	NaN	NaN	NaN
3783.336	3.33663	-11.25707	NaN	NaN
3787.308	-1.13196	-10.57445	NaN	NaN
3791.310	6.03645	-13.78565	NaN	NaN
3795.315	-19.99372	-12.08622	NaN	NaN
3799.313	-19.99372	-12.08620	NaN	NaN
3803.892	-19.99372	-12.08611	NaN	NaN
3807.494	0.02005	-7.91574	NaN	NaN
3811.315	-1.53156	-4.53649	NaN	NaN
3815.324	-2.53962	1.94678	NaN	NaN
3819.308	-2.15200	0.12329	NaN	NaN
3823.310	-1.53704	-6.92563	NaN	NaN
3827.310	-19.99372	-12.10221	NaN	NaN
3831.312	0.31434	-2.05560	NaN	NaN
3835.308	0.50369	-1.16452	NaN	NaN
3839.314	0.12592	-1.69439	NaN	NaN
3843.316	0.35829	-1.31948	NaN	NaN
3847.309	1.10174	-1.57803	NaN	NaN
3851.309	-1.52548	-1.65170	NaN	NaN
3855.308	NaN	NaN	NaN	NaN
3859.309	NaN	NaN	NaN	NaN
3863.311	NaN	NaN	NaN	NaN
3867.307	NaN	NaN	NaN	NaN
3871.877	NaN	NaN	NaN	NaN
3875.522	NaN	NaN	NaN	NaN
3879.311	10.63506	-1.46324	NaN	NaN
3883.326	NaN	NaN	NaN	NaN
3887.335	NaN	NaN	NaN	NaN
3891.410	NaN	NaN	NaN	NaN
3895.318	6.60747	-1.56947	NaN	NaN
3899.315	7.56618	-0.64439	NaN	NaN
3903.543	2.89039	1.18452	NaN	NaN
3907.720	2.59477	1.30907	NaN	NaN
3912.032	4.75849	1.52413	NaN	NaN
3915.881	4.01709	0.74596	NaN	NaN
3919.733	5.39441	0.82561	NaN	NaN
3923.517	3.29444	1.95352	NaN	NaN
3927.321	5.27338	1.74836	NaN	NaN
3931.313	3.53812	0.56958	NaN	NaN
3935.312	2.65956	3.18901	NaN	NaN
3939.834	4.89084	-1.19990	NaN	NaN
3943.700	NaN	NaN	NaN	NaN
3947.330	NaN	NaN	NaN	NaN
3951.311	4.83506	3.28257	NaN	NaN
3955.308	NaN	NaN	NaN	NaN
3959.315	NaN	NaN	NaN	NaN
3963.319	NaN	NaN	NaN	NaN
4088.284	NaN	NaN	NaN	NaN
4155.723	4.97073	0.47968	-2.86772	3.64113
4159.972	0.17412	-3.09888	-5.72967	3.66911
4163.448	-3.39819	2.54027	2.08510	3.66205
4167.437	-7.91590	0.83615	-4.52259	0.28705
4171.432	-14.40917	-0.83092	-8.36163	1.53730
4175.425	-12.13932	-3.42051	-11.43717	0.15040
4179.425	-11.52236	-3.01930	-10.53123	1.36832
4183.447	-13.89269	-2.99778	-10.74386	0.90747
4187.426	-11.47126	-1.46686	-11.19351	-0.18187
4191.426	-8.81329	-2.32634	-11.39029	-0.83838
4195.429	-11.59520	-1.96565	-11.35239	-1.17598
4199.427	-11.48447	-2.90988	-12.35040	-1.01889
4203.425	-9.23684	-1.40550	-11.87674	-0.23641
4207.429	-15.24022	-1.10848	-11.20822	-1.32417
4211.426	-17.23657	-1.30275	-11.75767	-1.60242
4215.428	-15.63523	0.20421	-11.61661	-1.58769
4219.427	-17.39368	-0.03844	-11.59775	-1.67298
4223.430	-17.07145	-2.39925	-11.42825	-1.42342
4227.425	-17.29077	-2.03772	-11.57098	-1.00777
4231.427	-16.73780	-0.80845	-11.60494	-0.76295
4235.425	-17.50591	-0.54090	-11.65137	-1.52006
4239.425	-17.47561	-0.04582	-11.44392	-1.95014
4243.427	-20.15186	0.23113	-11.51897	-1.35937
4247.432	-10.74791	-1.19617	-11.44454	-1.44271
4251.426	-9.11106	-1.89856	-11.25390	-1.14822
4255.428	-7.39183	-0.66106	-11.47731	-0.51448
4259.425	-20.20062	-3.98360	-11.22852	-1.88429
4263.424	-8.57376	-1.60226	-11.33418	-2.57015
4267.424	-11.06875	-1.45454	-11.25493	-0.99301
4271.423	-10.57651	-4.05200	-11.35301	-1.02240
4275.421	-9.90929	-1.67600	-11.53153	-1.00516
4279.423	-11.93151	-1.27614	-11.35594	-3.25491
4283.424	-11.97736	-1.55265	-8.18842	-2.03732
4287.428	-11.21441	-2.17727	-11.00527	-3.26766
4291.428	-10.88032	-2.24519	-11.19027	-0.93974
4295.461	-10.79864	-1.84457	-11.57103	-0.33480
4299.433	-10.92890	-2.06746	-11.26345	-1.91014
4303.438	-11.31118	-3.80051	-11.41013	-2.92937
4307.433	-10.89753	-2.24146	-11.29075	-2.37588
4311.423	-11.00644	-0.80359	-11.51728	-1.17805
4315.427	-10.84923	-1.79638	-10.71418	-0.82232
4319.426	-10.95849	-2.72026	-11.14295	-0.85723
4323.419	-9.95719	-4.80100	-11.12756	-2.52441
4327.423	-10.83192	-2.46350	-11.05072	-3.64861
4331.429	-10.87876	-0.96635	-11.25354	-2.45941
4335.423	-10.69232	-1.61083	-11.19256	-1.85638
4339.418	-10.52180	-4.49149	-11.36005	-1.48942
4343.427	-10.55152	-3.48262	-11.16483	-1.57370
4347.424	-10.54759	-3.12543	-12.01074	-1.08716
4351.424	-10.24428	-1.20235	-11.21212	-1.46566
4355.424	-10.25672	-2.88366	-11.17871	-3.23528
4359.422	-10.34792	-2.48699	-11.13996	-2.81515
4363.425	-11.17859	-2.80215	-11.31600	-2.68179
4367.429	-10.64715	-2.42323	-11.36446	-2.27132
4371.425	-10.53617	-1.28598	-11.39628	-1.58100
4375.427	-10.50433	-1.10012	-11.41380	-1.39099
4379.423	-10.11043	-1.98631	-11.72638	-1.15443
4383.425	-11.58094	-2.89026	-11.48208	-0.89011
4387.425	-10.33694	-2.58518	-11.47005	-0.41134
4391.449	-9.84120	-2.79575	-11.30655	-0.55236
4395.421	-10.45685	-1.96797	-11.58975	-0.23116
4399.423	-10.86270	-1.74995	-11.01228	-0.36280
4403.424	-10.93349	-1.55378	-11.73509	-0.07798
4407.418	-10.41662	-1.69166	-10.92389	-0.39067
4411.426	-9.97866	-1.45448	-11.70533	-0.03127
4415.426	-10.57337	-1.08991	-11.69688	-0.29796
4419.425	-10.41059	-2.39696	-10.71125	-0.47376
4423.419	-10.31662	-2.67214	-11.75253	-0.03491
4427.418	-17.76320	-2.08508	-11.76832	-0.61926
4431.423	-15.30935	-1.82131	-11.56633	-0.50226
4435.422	-15.52357	-1.70099	-11.73452	-0.68018
4439.422	-17.75870	-1.67310	-11.21317	-0.71078
4443.424	-16.98226	-0.81710	-11.46285	-0.76517
4447.419	-16.37526	1.37263	-11.58320	-0.65874
4451.425	-19.80994	-2.24145	-11.40858	-0.60659
4455.425	-17.07490	-0.57461	-11.15926	-1.83752
4459.426	-18.68098	-0.48811	-11.64247	-2.06231
4463.422	-19.62011	1.29895	-11.62161	-3.21907
4467.418	-20.77452	1.03875	-11.37796	-2.26063
4471.420	-19.93722	0.96065	-11.41857	-2.86870
4475.419	-21.46339	-3.03558	-11.70566	-2.54592
4479.422	-21.75087	-4.06182	-11.40841	-1.85352
4483.424	-21.49990	-0.92075	-11.32903	-1.10372
4487.417	-21.79389	0.85549	-11.17617	-2.75052
4491.420	-20.99475	2.34090	-11.50153	-1.68387
4495.421	-22.30538	-3.90325	-11.74016	-2.63466
4499.429	-20.11564	-12.06832	-11.42747	-1.44939
4503.422	-22.92370	1.09298	-11.76190	-0.92341
4507.419	-10.99805	-0.84993	-8.79230	-1.80624
4511.424	-7.90321	-0.73444	-8.33559	-0.64795
4515.421	-7.90275	0.43102	-4.91974	2.34507
4519.422	-8.12291	-1.64198	-3.93636	-0.14614
4523.420	-15.21153	2.88981	-1.38552	-0.38122
4527.423	-14.14828	2.97945	-0.54850	-0.22984
4531.418	3.13031	-4.12615	2.19048	-1.14039
4535.419	3.43101	-4.49283	3.51579	-1.43677
4539.424	6.13723	-4.29690	3.45084	-1.23565
4543.418	5.50936	-2.09903	3.71152	-0.95232
4547.421	5.53486	-2.41205	5.47144	-0.71711
4551.422	7.53657	-4.03419	6.09501	-1.53594
4555.424	7.05452	-2.04597	7.32177	-1.49083
4559.419	6.34956	-3.31812	6.28474	-1.54033
4563.421	5.24897	-1.51216	5.33382	-1.66723
4567.422	6.26431	-2.23722	5.85163	-1.31530
4571.422	5.82407	-4.49296	3.78869	-1.96913
4575.422	7.58646	-3.16821	5.38181	-1.25049
4579.418	7.98498	-3.97458	3.82991	-2.02237
4583.447	-2.78206	4.44657	5.67615	-1.35945
4587.432	6.65326	-3.83426	5.32838	-2.35706
4591.419	6.38229	-3.85818	5.94634	-1.92014
4595.294	5.94421	-4.02315	5.14158	-2.81752
4599.295	5.08249	-5.16238	8.19098	-1.78674
4603.297	5.52846	-4.73667	5.49859	-2.67115
4607.290	5.52500	-4.17147	0.46304	0.66494
4611.298	4.42567	-3.97718	5.42282	-2.78101
4615.329	3.72138	-4.77804	4.27350	2.19894
4619.296	5.69062	-4.17448	4.70081	-1.57596
4623.292	3.77896	-4.89272	7.26495	-1.55947
4627.305	3.90960	-4.45298	4.93164	-1.06753
4631.300	4.97546	-2.07826	5.19017	-1.09835
4635.322	3.50675	-4.46661	6.49979	-2.19983
4639.299	5.83073	-3.95275	5.37328	-2.77844
4643.293	0.75332	-6.32360	4.59450	0.98235
4647.293	5.58179	-2.45913	6.27062	-3.06293
4651.295	5.91285	-3.56514	5.80327	-3.10979
4655.293	NaN	NaN	NaN	NaN
4663.295	3.62590	-3.96449	5.92979	-2.43032
4667.292	3.67447	-5.39646	5.87172	-3.36532
4671.295	3.89367	-5.56007	6.79166	-3.21077
4675.302	0.82682	-5.97310	4.16539	-4.29226
4679.293	5.35677	-1.14724	6.58633	-4.29407
4683.294	5.72868	-6.13802	5.90801	-3.97606
4687.292	4.54461	-5.88223	6.46789	-2.99239
4691.298	3.51125	-4.99378	5.55981	-3.64095
4695.296	-0.03874	1.36746	6.05609	-2.12946
4699.291	11.59775	-0.39462	4.98691	-3.82548
4703.292	1.99399	0.66704	5.81739	-3.12125
4707.294	9.40755	0.61327	5.55165	-3.35053
4711.297	-0.43837	2.42398	5.60384	-3.54823
4715.296	0.76288	5.27942	5.70868	-2.60871
4719.294	-0.44971	2.99421	5.51966	-2.14968
4723.297	-0.98276	2.65763	5.40614	-3.92245
4727.296	-0.85505	0.56012	4.46011	-4.02123
4731.293	-1.04389	1.68068	5.29223	-1.67934
4735.292	-1.32394	2.33959	4.63711	-1.65727
4739.295	-0.97948	4.14929	5.30476	-1.48398
4743.291	-0.30637	4.40149	5.35994	-2.82972
4747.294	1.12075	4.19220	5.62409	-2.32397
4751.291	4.66373	2.75045	8.64606	-4.32661
4755.297	1.09056	5.75673	4.88988	-1.71772
4759.291	3.50642	5.07126	4.82476	-1.46071
4763.294	3.87986	4.63348	6.19145	-1.67489
4767.294	2.44202	4.32934	5.27530	-0.61751
4771.295	0.94008	6.50357	5.67688	-1.98120
4775.292	1.98705	4.24295	5.24294	-2.55866
4779.295	3.62823	5.65884	4.99576	-2.09695
4783.291	2.87517	0.44463	5.18222	-2.09422
4787.290	6.13380	0.24764	5.16649	-2.08908
4791.290	7.02714	-0.78333	4.76039	-2.04617
4795.294	7.36266	-0.53085	5.05287	-1.67881
4799.291	0.46232	4.22991	5.09638	-2.17859
4803.293	2.28415	3.75033	5.16831	-2.06192
4807.292	1.51397	3.44165	5.23782	-1.98969
4811.294	1.44542	3.41567	5.16164	-2.21351
4815.368	3.06318	2.81233	5.31347	-1.93797
4819.305	1.39522	2.22786	5.00017	-1.99924
4823.292	1.58225	2.14393	5.16337	-2.07320
4827.294	1.48295	2.49936	5.19724	-2.03809
4831.290	1.19204	-1.03237	5.23851	-2.09905
4835.298	1.05562	-1.95094	5.42112	-2.00714
4839.296	1.38538	-2.84697	5.58297	-2.02435
4843.292	1.72582	-1.98038	5.65420	-1.92074
4847.291	1.10348	-3.34051	5.62751	-1.86441
4851.287	0.77359	-5.24866	5.83414	-1.82553
4855.292	0.82791	-2.53416	5.26275	-1.83551
4859.291	0.49773	-5.50972	5.36080	-1.79176
4863.296	0.43802	-4.64132	4.87098	-1.67007
4867.292	2.70438	-8.55091	5.56672	-1.96050
4871.292	2.25546	-8.41199	4.87446	-1.66521
4875.287	2.78084	-8.46118	4.15013	-1.70818
4879.296	2.22215	-10.63630	4.58173	-1.59402
4883.289	3.54393	-11.00010	3.66782	-1.47520
4887.290	2.65201	-10.90806	3.69442	-1.40551
4891.292	-19.99372	-11.90270	4.41563	-1.51912
4895.289	-19.99372	-11.98584	5.00140	-1.58965
4899.293	6.32831	-15.11311	4.73517	-1.33159
4903.286	-19.99372	-12.01902	4.09352	-1.27730
4907.320	5.09170	-15.12787	4.86993	-1.58796
4911.296	-19.99372	-12.03689	3.61597	-1.44685
4915.288	-19.99372	-12.04571	4.30828	-1.12517
4919.296	-19.99372	-12.05172	3.99185	-1.38136
4923.289	-19.99372	-12.05878	3.98205	-1.17003
4927.295	-19.99372	-12.07477	3.65749	-2.25805
4931.288	-19.99372	-12.07903	4.84642	-1.54234
4935.291	-19.99372	-12.07896	3.74167	-1.48449
4939.288	-19.99372	-12.07890	3.81721	-0.50484
4943.289	-19.99372	-12.07816	4.46078	-1.10847
4947.293	-19.99372	-12.07812	4.30391	-1.85733
4951.289	NaN	NaN	3.52002	-2.28159
4955.289	NaN	NaN	3.64128	-0.23157
4959.292	2.52631	-0.63331	2.34986	-0.69061
4963.294	3.35981	-1.41366	0.22889	0.60475
4967.290	2.69148	-0.85351	-0.14955	4.76799
4971.285	2.57655	0.93166	-2.41900	3.81642
4975.284	0.09915	2.12370	-2.53055	4.79350
4979.291	-2.18969	1.92361	-3.37039	5.33428
4983.291	-0.69930	2.92093	-3.35476	7.63463
4987.284	-2.51069	2.61916	-3.48870	4.40634
4991.292	-2.11155	2.82224	-3.29622	4.66161
4995.288	-1.34504	2.23676	-2.82605	6.41158
4999.285	-1.58371	2.52875	-3.20093	8.07999
5003.295	0.38804	-5.51310	-4.27733	4.66249
5007.291	-0.78263	-9.65556	-3.39015	5.08903
5011.285	-1.85802	2.44475	-3.08844	8.57712
5015.290	1.74903	-7.77192	-3.68760	4.74342
5019.289	1.83734	-12.22496	-3.10762	4.85827
5023.317	-2.34339	-13.51795	-1.81513	4.24347
5027.285	-1.60238	-9.30925	-3.77471	5.62862
5031.295	2.52805	-9.37513	-4.90292	5.07333
5035.286	3.34930	-12.35096	-3.73863	6.46540
5039.289	2.43399	-9.67139	-3.72207	4.27075
5043.315	0.71082	-9.89897	-3.44918	3.56256
5047.300	-1.89776	-12.22923	-3.49752	4.43389
5051.285	-1.85661	-14.21174	-3.54057	5.20617
5055.287	0.36506	-12.24039	-4.61913	9.02689
5059.291	-0.45358	-11.59466	-4.86793	5.56006
5063.288	-19.99372	-11.82737	-3.70430	5.41666
5067.285	3.01007	-13.86150	-4.77919	5.35269
5071.285	2.02240	-12.43916	-3.45339	3.78743
5075.287	3.30972	-14.02665	-3.82825	4.93834
5079.287	-19.99372	-11.96995	-4.65030	5.02904
5083.284	-19.99372	-11.99163	-3.11022	5.12145
5087.289	-19.99372	-12.00740	-3.89710	2.75076
5091.289	-19.99372	-12.05985	-4.08276	4.82138
5095.287	-19.99372	-12.05337	-3.62593	4.66852
5099.286	-0.04388	2.75313	-2.52864	3.07222
5103.290	5.38651	-1.26524	-3.05239	2.98534
5107.286	-1.62346	2.24724	-3.56544	2.35299
5111.316	0.76332	3.38820	-3.86556	2.85179
5115.292	-1.03885	-11.12676	-3.80888	0.30110
5119.289	0.99653	1.08308	-4.40088	2.59746
5123.287	-0.25411	2.58150	-4.70545	4.41417
5127.292	-1.31198	-11.34245	-4.46453	4.05039
5131.291	0.28617	1.38731	-4.41507	3.15155
5135.288	0.28883	1.58401	-3.20674	5.76807
5139.283	1.71657	1.14893	-3.97701	2.87335
5143.282	5.24597	-1.22007	-4.75800	4.47651
5147.318	-1.43280	3.22775	-2.85838	3.82224
5151.296	-1.20891	2.92453	-4.12367	2.46801
5155.285	-1.02685	3.80962	-4.22251	2.83336
5159.286	0.19236	3.05703	-2.46971	0.31998
5163.286	1.18021	1.29685	-4.13702	0.82873
5167.283	-0.06271	1.58986	-4.33863	2.90755
5171.290	0.04740	2.21068	-2.75195	1.27703
5175.284	-0.41435	2.78776	-3.64914	2.00188
5179.298	1.06669	0.45763	-5.22798	2.47317
5183.287	0.56980	0.09999	-3.01645	0.59305
5187.281	-1.04439	3.91209	-3.85676	2.28427
5191.286	-1.19748	3.44101	-4.58121	2.88522
5195.286	-1.78253	4.20219	-4.09876	5.12661
5199.283	-0.37303	0.49130	-5.15980	7.02217
5203.283	-1.57605	2.84561	-4.44691	4.84981
5207.284	-1.82795	3.54020	-3.78842	4.63360
5211.290	-1.56598	2.57555	-4.15623	6.53379
5215.279	-1.72421	2.50824	-5.08478	11.06570
5219.283	-0.36856	2.37727	-4.50875	5.36367
5223.283	-0.19164	2.45710	-3.56974	4.78946
5227.281	-1.93613	3.24724	-2.81981	2.67006
5231.280	-2.25746	3.02284	-3.39203	5.10086
5235.287	0.36782	2.80907	-3.77085	5.55710
5239.285	-1.39227	0.49126	-3.01324	5.84364
5243.282	-0.65804	1.93503	-3.33300	2.29948
5247.287	-2.35429	4.53575	-4.77054	1.96613
5251.293	0.10756	3.26521	-3.59510	5.91496
5255.286	-2.60906	1.35875	-3.29493	5.92455
5259.282	-2.83982	2.03060	-3.83450	5.01174
5263.284	4.02581	-1.15280	-2.72523	6.27029
5267.281	0.37477	1.04768	0.23726	9.10624
5271.278	-0.36571	1.16422	0.24021	5.49151
5275.282	1.20078	1.77933	-2.83838	4.74434
5279.284	0.29979	1.53509	-4.40382	2.81019
5283.280	-2.21965	1.91600	-4.20708	2.32263
5287.280	-0.62848	1.10504	-3.01853	3.89622
5291.286	-1.25399	1.81295	-2.45936	5.49544
5295.287	-3.77775	0.64009	-1.43064	6.11356
5299.285	-3.10302	1.34190	0.98318	6.15047
5303.282	-2.00735	1.53864	0.26922	5.74521
5307.280	-3.64360	1.93641	1.79824	5.92834
5311.281	-2.45498	2.52774	1.31488	2.56686
5315.299	-0.62280	1.90229	-0.17209	2.18094
5319.288	-4.12517	1.61433	0.18757	5.93300
5323.285	4.23759	-0.22020	1.03402	2.56052
5327.282	-3.52089	0.92673	1.74159	5.62756
5331.282	-1.46554	0.54885	-0.13205	6.17113
5335.287	0.24435	1.67856	0.41767	6.12804
5339.286	-3.49713	2.44901	-2.94950	5.79837
5343.281	-1.65354	2.31875	-0.04807	3.38716
5347.285	-4.67505	-0.04716	-0.12349	5.85591
5351.283	-4.09436	-0.11508	0.53007	6.33350
5355.280	-4.02591	1.12654	1.68404	4.19423
5359.282	-3.05335	3.24593	4.21451	5.49337
5363.282	-3.80364	2.53773	-0.02914	5.83977
5367.280	3.70396	-1.16516	0.01856	4.10218
5371.279	-1.39274	1.39854	-0.18179	3.98214
5375.281	0.42167	1.55086	4.44706	7.87011
5379.288	0.62513	0.85504	1.96568	6.52474
5383.287	3.42868	-0.06090	0.66439	7.22422
5387.280	1.31724	0.01332	1.97079	6.91347
5391.280	-2.31331	1.23631	2.01285	6.15819
5395.282	-1.08254	2.17520	-0.38616	0.18361
5399.278	-1.57612	3.37289	0.52024	6.01184
5403.277	-4.68326	4.10539	2.94294	-2.89472
5407.278	-6.77379	2.60401	-5.24845	3.80180
5411.281	-6.22927	2.68945	-6.91633	6.31902
5415.278	-5.47862	3.41622	-4.37821	7.19879
5419.284	-5.52763	3.20428	0.71099	6.15161
5423.284	-6.05754	3.50960	-3.72425	5.71628
5427.326	-5.17939	3.86043	-3.20600	7.26574
5431.291	-5.13171	3.34950	-3.65942	3.00879
5435.277	-5.37367	3.73250	-2.71949	5.71707
5439.283	-5.72487	4.16436	-2.66417	3.22998
5443.281	-8.14480	2.54923	-2.84049	-1.73333
5447.151	-6.04855	4.70985	-2.73823	3.98717
5451.151	-6.17592	4.51301	-2.56570	0.58682
5455.154	-6.27224	3.69853	0.16583	2.99831
5459.155	-6.10502	4.00330	-3.06313	3.89707
5463.156	-5.84186	4.22198	0.16345	0.69201
5467.161	-5.62709	4.32409	-2.27030	-0.44943
5471.155	-6.04853	3.84478	1.60042	-0.21290
5475.155	-6.36807	2.27995	-2.64564	-0.84949
5479.152	-6.35331	4.03009	-2.30920	-4.19079
5483.152	-5.82641	3.95280	-2.12322	-0.35497
5487.154	-5.76863	5.13930	-2.05080	-5.30930
5491.154	-5.92174	3.92389	0.02211	-0.15061
5495.152	-5.68465	4.39238	-1.51665	0.50765
5499.157	-5.33640	5.21353	-1.69366	-5.43328
5503.157	-5.57950	3.75018	-0.53126	-4.67411
5507.158	-5.57205	4.50235	-1.42424	-4.36145
5511.157	-5.79882	3.97612	1.29802	-8.04688
5515.154	-5.66578	6.16020	-1.30543	-0.53823
5519.153	-5.66528	5.47646	-0.64000	-4.80339
5523.153	-5.66816	4.07882	0.04765	-8.71448
5527.157	-6.17281	3.98108	1.87550	-4.13498
5531.157	-5.87531	4.51368	-8.83466	4.85507
5535.154	-5.96529	5.35614	-5.56266	3.56466
5539.152	-5.81987	4.44857	0.18028	1.49920
5543.157	-5.87391	3.73555	-5.50095	2.05467
5547.154	-5.80951	4.04783	-2.57367	3.32911
5551.159	-5.64297	4.24703	-6.60553	4.69847
5555.155	-4.97337	3.30524	-3.51429	3.76882
5559.155	-2.92678	2.76603	-5.52571	2.32557
5563.156	-5.11841	4.01037	-5.93384	5.23413
5567.159	-11.25013	4.83497	-3.48696	3.99905
5571.156	-4.77387	4.07213	-6.38704	8.36488
5575.155	-5.78396	6.42976	-2.54710	6.84816
5579.151	-6.19471	4.61722	-6.53629	3.02704
5583.158	-6.15625	6.08632	4.62059	4.16011
5587.151	-6.72643	3.99745	1.32853	5.40777
5591.158	-6.42660	4.43122	3.97988	0.99397
5595.160	-6.50496	4.42148	-8.04324	-6.35959
5599.153	-5.92896	4.24764	2.32684	-1.90229
5603.151	-6.52385	4.35912	-2.40523	-1.84976
5607.149	-6.00734	5.00438	1.42818	1.68523
5611.150	-6.38021	4.23015	-2.01350	1.64079
5615.153	-6.82014	4.09724	-1.38235	1.19448
5619.151	-6.39329	4.53155	-0.72843	0.98939
5623.151	-6.20550	4.52820	-0.77208	0.80633
5627.151	-6.49097	4.67068	-3.93339	1.66212
5631.167	-6.49200	3.84787	-0.56525	-0.27802
5635.185	-6.23474	3.49765	-1.79001	-0.25018
5639.156	-6.47828	3.91059	-5.59782	5.39176
5643.152	-5.91565	3.79756	-3.35004	-1.01488
5647.150	-6.56449	3.55718	-2.06319	-0.93074
5651.147	-6.42917	4.10676	-3.27002	-0.81434
5655.157	-6.88954	4.34654	-4.69164	-0.48364
5659.152	-9.94106	10.52609	-6.06505	5.93648
5663.154	-7.09959	10.02901	-3.38523	5.96121
5667.151	-9.41805	7.33412	-5.90332	4.27247
5671.150	-6.44206	9.93508	-2.72085	5.95041
5675.159	-1.96454	1.20509	-0.75784	2.28945
5679.152	NaN	NaN	NaN	NaN
5683.154	NaN	NaN	NaN	NaN
5691.155	5.41991	6.78776	-0.95509	1.19473
5695.156	5.26352	4.47409	-0.35613	0.48394
5699.151	6.05471	3.94017	-0.18430	2.06806
5703.154	4.12717	4.63068	-0.26949	0.66781
5707.149	4.46764	3.21391	-0.23244	1.52070
5711.153	5.17855	2.87510	-0.13143	3.41276
5715.151	9.84544	3.68460	0.21519	0.62418
5719.153	13.55093	-1.63033	0.07510	1.87048
5723.148	10.76594	1.80921	0.08272	3.13509
5727.155	13.63463	3.74707	0.30272	0.79553
5731.149	13.45113	-0.93307	0.19584	2.64712
5735.153	15.89740	-0.12764	-0.05629	2.40317
5739.149	11.39885	-0.89249	0.32689	1.39573
5743.154	1.77739	-0.74147	0.01355	3.10618
5747.150	1.79423	-0.81134	0.16494	1.12043
5751.153	0.95624	0.05722	-1.00161	1.76900
5755.155	0.24582	0.04672	-4.21644	4.32676
5759.155	3.74038	0.01713	-0.38035	1.49557
5763.151	0.29084	1.62582	-0.06212	2.79106
5767.148	0.87947	-0.26898	-0.62871	2.00469
5771.150	0.86022	0.04077	-0.35347	4.67827
5775.152	0.55530	-0.30195	-1.58207	1.43432
5779.146	4.27420	0.31099	-1.76033	1.74305
5783.150	0.16811	0.26305	-0.63853	1.53445
5787.150	4.07989	0.02151	-0.49302	4.78424
5791.151	1.20609	-0.31800	-1.05170	2.22638
5795.149	1.23957	-0.43644	-0.08850	3.42537
5799.152	0.92460	-0.33524	-0.33327	2.71230
5803.150	-0.90135	-0.31967	-0.32809	2.01996
5807.152	8.91783	-7.25764	-0.94256	2.15699
5811.146	9.53837	-7.18754	0.15665	1.55770
5815.162	13.52304	-10.47625	-0.36191	3.18970
5819.150	1.59854	-1.52779	-0.54022	2.28144
5823.149	11.33099	-9.06372	-0.81612	3.01903
5827.148	4.83812	-3.50497	0.49706	2.25143
5831.151	5.11450	0.51311	-0.51468	2.30308
5835.147	4.64571	1.00848	-0.27458	3.43009
5839.152	2.25751	1.44948	-0.52659	2.82852
5843.159	2.55247	0.75524	-1.68062	1.04365
5847.150	-0.19149	-1.40617	-0.56111	2.13474
5851.149	1.83293	-1.47156	-0.69288	3.59053
5855.148	1.67789	-2.47161	-0.04341	3.23002
5859.145	5.04612	-0.38421	-0.28061	2.67715
5863.153	3.72627	-0.61935	-0.16811	2.54141
5867.153	1.91638	-1.23358	-0.56024	2.01047
5871.149	-0.47468	-1.56699	-0.13746	2.68682
5875.147	-0.42239	-1.68459	1.11802	2.65553
5879.151	2.11440	-1.43843	-0.39015	2.54091
5883.155	2.20057	-1.70098	-0.53250	2.69083
5887.146	4.60456	-7.93377	-0.60136	3.35402
5891.147	3.67277	-8.22588	1.19110	2.10846
5895.146	3.84224	-8.34242	-1.00534	2.86402
5899.147	2.04066	-3.30313	1.02913	-1.15591
5903.148	1.42459	1.66652	-2.27265	2.72778
5907.143	1.76688	-0.93132	-0.07505	1.42602
5911.151	-0.27793	-1.39504	-0.63508	1.04731
5915.146	1.54353	1.80729	1.10524	2.59374
5919.146	-3.78257	-3.80191	0.72067	1.03346
5923.150	1.24736	-2.09239	0.64444	3.05574
5927.144	1.37791	0.76399	1.84086	0.78629
5931.146	2.78510	-1.21909	-0.78910	3.49756
5935.146	-0.36343	-1.36259	-1.31649	1.27762
5939.150	3.61107	-0.10545	-0.26388	3.07416
5943.147	2.20845	-1.21957	-2.94695	2.06578
5947.145	3.20018	-4.36474	-0.58563	3.09304
5951.147	4.02949	-1.31550	-0.95921	3.37538
5955.148	3.71043	-2.25908	0.03713	3.83868
5959.144	-2.24108	0.14903	-0.64794	3.67465
5963.149	1.91829	-1.86204	-2.73694	2.27889
5967.151	2.70886	-1.34480	1.71865	1.89546
5971.146	-0.30523	0.63630	-4.52972	2.29848
5975.144	4.07120	-0.18493	2.13073	3.20584
5979.146	4.11816	0.17553	0.64454	0.98302
5983.144	9.47609	-7.79444	3.38719	3.08234
5987.146	10.31941	-14.85490	3.29679	1.65746
5991.152	-19.99372	-12.08939	3.39062	2.68379
5995.143	7.46102	-14.64575	3.41214	2.02120
5999.151	-19.99372	-12.11810	3.65126	1.81124
6003.149	-19.99372	-12.10462	3.09149	1.40131
6007.151	-19.99372	-12.09774	3.58959	0.93621
6011.155	7.44118	-14.86565	3.59308	2.07426
6015.147	-19.99372	-12.09497	3.62027	1.04809
6019.143	-19.99372	-12.09185	3.62012	0.21677
6023.145	-19.99372	-12.08957	3.60049	1.17645
6027.148	-19.99372	-12.08783	1.09279	1.22634
6031.217	-19.99372	-12.08535	3.63784	1.27179
6035.151	-19.99372	-12.08499	1.98519	0.59123
6039.148	-19.99372	-12.07818	2.70921	-0.72820
6043.145	-19.99372	-12.07816	2.19750	0.53204
6047.151	-19.99372	-12.07814	3.25384	0.37337
6051.149	-19.99372	-12.07809	2.46578	0.37134
6055.147	NaN	NaN	2.17784	0.35905
6059.145	NaN	NaN	1.53394	0.12654
6063.151	NaN	NaN	2.55975	0.78182
6067.144	NaN	NaN	2.18191	0.51007
6071.149	NaN	NaN	2.50058	0.25441
6075.144	NaN	NaN	2.83553	0.24302
6079.143	NaN	NaN	2.92396	-0.03067
6083.140	NaN	NaN	2.90646	0.17446
6087.143	NaN	NaN	3.08891	0.16744
6091.147	NaN	NaN	4.63541	0.16225
6095.146	NaN	NaN	6.52351	0.16274
6099.142	NaN	NaN	7.86159	-1.13788
6103.147	NaN	NaN	3.50766	0.70607
6107.143	NaN	NaN	3.78603	0.75687
6111.141	NaN	NaN	3.84105	1.39770
6115.139	NaN	NaN	3.65391	2.03288
6119.141	NaN	NaN	3.65586	0.28662
6123.143	NaN	NaN	4.94797	0.57475
6127.141	NaN	NaN	3.84142	-0.63910
6131.151	9.97690	-14.94049	3.34373	0.96814
6135.152	-19.99372	-12.07816	3.67657	0.18048
6139.142	-19.99372	-12.07816	3.87171	0.22256
6143.142	-19.99372	-12.07814	3.54146	0.87672
6147.142	-19.99372	-12.07814	4.50816	0.72202
6151.145	11.39952	-12.10740	3.72301	1.82038
6155.145	4.49270	-14.44643	3.76305	1.21800
6159.142	11.04322	-12.52894	3.52603	-0.42205
6163.144	7.01340	-9.04795	3.24160	0.73697
6167.144	15.04975	-9.30246	3.61883	-0.46647
6171.140	7.22466	-9.46319	2.85980	0.47652
6175.151	7.38612	-12.28608	3.51765	0.16479
6179.143	7.47880	-9.64995	5.03196	-0.24142
6183.144	9.72380	-8.98774	3.40912	0.87989
6187.139	5.11046	-9.28383	3.44204	1.15647
6191.142	7.22771	-5.76426	3.48862	1.63007
6195.145	7.41070	-6.10245	3.37969	0.92320
6199.145	11.78671	-6.46867	4.14335	0.78638
6203.144	13.27894	-7.04541	2.42366	-0.24452
6207.143	6.45407	-1.80422	2.98047	-0.51429
6211.147	11.33278	-4.20404	3.65265	-0.16846
6215.147	5.31881	-3.55797	3.26116	0.85321
6219.145	7.21642	-2.31409	3.61117	0.85915
6223.139	5.10854	-1.93166	3.40044	2.76589
6227.145	7.14445	1.53921	3.64768	1.37929
6231.142	0.57061	-3.31231	3.20681	0.98472
6235.149	4.77444	-0.78310	2.96131	1.21022
6239.140	4.42133	-2.45674	3.59298	0.17819
6243.143	5.29666	-3.06109	-0.23644	-0.21959
6247.142	4.23683	4.60615	-1.09311	-1.09162
6251.143	-3.56818	-6.81762	-1.11561	1.12814
6255.150	2.84472	-3.55557	-4.08602	-0.94642
6259.150	0.07358	-0.33837	-1.93760	-0.69857
6263.139	-3.53649	-2.90097	-6.03950	0.58208
6267.153	-6.78086	-3.04370	-6.97722	0.66391
6271.145	-9.45409	-3.22783	-6.04281	-4.41571
6275.144	-14.67651	-7.39822	-11.02232	-0.06242
6279.137	-13.81766	-0.04097	-14.77837	-2.45026
6283.143	-14.99287	-7.08117	-12.74515	-0.06580
6287.142	-16.94845	-7.07906	-17.64755	-4.75952
6291.143	-13.80575	-3.65077	-14.67114	-1.88969
6295.138	-18.48209	-9.39469	-15.85623	-1.31065
6299.144	-18.40647	-7.26610	-14.49013	-0.15821
6303.021	-14.17826	-4.98918	-13.80491	-0.59962
6307.017	-14.33993	-5.19009	-13.37355	-1.03520
6311.014	-14.09219	-4.71772	-14.10188	-1.21746
6315.035	-14.45633	-5.13326	-13.32085	-1.37684
6319.023	-14.43554	-5.17554	-14.41168	-0.83878
6323.015	-14.04573	-4.96547	-13.97246	-1.08962
6327.019	-14.12658	-5.43846	-13.36878	-1.03961
6331.015	-14.12987	-5.03295	-14.07662	-1.34552
6335.017	-13.71826	-4.74407	-14.10520	-1.23883
6339.016	-17.77801	-5.45152	-13.48730	-1.20748
6343.014	-14.38901	-5.44586	-13.49507	-0.99303
6347.021	-13.71800	-4.27935	-13.91369	-1.12858
6351.016	-14.14600	-4.03481	-13.80631	-1.30539
6355.014	-17.99776	-4.35197	-13.58822	-1.65865
6359.014	-17.93708	-4.48140	-13.76933	-1.52850
6363.018	-13.16485	-2.63609	-13.64520	-1.59979
6367.014	-17.81410	-5.87825	-13.41488	-1.45238
6371.018	-17.10199	-5.17054	-13.82817	-1.49233
6375.016	-15.68019	-5.68466	-13.47087	-1.65340
6379.019	-17.44919	-3.99930	-13.54422	-1.72939
6383.017	-17.74895	-3.56426	-12.82590	-0.86373
6387.021	-15.04557	-4.01021	-13.42622	-0.99761
6391.016	-14.98850	-8.74383	-13.14103	-1.41740
6395.014	-17.58639	-4.41305	-13.37120	-0.84758
6399.016	-12.97556	-2.45928	-13.69586	-0.94534
6403.017	-13.34063	-2.24941	-10.06479	-0.68526
6407.012	-12.73351	-2.97569	-13.52116	-1.16746
6411.020	-16.42096	-5.90529	-13.93817	-1.34973
6415.014	-16.91690	-3.78218	-14.09887	-1.07681
6419.013	-17.65780	-2.75922	-14.36253	-0.87964
6423.012	-12.84626	-2.19831	-10.86924	-0.39943
6427.023	-12.91649	-2.26599	-12.99032	-0.49764
6431.014	-15.73490	-5.18234	-12.16878	-8.38636
6435.015	-13.59619	-6.84269	-14.52228	-8.38242
6439.020	-15.82713	-3.31317	-11.38585	-7.16442
6443.013	-13.08696	-2.66207	-14.67625	-13.79043
6447.017	-12.84864	-1.98531	-14.03416	-6.53700
6451.011	-12.83833	-1.97324	-11.34766	-10.51878
6455.017	-11.01400	-1.85959	-12.73458	-10.97639
6459.013	-12.51302	-1.86243	-13.20870	-10.35347
6463.011	-13.63323	-4.59779	-12.94247	-9.31386
6467.017	-13.62317	-5.38429	-15.01756	-10.33801
6471.050	-12.58517	-2.69814	-12.02767	-8.53106
6475.017	-12.77799	-2.47329	-11.53598	-7.75618
6479.010	-12.56233	-2.33655	-12.73595	-6.57529
6483.013	-12.50721	-2.05220	-12.46297	-5.82706
6487.015	-12.26557	-1.76260	-11.15635	-5.65928
6491.010	-12.42181	-1.77646	-12.95416	-0.89367
6495.016	-12.62161	-2.27338	-12.89263	-0.65568
6499.011	-12.38966	-2.04445	-13.18489	-1.07213
6503.015	-11.43388	0.24497	-14.97057	-1.38834
6507.017	-12.57663	0.16555	-15.00704	-1.06346
6511.019	-12.33039	0.30956	-14.39622	-0.87366
6515.013	-12.66167	0.38391	-14.04040	0.52735
6519.010	-13.50072	-1.72879	-11.36565	0.14968
6523.015	-13.65540	-4.74487	-8.72423	-1.48663
6527.013	-12.18450	-3.52184	-7.91480	0.03864
6531.019	-8.57590	-0.36186	-4.24194	0.09253
6535.010	-7.23382	-2.03121	-5.18668	0.02764
6539.038	1.50465	-0.40283	-0.89937	0.11543
6543.013	4.87803	-6.88307	-0.51294	0.43816
6547.011	5.52711	-3.10274	0.86136	0.35555
6551.019	3.34126	-2.72222	1.23320	0.51221
6555.020	3.65448	-6.70505	2.00502	1.05217
6559.010	4.65299	-3.30563	2.37629	0.40987
6563.015	3.67998	-0.76227	4.20997	0.03033
6567.014	2.55933	-6.52324	3.19160	0.45172
6571.017	3.87843	-0.59145	2.13024	0.31583
6575.012	5.53222	-7.68412	2.16637	-1.33720
6579.014	9.48951	-0.42643	1.17165	-0.81125
6583.012	3.35424	-8.60955	7.98836	-0.87337
6587.010	6.24504	-1.73400	-1.49346	0.52211
6591.011	5.25463	-0.26739	5.93603	-0.40526
6595.018	13.20903	-6.90879	0.63501	-1.13427
6599.011	5.44547	-2.01627	1.71570	-0.50830
6603.009	2.00371	-1.11066	5.76369	-1.48182
6607.043	5.52581	-1.97284	3.71303	0.41026
6611.015	5.58670	-3.21893	3.51406	0.12513
6615.010	4.97221	-1.89087	2.38876	-1.21019
6619.010	5.24439	-0.74083	2.13276	-0.07368
6623.009	6.35932	-3.86684	3.25127	0.40781
6627.012	4.30924	-7.43292	2.10025	0.46403
6631.012	5.89328	-3.40682	2.27939	-1.31886
6635.018	8.45643	-1.26284	-1.09008	-0.53648
6639.011	6.14945	-1.14374	3.47282	0.91254
6643.014	7.06655	-1.65733	1.92654	1.28334
6647.006	6.46412	-10.52493	1.83169	-1.00649
6651.009	5.50267	-1.33350	1.84949	-0.61204
6655.009	6.68878	-2.72176	1.79063	2.89453
6659.012	6.82417	-8.94077	2.22959	1.76240
6663.045	8.23459	-1.20825	2.62863	-0.06851
6667.017	5.14087	-6.05558	1.05451	-1.35407
6671.007	5.19431	-2.16301	2.14952	-0.12108
6675.016	12.83576	-4.31652	1.74499	0.43291
6679.013	12.35526	-14.52819	2.00648	1.18592
6683.018	7.91809	-9.59873	2.77208	0.02676
6687.010	6.79655	-0.42703	2.22827	-0.34953
6691.030	7.26344	-1.09883	2.36757	-1.45915
6695.015	5.58678	-14.61749	2.54036	-0.22280
6699.009	-19.99372	-12.18376	2.54843	0.21304
6703.007	5.78941	-13.22236	2.48383	0.67411
6707.011	-19.99372	-12.23843	3.14545	0.61124
6711.010	11.05887	-13.88885	4.24638	0.70184
6715.004	-19.99372	-12.24142	4.60293	0.48085
6719.012	-19.99372	-12.20774	4.74493	0.79458
6723.009	-19.99372	-12.18119	3.70643	1.23310
6727.010	-19.99372	-12.16522	3.06741	1.42896
6731.007	-19.99372	-12.15294	2.67217	1.80318
6735.010	-19.99372	-12.14321	3.32112	1.41317
6739.008	-19.99372	-12.12848	3.75506	1.65305
6743.007	-19.99372	-12.12636	3.99465	1.80014
6747.011	-19.99372	-12.09511	3.80918	1.48130
6751.008	-19.99372	-12.09433	3.64879	1.38834
6755.008	NaN	NaN	3.71762	1.35076
6759.016	NaN	NaN	3.72939	1.20471
6763.013	NaN	NaN	3.74797	0.90228
6767.008	NaN	NaN	3.70591	1.20849
6771.006	NaN	NaN	3.86410	1.10822
6775.008	NaN	NaN	3.83618	1.06379
6779.011	NaN	NaN	4.01858	0.83270
6783.005	NaN	NaN	4.03426	0.74346
6787.001	NaN	NaN	3.85741	0.42606
6791.011	NaN	NaN	1.29839	0.27950
6795.007	NaN	NaN	0.95951	0.05660
6799.011	NaN	NaN	3.86706	0.35260
6803.006	NaN	NaN	4.04505	0.49680
6807.016	NaN	NaN	4.19442	0.49343
6811.004	NaN	NaN	4.19459	0.28738
6815.029	NaN	NaN	3.96249	-0.02246
6819.010	NaN	NaN	3.96595	-0.10885
6823.010	NaN	NaN	3.73151	0.20913
6827.002	NaN	NaN	3.62830	0.35827
6831.049	NaN	NaN	3.65890	0.76757
6835.018	NaN	NaN	3.75788	0.61456
6839.010	NaN	NaN	3.78489	0.61987
6843.025	NaN	NaN	3.86188	0.00771
6847.006	NaN	NaN	3.67012	-2.40763
6851.004	NaN	NaN	3.71263	-0.87415
6855.010	NaN	NaN	3.39775	3.12173
6859.002	NaN	NaN	3.49386	2.72585
6863.010	NaN	NaN	3.48212	0.85972
6867.003	NaN	NaN	4.56540	-0.68353
6871.010	NaN	NaN	-0.90676	0.11568
6875.032	NaN	NaN	0.86019	0.02273
6879.003	NaN	NaN	2.65287	0.71411
6883.006	NaN	NaN	3.38788	2.62506
6887.011	NaN	NaN	3.74567	0.59670
6891.005	NaN	NaN	3.74604	0.35795
6895.003	NaN	NaN	1.55995	2.06690
6899.006	NaN	NaN	3.44874	2.25737
6903.008	NaN	NaN	4.03125	0.83434
6907.001	NaN	NaN	3.78882	0.44521
6911.003	NaN	NaN	3.35610	1.04040
6915.007	NaN	NaN	3.79497	1.81169
6919.003	NaN	NaN	3.95510	0.84867
6923.003	5.91258	-0.72612	3.73831	0.82573
6927.008	5.65268	-0.33870	5.39288	0.86897
6931.007	5.78944	0.05674	0.51319	1.55382
6935.007	14.12009	0.08307	-5.82572	1.54613
6939.011	3.84745	0.72856	-7.11198	10.10179
6943.005	NaN	NaN	-4.00235	12.78329
6947.025	NaN	NaN	NaN	NaN
6951.006	NaN	NaN	NaN	NaN
6955.000	NaN	NaN	NaN	NaN
6959.006	NaN	NaN	NaN	NaN
6963.001	NaN	NaN	NaN	NaN
6967.015	NaN	NaN	NaN	NaN
6971.017	NaN	NaN	NaN	NaN
6975.010	NaN	NaN	NaN	NaN
6979.007	NaN	NaN	NaN	NaN
6983.007	NaN	NaN	NaN	NaN
6987.008	NaN	NaN	NaN	NaN
6991.008	NaN	NaN	NaN	NaN
6995.006	NaN	NaN	NaN	NaN
6999.006	NaN	NaN	NaN	NaN
7003.009	NaN	NaN	NaN	NaN
7007.005	NaN	NaN	NaN	NaN
7011.010	NaN	NaN	NaN	NaN
7015.391	NaN	NaN	NaN	NaN
7019.028	NaN	NaN	NaN	NaN
7023.012	NaN	NaN	NaN	NaN
7027.006	NaN	NaN	NaN	NaN
7031.005	NaN	NaN	NaN	NaN
7035.007	NaN	NaN	NaN	NaN
7039.005	NaN	NaN	NaN	NaN
7043.016	NaN	NaN	NaN	NaN
7047.004	NaN	NaN	NaN	NaN
7051.126	NaN	NaN	NaN	NaN
7055.024	NaN	NaN	NaN	NaN
7059.210	NaN	NaN	NaN	NaN
7063.065	NaN	NaN	NaN	NaN
7067.209	NaN	NaN	NaN	NaN
7071.004	NaN	NaN	NaN	NaN
7075.224	NaN	NaN	NaN	NaN
7079.012	NaN	NaN	NaN	NaN
7084.031	NaN	NaN	NaN	NaN
7088.164	NaN	NaN	NaN	NaN
7091.673	NaN	NaN	NaN	NaN
7095.702	NaN	NaN	NaN	NaN
7099.757	NaN	NaN	NaN	NaN
7103.828	NaN	NaN	NaN	NaN
7107.951	NaN	NaN	NaN	NaN
7112.101	NaN	NaN	NaN	NaN
7115.665	NaN	NaN	NaN	NaN
7119.784	NaN	NaN	NaN	NaN
7124.036	NaN	NaN	NaN	NaN
7127.707	NaN	NaN	NaN	NaN
7131.355	NaN	NaN	NaN	NaN
7135.016	NaN	NaN	NaN	NaN
7139.014	NaN	NaN	NaN	NaN
7143.004	NaN	NaN	NaN	NaN
7147.002	NaN	NaN	NaN	NaN
7151.562	NaN	NaN	NaN	NaN
7155.270	NaN	NaN	NaN	NaN
7158.877	NaN	NaN	NaN	NaN
7162.898	NaN	NaN	NaN	NaN
7167.008	NaN	NaN	NaN	NaN
7170.886	NaN	NaN	NaN	NaN
7174.884	NaN	NaN	NaN	NaN
7178.878	NaN	NaN	NaN	NaN
7182.883	NaN	NaN	NaN	NaN
7186.888	NaN	NaN	NaN	NaN
7190.881	NaN	NaN	NaN	NaN
7194.882	NaN	NaN	NaN	NaN
7198.880	NaN	NaN	NaN	NaN
7203.107	NaN	NaN	NaN	NaN
7207.323	NaN	NaN	NaN	NaN
7211.499	-19.97897	9.87242	NaN	NaN
7215.338	-19.97965	-12.07847	NaN	NaN
7220.379	-19.97974	-12.07846	NaN	NaN
7224.139	-19.97991	-12.07845	NaN	NaN
7228.359	-20.36038	9.64483	NaN	NaN
7232.059	-20.00659	-12.07647	NaN	NaN
7236.204	-21.47691	9.08885	NaN	NaN
7239.783	-20.01206	-12.07606	NaN	NaN
7243.912	-20.01204	-12.07606	NaN	NaN
7247.987	-20.01191	-12.07607	NaN	NaN
7252.064	-20.01167	-12.07609	NaN	NaN
7256.270	-20.02407	-12.07516	NaN	NaN
7260.398	-20.02295	-12.07525	NaN	NaN
7263.651	-20.02173	-12.07534	NaN	NaN
7267.211	-20.02043	-12.07543	NaN	NaN
7271.350	-19.99651	-12.07722	NaN	NaN
7274.885	-22.56787	8.55276	NaN	NaN
7278.886	-19.99374	-12.07742	NaN	NaN
7282.877	-19.99374	-12.07742	NaN	NaN
7287.819	-19.99374	-12.07742	NaN	NaN
7292.005	-19.99374	-12.07742	NaN	NaN
7296.081	-19.99374	-12.07742	NaN	NaN
7299.704	-19.99374	-12.07742	NaN	NaN
7303.328	-19.99374	-12.07742	NaN	NaN
7306.975	-19.99374	-12.07742	NaN	NaN
7310.945	-19.99374	-12.07742	NaN	NaN
7315.071	-19.99374	-12.07742	NaN	NaN
7319.182	NaN	NaN	NaN	NaN
7322.873	NaN	NaN	NaN	NaN
7326.874	NaN	NaN	-2.40855	11.78702
7330.876	NaN	NaN	-1.34266	11.94883
7334.874	NaN	NaN	-0.75235	4.16647
7338.871	NaN	NaN	1.01722	3.16418
7342.876	NaN	NaN	-5.99453	4.03139
7346.880	-18.10453	13.18346	-9.37515	9.21085
7350.877	-15.27963	5.97409	-5.99257	0.71672
7354.873	-19.99155	-12.07758	-6.52637	2.81270
7358.875	-0.27806	13.10802	-8.04154	6.92465
7362.877	-0.42070	6.43061	-13.15614	-0.14973
7366.873	3.01984	-0.04874	-0.74526	6.02568
7370.870	2.27141	-3.19029	-0.60861	3.93958
7374.873	-1.31960	6.71945	-0.67883	3.88920
7378.873	0.19214	-0.20172	-4.39819	4.91417
7382.876	0.18976	7.24523	-0.43939	1.47905
7386.872	1.07215	1.46677	-0.67595	3.88603
7390.877	1.55179	-0.97925	-0.34263	5.99433
7394.875	1.68250	0.71804	-3.74847	8.11567
7398.871	0.68838	0.00268	-7.77215	7.26901
7402.875	2.24988	-1.24806	-4.29157	5.40423
7406.873	0.58133	-0.83187	-4.06399	8.09990
7410.874	0.42078	-1.23957	-6.91647	4.07574
7414.871	-5.22224	1.89587	-0.74962	4.23137
7418.874	-0.86031	-0.14702	-1.85182	3.05560
7422.870	-1.41821	0.86440	-7.24798	1.72472
7426.878	-0.21735	-1.49487	-4.14769	3.16179
7430.878	1.35259	-1.90534	-6.65157	1.75012
7434.874	-0.30687	-0.49858	-0.60315	0.87902
7438.869	-2.04483	-0.28916	-6.72724	4.78821
7442.878	-1.52102	-1.51782	-5.79590	4.92784
7446.872	-1.85943	-0.57240	-6.98810	2.25889
7450.871	-1.77291	0.78096	-2.68975	3.26925
7454.874	-3.32807	-0.07715	-6.06748	3.03020
7458.872	-4.04631	-0.48304	-3.05496	0.69580
7462.870	-1.86253	1.89365	-5.79809	4.44624
7466.873	-1.68072	3.94043	-3.79840	3.02394
7470.869	0.03422	-0.28487	-2.15358	4.81996
7474.878	-1.86228	2.26553	-4.67789	4.27207
7478.872	-1.23044	-0.54634	-3.99287	3.03273
7482.870	-4.32155	0.38812	-3.22285	2.66098
7486.872	-7.86021	0.72425	-7.03856	4.74201
7490.875	-10.34023	1.55370	-5.47058	6.19976
7494.873	-10.44355	2.49071	-10.62149	6.06364
7498.869	-14.33001	3.53192	-11.83529	5.25982
7502.873	-13.66955	3.81071	-12.44491	6.72178
7506.870	-16.66804	3.81945	-17.91033	2.57986
7510.874	-17.01866	3.83123	-17.22819	2.69825
7514.905	-17.99552	1.15883	-15.01943	5.35292
7518.872	-19.47836	1.47445	-17.06301	5.53668
7522.868	-18.88105	2.03050	-19.84705	4.73648
7526.874	-19.50154	1.22033	-16.32785	4.19641
7530.875	-19.78663	1.66786	-21.85836	5.08425
7534.873	-17.54635	2.05418	-19.94192	-12.08128
7538.869	-18.46126	2.41260	-22.39002	1.08761
7542.875	-22.51553	-0.26706	-22.69453	2.63479
7546.870	-22.57714	-1.15450	-20.32640	4.81066
7550.870	-21.12333	1.37449	-20.75766	5.07429
7554.875	-21.06597	0.91584	-22.96522	3.84646
7558.872	-20.95297	1.07259	-20.16391	-12.06470
7562.871	-21.02773	-1.51405	-20.12916	-12.06731
7566.875	-21.06833	1.17028	-20.14178	-12.06636
7570.869	-20.85267	1.78395	-22.95950	0.43427
7574.868	-20.83604	1.94084	-20.11030	-12.06872
7578.873	-20.80721	-1.59731	-21.97940	4.86497
7582.871	-21.70967	-1.43343	-20.10708	-12.06896
7586.870	-21.40245	-2.83097	-22.82282	4.98770
7590.864	-20.47093	1.32979	-20.04376	-12.07369
7594.871	-20.64110	1.51820	-19.99819	-12.07709
7598.874	-20.41973	1.92517	-22.46606	4.43785
7602.872	-20.46793	1.78103	-19.99848	-12.07707
7606.867	-19.10368	2.46147	-22.48592	3.66139
7610.872	-20.08011	-0.24851	-19.99920	-12.07702
7614.868	-20.13837	-1.14822	-19.99830	-12.07708
7618.870	-20.29002	-1.06945	-19.99806	-12.07710
7622.868	-20.42742	-5.05386	-19.99434	-12.07738
7626.877	-20.86875	-1.18590	-22.92492	3.29704
7630.873	-20.13596	-4.76197	-19.99429	-12.07738
7634.868	-20.38478	-5.15143	-22.83948	2.91330
7638.872	-22.14149	-2.57622	-22.53736	3.11428
7642.871	-20.61643	-5.67296	-22.57840	3.05687
7646.865	-19.80996	1.76841	-22.54272	4.42570
7650.870	-20.90828	-3.00140	-22.53402	4.98579
7654.870	-20.64721	1.68197	-22.73263	4.63298
7658.864	-20.90449	1.31435	-22.62293	3.78129
7662.875	-20.77799	1.08599	-22.52674	4.01550
7666.871	-21.84371	-4.63069	-22.23327	3.40793
7670.866	-21.06286	-0.81434	-21.39193	7.08879
7674.868	-20.50796	0.13120	-21.74756	4.95195
7678.872	-21.02285	1.51111	-22.33968	3.36746
7682.873	-21.40908	-0.06031	-22.24024	4.82625
7686.872	-21.24882	-3.01870	-22.03017	3.84403
7690.866	-20.75827	2.06228	-21.74805	2.84928
7694.869	-20.55414	2.76568	-22.24690	4.24348
7698.870	-20.31272	2.40492	-22.34630	4.50920
7702.893	-20.54274	2.24494	-20.39978	-12.04690
7706.871	-22.68930	-4.15096	-20.22910	-12.05980
7710.868	-20.71611	2.20024	-20.14309	-12.06626
7714.865	-20.12896	1.96199	-20.05537	-12.07283
7718.869	-19.34486	-0.81976	-20.02052	-12.07543
7722.869	-18.38673	0.21270	-20.01513	-12.07583
7726.869	-19.65659	-0.21763	-22.94691	3.77513
7730.864	-18.62036	0.47105	-22.36337	3.68082
7734.870	-19.84266	-0.44017	-20.27648	4.39103
7738.867	-19.73323	-1.05044	-20.33483	3.64412
7742.867	-19.30707	-0.55883	-20.30405	4.34257
7746.864	-19.43070	1.15462	-20.15779	5.23708
7750.868	-19.45027	1.49885	-20.02854	4.63128
7754.869	-19.23797	0.65689	-19.83770	5.22353
7758.866	-18.77629	0.45114	-19.27776	5.85292
7762.871	-19.36037	2.36928	-19.04028	4.66649
7766.872	-19.97956	-1.09809	-20.02613	5.61648
7770.863	-19.36165	3.99383	-19.99359	-12.07743
7774.870	-19.48681	2.57919	-19.99039	-12.07767
7778.866	-19.39246	1.80812	-20.81057	5.77765
7782.868	-19.75230	0.23305	-19.92562	-12.08248
7786.864	-19.52312	-2.89528	-19.89008	-12.08512
7790.864	-20.55597	-3.44997	-19.89545	-12.08472
7794.867	-20.41596	-3.95875	-23.48367	0.63742
7798.864	-21.13844	-3.64281	-19.97498	-12.07882
7802.862	-20.67242	-1.31958	-19.99800	-12.07711
7806.873	-20.04792	-12.07338	-20.01415	-12.07590
7810.865	-20.43564	-0.38914	-22.99698	2.61587
7814.881	-20.44601	-0.03493	-20.01090	-12.07614
7818.872	-20.83520	0.97906	-20.01007	-12.07621
7822.865	-21.00340	1.96611	-22.97559	1.70411
7826.867	-21.28632	0.03318	-23.26290	1.96036
7830.867	-21.39034	-3.89893	-23.06135	2.66317
7834.870	-21.55950	-0.26073	-23.28372	2.80305
7838.866	-22.45784	-4.16143	-23.19586	2.86106
7842.867	-22.46244	-0.34186	-19.99381	-12.07742
7846.869	-21.21634	1.92502	-23.16461	0.82687
7850.868	-21.46146	2.31806	-23.22357	2.19510
7854.864	-21.33905	-0.07180	-19.99379	-12.07742
7858.866	-22.15625	-0.31711	-23.14059	2.16117
7862.870	-21.67633	-0.50037	-23.14468	2.38367
7866.865	-22.54020	-3.10433	-23.20609	2.12398
7870.866	-20.43812	-12.04398	-19.99383	-12.07742
7874.864	-21.06911	-1.88353	-23.12716	1.92962
7878.868	-22.38120	4.84353	-19.99381	-12.07742
7882.865	-21.45991	0.40519	-23.06246	1.79330
7886.867	-23.11696	4.26864	-19.99381	-12.07742
7890.868	-23.09195	-1.97421	-23.16981	1.03757
7894.869	-20.26829	-12.05685	-23.17726	1.22135
7898.863	-19.82369	1.74866	-19.99381	-12.07742
7902.892	-19.64616	-1.75865	-19.99377	-12.07742
7906.863	-19.92213	-12.08274	-19.99374	-12.07742
7910.859	-19.91055	0.33356	-19.99374	-12.07742
7914.867	-20.08178	-1.24136	-19.99374	-12.07742
7918.863	-20.25235	-0.34715	NaN	NaN
7922.864	-19.77408	-2.18809	-23.42420	1.47688
7926.860	-19.54129	0.05826	NaN	NaN
7930.871	-19.69576	-0.18637	NaN	NaN
7934.868	-20.32350	0.56306	NaN	NaN
7938.867	-23.13805	0.99471	NaN	NaN
7942.866	-23.30263	1.02367	NaN	NaN
7946.862	-19.97737	-12.07864	-22.88434	1.86812
7950.862	-19.70596	1.65131	-23.18965	0.11606
7954.861	-19.73801	0.52849	-22.97774	2.44461
7958.866	-19.49453	0.51912	-19.99383	-12.07742
7962.866	-19.73574	-12.09651	-19.99383	-12.07742
7966.959	-19.79673	-12.09202	-22.78866	2.04188
7970.870	-19.59518	3.75509	-19.99394	-12.07741
7974.865	-19.83383	-12.08928	-19.99394	-12.07741
7978.867	-23.24424	-2.75135	-19.99392	-12.07741
7982.864	-19.81066	-12.09099	-19.99392	-12.07741
7986.861	-19.83430	-12.08925	-19.99392	-12.07741
7990.861	-19.84025	-12.08881	21.87112	12.98615
7994.865	-19.88406	-12.08556	-19.99383	-12.07742
7998.862	-19.91516	-12.08326	-19.99379	-12.07742
8002.862	-19.95507	-12.08030	-19.99379	-12.07742
8006.865	-19.95667	-12.08018	-19.99379	-12.07742
8010.739	-19.95839	-12.08005	NaN	NaN
8016.481	NaN	NaN	NaN	NaN
8020.241	NaN	NaN	NaN	NaN
8026.741	NaN	NaN	NaN	NaN
8030.752	NaN	NaN	NaN	NaN
8035.045	NaN	NaN	NaN	NaN
8038.746	NaN	NaN	NaN	NaN
8042.739	NaN	NaN	NaN	NaN
8046.743	NaN	NaN	NaN	NaN
8050.737	NaN	NaN	NaN	NaN
8054.738	NaN	NaN	NaN	NaN
8058.738	NaN	NaN	NaN	NaN
8062.748	NaN	NaN	NaN	NaN
8066.741	NaN	NaN	NaN	NaN
8070.741	NaN	NaN	NaN	NaN
8074.739	NaN	NaN	NaN	NaN
8078.739	NaN	NaN	NaN	NaN
8082.738	NaN	NaN	NaN	NaN
8086.738	NaN	NaN	NaN	NaN
8090.737	NaN	NaN	NaN	NaN
8094.739	NaN	NaN	NaN	NaN
8098.742	NaN	NaN	NaN	NaN
8102.981	NaN	NaN	NaN	NaN
8106.745	NaN	NaN	NaN	NaN
8110.738	NaN	NaN	NaN	NaN
8114.741	NaN	NaN	NaN	NaN
8118.738	NaN	NaN	NaN	NaN
8122.737	NaN	NaN	NaN	NaN
8126.768	NaN	NaN	NaN	NaN
8130.757	NaN	NaN	NaN	NaN
8134.741	NaN	NaN	NaN	NaN
8138.735	NaN	NaN	NaN	NaN
8142.744	NaN	NaN	NaN	NaN
8146.741	NaN	NaN	NaN	NaN
8150.735	NaN	NaN	NaN	NaN
8154.731	NaN	NaN	NaN	NaN
8158.734	NaN	NaN	NaN	NaN
8162.737	NaN	NaN	NaN	NaN
8166.735	NaN	NaN	NaN	NaN
8170.877	NaN	NaN	NaN	NaN
8174.739	NaN	NaN	NaN	NaN
8178.734	NaN	NaN	NaN	NaN
8182.735	NaN	NaN	NaN	NaN
8186.747	NaN	NaN	NaN	NaN
8192.225	NaN	NaN	NaN	NaN
8202.738	-4.61576	14.50989	1.91082	7.98082
8206.738	1.91759	7.94986	NaN	NaN
8210.734	1.73799	2.67043	-1.29439	-6.72054
8214.732	NaN	NaN	2.40102	3.75375
8218.731	2.22753	8.23062	NaN	NaN
8222.737	-0.32183	-3.03628	2.35244	-5.06111
8226.739	1.27733	8.26421	-3.52625	-1.22620
8230.737	0.87577	-0.02055	0.18310	-1.07333
8234.731	0.94194	11.13124	-2.32444	-3.00348
8238.761	1.06498	-2.82731	-2.89121	-1.09196
8242.742	1.25064	-2.89037	-8.07876	9.13837
8246.739	2.95601	6.78442	-1.95715	-0.58888
8250.734	1.05024	4.83495	-4.04406	0.01626
8254.733	-0.69675	0.03377	-4.03599	7.18421
8258.733	-0.16452	-1.99524	-6.14518	-2.93455
8262.731	-4.37317	-2.22335	-7.41785	4.77710
8266.736	-3.35476	-1.19367	-8.28238	-1.57167
8270.738	3.11663	-1.93505	-8.03246	-2.85464
8274.730	2.56505	-0.90554	-7.94392	-1.68240
