time (ms)	lx (deg)	ly (deg)	rx (deg)	ry (deg)
0.000	0.66953	0.43244	-2.50647	-1.86132
3.999	0.54399	0.41883	-2.65609	-1.83351
7.990	0.39385	0.43223	-2.45289	-1.76924
12.003	0.33776	0.67257	-2.30095	-1.74996
15.997	0.31267	0.60569	-2.14669	-1.68216
19.987	0.26235	0.51081	-2.11953	-1.63857
23.992	0.21028	0.58716	-2.08731	-1.65503
28.023	0.12382	0.49995	-2.02103	-1.64518
31.987	0.03819	0.51774	-1.96697	-1.65032
35.991	-0.06393	0.44159	-1.96873	-1.63702
39.989	-0.18025	0.40873	-1.93301	-1.73449
43.994	-0.25423	0.29197	-1.99803	-1.79983
47.987	-0.22624	0.20868	-1.92590	-1.82863
51.992	-0.19301	0.14455	-1.91610	-1.79838
55.988	-0.17839	0.06441	-1.98184	-1.92770
59.985	-0.16797	-0.04868	-2.01709	-2.06426
63.990	-0.10763	-0.19874	-2.11038	-2.12182
67.986	-0.03457	-0.33278	-2.09036	-2.17298
71.988	-0.04653	-0.22349	-2.08456	-2.12287
75.986	-0.03708	-0.21683	-1.96578	-1.87025
80.383	0.34097	0.45517	-1.61786	-1.15325
83.996	0.65181	1.71749	-1.26946	-0.64716
87.998	0.70667	1.27388	-0.94983	-0.52267
91.988	0.52351	0.83442	-1.29633	-0.65885
95.986	0.37931	0.46796	-1.50470	-0.96643
99.991	0.46763	0.50853	-1.36454	-1.03493
103.985	0.69263	0.55254	-1.19095	-1.03575
107.985	0.93919	0.57273	-0.94507	-0.76093
111.988	1.04672	0.62038	-1.06081	-0.81675
115.987	1.12417	0.76971	-0.97809	-0.71830
119.861	1.12338	0.85891	-0.98710	-0.74314
123.870	1.12095	0.76211	-1.14595	-0.72405
127.863	1.17979	0.79771	-1.12591	-0.78687
131.865	1.10596	0.73772	-1.05855	-0.76861
135.862	1.12777	0.75339	-1.14923	-0.78028
139.865	1.11576	0.84525	-1.01896	-0.69976
143.860	1.16758	0.88969	-1.20489	-0.68175
147.882	1.19894	0.91700	-1.03903	-0.57249
151.861	1.18820	0.93929	-1.04515	-0.59651
155.865	1.16942	0.96629	-0.96795	-0.57873
159.863	1.16558	0.95809	-0.96482	-0.57707
163.861	1.15258	0.94988	-1.04699	-0.55514
167.860	1.16451	0.96535	-1.07383	-0.60085
171.865	1.17949	0.93007	-1.12137	-0.59259
175.866	1.23536	0.89213	-1.04141	-0.55703
179.869	1.23684	0.82551	-1.15143	-0.58839
183.857	1.30432	0.69400	-1.25644	-0.57639
187.864	1.30255	0.64720	-1.15017	-0.63519
191.860	1.31027	0.53152	-1.12841	-0.67732
195.861	1.30660	0.57243	-1.22112	-0.67840
199.855	1.28395	0.67050	-1.26775	-0.67520
203.859	1.29546	0.73240	-1.26956	-0.70315
207.860	1.33249	0.75442	-1.29229	-0.67875
211.872	1.33081	0.75258	-1.31272	-0.66339
215.882	1.32317	0.70472	-1.29536	-0.62981
219.866	1.31062	0.75574	-1.32580	-0.65788
223.884	1.28117	0.81994	-1.29303	-0.70009
227.863	1.26123	1.01019	-1.25461	-0.58891
231.860	1.21839	0.98935	-1.24550	-0.29173
235.858	1.16788	1.06673	-1.24818	-0.21643
239.859	1.19075	1.08922	-1.22801	0.02986
243.860	1.28794	1.16706	-1.21256	-0.00311
247.860	1.40318	1.23963	-1.21916	0.09629
251.858	1.56613	1.30645	-1.17071	0.15895
255.861	1.53153	1.29068	-1.18579	0.13485
259.865	1.53582	1.33711	-1.17185	0.18996
263.861	1.63063	1.34342	-1.15364	0.12298
267.858	1.64347	1.41360	-1.15414	0.17078
271.862	1.80727	1.41479	-1.16543	0.11560
275.861	1.86097	1.46774	-1.17934	0.08812
279.857	1.92542	1.46371	-1.20038	0.08504
283.889	1.92607	1.48682	-1.21767	0.02782
287.866	1.97473	1.50705	-1.23521	-0.00912
291.858	1.96410	1.54937	-1.23560	-0.04241
295.862	1.96476	1.51145	-1.26478	-0.01148
299.867	1.97872	1.56221	-1.21757	-0.01058
303.859	1.99555	1.56652	-1.21921	0.00224
307.864	1.99188	1.63126	-1.22055	0.01913
311.859	2.00081	1.64413	-1.23719	0.07299
315.858	1.96360	1.61501	-1.23109	0.10250
319.857	1.95049	1.65550	-1.18272	0.16578
323.861	1.95976	1.64988	-1.12219	0.18263
327.859	1.93653	1.65169	-1.13821	0.19962
331.858	1.96724	1.65888	-1.10117	0.22673
335.860	1.95587	1.63259	-1.08604	0.25657
339.873	1.99243	1.63704	-1.03741	0.20813
343.859	1.96514	1.56679	-1.07726	0.27071
347.855	1.96293	1.56354	-1.09061	0.30867
352.182	1.96890	1.53686	-1.06731	0.29796
355.857	1.96737	1.50485	-1.06136	0.25923
359.862	1.95321	1.51295	-1.07830	0.20902
363.859	2.00433	1.39760	-1.04270	0.19764
367.857	1.98395	1.27461	-1.01236	0.09247
371.857	1.98051	1.24018	-1.00774	0.04755
375.861	1.90636	1.19121	-0.96556	-0.06567
379.858	1.90817	1.04900	-0.95380	-0.09536
383.863	1.84190	0.85828	-0.99782	-0.17598
387.856	1.81391	0.58724	-1.00645	-0.28142
391.860	1.78907	0.48463	-1.11407	-0.43338
395.858	1.74181	0.49441	-1.06515	-0.58118
399.857	1.67506	0.41395	-1.22682	-0.56460
403.859	1.61481	0.36106	-1.25471	-0.67367
407.859	1.51896	0.35293	-1.23531	-0.71483
411.859	1.45239	0.26227	-1.39158	-0.76672
415.861	1.41392	0.26213	-1.42568	-0.72501
419.885	1.40467	0.24434	-1.52221	-0.72863
423.864	1.35933	0.19653	-1.54175	-0.68213
427.868	1.30548	0.21206	-1.64104	-0.68744
431.860	1.27852	0.25809	-1.68548	-0.69318
435.855	1.21261	0.35921	-1.62889	-0.65535
439.854	1.18311	0.47540	-1.70328	-0.59622
443.860	1.14441	0.66381	-1.69567	-0.52358
447.881	1.14079	0.88456	-1.71382	-0.43312
451.855	1.08120	1.06820	-1.65957	-0.45596
455.854	1.07862	1.24199	-1.61642	-0.42151
459.862	1.07986	1.26658	-1.61828	-0.42338
463.858	1.07547	1.25742	-1.60603	-0.44223
467.859	1.06103	1.28357	-1.52364	-0.57469
471.859	1.04595	1.36833	-1.45591	-0.57354
475.856	1.04121	1.41089	-1.40966	-0.64402
479.856	1.06029	1.45351	-1.44044	-0.62816
483.854	1.08932	1.46683	-1.39359	-0.65199
487.860	1.07733	1.47369	-1.40232	-0.65604
491.856	1.05739	1.45865	-1.38089	-0.70344
495.859	1.06756	1.44179	-1.38190	-0.73464
499.856	1.05917	1.39464	-1.33368	-0.73194
503.854	1.04320	1.37061	-1.28522	-0.70990
507.865	0.98710	1.34883	-1.09482	-0.64295
511.855	0.95715	1.31197	-1.07515	-0.61342
515.857	0.92592	1.26433	-0.88508	-0.59008
519.848	0.86252	1.21565	-0.80975	-0.54895
523.854	0.85731	1.19720	-0.74034	-0.52314
527.858	0.83806	1.16482	-0.69647	-0.49023
531.854	0.96336	1.09685	-0.66337	-0.48583
535.858	1.14211	1.01885	-0.61064	-0.50994
539.856	1.66901	0.97187	-0.56508	-0.47580
543.853	1.68582	0.95468	-0.56267	-0.48738
547.858	1.92121	0.96443	-0.56664	-0.50291
551.864	1.99957	0.94835	-0.61575	-0.54311
555.858	2.02626	0.97391	-0.56865	-0.53844
559.859	2.19157	0.99066	-0.64878	-0.54278
563.853	2.12124	1.01903	-0.70915	-0.55669
567.853	2.18545	1.09370	-0.70662	-0.55833
571.854	2.20049	1.07835	-0.72908	-0.56674
575.857	2.22822	1.17823	-0.73948	-0.56192
579.857	2.21675	1.27161	-0.76248	-0.56662
583.853	2.16280	1.28926	-0.79017	-0.58207
587.859	2.09717	1.31314	-0.82357	-0.61712
591.860	2.00120	1.33965	-0.86443	-0.61311
595.861	1.97049	1.38812	-0.89188	-0.63484
599.852	1.86419	1.43237	-0.95363	-0.66360
603.855	1.81808	1.46087	-0.99278	-0.64096
607.855	1.79388	1.49058	-1.06287	-0.64947
611.853	1.75366	1.48436	-1.09232	-0.63510
615.857	1.70698	1.53483	-1.14940	-0.61713
619.855	1.67363	1.53408	-1.17723	-0.62127
623.856	1.66423	1.59346	-1.17619	-0.58406
627.859	1.64992	1.72012	-1.21417	-0.54123
631.858	1.69225	1.81103	-1.22248	-0.46879
635.856	1.67772	1.81464	-1.17416	-0.46052
639.856	1.67246	2.12595	-1.12787	-0.35442
643.856	1.70628	2.06750	-1.08165	-0.28673
647.853	1.69954	2.07698	-1.09805	-0.22519
651.856	1.74447	2.06966	-1.05270	-0.22877
655.853	1.81272	1.97049	-1.04602	-0.30569
659.852	1.73341	0.25379	-1.03863	-0.30557
663.853	1.74883	0.42380	-1.05830	-0.24875
667.852	1.75220	1.12428	-1.09656	-0.36208
671.851	1.71965	1.50915	-1.17781	-0.40830
675.859	1.64022	1.35097	-1.18937	-0.48010
679.853	1.72319	1.12596	-1.22467	-0.35575
683.849	1.72912	1.25615	-1.20291	-0.34975
687.852	1.79859	1.03708	-1.32069	-0.41772
691.890	1.78354	1.04888	-1.32813	-0.50297
695.862	1.75701	0.98816	-1.31409	-0.51609
699.853	1.78800	0.98241	-1.22097	-0.51914
703.851	1.87532	1.03800	-1.15384	-0.53093
707.856	2.07212	1.10307	-1.00638	-0.59550
711.854	2.13950	1.10476	-1.12871	-0.66659
715.862	2.28665	1.11142	-1.01387	-0.55858
719.849	2.43372	1.10043	-1.12496	-0.56994
723.853	2.38075	1.13202	-1.00926	-0.68605
727.852	2.48631	1.10595	-1.01541	-0.63293
731.850	2.44732	1.12457	-1.03888	-0.59681
735.852	2.34143	1.08306	-0.94882	-0.61267
739.854	2.36589	1.02166	-0.93894	-0.65518
743.852	2.18885	0.96363	-1.03491	-0.59576
747.851	1.97210	0.88808	-1.09686	-0.61662
751.850	2.00450	0.77728	-1.15731	-0.60073
755.859	1.97589	0.60628	-1.11244	-0.57071
759.877	1.98988	0.47725	-1.17570	-0.57636
763.858	1.63831	0.56383	-1.21358	-0.59670
767.849	1.46782	0.46390	-1.15853	-0.60928
771.854	1.57964	0.37691	-1.08666	-0.57782
775.851	1.53758	0.25978	-1.04394	-0.66192
779.852	1.56747	0.17775	-1.13305	-0.69017
783.854	1.53046	0.27903	-1.11440	-0.62988
787.851	1.58324	0.26109	-1.04674	-0.58058
791.848	1.51573	0.17326	-1.04225	-0.72395
795.849	1.51544	0.16198	-1.02126	-0.61291
799.859	1.36722	0.36376	-1.00062	-0.59704
803.855	1.36414	0.43036	-0.97211	-0.56534
807.850	1.34289	0.43279	-0.93686	-0.54816
811.854	1.35512	0.38738	-0.90890	-0.48799
815.851	1.25627	0.58134	-0.92835	-0.48019
819.850	1.15717	0.64023	-0.91914	-0.41934
823.852	1.21050	0.91114	-0.91329	-0.43239
827.890	1.30836	1.24643	-0.88912	-0.50496
831.862	1.33998	1.19673	-0.88701	-0.50588
835.849	1.32575	1.41196	-0.88781	-0.70386
839.855	1.28968	1.52499	-0.88632	-0.77379
843.857	1.38857	1.63298	-0.91455	-0.83891
847.851	1.37287	1.76695	-0.88212	-0.84456
851.848	1.40733	1.69684	-0.89463	-0.78419
855.848	1.40254	1.69572	-0.88016	-0.97644
859.884	1.39867	1.75390	-0.89029	-1.08828
863.849	1.33088	1.76018	-0.91264	-0.88447
867.851	1.52645	1.67644	-0.95241	-0.86727
871.847	1.50646	1.61329	-1.04649	-0.81141
875.852	1.47491	1.52182	-1.04620	-0.88481
879.849	1.50914	1.33727	-1.13563	-0.84377
883.862	1.50413	1.23920	-1.24575	-0.83430
887.846	1.55772	1.38198	-1.01313	-0.77637
891.851	1.70975	1.38629	-1.08028	-0.68009
896.360	1.67377	1.31343	-0.97226	-0.69413
899.855	1.75270	1.34456	-1.05890	-0.45671
903.849	1.78808	1.33199	-1.06069	-0.35953
907.854	1.81986	1.26887	-1.05848	-0.32964
911.848	1.77876	1.29971	-1.07932	-0.31746
915.847	1.79829	1.35239	-1.00734	-0.28791
919.845	1.81409	1.43342	-1.01834	-0.21854
923.856	1.83647	1.45614	-0.97045	-0.15451
927.857	1.86015	1.51048	-0.98628	-0.04271
931.850	1.86506	1.52606	-0.97574	-0.05714
935.846	1.83181	1.55761	-0.98908	0.00954
939.851	1.82061	1.60631	-1.01052	-0.00261
943.849	1.81379	1.60833	-1.00596	-0.03240
947.846	1.78037	1.60781	-1.00256	-0.15354
951.846	1.76205	1.62748	-1.03106	-0.19233
955.851	1.76086	1.67297	-1.04233	-0.24596
959.850	1.69894	1.52563	-1.01139	-0.44420
963.856	1.70998	1.07777	-0.98249	-0.48333
967.851	1.65828	0.87088	-0.95703	-0.64758
971.852	1.66135	1.04175	-1.01062	-0.75717
975.727	1.66143	0.72704	-0.92026	-1.05298
979.722	1.64799	0.46939	-0.93840	-0.66599
983.721	1.62599	0.86175	-1.23928	-0.80579
987.725	0.81655	0.57583	-1.45413	-0.64639
991.725	-0.82858	0.74993	-3.67470	-1.04249
995.723	-3.22789	0.23068	-4.23327	-2.13964
999.719	-5.17991	-1.15432	-5.59346	-2.94665
1003.723	-4.60915	-2.15036	-5.45440	-3.36190
1007.723	-3.13679	-2.07441	-5.43743	-3.39372
1011.726	-3.20162	-2.48330	-5.79008	-3.65009
1015.726	-3.63102	-2.44764	-5.90725	-3.68910
1019.722	-3.77197	-2.54755	-6.10136	-3.56986
1023.723	-3.79690	-2.42587	-6.18502	-3.65201
1027.728	-3.89459	-2.52299	-6.01382	-3.68536
1031.774	-4.07905	-2.50105	-6.08235	-3.71400
1035.731	-4.15900	-2.44405	-6.18240	-3.78199
1039.721	-4.30206	-2.39245	-6.31693	-3.80455
1043.724	-4.46297	-2.39802	-6.44008	-3.87572
1047.723	-4.48359	-2.39780	-6.49854	-3.86888
1051.720	-4.63440	-2.29211	-6.55373	-3.90168
1055.723	-4.73335	-2.20970	-6.62400	-3.84488
1059.725	-4.79280	-2.08458	-6.63920	-3.81990
1063.720	-4.83765	-2.04901	-6.74800	-3.83264
1067.722	-4.93228	-1.99820	-6.73549	-3.79116
1071.719	-4.90427	-1.90338	-6.77191	-3.67564
1075.759	-4.98679	-1.70188	-6.80325	-3.59811
1079.723	-4.87367	-1.87777	-6.78238	-3.50295
1083.719	-4.94058	-1.87318	-6.78772	-3.34026
1087.724	-4.77380	-1.93852	-6.75901	-3.25586
1091.720	-4.82232	-2.19492	-6.72430	-3.41320
1095.723	-4.89163	-2.65697	-6.68178	-3.60494
1099.778	-4.91289	-2.49970	-6.65429	-3.65701
1103.733	-4.87843	-2.69581	-6.61540	-3.75800
1107.725	-4.87086	-2.64782	-6.59317	-3.86399
1111.719	-4.89700	-2.61908	-6.56826	-3.87225
1115.723	-4.91755	-2.52733	-6.56789	-3.97857
1119.721	-4.79294	-2.65450	-6.55241	-3.96221
1123.720	-4.85810	-2.59467	-6.57375	-3.91695
1127.721	-4.90843	-2.61975	-6.56329	-3.97462
1131.720	-4.95231	-2.51349	-6.60522	-3.98510
1135.722	-4.92164	-2.22651	-6.64545	-4.00708
1139.721	-4.43979	-2.35555	-6.78852	-3.94945
1143.723	-4.41317	-2.27592	-6.76383	-3.86702
1147.721	-4.34455	-2.30368	-6.93748	-3.72089
1151.718	-4.49159	-2.23877	-6.72159	-3.75021
1155.722	-4.35573	-2.05507	-6.79579	-3.69332
1159.720	-4.05433	-1.92871	-6.91828	-3.64228
1163.718	-4.06809	-1.86809	-6.81419	-3.59176
1167.763	-4.07816	-1.85507	-6.60095	-3.54718
1171.726	-4.17581	-1.65587	-6.48935	-3.54288
1175.718	-4.15623	-1.69182	-6.53561	-3.53144
1179.721	-4.22461	-1.69219	-6.47032	-3.57287
1183.724	-4.25796	-1.74394	-6.53353	-3.57661
1187.720	-4.34739	-1.71863	-6.39386	-3.61463
1191.718	-4.46083	-1.69060	-6.38690	-3.67838
1195.716	-4.55761	-1.65622	-6.43003	-3.73060
1199.722	-4.69857	-1.69024	-6.41940	-3.80567
1203.715	-4.80189	-1.74097	-6.40896	-3.82750
1207.716	-4.91425	-1.71451	-6.38675	-3.90955
1211.784	-4.90622	-1.68853	-6.45191	-3.95629
1215.727	-4.97534	-1.75561	-6.50077	-4.02956
1219.730	-5.01699	-1.75206	-6.52331	-4.09428
1223.720	-5.10044	-1.75604	-6.55584	-4.07741
1227.719	-4.72729	-1.56978	-6.45463	-3.98543
1231.714	-3.21676	-0.80042	-5.20509	-2.70629
1235.756	-1.25036	0.17937	-4.40732	-0.70434
1239.731	-1.19807	0.56334	-3.78879	-0.43903
1243.716	-1.02360	0.97319	-3.44735	-0.48377
1247.725	-1.08406	1.07692	-3.97202	-0.45294
1251.723	-1.36231	1.11887	-4.03846	-0.53512
1255.718	-1.63343	0.94472	-4.06443	-0.62547
1259.717	-1.55435	0.78005	-3.88752	-0.77445
1263.728	-1.58884	0.93649	-3.91165	-0.93765
1267.720	-1.54465	1.10053	-3.71708	-0.82903
1271.723	-1.35474	1.20924	-3.71411	-0.79323
1275.721	-1.29102	1.26752	-3.68488	-0.79462
1279.716	-1.19743	1.37864	-3.66367	-0.83870
1283.716	-1.17272	1.40559	-3.69506	-0.89217
1287.715	-1.25570	1.43385	-3.72010	-0.95332
1291.720	-1.22449	1.42483	-3.66090	-0.99348
1295.717	-1.25972	1.46180	-3.63735	-1.02813
1299.715	-1.23119	1.43783	-3.62427	-1.00814
1303.732	-1.17406	1.49343	-3.60754	-0.96353
1307.723	-1.13973	1.51343	-3.61028	-0.68323
1311.717	-1.11378	1.43794	-3.61725	-0.33836
1315.715	-1.12075	1.24903	-3.60217	-0.20671
1319.714	-1.15697	0.89166	-3.58979	-0.10684
1323.719	-1.15736	1.30414	-3.55515	-0.41368
1327.717	-1.18889	1.95542	-3.51508	-0.29879
1331.715	-1.17753	1.73834	-3.42428	-0.34699
1335.719	-1.18899	1.51216	-3.39250	-0.43908
1339.717	-1.22013	1.79654	-3.39324	-0.42015
1343.722	-1.20941	1.63245	-3.34155	-0.49546
1347.718	-1.23585	1.49476	-3.33488	-0.54279
1351.721	-1.22883	1.20932	-3.31717	-0.48277
1355.716	-1.24518	1.24142	-3.31675	-0.43837
1359.715	-1.26989	0.98217	-3.31791	-0.58373
1363.713	-1.26034	1.04727	-3.30881	-0.53156
1367.719	-1.26406	0.72560	-3.28724	-0.33860
1371.720	-1.25307	1.03985	-3.25966	-0.38319
1375.716	-1.23533	1.31148	-3.26789	-0.30385
1379.719	-1.27269	1.52113	-3.27383	-0.28929
1383.737	-1.23781	1.50422	-3.25043	-0.16394
1387.732	-1.21782	1.91386	-3.23977	-0.13806
1391.718	-1.17917	1.69369	-3.19313	-0.09225
1395.718	-1.19167	2.08928	-3.16156	-0.04878
1399.717	-1.20226	2.10371	-3.13556	-0.02786
1403.722	-1.16652	2.00417	-3.19053	0.02761
1407.716	-1.13241	2.06523	-3.28412	-0.16557
1411.718	-1.13906	1.40086	-3.34868	-0.17531
1415.713	-1.12077	1.59043	-3.52044	-0.17823
1419.719	-1.12911	1.36576	-3.54168	-0.22049
1423.715	-1.10849	1.34920	-3.71377	-0.18908
1427.749	-1.07813	1.09612	-3.60756	-0.21454
1431.717	-1.05997	1.16792	-3.61087	-0.51220
1435.713	-1.01672	1.28875	-3.66229	-0.45122
1439.735	-1.07185	1.28014	-3.68216	-0.51938
1443.717	-1.06116	1.28002	-3.78822	-0.51939
1447.719	-1.11871	1.27058	-3.79695	-0.56592
1451.716	-1.10795	1.34824	-3.65089	-0.51823
1455.715	-1.15044	1.44974	-3.53540	-0.49235
1459.712	-1.20425	1.68538	-3.51664	-0.48773
1463.720	-1.23446	1.90742	-3.57397	-0.41439
1467.717	-1.25168	1.90309	-3.49861	-0.32380
1471.717	-1.23890	1.56494	-3.55014	-0.40376
1475.720	-1.26240	1.48990	-3.61436	-0.14257
1479.717	-1.30774	1.51517	-3.45962	-0.28403
1483.713	-1.18612	0.97679	-3.26027	0.20113
1487.716	0.49651	0.68513	-2.20208	-0.23095
1491.743	2.35685	0.51780	0.74608	-0.09059
1495.714	4.55749	0.83555	2.91740	0.01015
1499.712	6.24207	0.94812	3.94416	0.01460
1503.718	7.06564	0.84315	4.74683	-0.04519
1507.737	9.52408	0.74094	6.72856	-0.09306
1511.720	10.10853	0.84757	8.59218	-0.42923
1515.711	12.26202	1.16206	8.85868	-0.61156
1519.716	13.23450	1.39184	10.67663	-0.39583
1523.715	13.84836	1.89792	11.37040	-0.32262
1527.714	14.44380	2.23597	11.86916	-0.38760
1531.718	14.47110	2.45438	11.92044	-0.54195
1535.713	14.27198	2.55730	11.85188	-0.72271
1539.712	14.09535	2.10659	11.76856	-0.73409
1543.711	13.86886	1.91481	11.82019	-1.00966
1547.717	14.14338	2.05111	11.97391	-0.97358
1551.717	14.16956	2.11509	12.11237	-1.01007
1555.717	14.23610	2.14901	12.08191	-0.96272
1559.709	14.22071	2.25458	12.13878	-0.89910
1563.716	14.23212	2.35933	12.15500	-0.87003
1567.714	14.24179	2.38679	12.18754	-0.90290
1571.713	14.20789	2.49862	12.11204	-0.85163
1575.732	14.21952	2.61823	12.09714	-0.69181
1579.715	14.23753	2.71209	12.09890	-0.79826
1583.716	14.27247	2.83711	12.11662	-0.75266
1587.713	14.31137	2.96761	12.14988	-0.69024
1591.710	14.31221	3.07019	12.13066	-0.62881
1595.720	14.30415	3.09919	12.01264	-0.54867
1599.716	14.29217	3.17195	11.92009	-0.45574
1603.710	14.29371	3.24651	11.86674	-0.37693
1607.716	14.31962	3.29150	11.80015	-0.29089
1611.714	14.33821	3.32602	11.70554	-0.27994
1615.710	14.32570	3.37357	11.63692	-0.26300
1619.710	14.26977	3.36123	11.62671	-0.26581
1623.715	14.20903	3.34134	11.57291	-0.21795
1627.712	14.14488	3.31729	11.54559	-0.21544
1631.710	14.13528	3.26403	11.60270	-0.14700
1635.714	14.09649	3.13564	11.65923	-0.09316
1639.715	14.05061	2.98606	11.73131	-0.09187
1643.756	14.03437	2.78371	11.74347	-0.12077
1647.721	14.01585	2.62983	11.77296	-0.14547
1651.711	14.00564	2.30186	11.55716	-0.10615
1655.714	13.97891	2.39556	11.44537	-0.10051
1659.709	14.02312	2.38576	11.55154	-0.08321
1663.709	14.04801	2.62097	11.37870	0.00811
1667.714	14.17215	2.69660	11.55671	0.02673
1671.712	14.22773	3.15989	11.59758	0.06818
1675.710	14.34410	3.38689	11.53482	0.08753
1679.715	14.38074	3.43294	11.43309	0.06352
1683.715	14.46016	3.34586	11.43314	0.09470
1687.712	14.55432	3.39470	11.36804	0.11455
1691.711	14.59335	3.29491	11.37321	0.14093
1695.708	14.64345	3.23887	11.44711	0.10261
1699.714	14.69251	3.23633	11.44692	0.10670
1703.709	14.83865	3.35396	11.49822	0.11579
1707.710	14.84339	3.27671	11.54975	0.10666
1711.807	14.89379	3.29607	11.53148	0.12558
1715.726	14.93749	3.24146	11.55333	0.14656
1719.718	14.80345	3.10288	11.56569	0.16510
1723.710	14.62909	3.13652	11.66027	0.22044
1727.709	14.45053	3.07341	11.69531	0.20343
1731.708	14.54767	3.04861	11.64854	0.16644
1735.712	14.42449	3.03892	11.59823	0.17726
1739.711	13.84111	3.02304	11.48687	0.19637
1743.708	13.68469	2.99679	11.32507	0.19485
1747.708	13.83695	2.95350	11.30242	0.15156
1751.713	14.05663	2.83040	11.29364	0.09638
1755.711	14.39068	2.58156	11.54651	-0.11099
1759.711	16.08131	2.32506	12.05449	-0.32437
1763.712	14.79955	1.37823	13.44996	-1.17668
1767.713	15.00522	1.65382	12.70095	-1.30637
1771.709	14.83295	2.02524	12.71252	-1.40389
1775.709	15.05415	1.99061	12.60720	-1.24155
1779.714	15.09835	1.96245	12.81500	-1.20469
1783.712	15.20677	2.01952	12.72220	-1.34677
1787.710	15.01193	1.82800	12.72423	-1.18824
1791.707	15.10760	1.75549	12.83052	-1.32495
1795.713	15.17311	1.85038	12.78580	-1.40799
1799.710	15.26335	1.79333	12.78019	-1.45540
1803.712	15.25023	1.90024	12.72801	-1.48854
1807.719	15.40235	1.92958	12.66793	-1.51305
1811.710	15.62229	1.97103	12.75396	-1.49241
1815.707	15.88176	1.92617	12.78441	-1.31369
1819.707	15.97571	1.88005	12.73158	-1.31171
1823.712	16.07388	1.89234	12.71850	-1.23294
1827.710	15.85276	1.75079	12.78727	-1.18196
1831.583	16.02671	1.73584	12.79437	-1.24839
1835.587	15.99225	1.55209	12.76045	-1.33077
1839.587	16.06621	1.43843	12.77804	-1.30106
1843.581	16.06628	1.41719	12.70400	-1.26500
1847.966	16.06415	1.51223	12.73517	-1.23887
1851.601	16.11141	1.43968	12.66268	-1.22941
1855.585	15.85014	1.40396	12.65909	-1.23270
1859.581	15.76702	1.48818	12.66656	-1.30902
1863.581	15.71816	1.47525	12.65782	-1.30708
1867.586	15.45869	1.52261	12.66516	-1.33321
1871.584	15.49799	1.54338	12.65023	-1.33835
1875.584	15.53276	1.26846	12.65734	-1.35002
1879.581	15.39875	1.35893	12.68895	-1.28632
1883.586	15.45832	1.41452	12.67402	-1.24309
1887.582	15.38401	1.55577	12.71779	-1.30001
1891.586	15.49448	1.59059	12.77417	-1.26879
1895.607	15.49165	1.64892	12.81662	-1.20667
1899.593	15.60876	1.76262	12.83173	-1.17424
1903.582	15.62519	1.88600	12.80780	-1.14546
1907.587	15.63557	1.78782	12.83812	-1.11793
1911.587	15.69486	1.86968	12.81979	-1.15652
1915.584	15.72425	1.84724	12.82981	-1.18910
1919.588	15.69295	1.95879	12.81641	-1.21232
1923.584	15.71248	2.07440	12.80815	-1.22681
1927.636	15.70043	2.16024	12.80610	-1.30660
1931.590	15.69077	2.10142	12.81429	-1.31927
1935.598	15.66261	2.27266	12.80726	-1.29841
1939.590	15.75424	2.29707	12.79262	-1.37621
1943.579	15.69751	2.38808	12.77634	-1.38189
1947.579	15.70694	2.40936	12.76369	-1.44280
1951.588	15.79864	2.52486	12.76029	-1.47922
1955.582	15.82304	2.49132	12.79418	-1.45515
1959.586	15.81782	2.48353	12.78085	-1.47220
1963.581	15.80631	2.46948	12.79642	-1.47024
1967.582	15.80804	2.42630	12.73613	-1.29437
1971.578	15.83951	2.40321	12.74997	-1.27887
1975.583	15.86427	2.38325	12.69181	-1.21868
1979.592	15.91064	2.30493	12.67310	-1.10378
1983.584	15.87928	2.20919	12.72393	-1.04797
1987.584	15.86574	2.13446	12.69561	-1.01567
1991.583	15.85807	2.09678	12.74067	-1.09757
1995.578	15.83758	2.04459	12.81188	-1.03516
1999.582	15.83508	2.03533	12.81677	-1.02511
2003.577	15.69935	1.91249	12.84347	-1.05889
2007.578	15.68803	1.89171	12.88534	-0.90719
2011.583	15.76584	1.82995	12.84107	-0.99912
2015.587	15.51939	1.84370	12.87746	-1.02784
2019.583	15.35510	1.80660	12.93967	-1.06359
2023.578	15.02432	1.77656	13.01939	-1.07699
2027.583	15.00417	1.76064	13.07766	-1.12641
2031.578	15.10022	1.76648	13.12856	-1.21750
2035.578	14.94701	1.79598	13.20482	-1.18225
2039.582	14.80788	1.73671	13.12272	-1.21663
2043.580	14.80361	1.75820	13.14430	-1.24896
2047.580	14.66471	1.75608	13.07846	-1.37869
2051.579	14.63829	1.80257	13.10304	-1.45806
2055.588	14.70265	1.87023	13.06996	-1.41488
2059.585	14.66891	1.85304	12.95039	-1.49758
2063.578	13.95687	1.90674	10.65355	-1.32918
2067.577	9.45947	1.91367	8.47753	-1.42717
2071.582	8.90001	1.85393	6.78676	-1.17590
2075.580	4.85182	1.58704	4.31758	-1.49716
2079.577	4.67318	1.47786	3.32303	-1.43954
2083.577	2.22624	1.36221	2.45475	-1.51812
2087.586	2.11787	1.66550	0.50642	-1.10670
2091.582	0.59560	1.83011	-0.43656	-1.14849
2095.579	0.14714	1.19420	-1.27110	-0.75461
2099.586	-0.22907	0.88647	-2.09509	-0.65044
2103.584	-0.23336	0.68170	-1.98048	-0.71072
2107.576	-0.10937	0.67902	-1.93222	-0.79447
2111.582	-0.08584	-0.38021	-1.70192	-0.72633
2115.581	-0.12171	-0.71358	-1.69267	-0.71302
2119.581	-0.26299	-0.52947	-1.78223	-0.65907
2123.583	-0.44601	0.33801	-1.91603	-0.61097
2127.575	-0.41998	0.46401	-2.00780	-0.61362
2131.584	-0.67556	0.27019	-2.01501	-0.63028
2135.578	-0.67082	0.18760	-2.13727	-0.58412
2139.583	-0.68054	0.31596	-2.25446	-0.63835
2143.578	-0.78962	0.46400	-2.16312	-0.67114
2147.614	-0.59176	0.56741	-2.19412	-0.62817
2151.578	-0.68766	0.65815	-2.17591	-0.58625
2155.580	-0.68980	0.74262	-2.21985	-0.54799
2159.577	-0.70997	0.81737	-2.29116	-0.50159
2163.578	-0.64230	0.86719	-2.29508	-0.46941
2167.577	-0.56451	0.87580	-2.32441	-0.41754
2171.582	-0.45989	0.90632	-2.32652	-0.38809
2175.577	-0.53840	0.79869	-2.37674	-0.39982
2179.574	-0.46512	0.87549	-2.36710	-0.36005
2183.579	-0.43797	0.85830	-2.32181	-0.34983
2187.993	-0.39569	0.54146	-2.32880	-0.30594
2191.587	-0.38085	0.47177	-2.32838	-0.27589
2195.580	-0.38551	0.59861	-2.31584	-0.24037
2199.581	-0.38167	0.62164	-2.30231	-0.26363
2203.578	-0.40899	0.19106	-2.28762	-0.56487
2207.582	-0.39601	-0.06893	-2.33479	-0.70616
2211.610	-0.42055	0.08670	-2.26522	-0.94997
2215.591	-0.43696	0.20381	-2.25169	-0.98759
2219.578	-0.41301	0.30417	-2.17266	-0.85667
2223.580	-0.25361	0.34614	-2.09708	-0.85599
2227.574	0.18442	0.37124	-2.09239	-0.99670
2231.586	-0.09503	0.40767	-2.03065	-0.94630
2235.578	-0.06671	0.42225	-2.03231	-0.93947
2239.575	0.04308	0.49369	-1.99535	-0.94681
2243.580	-0.03127	0.46037	-1.97832	-1.02086
2247.575	0.03944	0.59104	-1.99151	-1.02877
2251.576	0.00581	0.64528	-1.94074	-1.00556
2255.600	0.01114	0.70769	-1.94486	-0.98170
2259.582	0.15580	0.80863	-1.92193	-0.92126
2263.584	0.12384	0.84608	-1.93306	-0.90417
2267.583	0.12883	0.88195	-1.93683	-0.92090
2271.576	0.15171	0.98045	-1.92074	-0.90678
2275.580	0.15161	1.02196	-1.92143	-0.91738
2279.575	0.19345	1.05144	-1.94593	-0.98001
2283.575	0.21653	1.02782	-1.93950	-1.02930
2287.573	0.22981	1.06711	-1.98036	-1.05199
2291.578	0.32144	1.06847	-1.97176	-1.09124
2295.579	0.34231	1.02006	-1.98814	-1.11765
2299.574	0.43112	0.94040	-1.96583	-1.14936
2303.581	0.42038	0.76310	-1.99441	-1.23756
2307.578	0.41638	0.89733	-2.00718	-1.31150
2311.579	0.25468	0.78488	-2.09834	-1.18613
2315.574	0.29128	0.65675	-2.05323	-1.14533
2319.579	2.28251	0.66220	0.32466	-1.36709
2323.814	4.39829	0.56708	2.95636	-1.10606
2327.582	6.56640	0.66822	4.71841	-1.14686
2331.575	9.25606	0.81412	6.84204	-1.33795
2335.612	9.69359	0.64053	8.64371	-1.23339
2339.579	11.45972	0.65090	9.38798	-1.56390
2343.576	13.40753	0.61394	10.87560	-1.72515
2347.580	14.56904	0.80149	11.81077	-2.07254
2351.574	16.19826	0.89044	13.73243	-1.90648
2355.577	17.41957	1.11518	14.49372	-2.03876
2359.575	17.89433	1.49366	14.38209	-2.25394
2363.573	17.00319	1.48720	13.63754	-2.28026
2367.571	16.11194	1.72772	13.46214	-2.24794
2371.577	15.87756	1.91675	13.50997	-2.14529
2375.573	16.04920	1.85431	13.95105	-2.06470
2379.573	16.39150	1.94522	14.22225	-2.25312
2383.572	16.78933	2.09857	14.34208	-2.24524
2387.576	17.02424	2.22138	14.39704	-2.28198
2391.584	16.81719	2.21505	14.34133	-2.20553
2395.582	16.82902	2.32824	14.39820	-2.23227
2399.577	16.83693	2.39709	14.20245	-2.26087
2403.581	16.82090	2.34874	14.10499	-2.27781
2407.574	16.63576	2.38144	14.01534	-2.27237
2411.572	16.81876	2.34437	14.04654	-2.28099
2415.571	16.86062	2.38300	13.99265	-2.32077
2419.576	16.88739	2.37485	13.94724	-2.35664
2423.575	16.90061	2.41950	13.93627	-2.33441
2427.571	16.90479	2.41429	13.90976	-2.35669
2431.583	16.78892	2.34607	13.90216	-2.34798
2435.574	16.80280	2.35457	13.81053	-2.37205
2439.571	16.77284	2.28988	13.80542	-2.38583
2443.570	16.79172	2.29295	13.77612	-2.39416
2447.577	16.76301	2.29054	13.79300	-2.37917
2451.574	16.70408	2.28498	13.81509	-2.38566
2455.574	16.66945	2.31724	13.82585	-2.31485
2459.579	16.62106	2.28321	13.86851	-2.25889
2463.578	16.59093	2.28670	13.89129	-2.21252
2467.574	16.56779	2.33130	13.93167	-2.20604
2471.575	16.47619	2.34770	13.93805	-2.18047
2475.575	16.47342	2.37224	13.92400	-2.08041
2479.575	16.43542	2.37368	13.91766	-2.03997
2483.572	16.41631	2.40432	13.92356	-1.95968
2487.571	16.39696	2.41356	13.94710	-1.94580
2491.569	16.34103	2.42679	13.94972	-1.81506
2495.576	16.36468	2.43707	13.94866	-1.79471
2499.572	16.35884	2.44682	13.93656	-1.85133
2503.572	16.35577	2.43672	13.96362	-1.89437
2507.576	16.36612	2.41894	13.97440	-1.94075
2511.570	16.35337	2.35492	13.95771	-1.98540
2515.578	16.37743	2.27949	14.00003	-1.90135
2519.571	16.45039	2.32518	14.02059	-1.90123
2523.576	16.42254	2.20031	14.08419	-1.90691
2527.576	16.43055	1.70632	14.09268	-1.95371
2531.577	16.42820	1.46785	14.10398	-1.86866
2535.572	16.50551	1.23762	14.11542	-1.88520
2539.573	16.46831	1.22635	14.15031	-1.86640
2543.570	16.47345	1.26348	14.06116	-1.88640
2547.574	16.50845	1.30130	13.97716	-1.87348
2551.603	16.53133	1.45204	13.91547	-1.81603
2555.577	16.51173	1.34007	13.88839	-1.77498
2559.569	16.50754	1.40065	13.84359	-1.76807
2563.573	16.47575	1.31055	13.67567	-1.76811
2567.572	16.49540	1.33690	13.69722	-1.74662
2571.569	16.52075	1.38513	13.59680	-1.69590
2575.567	16.53099	1.43603	13.58278	-1.69918
2579.575	16.50229	1.51533	13.54434	-1.67720
2583.571	16.49113	1.51497	13.50912	-1.65485
2587.571	16.50409	1.55020	13.50579	-1.65241
2591.573	16.49595	1.54279	13.50000	-1.64270
2595.576	16.50338	1.48254	13.48348	-1.60187
2599.578	16.51721	1.48998	13.53974	-1.50408
2603.576	16.55427	1.42709	13.51217	-1.43834
2607.571	16.55621	1.37487	13.53343	-1.42734
2611.568	16.58186	1.28231	13.56969	-1.44188
2615.566	16.59020	1.21137	13.54713	-1.47289
2619.572	16.55094	1.24445	13.56019	-1.48242
2623.570	16.63439	1.36763	13.54612	-1.41348
2627.569	16.69912	1.61601	13.51419	-1.45511
2631.566	16.69054	1.85084	13.48341	-1.45715
2635.573	16.68537	1.73727	13.38738	-1.38304
2639.575	16.68869	1.82815	13.37395	-1.09573
2643.568	16.72521	2.03499	13.29304	-1.13321
2647.567	16.69584	2.21673	13.20202	-1.15061
2651.575	16.71160	2.32198	13.21470	-1.14583
2655.571	16.71390	2.28904	13.13931	-1.13121
2659.567	16.71025	2.32641	13.09294	-1.07563
2663.597	16.71533	2.34859	13.09798	-1.02848
2667.581	16.73641	2.40306	13.06431	-1.01795
2671.570	16.71396	2.46514	13.04886	-0.93135
2675.569	16.72501	2.48157	13.01508	-0.88866
2679.570	16.74590	2.45178	13.04518	-0.84138
2683.444	16.76178	2.48200	13.03717	-0.85850
2687.449	16.78133	2.51169	13.02071	-0.90546
2691.442	16.88700	2.47127	13.01614	-0.91245
2695.448	16.86871	2.41713	12.94627	-0.89416
2699.444	16.87135	1.89875	12.90466	-0.83825
2703.441	16.76861	1.88423	12.88388	-0.77421
2707.447	16.65811	1.74836	12.85963	-0.73027
2711.444	16.61956	1.74217	12.93839	-0.77026
2715.445	16.54912	1.39173	13.16993	-0.76710
2719.446	16.47345	1.32181	13.15741	-0.95247
2723.444	16.38506	1.46353	12.99894	-1.08763
2727.449	16.26237	1.52855	13.03308	-1.20928
2731.465	16.25683	1.51927	13.04167	-1.34481
2735.448	16.17336	1.49108	13.02947	-1.28901
2739.443	16.14725	1.42284	12.98308	-1.44328
2743.446	16.09022	1.45076	13.01180	-1.46235
2747.445	16.10200	1.43113	13.02851	-1.48390
2751.442	16.10413	1.44214	13.06019	-1.54397
2755.442	16.11343	1.40197	12.98426	-1.52088
2759.446	16.15751	1.42153	12.97160	-1.55943
2763.444	16.19908	1.52556	12.92378	-1.53214
2767.441	16.22023	1.50095	13.02198	-1.41334
2771.475	16.26001	1.43454	13.03048	-1.40550
2775.444	16.32618	1.47975	13.12211	-1.39228
2779.442	16.41966	1.54054	13.24266	-1.31052
2783.440	16.52237	1.55608	13.32461	-1.24999
2787.446	16.51299	1.75278	13.43017	-1.20494
2791.441	16.58277	1.86465	13.42512	-1.14109
2795.442	16.61199	1.90079	13.51597	-1.07378
2799.441	16.61356	2.01436	13.56964	-1.06731
2803.448	16.57295	1.97832	13.65983	-1.08433
2807.444	16.57219	2.08157	13.67065	-1.04158
2811.444	16.48340	2.15336	13.49338	-1.00861
2815.439	16.52453	2.22719	13.33394	-0.95197
2819.451	16.50662	2.22136	13.31890	-0.91328
2823.442	16.45813	2.28706	13.19131	-0.88394
2827.442	16.43435	2.34890	13.08432	-0.96461
2831.438	16.45389	2.36253	13.12747	-0.92667
2835.443	16.44884	2.38598	13.13430	-0.89958
2839.437	16.46258	2.45213	13.12505	-0.95734
2843.445	16.55954	2.36900	13.20256	-0.95181
2847.442	16.58428	2.38961	13.22648	-1.12895
2851.446	16.47285	2.33340	13.13755	-1.24957
2855.443	16.29077	2.25885	12.90230	-1.08222
2859.443	14.00164	2.02844	12.68659	-1.12078
2863.444	11.69200	-0.27171	10.40723	-2.48742
2867.893	9.42008	-3.25735	9.16361	-4.46389
2871.447	7.69853	-4.70830	8.62399	-4.88321
2875.448	6.74415	-5.82414	6.99001	-6.94725
2879.440	4.16166	-9.35589	6.38045	-8.43923
2883.438	3.91810	-9.88033	5.65936	-9.14838
2887.444	2.70782	-11.53620	4.43406	-9.64638
2891.440	2.25481	-12.93810	1.98194	-10.63247
2895.451	0.60119	-14.15745	1.66418	-10.83195
2899.447	-19.99372	-12.11352	0.46398	-11.07677
2903.441	-19.99372	-12.10299	-0.60253	-11.25788
2907.440	-19.99372	-12.09727	-0.63094	-11.11662
2911.442	-19.99372	-12.09366	-0.24229	-11.18468
2915.441	0.05534	-14.72016	0.20470	-11.16620
2919.438	-0.42576	-14.57417	0.24818	-11.22231
2923.438	-19.99372	-12.10314	0.31617	-11.29396
2927.443	-19.99372	-12.09988	-0.00576	-11.35000
2931.444	-19.99372	-12.12879	-0.24607	-11.32637
2935.450	-19.99372	-12.10044	-0.23678	-11.35758
2939.446	-19.99372	-12.08546	-0.01988	-11.38628
2943.441	-19.99372	-12.08522	-0.08865	-11.43228
2947.441	-19.99372	-12.08495	0.02790	-11.39550
2951.438	-19.99372	-12.08464	-0.02005	-11.48328
2955.444	-19.99372	-12.08430	-0.03340	-11.45979
2959.439	-19.99372	-12.08216	-0.18514	-11.49694
2963.465	NaN	NaN	-0.08738	-11.54437
2967.450	NaN	NaN	-0.20544	-11.56680
2971.441	NaN	NaN	-0.17643	-11.60323
2975.440	NaN	NaN	-0.15208	-11.59311
2979.440	NaN	NaN	-0.14265	-11.61401
2983.442	NaN	NaN	-0.12977	-11.62591
2987.441	NaN	NaN	-0.18040	-11.63842
2991.492	NaN	NaN	-0.17913	-11.64741
2995.441	NaN	NaN	-0.13124	-11.64586
2999.441	NaN	NaN	-0.06418	-11.63988
3003.501	NaN	NaN	-0.04162	-11.61678
3007.443	NaN	NaN	-0.09143	-11.60819
3011.438	NaN	NaN	-0.14258	-11.57504
3015.436	NaN	NaN	-0.12627	-11.53512
3019.440	NaN	NaN	-0.08033	-11.55253
3023.437	NaN	NaN	-0.04897	-11.52236
3027.438	NaN	NaN	-0.15020	-11.49856
3031.435	NaN	NaN	-0.19065	-11.51323
3035.440	NaN	NaN	-0.14935	-11.50939
3039.442	NaN	NaN	-0.17611	-11.48361
3043.436	NaN	NaN	-0.30704	-11.48696
3047.436	NaN	NaN	-0.33087	-11.50702
3051.440	NaN	NaN	-0.41415	-11.48401
3055.438	NaN	NaN	-0.31841	-11.47511
3059.441	NaN	NaN	-0.51868	-11.47008
3063.440	NaN	NaN	-0.49386	-11.44735
3067.440	NaN	NaN	-0.53433	-11.44730
3071.442	-0.56337	-14.99622	-0.56061	-11.37663
3075.441	-19.99372	-12.07865	-0.57548	-11.36490
3079.436	-0.45783	-15.02344	-0.58957	-11.35651
3083.438	-19.99372	-12.08042	-0.57089	-11.37183
3087.442	-19.99372	-12.08037	-0.58605	-11.38745
3091.437	-19.99372	-12.08033	-0.54553	-11.38815
3095.437	-19.99372	-12.08026	-0.51061	-11.40977
3099.435	-19.99372	-12.08017	-0.50379	-11.45829
3103.441	-19.99372	-12.08008	-0.48498	-11.44507
3107.442	-19.99372	-12.07997	-0.44309	-11.48900
3111.436	-19.99372	-12.07986	-0.49714	-11.47637
3115.438	-19.99372	-12.07863	-0.51160	-11.49421
3119.437	-19.99372	-12.07856	-0.56900	-11.53359
3123.435	NaN	NaN	-0.57245	-11.53681
3127.438	NaN	NaN	-0.68553	-11.55772
3131.436	-2.29622	-14.51745	-2.28715	-11.52399
3135.434	-2.67826	-12.86617	-3.14360	-11.37940
3139.439	-2.89874	-12.77196	-3.48343	-10.82929
3143.445	-2.57660	-12.49060	-3.37527	-10.29801
3147.437	-2.24497	-12.51215	-3.11336	-10.45943
3151.432	-1.94208	-12.40545	-2.63237	-10.51904
3155.440	-2.20498	-12.66839	-2.65713	-10.77726
3159.436	-2.28323	-12.68359	-2.87306	-10.61330
3163.436	-2.16934	-12.46069	-2.70837	-10.47761
3167.433	-2.31274	-12.33763	-2.78443	-10.35482
3171.440	-2.27429	-12.31063	-2.80617	-10.27293
3175.438	-2.32766	-12.46447	-2.82873	-10.23318
3179.434	-2.41769	-12.41039	-2.86720	-10.19724
3183.434	-2.33678	-12.50515	-2.73142	-10.19518
3187.444	-2.13851	-12.54746	-2.69056	-10.16401
3191.436	-2.39232	-12.58327	-2.67647	-10.13767
3195.436	-2.36738	-12.67312	-2.71860	-10.08991
3199.434	-2.44603	-12.70620	-2.71171	-10.04319
3203.437	-2.48396	-12.69569	-2.64658	-10.01705
3207.473	-2.47100	-12.74733	-2.63965	-9.97249
3211.461	-2.49285	-12.74973	-2.61622	-9.96073
3215.475	-2.49555	-12.82759	-2.56367	-9.94526
3219.447	-2.43322	-12.85618	-2.57397	-9.93004
3223.435	-2.46882	-12.92186	-2.55066	-9.91374
3227.437	-2.45772	-12.85848	-2.55237	-9.89243
3231.437	-2.49362	-12.93044	-2.54350	-9.92051
3235.434	-2.45158	-12.79726	-2.56681	-9.94223
3239.432	-2.46857	-12.67495	-2.53622	-9.95641
3243.437	-2.47521	-12.59172	-2.52357	-9.97805
3247.435	-2.47115	-12.68435	-2.58056	-10.02250
3251.431	-2.51774	-12.71602	-2.62610	-10.06532
3255.431	-2.54668	-12.73729	-2.65119	-10.11219
3259.437	-2.60211	-12.68559	-2.69388	-10.12796
3263.434	-2.70651	-12.77040	-2.70025	-10.21758
3267.440	-2.72251	-12.87242	-2.72776	-10.27357
3271.440	-2.71617	-13.29239	-2.73593	-10.31413
3275.441	-2.76064	-13.06240	-2.76361	-10.38504
3279.435	-2.75990	-13.14938	-2.81048	-10.40654
3283.432	-2.75727	-13.11033	-2.85851	-10.43478
3287.437	-2.76477	-13.17679	-2.89262	-10.48502
3291.436	-2.74568	-13.37097	-2.94074	-10.48539
3295.432	-2.69898	-13.33399	-2.92062	-10.51379
3299.432	-2.68346	-13.32607	-2.95042	-10.52201
3303.433	-2.65243	-13.30216	-2.97601	-10.52962
3307.434	-2.47462	-13.32435	-3.00492	-10.53714
3311.436	-2.50477	-13.25483	-3.00136	-10.51319
3315.436	-2.36430	-13.00237	-3.06323	-10.49363
3319.434	-2.12654	-12.97240	-3.10651	-10.45988
3323.432	-1.93105	-13.01166	-3.05850	-10.44297
3327.431	-1.83600	-12.91340	-3.03133	-10.44376
3331.437	-1.75768	-12.84917	-3.04135	-10.41623
3335.432	-1.70266	-12.77864	-2.98265	-10.41963
3339.431	-1.62086	-12.68549	-2.90854	-10.41301
3343.458	-1.60563	-12.54179	-2.86990	-10.41526
3347.437	-1.55906	-12.46175	-2.79704	-10.43784
3351.437	-1.55745	-12.38538	-2.81486	-10.43248
3355.440	-1.51836	-12.27152	-2.80335	-10.45980
3359.433	-1.49068	-12.26273	-2.72352	-10.49776
3363.434	-1.53798	-12.27668	-2.67969	-10.53191
3367.431	-1.57634	-12.18514	-2.68348	-10.57082
3371.436	-1.59916	-12.09634	-2.68328	-10.60660
3375.434	-1.65790	-12.07610	-2.65010	-10.63455
3379.434	-1.73170	-12.04021	-2.60307	-10.65561
3383.430	-1.79636	-12.03643	-2.59809	-10.69000
3387.435	-1.81892	-12.01526	-2.59277	-10.70723
3391.435	-1.85646	-12.01076	-2.54786	-10.66970
3395.437	-1.85938	-12.00169	-2.42911	-10.67256
3399.464	-1.90490	-12.05823	-2.39170	-10.63359
3403.484	-1.93455	-12.07719	-2.33826	-10.64495
3407.435	-1.81721	-12.10462	-2.41217	-10.69659
3411.454	-1.12353	-11.90771	-1.39487	-10.59201
3415.439	1.58306	-11.57204	1.81086	-9.67182
3419.431	3.91472	-11.44243	3.10250	-9.41375
3423.430	6.04215	-8.50243	4.38423	-7.89751
3427.429	7.51932	-7.36680	5.97227	-8.17744
3431.431	9.51549	-6.99545	7.50032	-7.78157
3435.432	10.16752	-6.90124	7.88768	-8.32997
3439.427	10.76865	-6.75862	9.82108	-8.44908
3443.433	11.57462	-6.57183	10.03325	-7.89512
3447.433	11.10837	-6.54989	10.05565	-7.96469
3451.433	10.57251	-6.43256	9.91946	-8.03572
3455.428	10.44453	-6.32648	9.61469	-7.94349
3459.433	10.44453	-6.31185	9.59797	-7.88352
3463.433	10.66054	-6.27466	9.59141	-7.82536
3467.431	11.60558	-6.18875	9.53241	-7.81509
3471.433	11.73918	-6.06382	9.66786	-7.84833
3475.437	11.84903	-6.04919	9.65816	-7.81345
3479.451	11.83738	-5.87390	9.60661	-7.77244
3483.440	11.99787	-5.93113	9.65363	-7.70164
3487.431	11.96037	-5.83496	9.56810	-7.68473
3491.429	12.07227	-5.73944	9.55101	-7.64525
3495.427	12.06207	-5.73201	9.50687	-7.58187
3499.437	12.08670	-5.67810	9.50354	-7.51363
3503.428	12.08067	-5.62144	9.52331	-7.48076
3507.430	12.08720	-5.58708	9.50856	-7.45069
3511.433	12.07668	-5.53448	9.53697	-7.39278
3515.431	12.09365	-5.53777	9.52985	-7.36861
3519.433	12.07517	-5.46556	9.53308	-7.31652
3523.430	12.07251	-5.45148	9.54537	-7.26997
3527.433	12.06005	-5.45005	9.52526	-7.24261
3531.432	12.03574	-5.40225	9.52521	-7.21341
3535.428	12.00728	-5.42389	9.56301	-7.17369
3539.307	11.99723	-5.45442	9.62347	-7.14442
3543.304	11.98954	-5.47844	9.67000	-7.13018
3547.324	11.96320	-5.47659	9.68838	-7.12014
3551.308	11.98880	-5.52629	9.74576	-7.09492
3555.304	11.97178	-5.57646	9.77799	-7.11411
3559.301	11.94510	-5.60118	9.84811	-7.09123
3563.307	11.89958	-5.84432	9.85471	-7.11378
3567.309	11.87467	-5.94723	9.84146	-7.15742
3571.303	11.85195	-6.06964	9.88743	-7.21820
3575.302	11.85169	-6.23298	9.91772	-7.25502
3579.311	11.81139	-6.25362	9.95750	-7.29136
3583.306	11.81239	-6.26011	9.94768	-7.36638
3587.326	11.75802	-6.44709	9.96422	-7.41829
3591.317	11.75710	-6.59108	9.98986	-7.48157
3595.308	11.73871	-6.53646	10.02093	-7.56648
3599.306	11.73031	-6.62509	10.00463	-7.62954
3603.307	11.68762	-6.72394	10.03337	-7.67377
3607.310	11.65608	-6.77230	10.02074	-7.72479
3611.303	11.64847	-6.91173	10.08469	-7.76030
3615.324	11.64894	-6.90210	10.09126	-7.77953
3619.348	11.56507	-7.04411	10.11950	-7.80611
3623.303	11.62640	-7.06312	10.10434	-7.84734
3627.304	11.57989	-7.11780	10.12140	-7.86075
3631.300	11.60049	-7.10402	10.14359	-7.89182
3635.307	11.59327	-7.11204	10.14232	-7.89665
3639.303	11.54680	-7.17474	10.12399	-7.85702
3643.303	11.55643	-7.20294	10.14020	-7.85062
3647.306	11.57829	-7.14847	10.15276	-7.80603
3651.311	11.61530	-7.08296	10.14576	-7.78055
3655.302	11.62325	-7.04769	10.13806	-7.72617
3659.300	11.67553	-6.98480	10.16177	-7.70056
3663.304	11.72905	-6.97864	10.18675	-7.64771
3667.303	11.68693	-6.95119	10.23240	-7.57984
3671.301	11.77192	-6.85053	10.26975	-7.52792
3675.300	11.82447	-6.80729	10.28813	-7.39406
3679.305	11.83807	-6.66011	10.28940	-7.36094
3683.327	11.91828	-6.66488	10.34091	-7.35215
3687.309	12.03323	-6.50452	10.37642	-7.23195
3691.308	12.03994	-6.51809	10.40637	-7.22669
3695.304	12.00896	-6.52739	10.41376	-7.20742
3699.303	12.06800	-6.40256	10.42912	-7.23949
3703.301	12.12834	-6.39772	10.41321	-7.21006
3707.303	12.17321	-6.30360	10.41527	-7.23760
3711.302	12.12554	-6.26526	10.35227	-7.26747
3715.304	12.11930	-6.23921	10.32289	-7.26820
3719.302	12.10701	-6.23136	10.30670	-7.32129
3723.300	12.08205	-6.20824	10.32750	-7.35378
3727.299	12.09771	-6.18403	10.23211	-7.40641
3731.309	12.03816	-6.20069	10.21394	-7.43800
3735.303	12.02283	-6.20345	10.14610	-7.47082
3739.299	12.03714	-6.17696	10.13061	-7.46969
3743.299	12.04628	-6.20373	10.11983	-7.46999
3747.306	11.97978	-6.24500	10.07257	-7.46564
3751.344	11.87313	-6.29847	10.02309	-7.46092
3755.309	11.82792	-6.34256	10.01188	-7.45959
3759.302	11.78053	-6.35816	9.99910	-7.44520
3763.303	11.68179	-6.39791	9.94007	-7.44328
3767.302	11.61763	-6.40491	9.91881	-7.43166
3771.302	11.62616	-6.39887	9.92540	-7.45329
3775.321	11.48296	-6.50038	9.90990	-7.50023
3779.309	11.48323	-6.48879	9.90513	-7.48238
3783.301	11.44084	-6.47165	9.86967	-7.52476
3787.299	11.40808	-6.45361	9.82999	-7.54888
3791.304	11.38819	-6.46526	9.83493	-7.57403
3795.302	11.43340	-6.43000	9.84782	-7.59633
3799.299	11.46711	-6.37861	9.83650	-7.59249
3803.304	11.51411	-6.33032	9.86801	-7.58001
3807.301	11.56769	-6.28995	9.82925	-7.59271
3811.303	11.55421	-6.26318	9.84252	-7.59082
3815.305	11.50389	-6.23713	9.85799	-7.54158
3819.343	11.58539	-6.10867	9.81289	-7.47778
3823.309	11.55535	-6.13217	9.82245	-7.44941
3827.299	11.52810	-6.07448	9.80932	-7.39432
3831.304	11.52417	-5.99614	9.85096	-7.35008
3835.311	11.57651	-5.93885	9.81110	-7.30252
3839.299	11.51638	-5.90280	9.77787	-7.23360
3843.302	11.33378	-5.71751	9.65491	-6.37981
3847.299	9.74928	-4.32620	7.61748	-5.49662
3851.297	8.27890	-2.83061	6.44853	-4.69432
3855.308	9.58417	-2.31365	6.29918	-3.40732
3859.304	9.30643	-2.67065	6.28680	-3.72942
3863.297	9.76119	-2.52081	6.51498	-3.63094
3867.297	9.65269	-2.46834	6.48120	-3.90153
3871.301	9.96889	-2.29695	6.66793	-4.00490
3875.300	9.76105	-2.32033	6.78148	-4.13382
3879.297	9.61165	-2.30350	6.64398	-3.94976
3883.297	9.70579	-2.38864	6.56728	-4.11050
3887.325	9.56774	-2.34030	6.52373	-4.13485
3891.301	9.50542	-2.35839	6.58462	-3.85762
3895.293	9.54269	-2.43184	6.62366	-3.87658
3899.303	9.44885	-2.63253	6.61418	-3.95157
3903.298	9.44332	-2.83248	6.75492	-4.02853
3907.302	9.29925	-2.84008	6.76268	-3.91363
3911.297	9.32801	-2.94852	6.78050	-3.88133
3915.323	9.40554	-3.36115	6.83748	-3.86066
3919.308	9.47949	-3.12787	6.71667	-3.89816
3923.302	9.34889	-2.86067	6.78155	-3.92234
3927.299	9.20835	-3.00813	6.79163	-3.93331
3931.297	9.15275	-3.11238	6.87421	-3.83885
3935.295	9.04200	-3.08285	6.87878	-3.87484
3939.304	8.96581	-3.00924	6.92865	-3.82439
3943.302	9.02551	-2.82021	6.93951	-3.80465
3947.296	9.03786	-3.14807	6.91527	-3.82531
3951.296	9.18257	-3.20754	6.90884	-3.86391
3955.299	9.15930	-3.38243	6.89201	-3.88230
3959.301	9.14537	-3.24314	6.88171	-3.93473
3963.303	9.09650	-3.23733	6.87790	-3.95672
3967.301	9.18985	-3.18356	6.83046	-3.98331
3971.296	9.20668	-3.15529	6.81820	-3.94478
3975.296	9.22400	-3.13271	6.71943	-4.01141
3979.292	9.17362	-2.95062	6.66837	-4.02794
3983.304	9.26408	-2.78505	6.60507	-4.06436
3987.299	9.27179	-2.51678	6.59138	-4.09402
3991.297	9.27001	-2.46370	6.70457	-4.11761
3995.295	9.24914	-2.07268	6.56238	-4.15683
3999.300	9.23638	-2.16051	6.59353	-4.18410
4003.301	9.25543	-2.55163	6.53360	-4.20096
4007.299	9.31308	-2.43520	6.55942	-4.21309
4011.295	9.27245	-2.38304	6.54888	-4.22057
4015.300	9.22862	-2.36235	6.50788	-4.23761
4019.299	9.20879	-2.33107	6.49029	-4.23854
4023.332	9.23128	-2.23757	6.46897	-4.25738
4027.311	9.27941	-2.36556	6.57735	-4.17792
4031.296	9.26014	-2.42308	6.62045	-4.17334
4035.296	9.19761	-2.48506	6.55197	-4.19940
4039.319	9.25253	-2.45917	6.61763	-4.20287
4043.298	9.42429	-2.42441	6.90529	-4.15042
4047.295	9.48760	-2.36987	6.83885	-4.20703
4051.294	9.61911	-2.32067	6.86405	-4.27082
4055.293	9.62574	-2.32178	6.86907	-4.37366
4059.299	9.57597	-2.33337	6.84111	-4.40975
4063.303	9.75905	-2.30423	6.91850	-4.48809
4067.298	9.75517	-2.31744	6.95807	-4.53147
4071.293	9.76100	-2.34236	6.95895	-4.40108
4075.298	9.78582	-2.28446	6.97301	-4.33484
4079.295	9.84033	-2.26803	6.98732	-4.38350
4083.295	9.86163	-2.25260	7.03132	-4.47431
4087.294	9.85442	-2.17107	6.95577	-4.65119
4091.325	9.81332	-1.95493	6.95834	-4.45422
4095.303	9.74608	-1.49353	6.97198	-3.81962
4099.296	9.79843	-0.61190	6.99250	-2.84796
4103.297	9.76194	-0.17676	7.01213	-2.38273
4107.304	9.75263	-0.08919	7.05188	-2.38927
4111.295	9.68918	-0.33915	7.11799	-2.81128
4115.292	9.63016	-1.20228	7.17209	-2.82410
4119.293	9.61892	-1.80834	7.23320	-2.95178
4123.295	9.61472	-1.46075	7.34738	-2.75982
4127.295	9.68686	-1.22177	7.49495	-2.62738
4131.294	9.59797	-0.81339	7.59305	-2.68722
4135.297	9.65604	-0.60133	7.24620	-2.68179
4139.296	9.62239	-1.14483	7.27633	-2.64853
4143.292	9.57903	-1.04132	7.31023	-2.64215
4147.299	9.64400	-0.98274	7.48061	-2.64524
4151.321	9.69636	-1.02561	7.42195	-2.67869
4155.296	9.76833	-1.01457	7.42998	-2.64186
4159.296	9.79530	-0.98739	7.35170	-2.71081
4163.294	9.92516	-0.90101	7.41843	-2.68252
4167.293	9.77857	-0.86637	7.30153	-2.84021
4171.298	9.72250	-0.75537	7.21066	-2.81533
4175.295	9.70186	-0.73891	7.27587	-2.86538
4179.294	9.76804	-0.65625	7.29580	-2.86948
4183.292	9.50923	-0.66087	7.29008	-2.84741
4187.297	9.63380	-0.57938	7.12202	-2.94355
4191.297	9.70871	-0.56592	7.11232	-2.93737
4195.312	9.79966	-0.51734	7.08116	-2.97424
4199.298	9.91117	-0.46243	7.00062	-3.01440
4203.297	9.99847	-0.38966	6.96289	-2.96732
4207.293	10.07524	-0.33890	7.04829	-2.96008
4211.331	10.14629	-0.31082	7.14230	-2.89962
4215.302	10.42504	-0.20497	7.24312	-2.80650
4219.298	10.05589	-0.23185	7.28691	-2.79346
4223.295	9.97577	-0.23220	7.39471	-2.66513
4227.318	10.12176	-0.13968	7.33803	-2.70868
4231.299	9.95288	-0.21619	7.35161	-2.70897
4235.289	9.95582	-0.11941	7.46916	-2.78467
4239.296	9.92690	-0.10459	7.48607	-2.82755
4243.292	9.80978	0.02955	7.54081	-2.93720
4247.291	9.76184	0.07913	7.58671	-3.05873
4251.296	9.75676	-0.03034	7.64386	-2.99943
4255.293	9.70157	0.05051	7.67777	-3.02731
4259.294	9.75526	-0.11895	7.72234	-3.24777
4263.289	9.82072	-0.10996	7.76725	-3.33246
4267.295	9.81248	-0.06023	7.78367	-3.31324
4271.300	9.86635	-0.11996	7.77741	-3.38123
4275.301	9.86225	-0.09254	7.80153	-3.39757
4279.296	9.87639	-0.31891	7.79724	-3.40104
4283.292	9.75890	-0.42258	7.81922	-3.40444
4287.291	9.77204	-0.37141	7.86225	-3.35716
4291.289	9.74157	-0.45888	7.86695	-3.37297
4295.319	9.73778	-0.52047	7.83707	-3.39568
4299.299	9.62705	-0.72837	7.82935	-3.41795
4303.292	9.64847	-0.63400	7.56810	-3.38512
4307.291	8.24405	-0.62450	6.02607	-3.31064
4311.295	5.98891	-0.42413	3.90392	-2.97434
4315.298	3.77913	0.50006	3.03504	-2.09511
4319.296	1.08073	1.49164	0.12009	-0.91179
4323.289	1.15610	1.40234	-0.88500	-0.55331
4327.295	-0.85468	1.46850	-2.18711	-0.72431
4331.292	-1.50170	1.64884	-2.92240	-0.54161
4335.291	-1.26679	1.82835	-3.61735	-0.37449
4339.325	-1.15044	1.99708	-3.59070	0.01312
4343.299	-0.84679	2.05524	-3.04870	0.00675
4347.292	-0.60518	2.02140	-2.35187	-0.09772
4351.290	-0.96968	2.10889	-2.22698	-0.04988
4355.301	-1.22452	2.15641	-2.45867	-0.01562
4359.294	-1.60942	2.26439	-2.86886	-0.01923
4363.308	-1.78649	2.30205	-3.24563	0.01881
4367.296	-1.80385	2.32340	-3.57483	0.02440
4371.291	-2.03643	2.36298	-3.71888	0.05490
4375.291	-1.84138	2.37572	-3.62022	0.04995
4379.288	-1.64347	2.32045	-3.52645	0.01213
4383.295	-1.60439	2.23987	-3.48375	-0.03810
4387.291	-1.53386	2.23479	-3.60101	-0.10153
4391.292	-1.48104	2.25466	-3.58116	-0.11986
4395.161	-1.55167	2.22864	-3.67739	-0.16992
4399.165	-1.55402	2.12764	-3.67657	-0.21200
4403.169	-1.46536	2.11597	-3.69256	-0.27552
4407.172	-1.29305	2.06439	-3.69150	-0.32016
4411.167	-1.18192	2.05264	-3.67647	-0.39803
4415.163	-1.12018	1.99150	-3.62098	-0.44651
4419.162	-1.01459	1.98811	-3.57721	-0.52586
4423.168	-0.93919	1.96677	-3.52877	-0.53112
4427.167	-0.97125	1.99702	-3.50138	-0.61330
4431.190	-0.99092	1.98530	-3.47349	-0.63100
4435.174	-0.85813	1.93512	-3.39572	-0.67188
4439.165	-0.82525	1.91918	-3.34331	-0.71899
4443.193	-0.78238	1.91716	-3.28630	-0.74736
4447.166	-0.78352	1.88318	-3.21307	-0.75681
4451.167	-0.84327	1.83381	-3.15416	-0.78610
4455.163	-0.88384	1.84181	-3.07372	-0.78190
4459.173	-0.91190	1.86793	-2.99121	-0.76489
4463.168	-1.09936	1.86140	-2.93837	-0.76123
4467.164	-1.31260	1.90160	-2.86178	-0.78954
4471.164	-1.37104	1.86021	-2.82397	-0.79847
4475.161	-1.66361	1.80781	-2.88940	-0.78478
4479.168	-1.93286	1.79856	-2.97839	-0.78611
4483.162	-1.88916	1.81133	-2.93980	-0.75450
4487.167	-1.99748	1.80675	-3.03016	-0.71965
4491.162	-2.10999	1.81007	-3.15528	-0.68233
4495.163	-2.11685	1.82502	-3.15837	-0.68402
4499.183	-2.03858	1.83444	-3.24795	-0.62189
4503.165	-2.10258	1.83928	-3.30554	-0.64128
4507.163	-1.94092	1.81927	-3.36916	-0.64359
4511.161	-1.89248	1.82604	-3.37858	-0.61494
4515.166	-1.88581	1.86917	-3.29523	-0.53991
4519.164	-1.82819	1.87808	-3.31066	-0.51291
4523.165	-1.57957	1.90361	-3.26168	-0.49932
4527.172	-1.06235	1.90986	-3.11457	-0.50331
4531.164	-1.09398	1.90228	-3.11304	-0.51068
4535.162	-0.98864	1.89164	-3.05457	-0.61978
4539.160	-0.97259	1.87361	-3.00391	-0.69471
4543.165	-1.01389	1.84296	-2.95978	-0.78843
4547.162	-0.98700	1.74999	-3.02913	-0.87715
4551.163	-0.94505	1.67172	-2.98619	-0.88693
4555.160	-0.91507	1.63268	-2.98331	-1.09349
4559.166	-0.90686	1.55565	-3.04694	-1.15853
4563.164	-0.90135	1.48340	-3.08087	-1.24285
4567.190	-0.98601	1.35574	-3.10913	-1.28565
4571.170	-1.04930	1.33056	-3.13704	-1.32772
4575.159	-1.07441	1.28759	-3.18974	-1.38781
4579.165	-1.17041	1.19527	-3.21285	-1.37208
4583.163	-1.19274	1.15207	-3.31551	-1.37958
4587.162	-1.30789	1.12813	-3.34356	-1.33925
4591.170	-1.38416	1.11576	-3.38632	-1.28331
4595.163	-1.46804	1.11405	-3.39097	-1.17627
4599.163	-1.53009	1.12259	-3.46624	-1.11436
4603.166	-1.63856	1.11396	-3.50902	-0.95702
4607.161	-1.67298	1.14587	-3.60220	-0.89399
4611.164	-1.71987	1.23920	-3.63013	-0.72018
4615.162	-1.78067	1.36127	-3.63282	-0.53746
4619.167	-1.81989	1.44571	-3.58848	-0.51586
4623.164	-1.85832	1.51629	-3.55335	-0.50130
4627.160	-1.91618	1.60612	-3.50103	-0.36167
4631.160	-1.95383	1.71944	-3.40373	-0.37880
4635.186	-1.95753	1.68400	-3.41716	-0.33620
4639.169	-1.99942	1.76340	-3.42030	-0.29632
4643.159	-2.03152	1.78746	-3.17960	-0.29624
4647.161	-2.04904	1.81056	-3.13845	-0.27070
4651.181	-2.02012	1.83012	-3.06763	-0.24099
4655.225	-1.88083	1.78613	-3.00623	-0.24604
4659.167	-1.70814	1.73116	-2.96802	-0.29287
4663.157	-1.75686	1.76593	-2.95591	-0.29146
4667.163	-1.74402	1.77004	-2.98671	-0.27530
4671.159	-1.68106	1.74702	-2.98252	-0.26106
4675.159	-1.71932	1.74406	-3.05068	-0.22273
4679.155	-1.74630	1.72185	-3.04227	-0.25618
4683.162	-1.58956	1.64996	-3.06751	-0.29744
4687.158	-1.46254	1.62137	-3.09644	-0.51972
4691.160	-1.46291	1.47345	-3.10856	-0.74508
4695.163	-1.39946	1.41716	-3.14761	-0.58365
4699.164	-1.45604	1.57605	-3.30119	-0.33021
4703.259	-1.50465	2.36028	-3.51001	0.11067
4707.168	-1.56590	3.63663	-3.41427	0.94305
4711.160	-1.55410	4.19136	-3.41360	1.43418
4715.163	-1.57220	4.25917	-3.43096	1.50874
4719.159	-1.60199	4.24184	-3.33238	1.31452
4723.158	-1.64769	4.05277	-3.26859	1.35820
4727.157	-1.77040	3.90952	-3.22641	1.09036
4731.161	-1.80739	3.94096	-3.32620	1.35623
4735.161	-1.71697	3.75558	-3.36688	1.32256
4739.160	-1.71642	3.70446	-3.49085	1.34371
4743.162	-1.74407	3.46650	-3.51231	1.38681
4747.159	-1.75860	3.58527	-3.49436	1.45210
4751.160	-1.75208	3.40900	-3.46276	1.48675
4755.155	-1.78399	3.37238	-3.42705	1.49457
4759.180	-1.88514	3.42397	-3.48271	1.44277
4763.166	-1.78183	3.36964	-3.48993	1.48693
4767.159	-1.82331	3.21240	-3.59290	1.45611
4771.181	-1.79021	3.12646	-3.64004	1.49826
4775.163	-1.78466	3.09356	-3.67707	1.39692
4779.169	-1.77965	2.95957	-3.66921	1.35346
4783.160	-1.81143	2.89657	-3.61861	1.30555
4787.159	-1.88189	2.75965	-3.56467	1.28879
4791.156	-1.91348	2.75734	-3.62496	1.21695
4795.162	-2.01749	2.72647	-3.72314	1.13195
4799.161	-1.91231	2.72119	-3.73423	1.14715
4803.157	-1.93323	2.70699	-3.72978	1.05725
4807.164	-1.85911	2.60676	-3.73477	1.03682
4811.157	-1.85083	2.61403	-3.83957	1.01513
4815.157	-1.86293	2.63699	-3.80377	0.97428
4819.172	-1.93180	2.64038	-3.82368	0.95544
4823.159	-1.96776	2.74167	-3.84327	1.03372
4827.158	-1.93618	2.73055	-3.87870	1.08233
4831.158	-1.83283	2.78118	-3.95026	1.28069
4835.165	-1.84894	2.76840	-3.90202	1.32676
4839.196	-1.80117	2.77206	-3.92267	1.34640
4843.171	-1.78557	2.74647	-3.87428	1.32117
4847.157	-1.68602	2.71296	-3.90691	1.38450
4851.159	-1.72213	2.77664	-3.91403	1.37899
4855.160	-1.74811	2.78337	-3.86692	1.40967
4859.165	-1.79081	2.85432	-3.86156	1.42794
4863.164	-1.74335	3.13644	-3.80142	1.43044
4867.156	-1.60613	3.54537	-3.74446	1.40162
4871.160	-1.57672	3.60327	-3.68572	1.28733
4875.191	-1.56910	3.67577	-3.64563	1.23207
4879.155	-1.51938	3.76906	-3.64427	1.17134
4883.152	-1.48773	3.64995	-3.58237	1.06097
4887.159	-1.47476	3.61761	-3.57325	1.02791
4891.155	-1.48396	3.61579	-3.53298	0.89275
4895.156	-1.42843	3.52932	-3.51021	0.82175
4899.154	-1.36402	3.63446	-3.51686	0.68352
4903.161	-1.33671	3.61909	-3.50922	0.68087
4907.192	-1.29266	3.53759	-3.52235	0.61229
4911.165	-1.30957	3.48133	-3.56022	0.57906
4915.154	-1.29744	3.43172	-3.56907	0.55468
4919.160	-1.29395	3.32666	-3.59379	0.51010
4923.157	-1.29923	3.30340	-3.59985	0.47806
4927.153	-1.27366	3.24178	-3.61616	0.45196
4931.154	-1.27976	3.20708	-3.62044	0.38823
4935.158	-1.29038	3.19216	-3.63876	0.35958
4939.156	-1.30737	3.17571	-3.62699	0.32822
4943.158	-1.36280	3.14387	-3.60529	0.34072
4947.156	-1.38436	3.12799	-3.60440	0.30033
4951.158	-1.41467	3.11806	-3.61236	0.28420
4955.156	-1.43067	3.12322	-3.59686	0.29358
4959.156	-1.51576	3.10024	-3.62422	0.27411
4963.160	-2.09574	3.06508	-3.67435	0.22626
4967.157	-2.94064	2.95921	-4.36308	0.24381
4971.154	-3.78049	0.90723	-4.85716	-0.25248
4975.421	-4.69694	0.95928	-5.44554	-0.38179
4979.158	-5.18705	0.71885	-6.48497	-1.47370
4983.159	-4.66852	0.54963	-6.61440	-2.24453
4987.161	-5.15987	0.20568	-6.56356	-2.86926
4991.156	-5.65155	-0.12649	-6.70886	-3.13653
4995.153	-5.48595	-0.05959	-6.69840	-3.16437
4999.158	-5.42540	-0.22489	-6.74026	-2.98999
5003.155	-5.40587	0.19054	-6.59589	-2.89800
5007.154	-5.64747	0.02720	-6.59792	-2.87029
5011.158	-5.75600	-0.21045	-6.65789	-2.88388
5015.155	-5.58862	-0.38555	-6.68621	-2.99704
5019.154	-5.65486	-0.43271	-6.74858	-3.01019
5023.152	-5.52627	-0.55305	-6.74951	-3.05896
5027.161	-5.56851	-0.60791	-6.78013	-3.16165
5031.161	-5.54216	-0.70656	-6.82662	-3.15456
5035.153	-5.47633	-0.81617	-6.87095	-3.20321
5039.178	-5.36289	-0.79689	-6.92907	-3.13524
5043.161	-5.25515	-0.89405	-6.98812	-3.25459
5047.155	-5.18267	-0.83156	-7.01396	-3.29642
5051.153	-5.18651	-0.82631	-7.04364	-3.36992
5055.157	-4.85662	-0.85415	-7.09587	-3.37133
5059.155	-4.97930	-0.70317	-7.17047	-3.39587
5063.155	-4.87175	-0.59458	-7.17851	-3.41939
5067.156	-4.88651	-0.56386	-7.22199	-3.43130
5071.164	-4.90917	-0.51948	-7.27096	-3.41634
5075.155	-4.88658	-0.32694	-7.32519	-3.41249
5079.154	-4.88742	-0.25021	-7.40343	-3.37490
5083.155	-5.00753	-0.17642	-7.48654	-3.36027
5087.191	-4.95073	-0.16510	-7.66073	-3.29792
5091.154	-5.06964	-0.49723	-7.56281	-3.27871
5095.150	-5.13424	-0.68231	-7.72675	-3.18971
5099.155	-5.19578	-1.00591	-7.78874	-3.13922
5103.153	-5.26964	-1.28099	-7.58942	-3.06198
5107.152	-5.29723	-1.38917	-7.62560	-3.04460
5111.571	-5.35896	-1.45498	-7.35993	-3.12853
5115.184	-5.36346	-1.46963	-6.97629	-3.01038
5119.168	-5.36924	-1.48133	-7.05904	-3.08101
5123.152	-5.40368	-1.55390	-7.22808	-3.10993
5127.151	-5.38836	-1.50934	-7.28056	-3.09013
5131.156	-5.47018	-1.44729	-7.16165	-3.02316
5135.154	-5.41977	-1.45767	-6.97678	-2.93584
5139.154	-5.24319	-1.47362	-6.94738	-2.90342
5143.150	-5.21708	-1.48313	-6.97778	-2.90961
5147.156	-5.09842	-1.42605	-6.90752	-2.95485
5151.156	-5.17735	-1.36654	-6.85674	-2.74110
5155.155	-5.05489	-1.35626	-6.87271	-2.69948
5159.157	-5.11452	-1.32694	-6.89827	-2.69909
5163.154	-5.14217	-1.33485	-6.91755	-2.64308
5167.150	-5.08091	-1.35991	-6.89857	-2.67115
5171.149	-5.11319	-1.39769	-6.84962	-2.63400
5175.154	-5.07257	-1.49198	-6.83626	-2.60047
5179.152	-5.11706	-1.60628	-6.82427	-2.64350
5183.155	-5.15460	-1.68960	-6.83837	-2.69876
5187.153	-5.21464	-1.78739	-6.81593	-2.69271
5191.150	-5.29533	-1.81062	-6.78201	-2.70280
5195.162	-5.33197	-1.83172	-6.79029	-2.75864
5199.153	-5.31649	-1.78522	-6.80612	-2.81467
5203.149	-5.28647	-1.91646	-6.81935	-2.86293
5207.155	-5.20024	-2.00148	-6.82359	-2.90536
5211.156	-5.22822	-2.06906	-6.80680	-2.94796
5215.159	-5.20026	-2.08742	-6.82738	-3.00062
5219.153	-5.15214	-2.15386	-6.84619	-3.06914
5223.150	-5.10817	-2.00573	-6.87112	-3.13545
5227.150	-5.16263	-1.94371	-6.88781	-3.17248
5231.154	-5.13154	-1.88254	-6.91104	-3.22121
5235.158	-5.14665	-1.75878	-6.97301	-3.28296
5239.153	-5.07855	-1.54588	-7.01308	-3.33696
5243.155	-5.14638	-1.39764	-7.05088	-3.37306
5247.031	-5.13250	-1.49567	-7.11413	-3.38452
5251.029	-5.18222	-1.47639	-7.15897	-3.38367
5255.024	-5.20430	-1.77951	-7.19324	-3.41621
5259.023	-5.24919	-1.68954	-7.28027	-3.40991
5263.029	-5.25751	-2.11357	-7.34001	-3.39555
5267.026	-5.33229	-1.96708	-7.38083	-3.36233
5271.025	-5.34427	-2.01270	-7.38783	-3.30110
5275.023	-5.41126	-2.00789	-7.43461	-3.24407
5279.028	-5.36848	-2.01426	-7.45960	-3.16211
5283.028	-5.44158	-2.02985	-7.46970	-3.07783
5287.049	-5.40117	-2.05052	-7.46741	-2.93426
5291.029	-5.41015	-2.04515	-7.45004	-2.81267
5295.022	-5.38203	-2.03588	-7.42615	-2.70920
5299.024	-5.33630	-1.97685	-7.41690	-2.71164
5303.026	-5.18143	-2.08093	-7.33327	-2.63729
5307.023	-5.13641	-2.00813	-7.31547	-2.67852
5311.022	-5.05176	-1.87600	-7.26845	-2.61672
5315.025	-5.12422	-1.88192	-7.20431	-2.60956
5319.026	-5.16676	-1.87668	-7.20494	-2.73415
5323.028	-5.18079	-1.86526	-7.20140	-2.77678
5327.023	-5.11755	-1.94995	-7.15095	-2.75625
5331.028	-5.12280	-1.83925	-7.12415	-2.93970
5335.027	-5.13222	-1.82006	-7.05188	-2.94019
5339.023	-5.05112	-1.84650	-6.95567	-2.96694
5343.027	-5.07148	-1.82681	-6.89162	-3.04280
5347.023	-5.12257	-1.86630	-6.87998	-3.06691
5351.061	-5.11556	-1.67692	-6.89532	-3.14953
5355.032	-5.12577	-1.68220	-6.88822	-3.17373
5359.027	-5.17046	-1.56267	-6.90407	-3.23122
5363.025	-5.18456	-1.26370	-6.88538	-3.17446
5367.029	-5.24693	-1.07000	-6.91897	-3.04361
5371.021	-5.26664	-0.82205	-6.92902	-3.03447
5375.028	-5.35687	-1.02237	-6.91826	-2.99143
5379.024	-5.41588	-1.04868	-7.00739	-2.96049
5383.026	-5.62741	-0.87614	-7.09438	-3.03147
5387.024	-5.50601	-1.11516	-7.38124	-2.94174
5391.026	-5.46896	-0.98155	-7.49849	-2.89994
5395.026	-5.42262	-1.22639	-7.35415	-2.92466
5399.023	-5.55199	-1.34822	-7.16486	-2.89080
5403.025	-5.57013	-1.28737	-7.46172	-3.02460
5407.028	-6.25019	-1.65390	-8.26108	-3.15505
5411.027	-7.86666	-1.48333	-8.97407	-3.00513
5415.026	-8.81654	-0.93124	-9.66887	-3.38315
5419.024	-8.85284	-1.06521	-10.06434	-3.29390
5423.021	-8.59070	-0.73879	-9.91011	-3.01733
5427.021	-7.93372	-0.68849	-9.60056	-3.03984
5431.024	-7.48766	-0.54967	-9.42086	-3.24603
5435.022	-7.94323	-0.29437	-9.54206	-3.29373
5439.021	-8.24329	-0.35786	-9.55850	-3.31924
5443.025	-8.48699	-0.33673	-9.47951	-3.16966
5447.029	-8.48512	-0.49696	-9.46879	-3.10571
5451.025	-8.50729	-0.49770	-9.50544	-3.07485
5455.026	-8.64114	-0.51766	-9.48695	-3.12363
5459.026	-8.10601	-0.69627	-9.42885	-3.13953
5463.024	-8.05555	-0.87965	-9.43668	-3.15277
5467.028	-7.96220	-1.40239	-9.44363	-3.20909
5471.025	-8.02538	-1.28357	-9.43194	-3.11621
5475.021	-8.04696	-0.90926	-9.48323	-3.02945
5479.020	-7.85538	-0.77024	-9.46133	-3.04900
5483.026	-7.87601	-0.94556	-9.47490	-3.03822
5487.023	-7.88456	-0.93250	-9.55056	-3.00415
5491.027	-7.71238	-0.79724	-9.54942	-2.89195
5495.049	-7.74981	-0.85258	-9.58482	-2.70803
5499.058	-7.68418	-0.66889	-9.63546	-2.71051
5503.021	-7.72863	-0.71372	-9.77216	-2.76524
5507.019	-7.85497	-0.76453	-9.93730	-2.76942
5511.027	-8.04161	-0.85158	-9.80645	-2.77719
5515.021	-8.08589	-0.75672	-9.79527	-2.84251
5519.023	-7.97746	-0.70968	-9.64765	-2.80688
5523.025	-8.09778	-0.71193	-9.61906	-2.87008
5527.018	-7.68925	-0.79268	-9.69750	-2.88519
5531.028	-7.74276	-0.89577	-9.60762	-2.96401
5535.020	-7.98615	-0.95104	-9.96126	-3.01717
5539.019	-8.27350	-1.00700	-10.05313	-3.08893
5543.017	-8.41522	-1.08220	-10.22332	-3.08083
5547.024	-8.37308	-1.07150	-10.12308	-3.07070
5551.021	-8.32772	-1.08974	-9.64328	-2.99942
5555.021	-8.21434	-0.99833	-9.52311	-2.99349
5559.019	-7.79900	-1.03373	-9.64584	-3.04327
5563.025	-7.75894	-1.05807	-9.52466	-3.08409
5567.020	-7.89588	-1.14950	-9.67775	-3.11648
5571.022	-8.09603	-1.11101	-9.91606	-3.08984
5575.023	-8.34669	-1.07158	-10.09893	-3.10981
5579.024	-8.42345	-1.00494	-10.10350	-3.08254
5583.022	-8.24993	-0.78328	-9.60608	-2.96544
5587.020	-8.19708	0.20881	-9.96754	-0.94518
5591.024	-8.78900	1.29516	-10.65743	-0.25695
5595.020	-9.48270	4.43771	-11.08555	1.46184
5599.016	-8.69423	5.02059	-11.71294	2.87751
5603.023	-9.14058	5.35851	-12.55893	4.36647
5607.021	-9.87738	5.69880	-12.47790	3.74178
5611.018	-10.33877	6.09807	-12.33901	4.14729
5615.030	-10.91009	6.18286	-12.08658	4.00821
5619.024	-9.66048	5.57648	-11.46504	3.93265
5623.020	-9.43660	5.74034	-11.33185	3.65763
5627.018	-9.81436	5.82987	-11.43684	3.77071
5631.022	-10.21438	5.95679	-11.47071	4.08105
5635.020	-10.55349	6.03309	-11.38323	4.05012
5639.019	-10.53828	6.02694	-11.61430	4.11805
5643.015	-10.83271	6.07945	-11.83317	4.09007
5647.020	-10.97803	6.16781	-11.87277	4.02667
5651.049	-10.53586	6.08504	-11.90003	4.11803
5655.036	-10.26530	6.06024	-12.09854	4.02914
5659.026	-10.06265	6.05317	-12.37006	4.04132
5663.018	-10.20442	6.02643	-12.39009	3.98751
5667.018	-10.43817	6.12294	-12.47373	3.99678
5671.022	-10.32717	6.13929	-12.35822	4.03778
5675.019	-10.33865	6.18278	-12.52279	4.00752
5679.019	-10.46937	6.16702	-12.33833	4.02722
5683.017	-10.43779	6.16844	-12.20857	4.02132
5687.021	-10.62874	6.16827	-12.06451	3.91824
5691.021	-10.68053	6.14939	-11.65854	3.90591
5695.017	-10.92430	6.16070	-11.72769	3.81622
5699.021	-11.19559	6.14837	-11.71720	3.83281
5703.023	-10.84020	6.13883	-11.65230	3.78842
5707.052	-10.89705	6.18808	-11.63271	3.72754
5711.016	-11.09934	6.17384	-11.54413	3.59774
5715.020	-11.00874	6.14742	-11.53801	3.44656
5719.014	-10.74721	6.01229	-11.64204	3.53468
5723.040	-10.58272	5.98971	-11.65337	3.44619
5727.021	-10.15345	5.97099	-11.82547	3.42317
5731.012	-10.03695	5.97084	-11.78074	3.47456
5735.015	-9.93761	5.87595	-11.94018	3.45277
5739.023	-10.09426	5.85162	-11.99837	3.48140
5743.017	-10.37782	5.85612	-11.95087	3.51590
5747.038	-10.38358	5.88366	-11.92253	3.82581
5751.024	-10.32854	5.87910	-11.99016	4.07756
5755.018	-10.37731	5.83959	-11.98455	4.00223
5759.014	-10.50909	5.80100	-12.01832	4.16498
5763.014	-10.72970	5.85868	-11.98353	4.07582
5767.020	-10.93722	5.84335	-11.97679	4.00184
5771.017	-10.45159	5.37694	-11.92831	3.68081
5775.015	-10.68657	5.02411	-11.93952	3.35609
5779.019	-11.38111	3.35217	-11.92740	0.07510
5783.021	-11.38156	-0.06363	-11.99574	-1.82961
5787.014	-11.82556	-1.02269	-11.90224	-3.67548
5791.017	-12.41111	-4.65729	-11.86072	-5.66204
5795.019	-13.20397	-6.02210	-11.90654	-7.30832
5799.015	-13.43397	-9.29195	-12.04469	-7.86711
5803.018	-13.94647	-10.96366	-12.10120	-9.87526
5807.017	-14.48201	-13.43178	-11.96584	-10.44396
5811.016	-19.99372	-12.19377	-11.94289	-11.83107
5815.015	-19.99372	-12.14651	-12.02881	-12.04107
5819.020	-19.99372	-12.12638	-12.05381	-12.01390
5823.024	-19.99372	-12.11518	-12.12098	-11.56301
5827.019	-19.99372	-12.10797	-12.11297	-11.45646
5831.014	-19.99372	-12.10290	-12.19088	-11.47191
5835.019	-19.99372	-12.09915	-12.21885	-11.57213
5839.015	-19.99372	-12.09622	-12.16396	-11.62775
5843.015	-19.99372	-12.09388	-12.10421	-11.68069
5847.019	-19.99372	-12.10520	-11.93985	-11.68474
5851.017	NaN	NaN	-11.97505	-11.54687
5855.014	NaN	NaN	-11.96622	-11.50047
5859.017	NaN	NaN	-11.81356	-11.42725
5863.023	NaN	NaN	-11.84784	-11.35715
5867.018	NaN	NaN	-11.69804	-11.33293
5871.019	NaN	NaN	-11.68198	-11.30868
5875.014	NaN	NaN	-11.66922	-11.39045
5879.015	NaN	NaN	-11.59099	-11.34043
5883.011	NaN	NaN	-11.55814	-11.37648
5887.040	NaN	NaN	-11.56812	-11.33324
5891.021	NaN	NaN	-11.57736	-11.30839
5895.016	NaN	NaN	-11.55814	-11.35832
5899.015	NaN	NaN	-11.53880	-11.40497
5903.020	NaN	NaN	-11.54297	-11.38211
5907.019	NaN	NaN	-11.55621	-11.43310
5911.022	NaN	NaN	-11.59230	-11.45818
5915.017	NaN	NaN	-11.62482	-11.46871
5919.013	NaN	NaN	-11.71577	-11.43373
5923.044	NaN	NaN	-11.72938	-11.42689
5927.038	NaN	NaN	-11.78947	-11.44470
5931.020	NaN	NaN	-11.68162	-11.45100
5935.013	NaN	NaN	-11.66482	-11.43342
5939.013	NaN	NaN	-11.72056	-11.41432
5943.010	NaN	NaN	-11.57789	-11.42008
5947.021	NaN	NaN	-11.69957	-11.43298
5951.014	NaN	NaN	-11.71744	-11.44722
5955.013	NaN	NaN	-11.71782	-11.41682
5959.011	NaN	NaN	-11.56981	-11.42136
5963.015	-14.54779	-14.66780	-11.56731	-11.43834
5967.015	-14.24832	-14.41178	-11.66413	-11.46676
5971.012	-19.99372	-12.08231	-11.62337	-11.40407
5975.017	-14.27103	-14.63958	-11.68143	-11.38428
5979.014	-14.29534	-14.65716	-11.83369	-11.41185
5983.014	-14.26662	-14.53658	-11.82014	-11.42404
5987.011	-14.25571	-14.57137	-11.89965	-11.42584
5991.021	-14.16079	-14.61003	-11.99227	-11.41959
5995.020	-14.15167	-14.55026	-11.86552	-11.47884
5999.017	-14.18137	-14.62196	-11.88435	-11.49054
6003.012	-19.99372	-12.15593	-12.00217	-11.50600
6007.016	-19.99372	-12.12676	-11.89792	-11.56865
6011.013	-19.99372	-12.10712	-10.70112	-11.64037
6015.014	-19.99372	-12.10504	-9.67210	-11.69364
6019.011	-19.99372	-12.09801	-9.61315	-11.71987
6023.016	-12.37792	-14.57942	-10.29070	-11.69057
6027.037	-19.99372	-12.09386	-10.65716	-11.68356
6031.025	-19.99372	-12.08908	-10.56642	-11.61127
6035.027	-19.99372	-12.08644	-10.24951	-11.50657
6039.016	-19.99372	-12.08198	-10.06816	-11.45578
6043.012	-12.24545	-14.67467	-9.97681	-11.53021
6047.011	-19.99372	-12.08222	-10.08077	-11.48883
6051.014	-19.99372	-12.08209	-10.05077	-11.45464
6055.013	-19.99372	-12.08193	-10.15391	-11.36672
6059.010	-19.99372	-12.08176	-10.07935	-11.42376
6063.016	-19.99372	-12.08158	-10.11216	-11.44768
6067.016	-19.99372	-12.07814	-10.12274	-11.54912
6071.018	-19.99372	-12.07812	-10.04497	-11.49129
6075.016	-19.99372	-12.07807	-10.04210	-11.59631
6079.009	-19.99372	-12.07805	-10.01915	-11.66484
6083.014	-19.99372	-12.07803	-10.04215	-11.68440
6087.013	NaN	NaN	-10.07276	-11.71964
6091.011	NaN	NaN	-10.09535	-11.73085
6095.015	NaN	NaN	-10.13345	-11.82022
6099.014	NaN	NaN	-10.15172	-11.87456
6102.886	NaN	NaN	-10.18911	-11.94039
6106.892	NaN	NaN	-10.23118	-11.94386
6110.887	NaN	NaN	-10.28911	-11.96364
6114.889	NaN	NaN	-10.27126	-12.05450
6118.889	-12.24107	-14.31813	-10.31746	-12.06876
6122.888	-19.99372	-12.08046	-10.38077	-12.11545
6126.884	-19.99372	-12.08044	-10.41302	-12.14166
6130.910	-19.99372	-12.08039	-10.46328	-12.12985
6134.889	-11.86270	-13.67307	-10.49793	-12.12594
6138.889	-19.99372	-12.09868	-10.50897	-12.09978
6142.889	-19.99372	-12.09841	-10.52888	-12.04083
6146.922	-19.99372	-12.09805	-10.50844	-11.92747
6150.888	-19.99372	-12.09759	-10.49248	-12.00076
6154.885	-11.77605	-14.31052	-10.57515	-11.97985
6158.889	-19.99372	-12.10323	-10.60522	-11.78107
6162.890	-19.99372	-12.09756	-10.55560	-11.80731
6166.889	-19.99372	-12.09692	-10.54413	-11.79604
6170.887	-11.72308	-14.30763	-10.52058	-11.72020
6174.883	-11.76195	-14.53751	-10.51511	-11.69958
6178.883	-19.99372	-12.08778	-10.45471	-11.65532
6182.886	-19.99372	-12.08754	-10.35085	-11.62430
6186.886	-19.99372	-12.08725	-10.38668	-11.58714
6190.882	-19.99372	-12.08691	-10.41249	-11.72166
6194.882	-19.99372	-12.08653	-10.45833	-11.77533
6198.909	-19.99372	-12.08227	-10.52828	-11.80461
6202.897	-11.92106	-14.71670	-10.51595	-11.84233
6206.887	-19.99372	-12.08365	-10.42787	-11.88532
6210.922	-11.94795	-14.57366	-10.47588	-11.87799
6214.899	-11.99697	-14.77085	-10.52300	-11.75360
6218.885	-19.99372	-12.08461	-10.46313	-11.82746
6222.883	-19.99372	-12.08450	-10.37438	-11.77092
6226.887	-19.99372	-12.08432	-10.40908	-11.75351
6230.887	-19.99372	-12.08414	-10.34511	-11.65443
6234.882	-19.99372	-12.08390	-10.36862	-11.67163
6238.882	-19.99372	-12.08365	-10.73981	-11.77495
6242.889	-19.99372	-12.08336	-10.88410	-11.65459
6246.885	-19.99372	-12.08178	-10.78214	-11.71126
6250.883	-11.58086	-14.69445	-11.20636	-11.62209
6254.886	-11.69735	-14.48950	-10.77160	-11.61927
6258.885	-19.99372	-12.08544	-11.00309	-11.64063
6262.882	-11.61906	-14.61623	-10.74118	-11.65875
6266.885	-11.61778	-14.62593	-10.70100	-11.67660
6270.884	-19.99372	-12.09252	-10.64190	-11.66923
6274.914	-19.99372	-12.09214	-10.74913	-11.66142
6278.887	-11.62654	-14.66687	-10.67502	-11.62557
6282.883	-11.67901	-14.63998	-10.55128	-11.57518
6286.896	-11.71537	-14.65247	-10.50426	-11.58372
6290.883	-11.68248	-14.68490	-10.51782	-11.61657
6294.882	-11.78257	-14.67411	-10.53763	-11.63982
6298.882	-11.83980	-14.70190	-10.55411	-11.78476
6302.883	-11.84812	-14.61682	-10.53576	-11.88722
6306.883	-11.77563	-14.45479	-10.61905	-12.03700
6310.885	-11.80181	-14.36768	-10.62631	-12.10286
6314.886	-19.99372	-12.30389	-10.61126	-12.16488
6318.887	-19.99372	-12.28200	-10.60265	-12.17805
6322.881	-11.83075	-14.50644	-10.63859	-12.17349
6326.888	-11.82190	-14.58587	-10.61641	-12.27079
6330.887	-11.87622	-14.51235	-10.59260	-12.27379
6334.907	-11.84732	-14.51792	-10.44585	-12.31004
6338.890	-11.88924	-14.49482	-10.37830	-12.30413
6342.880	-11.75481	-14.34019	-10.26610	-12.25775
6346.884	-11.80336	-14.37835	-10.37153	-12.19986
6350.883	-11.66215	-14.43280	-10.26129	-12.17959
6354.880	-11.71622	-14.41470	-10.29743	-12.11866
6358.879	-11.57315	-14.34309	-10.33646	-12.12996
6362.885	-11.76935	-14.49092	-10.36324	-12.28146
6366.887	-19.99372	-12.50171	-10.31612	-12.41921
6370.889	-19.99372	-12.31586	-10.38560	-12.25713
6374.880	-11.75346	-14.46848	-10.42075	-12.26044
6378.883	-19.99372	-12.23060	-10.49572	-12.21496
6382.882	-11.64535	-14.33604	-10.52266	-12.20991
6386.880	-19.99372	-12.17889	-10.52127	-12.22116
6390.879	-19.99372	-12.14667	-10.51969	-12.22480
6394.884	-19.99372	-12.12678	-10.42552	-12.10937
6398.882	-10.41424	-12.94802	-10.51403	-12.25054
6403.239	-8.49576	-13.28704	-7.49815	-12.17948
6406.884	-5.26305	-12.76633	-5.60625	-12.05303
6410.892	-3.69474	-9.94202	-3.88097	-11.31228
6414.902	-0.95663	-8.39032	-1.72701	-10.52102
6418.885	0.67963	-7.97668	-0.75739	-10.34004
6422.879	2.27914	-7.08066	-0.07654	-10.10451
6426.885	3.69808	-7.57710	2.48371	-9.16376
6430.879	5.50368	-4.84459	3.53283	-7.93809
6434.879	8.04411	-2.92541	5.39942	-7.27637
6438.884	9.86204	-0.50649	6.32738	-5.92684
6442.881	10.89973	-0.53566	8.38862	-5.05779
6446.881	12.70685	0.46854	9.63607	-3.74424
6450.891	14.42472	2.36709	11.28379	-3.59948
6454.886	15.16017	3.39834	11.66158	-1.93113
6458.914	15.49833	3.28193	12.61715	-1.32195
6462.889	15.71250	3.20272	13.07921	-1.02396
6466.883	15.67591	3.17159	13.05406	-1.43839
6470.887	15.06473	2.98974	12.90793	-1.50597
6474.883	14.91302	2.97546	12.89610	-1.48602
6478.878	14.74651	3.00077	12.76480	-1.50329
6482.883	14.94630	3.13892	12.96998	-1.49234
6486.880	15.31422	3.22399	13.06859	-1.34357
6490.879	15.34607	3.34977	13.00563	-1.11846
6494.882	15.49628	3.35347	13.15379	-1.20160
6498.882	15.70137	3.38443	13.09996	-1.05189
6502.879	15.83377	3.50654	13.10963	-0.98466
6506.877	16.04535	3.63379	13.09242	-1.19951
6510.880	16.29180	3.92726	13.08510	-1.18955
6514.880	16.17901	3.83771	13.10751	-1.15770
6518.878	16.16832	3.82369	13.18969	-1.20701
6522.878	15.67724	3.87594	13.36006	-1.05657
6526.902	15.79239	3.94537	13.27351	-0.91384
6530.888	15.36472	3.96629	13.08745	-0.91620
6534.887	15.39665	4.05092	13.13411	-0.93681
6538.882	15.61156	4.10060	13.08286	-0.84333
6542.878	15.63189	4.14964	13.07627	-0.80686
6546.884	15.72000	4.16511	13.12380	-0.79434
6550.880	15.97583	4.21498	13.10377	-0.71206
6554.879	16.19219	4.21404	13.12924	-0.73352
6558.907	16.12369	4.26739	13.09277	-0.87701
6562.882	16.17864	4.30660	13.03472	-0.83011
6566.879	16.18627	4.33921	13.06315	-0.89705
6570.876	16.10724	4.31335	13.04042	-0.92221
6574.876	15.67616	4.17543	13.05211	-0.92047
6578.886	15.94853	4.15904	13.11156	-0.82956
6582.880	15.83737	4.14045	13.13482	-0.96504
6586.881	15.79354	4.18390	13.16285	-1.01800
6590.882	15.42555	4.11330	13.08006	-1.07179
6594.878	15.49266	4.07368	13.06873	-1.07632
6598.880	15.60189	4.04033	13.05936	-1.00865
6602.883	15.83517	4.01852	13.08950	-1.00478
6606.883	15.76465	3.98810	13.06680	-1.01583
6610.878	15.87522	3.92275	13.05722	-0.98420
6614.880	16.05039	3.89314	12.99361	-0.99716
6618.883	16.10488	3.88102	13.03567	-1.02743
6622.883	16.19892	3.86289	13.03927	-1.06849
6626.876	16.32362	3.83882	13.04459	-1.06072
6630.880	16.45398	3.83047	13.06421	-1.09391
6634.878	16.48454	3.82047	13.16920	-1.08381
6638.878	16.52928	3.79957	13.12486	-1.05851
6642.875	16.65685	3.77594	13.12889	-1.10995
6646.881	16.67109	3.74468	13.15454	-1.08218
6650.878	16.59699	3.70963	13.17699	-1.08281
6654.875	16.04732	3.65897	13.14724	-1.07689
6658.885	16.52684	3.66431	13.15854	-1.08826
6662.878	16.31100	3.66868	13.12326	-0.57568
6666.875	15.85040	3.58489	13.09569	-0.64597
6670.875	15.80960	3.50275	13.13691	-0.38899
6674.903	15.84959	3.36121	13.16183	-0.72723
6678.884	16.08094	3.04308	13.16781	-0.66594
6682.875	15.90793	1.67159	13.23408	-0.89790
6686.877	15.92882	1.16673	13.23410	-1.29054
6690.875	15.84013	1.68672	13.21239	-1.40139
6694.879	15.88957	2.49203	13.22883	-1.33779
6698.878	16.06453	2.71459	13.23692	-1.41602
6702.878	15.93068	2.01840	13.28068	-1.31176
6706.881	15.99237	2.02026	13.30479	-1.37906
6710.875	16.09620	2.13632	13.31831	-1.29969
6714.880	16.15030	2.04004	13.32447	-1.40437
6718.879	16.19933	2.00555	13.32437	-1.37170
6722.877	16.17688	1.90847	13.32378	-1.47168
6726.874	16.12358	1.98874	13.31781	-1.48633
6730.876	15.92668	1.96910	13.34305	-1.46064
6734.881	15.99413	2.02212	13.39433	-1.40063
6738.877	15.79669	2.04761	13.45371	-1.40845
6742.902	15.78975	2.04911	13.50415	-1.31455
6746.883	15.70229	2.09421	13.56737	-1.30810
6750.919	15.69252	2.12592	13.54166	-1.29254
6754.885	15.55800	2.15385	13.58294	-1.22885
6758.878	15.62556	2.15653	13.62673	-1.21170
6762.877	15.58159	2.17411	13.64736	-1.17797
6766.874	15.50647	2.18394	13.44137	-1.23965
6770.879	15.50566	2.19667	13.34023	-1.17601
6774.900	15.53930	2.22923	13.33556	-1.19548
6778.879	15.57369	2.22415	13.13425	-1.12969
6782.880	15.58946	2.20051	13.18600	-1.13554
6786.876	15.63907	2.19288	13.22060	-1.16316
6790.873	15.73244	2.20499	13.01129	-1.15346
6794.877	15.69162	2.16150	12.88195	-1.08986
6798.874	15.70351	2.13390	12.83673	-1.07286
6802.875	15.75856	2.16451	12.75948	-1.16557
6806.878	15.78092	2.16776	12.69393	-1.17178
6810.908	15.84385	2.18747	12.70350	-1.14835
6814.878	15.96073	2.23687	12.66152	-1.11803
6818.875	15.92795	2.23526	12.68916	-1.08180
6822.877	16.03985	2.17175	12.65368	-1.16782
6826.880	16.01949	2.10740	12.65347	-1.25155
6830.876	16.04113	1.99214	12.63660	-1.25379
6834.871	16.09675	2.09374	12.64298	-1.30667
6838.878	16.11224	1.87521	12.60337	-1.37178
6842.872	16.08594	1.95769	12.63043	-1.41106
6846.877	16.06559	1.89606	12.64796	-1.41525
6850.876	16.08264	1.86497	12.70482	-1.38373
6854.874	16.04636	1.77945	12.76274	-1.37487
6858.872	15.98810	1.80631	12.79699	-1.42539
6862.876	15.99305	1.80006	12.84253	-1.41976
6866.880	15.90091	1.76531	12.84255	-1.41555
6870.874	15.82733	1.75906	12.90928	-1.38646
6874.879	15.82076	1.73539	12.96397	-1.37127
6878.902	15.73959	1.77829	12.98612	-1.36328
6882.883	15.69585	1.79726	13.06047	-1.32932
6886.874	15.67591	1.79242	13.05870	-1.33545
6890.873	15.68801	1.78701	13.12493	-1.32716
6894.871	15.69330	1.78029	13.16508	-1.27773
6898.873	15.67554	1.82753	13.17205	-1.24703
6902.870	15.65842	1.77400	13.14819	-1.26514
6906.877	15.68000	1.76827	13.13943	-1.27324
6910.877	15.72734	1.79211	13.20764	-1.23442
6914.875	15.77639	1.79956	13.17654	-1.24142
6918.872	15.86068	1.82914	13.15805	-1.24937
6922.875	15.86819	1.80469	13.17066	-1.13378
6926.873	15.89678	1.78235	13.11905	-1.07765
6930.872	15.98819	1.80378	13.14089	-1.06681
6934.871	16.01956	1.81407	13.04754	-0.98196
6938.876	16.10674	1.82744	13.02483	-0.94388
6942.873	16.10099	1.85545	12.94490	-1.03398
6946.892	16.16683	1.87810	13.00130	-1.03808
6950.881	16.17709	1.86622	13.00554	-1.03579
6954.871	16.24251	1.89618	12.98662	-1.04092
6958.812	16.25569	1.90926	12.96237	-1.04388
6962.749	16.18350	1.91484	12.88287	-1.17955
6966.747	15.96470	1.95088	12.85697	-1.19439
6970.750	16.05539	1.98081	12.87324	-1.25950
6974.747	16.03462	1.98140	12.83109	-1.39871
6978.747	16.07932	1.96593	12.91319	-1.42335
6982.745	16.01786	1.95199	12.87560	-1.51280
6986.751	16.07024	1.88156	12.81488	-1.60452
6990.748	16.00778	1.85727	12.84539	-1.69469
6994.745	16.03329	1.88351	12.83439	-1.72115
6998.749	15.91154	1.80332	12.80539	-1.77448
7002.820	15.91245	1.73785	12.78946	-1.78825
7006.751	15.96592	1.75310	12.77046	-1.77940
7010.745	15.99131	1.77285	12.77176	-1.73061
7014.752	16.01424	1.72981	12.73559	-1.73599
7018.749	15.95823	1.67399	12.74638	-1.67564
7022.749	15.99537	1.67594	12.77346	-1.59136
7026.750	15.91764	1.66365	12.71710	-1.58724
7030.745	15.80535	1.64590	12.74199	-1.54596
7034.744	15.75265	1.59253	12.69039	-1.45632
7038.747	15.75835	1.57645	12.63506	-1.44695
7042.752	15.72398	1.60877	12.61715	-1.40389
7046.748	15.75918	1.59623	12.61261	-1.38910
7050.748	15.76219	1.57530	12.66200	-1.35222
7054.744	15.72924	1.53041	12.64475	-1.35270
7058.748	15.78724	1.51664	12.74397	-1.33997
7062.746	15.78644	1.51246	12.79076	-1.32102
7066.744	15.84174	1.51730	12.76517	-1.26152
7070.742	15.85621	1.50788	12.77806	-1.12406
7074.748	15.90633	1.53953	12.77936	-1.09491
7078.746	15.95110	1.58734	12.85109	-1.03931
7082.773	15.98987	1.60228	12.86855	-0.95576
7086.754	16.04260	1.60403	12.90539	-0.91365
7090.744	16.07230	1.63333	12.89235	-0.85490
7094.748	16.06926	1.61479	12.88294	-0.82052
7098.744	16.09364	1.63366	12.91439	-0.73796
7102.742	16.07767	1.62455	12.90935	-0.70322
7106.748	16.04100	1.60958	12.90065	-0.66932
7110.745	15.95252	1.61712	12.88265	-0.70940
7114.745	15.90541	1.63727	12.90378	-0.72152
7118.742	15.88323	1.61481	12.92199	-0.70847
7122.751	15.84240	1.63764	12.94712	-0.69866
7126.742	15.79342	1.62485	12.97728	-0.69376
7130.743	15.82775	1.65658	13.04026	-0.68015
7134.747	15.59245	1.62375	13.05769	-0.68717
7138.745	15.62991	1.66728	13.07161	-0.70966
7142.744	15.55331	1.62791	13.07285	-0.75431
7146.741	15.48750	1.62029	13.06815	-0.72451
7150.776	15.53801	1.65446	13.10191	-0.74829
7154.758	15.45901	1.64133	13.11893	-0.71502
7158.748	15.50476	1.63970	13.13941	-0.69650
7162.746	15.50101	1.64856	13.17645	-0.68930
7166.751	15.46113	1.59951	13.16913	-0.69784
7170.746	15.48130	1.56482	13.21928	-0.69753
7174.747	15.48151	1.62505	13.18550	-0.70800
7178.742	15.56282	1.69736	13.18287	-0.72008
7182.747	15.61212	1.73866	13.18285	-0.69362
7186.745	15.56024	1.61281	13.11359	-0.68111
7190.742	15.57327	1.87763	12.62046	-0.59795
7194.742	14.69738	1.87751	10.87982	-0.52059
7198.748	12.84260	2.49524	9.65177	-0.38046
7202.743	12.59491	3.06287	8.76258	0.06329
7206.747	12.80379	3.45852	9.04347	0.34349
7210.747	13.29163	3.52749	9.93246	0.38861
7214.777	14.19583	3.31938	10.40713	0.03776
7218.783	13.85838	3.11062	10.70826	0.03448
7222.752	13.50915	2.90705	10.61545	0.03407
7226.741	13.30933	3.22350	10.52062	0.11639
7230.745	13.12427	3.31375	10.36828	0.19198
7234.743	13.22848	3.38922	10.20753	0.18327
7238.740	13.15282	3.38674	9.92473	0.27417
7242.744	13.24369	3.36700	10.07045	0.21501
7246.746	13.17318	3.32022	10.15620	0.20549
7250.740	13.22683	3.32769	10.17889	0.15472
7254.739	13.14273	3.28224	10.04704	0.13572
7258.744	13.07674	3.18070	9.99375	0.17498
7262.743	13.08107	3.25768	9.91305	0.15367
7266.742	13.09617	3.30882	9.90494	0.15010
7270.740	13.19680	3.34303	9.84462	0.21482
7274.744	13.22561	3.33530	9.89976	0.18491
7278.743	13.27661	3.26343	9.92030	0.17825
7282.738	13.33206	3.24904	9.94710	0.12500
7286.778	13.39715	3.26836	9.97320	0.15830
7290.753	13.42488	3.23268	10.00370	0.11166
7294.747	13.49727	3.19392	10.03219	0.07649
7298.744	13.52688	3.16946	10.13010	0.07067
7302.739	13.54980	3.16434	10.16144	0.00834
7306.746	13.56561	3.11341	10.14398	-0.01196
7310.744	13.57471	3.11702	10.10670	0.03643
7314.739	13.56798	3.10162	10.12212	0.00078
7318.739	13.63728	3.09776	10.18118	-0.00301
7322.743	13.63991	3.13348	10.13891	-0.03689
7326.742	13.67981	3.12411	10.15427	-0.05738
7330.744	13.68464	3.10715	10.08363	-0.07237
7334.743	13.66144	3.11757	10.14552	-0.05188
7338.741	13.73076	3.18533	10.18788	-0.06459
7342.739	13.78899	3.25041	10.12640	-0.09430
7346.739	13.81223	3.25507	10.12005	-0.12691
7350.774	13.81736	3.28087	10.18209	-0.13748
7354.752	13.92393	3.26915	10.21070	-0.13145
7358.743	13.92702	3.29796	10.26494	-0.16184
7362.740	13.94927	3.34994	10.23839	-0.19147
7366.742	13.94434	3.28185	10.22262	-0.19808
7370.745	13.98071	3.28304	10.25471	-0.15671
7374.745	14.03374	3.29203	10.23185	-0.13648
7378.738	14.06826	3.32890	10.22755	-0.18776
7382.743	14.03627	3.28366	10.21471	-0.19097
7386.741	14.01122	3.26181	10.23440	-0.18585
7390.741	14.01431	3.21983	10.22176	-0.15795
7394.736	14.04615	3.23390	10.19462	-0.17770
7398.742	14.03377	3.24104	10.14261	-0.21369
7402.747	14.02246	3.20270	10.14917	-0.22437
7406.745	13.98433	3.19035	10.12736	-0.22101
7410.779	14.01942	3.19224	10.17466	-0.19755
7414.745	13.99015	3.17373	10.13104	-0.26580
7418.736	13.96313	3.18043	10.15550	-0.31301
7422.764	13.95626	3.16703	10.12313	-0.26982
7426.749	13.95652	3.14179	10.08154	-0.31132
7430.740	13.95666	3.13926	10.08628	-0.28636
7434.742	13.93590	3.14560	10.02009	-0.30012
7438.740	13.87973	3.13020	10.03972	-0.30798
7442.738	13.79939	3.14581	10.07906	-0.24385
7446.736	13.79646	3.13524	10.09746	-0.26018
7450.742	13.76193	3.14663	10.06210	-0.22686
7454.744	13.71062	3.17961	10.03505	-0.21728
7458.773	13.69141	3.08744	10.14273	-0.18350
7462.751	13.63358	2.87857	10.15047	-0.12939
7466.738	13.59021	2.53708	10.27472	-0.66427
7470.736	13.35595	1.05533	10.42847	-3.44794
7474.736	13.45216	-0.71462	10.50923	-3.61801
7478.741	13.44421	-2.12672	10.68298	-3.77655
7482.740	13.49239	-2.72034	10.78942	-4.61401
7486.736	13.62816	-2.96786	11.20653	-5.13755
7490.741	13.70423	-2.99967	11.35692	-5.08035
7494.739	13.79178	-3.01653	11.33161	-5.01569
7498.744	13.72006	-2.68560	11.32240	-4.28271
7502.738	13.74158	-2.67726	11.41492	-4.60253
7506.738	13.69804	-2.73605	11.42678	-4.74173
7510.735	13.89108	-2.76465	11.60666	-4.77879
7514.741	13.88792	-2.83170	11.61249	-4.93664
7518.739	13.88228	-2.85396	11.53363	-5.21307
7522.739	13.83896	-2.98315	11.66158	-5.04943
7526.741	13.85339	-3.01905	11.70713	-4.93342
7530.740	13.77874	-2.97453	11.64078	-4.92438
7534.738	13.80004	-2.88395	11.66937	-4.84072
7538.741	13.71894	-3.00959	11.65332	-4.89285
7542.739	13.76043	-2.97635	11.68645	-4.93429
7546.740	13.69558	-3.11562	11.67941	-4.98492
7550.737	13.70570	-3.07945	11.72255	-5.05289
7554.735	13.69085	-3.05858	11.69252	-4.99502
7558.763	13.67040	-3.13495	11.69426	-5.03010
7562.739	13.64991	-3.05413	11.69340	-5.01592
7566.742	13.67906	-3.07138	11.68565	-5.01287
7570.737	13.70163	-2.97177	11.68745	-5.00294
7574.737	13.76078	-2.94618	11.73571	-5.01303
7578.742	13.68830	-3.01583	11.79173	-4.99951
7582.744	13.75453	-2.88345	11.75971	-4.99664
7586.735	13.73273	-2.83537	11.81636	-4.99972
7590.736	13.80783	-2.76693	11.79815	-5.07364
7594.740	13.79351	-2.73631	11.75465	-5.09928
7598.740	13.82251	-2.70987	11.72731	-5.16818
7602.737	13.83451	-2.68039	11.74028	-5.19771
7606.741	13.89678	-2.62231	11.75039	-5.18334
7610.737	13.93686	-2.57052	11.66772	-5.19521
7614.739	13.97473	-2.52011	11.57760	-5.21371
7618.735	13.92470	-2.53650	11.50136	-5.25779
7622.752	13.99204	-2.42871	11.47486	-5.27214
7626.742	14.02164	-2.41882	11.45741	-5.29052
7630.772	14.07244	-2.40211	11.42835	-5.28467
7634.731	14.14698	-2.34506	11.47055	-5.22334
7638.738	14.22239	-2.26281	11.48189	-5.19347
7642.735	14.31976	-2.16925	11.48656	-5.13523
7646.736	14.34837	-2.21058	11.53079	-5.11290
7650.737	14.30009	-2.19380	11.41688	-5.19877
7654.735	14.35037	-2.20662	11.43066	-5.23980
7658.733	14.42688	-2.17578	11.37028	-5.22704
7662.738	14.46524	-2.11990	11.38366	-5.24547
7666.739	14.38640	-2.14589	11.25743	-5.19032
7670.736	14.42078	-2.12208	11.33299	-5.17197
7674.732	14.44618	-2.06647	11.27042	-5.24016
7678.732	14.37128	-2.10346	11.22153	-5.25888
7682.737	14.30741	-2.12284	11.18432	-5.28264
7686.735	14.12684	-2.14656	11.19070	-5.33127
7690.736	13.98856	-2.10916	11.13176	-5.29621
7694.757	13.62118	-2.07695	11.12761	-5.12937
7698.735	13.60010	-2.03961	11.09389	-5.10465
7702.739	13.54530	-2.01455	11.15678	-4.95867
7706.743	13.63663	-2.00994	11.18852	-4.89176
7710.734	13.53050	-2.04129	11.22138	-4.78172
7714.739	13.55660	-2.07330	11.25259	-4.80168
7718.735	13.50314	-2.06737	11.26008	-4.73187
7722.733	13.52618	-2.07660	11.30347	-4.71042
7726.733	13.69961	-2.09186	11.34831	-4.61544
7730.738	13.65587	-2.12227	11.34633	-4.58301
7734.735	13.71739	-2.15990	11.37875	-4.55233
7738.735	13.88790	-2.19766	11.37293	-4.56288
7742.732	14.07812	-2.22824	11.47369	-4.54404
7746.741	14.11517	-2.21315	11.49207	-4.61902
7750.742	14.25504	-2.20135	11.42573	-4.77116
7754.734	14.26590	-2.20055	11.42022	-4.93265
7758.731	14.30934	-2.21734	11.42999	-5.06373
7762.757	14.32905	-2.24621	11.38466	-4.99763
7766.736	14.11479	-2.28058	11.33614	-5.15289
7770.732	13.82642	-2.31200	11.29935	-5.06038
7774.738	13.97024	-2.26593	11.34044	-5.09476
7778.735	13.61204	-2.32851	11.35721	-5.08639
7782.732	13.58254	-2.38829	11.33478	-5.14550
7786.740	13.75907	-2.44040	11.29973	-5.20638
7790.740	13.73364	-2.42950	11.29095	-5.15791
7794.732	13.65202	-2.45934	11.33418	-5.13502
7798.731	13.47252	-2.57998	11.34972	-5.08340
7802.731	13.54201	-2.56901	11.42599	-5.01223
7806.731	13.47932	-2.67801	11.47314	-4.97739
7810.612	13.41934	-2.71073	11.56819	-4.89885
7814.609	13.46409	-2.72968	11.59811	-4.88530
7818.609	13.50377	-2.79916	11.58251	-4.84915
7822.606	13.54488	-2.79899	11.53101	-4.83800
7826.611	13.55259	-2.82016	11.39163	-4.80112
7830.635	13.56711	-2.77772	11.53744	-4.70692
7834.617	13.56690	-2.85883	11.38545	-4.62540
7838.615	13.44881	-2.86928	11.45808	-4.61795
7842.640	13.17899	-2.87825	11.17381	-4.64371
7846.604	11.84725	-2.94640	8.41337	-4.72698
7850.604	8.37810	-2.98329	7.59132	-4.60551
7854.609	6.87076	-2.96875	4.29658	-4.43135
7858.613	4.64086	-2.95822	3.51317	-4.39173
7862.605	3.90805	-2.99151	2.86598	-4.31718
7866.605	2.22651	-3.04167	0.00953	-4.27908
7870.609	1.67953	-3.00924	-0.15747	-4.17156
7874.607	-0.44194	-2.86509	-2.34716	-3.91775
7878.609	-1.36422	-2.45010	-3.28120	-3.73282
7882.608	-0.47746	-2.32557	-2.14625	-3.19268
7886.606	0.42095	-2.14288	-2.38333	-3.31184
7890.603	0.60081	-2.20036	-1.91459	-3.33194
7894.603	0.17769	-2.23061	-1.48503	-3.36125
7898.631	0.12568	-1.92448	-1.72128	-3.27826
7902.614	0.06132	-1.65698	-1.62403	-3.29543
7906.607	-0.06572	-1.57357	-1.77913	-3.18180
7910.603	-0.14332	-1.56011	-1.92716	-3.17680
7914.609	-0.27433	-1.53601	-2.02264	-3.11334
7918.610	-0.44713	-1.44671	-1.97592	-3.11704
7922.612	-0.33168	-1.37156	-2.00673	-3.13543
7926.604	-0.35841	-1.35758	-1.89835	-3.15195
7930.610	-0.43294	-1.32088	-1.85393	-3.19994
7934.605	-0.46966	-1.31688	-1.96744	-3.23226
7938.604	-0.44309	-1.36134	-2.05754	-3.25156
7942.602	-0.51604	-1.45162	-2.18163	-3.31008
7946.608	-0.46224	-1.66551	-2.15651	-3.28741
7950.606	-0.42906	-1.80194	-2.26725	-3.39479
7954.606	-0.43676	-1.73699	-2.34755	-3.42579
7958.663	-0.44363	-1.79627	-2.34146	-3.47494
7962.614	-0.42167	-1.97557	-2.43451	-3.51974
7967.030	-0.44654	-2.09287	-2.50727	-3.51856
7970.604	-0.45430	-2.00239	-2.57305	-3.58105
7974.609	-0.47671	-2.00201	-2.61907	-3.58329
7978.605	-0.36211	-1.93862	-2.71751	-3.58810
7982.604	-0.37283	-1.93646	-2.70877	-3.58906
7986.602	-0.32044	-1.69089	-2.82610	-3.56085
7990.607	-0.37429	-1.45592	-2.93614	-3.58401
7994.607	-0.44601	-1.52901	-2.92406	-3.54403
7998.610	-0.45115	-1.80342	-3.05590	-3.53171
8002.613	-0.45190	-1.90634	-3.08867	-3.51401
8006.605	-0.44398	-1.88099	-3.26347	-3.49381
8010.604	-0.37995	-2.07877	-3.17594	-3.48998
8014.601	-0.37293	-2.13105	-3.21797	-3.47293
8018.607	-0.36424	-2.32508	-3.16404	-3.45020
8022.606	-0.33556	-2.32454	-3.26470	-3.44511
8026.603	-0.33930	-2.14560	-3.29565	-3.44946
8030.606	-0.36134	-2.35663	-3.30552	-3.45906
8034.611	-0.31987	-2.31504	-3.34094	-3.45330
8038.608	-0.27468	-2.32262	-3.08988	-3.47012
8042.608	-0.25443	-2.37762	-2.87284	-3.46942
8046.603	-0.23453	-2.35966	-2.85846	-3.47510
8050.608	-0.23649	-2.35981	-2.97289	-3.47912
8054.604	-0.27694	-2.33887	-2.52874	-3.49766
8058.605	-0.25753	-2.27206	-2.37069	-3.51647
8062.599	-0.24882	-2.29251	-2.41313	-3.54530
8066.644	-0.32079	-2.26927	-2.16097	-3.56630
8070.604	-0.35082	-2.32543	-2.19655	-3.58762
8074.603	-0.39445	-2.33160	-2.32216	-3.63209
8078.602	-0.48599	-2.31780	-2.18582	-3.64487
8082.606	-0.58468	-2.30561	-2.14020	-3.68720
8086.610	-0.63059	-2.28599	-2.19412	-3.73254
8090.600	-0.50103	-1.70873	-2.15737	-3.81607
8094.604	-0.46090	-1.74421	-2.12535	-3.86240
8098.603	-0.44832	-1.51522	-2.20317	-3.89147
8102.607	-0.40867	-1.19926	-2.21687	-3.97257
8106.605	-0.25051	-1.29414	-2.27525	-4.01004
8110.602	-0.29883	-1.13470	-2.32555	-4.05850
8114.605	-0.30945	-1.17332	-2.43756	-4.08386
8118.604	-0.27160	-1.10780	-2.51348	-4.13675
8122.604	-0.24579	-1.04210	-2.56991	-4.16314
8126.611	-0.24736	-1.04386	-2.67184	-4.19080
8130.606	-0.21296	-1.03594	-2.73868	-4.21832
8134.602	-0.25093	-1.08127	-2.81313	-4.21112
8138.599	-0.27997	-1.10489	-2.84804	-4.23030
8142.603	-0.30441	-1.13276	-2.86329	-4.24362
8146.602	-0.32987	-1.20600	-2.90242	-4.27835
8150.598	-0.42460	-1.20376	-2.92884	-4.19275
8154.603	-0.50158	-1.26208	-2.98517	-4.20518
8158.602	-0.51778	-1.35330	-3.00749	-4.16281
8162.602	-0.54121	-1.51461	-2.99158	-4.15134
8166.604	-0.54525	-1.65412	-3.00715	-4.08986
8170.631	-0.57669	-1.73373	-3.00492	-4.08506
8174.608	-0.58009	-1.80217	-3.01933	-4.09164
8178.603	-0.60466	-1.84563	-2.93166	-4.11207
8182.599	-0.60890	-1.97546	-2.98470	-4.12125
8186.605	-0.61419	-2.08289	-2.98849	-4.01778
8190.625	-0.64836	-2.14533	-2.99797	-3.95080
8194.602	-0.65886	-2.16505	-2.99121	-3.99631
8198.604	-0.64466	-2.21272	-2.91621	-4.03481
8202.602	-0.64794	-2.12220	-2.97584	-4.01897
8206.599	-0.56195	-0.61330	-2.86797	-3.92987
8210.626	1.18485	-1.14254	-2.17549	-3.44085
8214.631	3.31769	-0.54438	-0.39593	-1.42904
8218.612	3.87944	0.56039	0.29362	-0.92872
8222.601	3.68302	0.61628	0.32615	-0.98853
8226.602	3.16379	0.00784	0.08880	-1.20173
8230.597	2.14957	-0.22433	-0.45706	-1.77815
8234.604	1.48622	-0.11121	-0.68010	-1.76602
8238.620	1.66847	-0.15360	-0.44438	-1.67083
8242.607	2.80610	-0.06813	-0.18849	-1.45490
8246.600	2.95389	0.07887	-0.10272	-1.33195
8250.606	2.92475	0.25829	-0.07465	-1.24301
8254.604	2.95158	0.26546	-0.13622	-1.22125
8258.629	2.80224	0.33101	-0.14394	-1.23761
8262.600	2.64403	0.26793	-0.25019	-1.25917
8266.597	2.81414	0.19915	-0.20556	-1.33427
8270.602	2.75977	0.23872	-0.20142	-1.28830
8274.602	2.77527	0.32375	-0.22909	-1.27126
8278.599	2.77765	0.29478	-0.13866	-1.32641
8282.602	2.77064	0.30921	-0.09508	-1.47365
8286.600	2.72090	0.36085	-0.10719	-1.48321
8290.597	2.68158	0.35331	-0.13977	-1.51616
8294.602	2.60565	0.33067	-0.15275	-1.56751
8298.603	2.54358	0.32016	-0.15814	-1.59405
8302.597	2.43050	0.33560	-0.16692	-1.66159
8306.635	2.38494	0.33959	-0.13789	-1.69955
8310.611	2.26120	0.37604	-0.12808	-1.81698
8314.601	2.22461	0.41546	-0.14692	-1.82584
8318.597	2.19792	0.41549	-0.10356	-1.88306
8322.597	2.08030	0.48398	-0.08922	-1.95244
8326.602	2.08689	0.47971	-0.13292	-1.92453
8330.600	2.06200	0.50613	-0.15164	-1.93818
8334.605	2.24369	0.47228	-0.15538	-1.95660
8338.604	2.25679	0.46629	-0.18472	-1.93754
8342.600	2.34272	0.42066	-0.20772	-1.96270
8346.600	2.51061	0.50632	-0.24495	-1.94343
8350.597	2.69765	0.55063	-0.25944	-1.96378
8354.601	2.80013	0.54395	-0.25277	-1.92963
8358.599	2.72555	0.60933	-0.25495	-1.90322
8362.600	2.81088	0.63026	-0.25890	-1.87748
8366.597	2.75584	0.66431	-0.29955	-1.80124
8370.601	2.71013	0.69583	-0.27341	-1.77486
8374.630	2.84846	0.76538	-0.27716	-1.71595
8378.605	2.95104	0.84890	-0.29543	-1.65849
8382.601	2.95193	0.98193	-0.25066	-1.66483
8386.600	2.96742	1.04962	-0.20211	-1.67087
8390.596	3.00081	1.05048	-0.15953	-1.67733
8394.595	2.95577	1.03866	-0.15330	-1.65521
8398.601	2.92428	1.08097	-0.15883	-1.66554
8402.596	2.87262	1.10014	-0.11568	-1.78918
8406.601	2.93210	1.10093	-0.12947	-1.62688
8410.599	2.94052	1.08596	-0.04939	-1.59706
8414.596	2.94213	1.07824	0.02499	-1.59165
8418.601	2.92698	1.09037	0.04356	-1.56188
8422.603	2.88576	1.04099	0.00884	-1.44884
8426.597	2.81756	0.98932	-0.00789	-1.32899
8430.598	2.79986	0.96484	-0.03599	-1.34998
8434.602	2.72986	0.93614	-0.00506	-1.47000
8438.598	2.70745	0.93248	-0.00921	-1.27738
8442.623	2.67499	0.90878	0.05147	-1.19934
8446.601	2.63720	0.90750	0.02422	-1.14750
8450.598	2.62799	0.87460	0.05331	-1.11765
8454.597	2.58915	0.85723	0.01586	-1.15896
8458.603	2.57536	0.85647	-0.02861	-1.14589
8462.602	2.50244	0.83001	0.00643	-1.13017
8466.595	2.44848	0.82962	0.03656	-1.20645
8470.620	2.37994	0.79478	0.03792	-1.18673
8474.598	2.31594	0.77968	0.03316	-1.19845
8478.596	2.25214	0.75407	-0.04169	-1.18454
8482.597	2.21687	0.68887	-0.04167	-1.22597
8486.593	2.17626	0.67178	-0.07718	-1.28729
8490.600	2.14516	0.63467	-0.14263	-1.33393
8494.596	2.07368	0.61809	-0.16896	-1.36465
8498.597	2.07440	0.53853	-0.26612	-1.43269
8502.605	2.04428	0.37627	-0.27813	-1.64395
8506.596	2.04230	0.00502	-0.26423	-1.96885
8510.618	2.19157	0.01050	-0.26788	-2.29781
8514.598	2.17470	0.02692	-0.27684	-2.15055
8518.589	2.34788	0.03012	-0.19854	-2.38328
8522.598	2.44697	-0.01606	-0.19593	-2.34972
8526.623	2.39341	-0.05037	-0.01635	-2.26402
8530.603	2.52518	-0.14674	0.12687	-2.38863
8534.598	2.68165	-0.18281	0.19723	-2.43957
8538.598	2.70166	-0.24047	0.22413	-2.40623
8542.598	2.74378	-0.26799	0.27078	-2.46731
8546.593	2.94173	-0.23069	0.34851	-2.43691
8550.597	2.97938	-0.14562	0.36757	-2.38551
8554.596	3.02304	-0.10320	0.42425	-2.34664
8558.594	3.07706	-0.08228	0.45170	-2.25289
8562.593	3.13152	-0.03608	0.44562	-2.20644
8566.598	3.17653	-0.01216	0.48860	-2.14936
8570.597	3.19981	0.07217	0.46552	-2.10574
8574.593	3.23846	0.13730	0.42303	-2.04699
8578.596	3.19771	0.20134	0.37092	-2.00447
8582.605	3.18912	0.22176	0.36365	-2.02028
8586.601	3.18687	0.25848	0.33764	-1.96747
8590.595	3.13585	0.30866	0.30213	-1.92516
8594.599	3.09344	0.38780	0.26979	-1.87391
8598.595	3.04360	0.50284	0.25438	-1.91787
8602.594	2.96777	0.53315	0.24679	-1.97391
8606.597	2.93906	0.59803	0.19762	-1.97578
8610.595	2.87240	0.68594	0.19720	-2.04274
8614.595	2.82259	0.70391	0.19536	-2.14337
8618.593	2.82425	0.57057	0.21581	-2.29581
8622.597	2.80662	0.25735	0.19546	-2.27785
8626.601	2.82363	0.36181	0.22753	-2.33930
8630.597	2.63913	-0.97636	0.21157	-2.36123
8634.591	2.54682	-1.42007	0.13595	-2.40284
8638.598	2.50561	-1.31924	0.12543	-2.51964
8642.595	2.51076	-0.91712	0.02454	-2.57418
8646.597	2.51581	-0.75365	0.04986	-2.60699
8650.602	2.58308	-0.74691	0.05137	-2.63454
8654.595	2.53922	-0.85944	0.11411	-2.68286
8658.592	2.59770	-0.78922	0.13776	-2.68380
8662.592	2.62838	-0.81285	0.08952	-2.63840
8666.471	2.67903	-0.85103	0.09006	-2.61011
8670.470	2.65912	-0.96289	0.04286	-2.59739
8674.476	2.67477	-0.97529	0.05691	-2.58397
8678.466	2.72229	-0.90709	0.09565	-2.52048
8682.471	2.72417	-0.84264	0.15067	-2.52177
8686.534	2.75623	-0.80088	0.16474	-2.46549
8690.474	2.71426	-0.82974	0.20323	-2.52809
8694.466	2.58702	-0.83891	0.20713	-2.58852
8698.472	2.75470	-0.79599	0.19065	-2.63539
8702.470	2.74046	-0.76074	0.16246	-2.71796
8706.465	2.66120	-0.73450	0.15481	-2.84915
8710.469	2.73734	-0.76702	0.13292	-2.86574
8714.476	2.73600	-0.77478	0.12292	-2.88274
8718.478	2.69178	-0.70602	0.07788	-2.98347
8722.468	2.67811	-0.67376	0.02216	-2.95413
8726.467	2.70401	-0.63615	-0.05353	-2.98290
8730.464	2.62145	-0.58680	-0.14466	-2.98612
8734.468	2.62041	-0.56382	-0.29406	-2.90995
8738.468	2.42319	-0.42816	-0.21700	-2.82954
8742.465	2.43228	-0.34613	-0.28309	-2.74747
8746.464	-0.03380	-0.03581	-2.97507	-2.69990
8750.470	-3.09579	0.20562	-3.43155	-2.60645
8754.472	-3.35803	-0.12778	-5.77286	-2.55954
8758.468	-4.76993	0.03853	-5.81123	-2.54762
8762.463	-5.87575	0.10308	-7.00179	-2.52680
8766.469	-6.04463	-0.05701	-7.66456	-2.54005
8770.471	-4.44164	-0.06506	-7.27860	-2.53383
8774.468	-3.97464	-0.38976	-6.73571	-2.47013
8778.471	-3.83230	-0.43646	-6.37702	-2.44627
8782.494	-4.00759	-0.47769	-6.33280	-2.44646
8786.476	-4.59600	-0.61326	-6.64496	-2.44514
8790.465	-4.77062	-0.62269	-6.97680	-2.44798
8794.468	-4.83570	-0.71245	-7.07945	-2.48136
8798.467	-5.12900	-0.74821	-7.03858	-2.51897
8802.471	-4.96226	-0.81934	-7.09666	-2.51883
8806.464	-5.02630	-0.82701	-7.01409	-2.52265
8810.464	-5.01452	-0.79403	-6.92934	-2.51946
8814.468	-5.05686	-0.79715	-6.94235	-2.46838
8818.466	-5.13040	-0.88777	-6.99590	-2.45724
8822.465	-5.18131	-0.87070	-7.00455	-2.45310
8826.468	-5.18840	-0.94422	-7.02502	-2.52209
8830.469	-5.22123	-0.93317	-6.98617	-2.70656
8834.463	-5.28018	-1.04548	-7.00861	-2.73530
8838.471	-5.17041	-1.07815	-6.93437	-2.83699
8842.469	-5.06464	-1.15104	-6.87824	-2.86317
8846.466	-4.91888	-1.26877	-6.81214	-2.87444
8850.488	-4.94718	-1.23348	-6.73121	-2.90636
8854.468	-4.81983	-1.39831	-6.71135	-2.93245
8858.464	-4.82289	-1.37485	-6.68044	-2.94826
8862.468	-4.75312	-1.44725	-6.60230	-2.98004
8866.468	-4.61595	-1.50739	-6.53806	-2.98993
8870.467	-4.68028	-1.47008	-6.48521	-3.01100
8874.464	-4.58957	-1.52413	-6.56138	-2.96059
8878.474	-4.55887	-1.51048	-6.44866	-2.88592
8882.517	-4.56664	-1.51019	-6.46534	-2.83452
8886.469	-4.56856	-1.49246	-6.49533	-2.84571
8890.463	-4.60814	-1.41406	-6.42292	-2.78221
8894.467	-4.61790	-1.43295	-6.44856	-2.80370
8898.459	-4.63992	-1.37155	-6.55354	-2.80415
8902.469	-4.65180	-1.33499	-6.54597	-2.79804
8906.464	-4.70789	-1.12428	-6.56870	-2.80003
8910.460	-4.72098	-1.13017	-6.63803	-2.80693
8914.463	-4.80263	-0.81508	-6.66881	-2.75839
8918.466	-4.86399	-0.74525	-6.68499	-2.75389
8922.467	-4.88897	-0.63026	-6.68805	-2.74319
8926.467	-4.92124	-0.50618	-6.72947	-2.71437
8930.470	-4.99216	-0.40605	-6.65918	-2.67728
8934.465	-4.99839	-0.40592	-6.65522	-2.68823
8938.462	-4.99696	-0.42092	-6.62505	-2.66227
8942.466	-5.07569	-0.28326	-6.58104	-2.63413
8946.464	-5.12464	-0.26564	-6.59214	-2.58958
8950.464	-5.11117	-0.29388	-6.61653	-2.58795
8954.461	-5.09729	-0.28300	-6.64704	-2.55877
8958.467	-5.14439	-0.32003	-6.64755	-2.56177
8962.470	-5.21597	-0.30740	-6.60546	-2.53231
8966.463	-5.20533	-0.42811	-6.62091	-2.53491
8970.467	-5.21705	-0.52023	-6.52569	-2.54737
8974.464	-5.25579	-0.60063	-6.46921	-2.57962
8978.487	-5.25227	-0.67115	-6.50817	-2.60465
8982.470	-5.25264	-0.71108	-6.43802	-2.63495
8986.489	-5.26187	-0.77012	-6.49051	-2.75421
8990.470	-5.24238	-0.80892	-6.44461	-2.81405
8994.464	-5.27114	-0.87627	-6.38945	-2.89126
8998.465	-5.19079	-0.94484	-6.41555	-3.03365
9002.468	-5.14899	-0.96705	-6.33037	-3.12180
9006.469	-5.09894	-1.07911	-6.37672	-3.19467
9010.465	-5.09010	-1.11228	-6.36513	-3.04730
9014.460	-5.13853	-1.16593	-6.35206	-2.84476
9018.465	-5.07385	-1.27955	-6.39222	-2.74427
9022.459	-4.85211	-1.36019	-6.42616	-2.98890
9026.463	-4.76337	-1.42179	-6.46573	-3.02858
9030.469	-4.80201	-1.46618	-6.47463	-3.07156
9034.464	-4.76270	-1.59583	-6.46517	-3.05323
9038.459	-4.73862	-1.71221	-6.49354	-3.04835
9042.460	-4.69199	-1.77883	-6.48306	-3.06233
9046.470	-4.79883	-1.79587	-6.41587	-2.93450
9050.465	-4.85258	-1.84194	-6.43349	-2.74826
9054.481	-4.87076	-1.92979	-6.32657	-2.60227
9058.466	-4.78563	-1.79245	-6.33243	-2.69828
9062.464	-4.71067	-1.72787	-6.31326	-2.66494
9066.463	-4.66502	-1.66181	-6.32338	-2.69747
9070.460	-4.67581	-1.03116	-6.27461	-2.60515
9074.460	-4.77279	-0.97029	-6.28886	-2.55615
9078.466	-4.77072	-0.94408	-6.33441	-2.48964
9082.462	-4.77202	-0.87206	-6.33652	-2.43143
9086.460	-4.76229	-0.87326	-6.40307	-2.42579
9090.495	-4.84736	-0.71398	-6.44133	-2.40436
9094.460	-4.77587	-0.88322	-6.59500	-2.41717
9098.460	-4.85531	-0.75098	-6.59233	-2.46450
9102.463	-4.80172	-0.83189	-6.68374	-2.47702
9106.463	-4.80741	-0.78475	-6.75365	-2.48075
9110.458	-4.88601	-0.80733	-6.84377	-2.48847
9114.458	-4.85352	-0.89617	-6.94839	-2.48378
9118.460	-4.86722	-0.93202	-6.97313	-2.50347
9122.469	-4.86613	-0.95838	-7.02110	-2.52834
9126.463	-4.89875	-0.98167	-7.11354	-2.57366
9130.470	-4.99563	-1.00279	-7.00717	-2.56807
9134.482	-4.91504	-1.29063	-7.00602	-2.55757
9138.469	-4.90062	-1.67838	-6.82205	-2.55430
9142.460	-4.83070	-1.72714	-6.77905	-2.54675
9146.461	-4.82439	-1.72961	-6.75504	-2.47425
9150.463	-4.85322	-1.74754	-6.60372	-2.50470
9154.460	-4.82525	-1.75516	-6.57203	-2.45661
9158.462	-4.87468	-1.76305	-6.37783	-2.42021
9162.458	-4.94265	-1.71681	-6.30024	-2.34939
9166.463	-5.00975	-1.77565	-6.29305	-2.30992
9170.465	-5.03336	-1.78411	-6.22785	-2.24510
9174.460	-4.99972	-1.78703	-6.25002	-2.16728
9178.457	-4.94248	-1.68765	-6.18819	-2.10594
9182.463	-4.93378	-1.58180	-6.22427	-2.06275
9186.457	-5.07010	-1.28676	-6.26561	-1.98939
9190.461	-5.02743	-0.19644	-6.23368	-2.02884
9194.459	-4.92482	1.16782	-6.16020	-1.93688
9198.464	-4.90649	1.88547	-6.19167	-1.79642
9202.459	-4.89759	2.25374	-6.18169	-1.63841
9206.456	-4.86241	2.14826	-6.24305	-1.59088
9210.499	-4.89198	1.90772	-6.25730	-1.61527
9214.474	-4.92775	1.79820	-6.24938	-1.55018
9218.467	-4.82057	1.63974	-6.24784	-1.61673
9222.460	-4.74609	1.56524	-6.29614	-1.55540
9226.459	-4.72125	1.50585	-6.24134	-1.45549
9230.460	-4.56395	1.66982	-6.22429	-1.40520
9234.462	-4.49677	1.69396	-6.22772	-1.25143
9238.459	-4.52012	1.79673	-6.24980	-1.15814
9242.501	-4.54890	1.78332	-6.27513	-1.07335
9246.462	-4.47494	1.75829	-6.30980	-1.11110
9250.459	-4.57502	1.75010	-6.28587	-0.81728
9254.466	-4.50054	1.75671	-6.30441	-0.80753
9258.460	-4.44783	1.84653	-6.32610	-0.69872
9262.462	-4.36242	1.89202	-6.31752	-0.70226
9266.459	-4.29897	1.95316	-6.32897	-0.61937
9270.458	-4.26023	1.98041	-6.36437	-0.53186
9274.466	-4.20738	2.03936	-6.37964	-0.49868
9278.484	-4.09994	2.08251	-6.39043	-0.43837
9282.456	-4.07843	2.14227	-6.38820	-0.47759
9286.459	-4.00929	2.15369	-6.36599	-0.46356
9290.460	-4.01863	2.16547	-6.30369	-0.49735
9294.455	-3.91158	2.19781	-6.32000	-0.49207
9298.460	-3.88367	2.25286	-6.29911	-0.68191
9302.457	-3.87749	2.28397	-6.28538	-0.88287
9306.454	-3.88369	2.31437	-6.23194	-1.05832
9310.455	-3.92196	2.37394	-6.18345	-1.05166
9314.459	-3.90469	2.41769	-6.13665	-1.11910
9318.457	-3.93006	2.42136	-6.08892	-1.26092
9322.455	-3.97022	2.42876	-6.05182	-1.29993
9326.457	-3.99716	2.41262	-6.01805	-1.38576
9330.459	-4.03149	2.39555	-5.99109	-1.39216
9334.456	-4.07471	2.42298	-5.98447	-1.45930
9338.463	-4.09330	2.41813	-5.93259	-1.51319
9342.459	-4.12401	2.38201	-5.91270	-1.52828
9346.455	-4.13833	2.38776	-5.90863	-1.51866
9350.462	-4.14976	2.36563	-5.91759	-1.50389
9354.459	-4.16988	2.35075	-5.88950	-1.43050
9358.455	-4.21000	2.32371	-5.87801	-1.38286
9362.454	-4.24759	2.33075	-5.87248	-1.44811
9366.459	-4.24584	2.30777	-5.90219	-1.31980
9370.460	-4.27410	2.34123	-5.91290	-1.28055
9374.456	-4.28997	2.35746	-5.95717	-1.01706
9378.462	-4.26166	2.32670	-6.01827	-1.24710
9382.460	-4.26946	2.31890	-6.03250	-1.03560
9386.460	-4.28994	2.33871	-6.07393	-1.11948
9390.455	-4.30625	2.33502	-6.06122	-0.95617
9394.457	-4.30882	2.30785	-6.06944	-0.94954
9398.455	-4.27970	2.27798	-6.10809	-0.73690
9402.467	-4.28671	2.27870	-6.12948	-0.66321
9406.457	-4.27067	2.25764	-6.14825	-0.59760
9410.459	-4.26877	2.29154	-6.11795	-0.44488
9414.457	-4.24512	2.26549	-6.17759	-0.70321
9418.455	-4.22407	2.22504	-6.19792	-0.72882
9422.458	-4.22767	2.28236	-6.20960	-0.70203
9426.461	-4.24539	2.28852	-6.25639	-0.76453
9430.456	-4.25292	2.34466	-6.32338	-0.65350
9434.455	-4.21965	1.98735	-6.39523	-0.42002
9438.459	-4.26489	2.12434	-6.44081	-0.08541
9442.455	-4.18126	2.53513	-6.40302	0.89650
9446.456	-4.13712	3.06261	-6.36413	1.69286
9450.451	-4.08624	3.58848	-6.29151	1.53202
9454.458	-4.07303	3.58167	-6.15114	1.46036
9458.453	-4.04977	3.43294	-6.03734	1.49119
9462.463	-4.09569	3.28447	-5.99134	1.44140
9466.460	-4.07935	3.38399	-5.93276	1.08579
9470.455	-4.07816	3.34170	-5.79619	0.91177
9474.454	-4.11579	3.40223	-5.73379	1.13635
9478.453	-4.20309	3.61436	-5.66455	0.84182
9482.459	-4.19973	3.60339	-5.56920	0.70181
9486.457	-4.20202	3.67730	-5.52340	0.91757
9490.455	-4.24798	3.64367	-5.51069	0.94370
9494.452	-4.26798	3.68025	-5.51477	1.11633
9498.458	-4.24870	3.70559	-5.47739	1.02941
9502.477	-4.24297	3.78201	-5.55266	1.21154
9506.456	-4.19030	3.81207	-5.49377	1.15561
9510.455	-4.15448	3.85663	-5.44446	1.20462
9514.452	-4.03769	3.92339	-5.45351	1.33598
9518.327	-3.98114	3.95875	-5.39089	1.37867
9522.324	-3.83991	3.95605	-5.48873	1.32510
9526.333	-3.82894	3.98944	-5.55356	1.16061
9530.750	-3.77288	3.97884	-5.52173	1.13682
9534.332	-3.64783	3.98394	-5.55541	0.62912
9538.329	-3.67546	3.95199	-5.50596	0.63610
9542.331	-3.54472	3.90170	-5.46642	0.51467
9546.333	-3.50296	3.85924	-5.42852	0.43023
9550.334	-3.97437	3.76556	-5.36858	0.60693
9554.326	-3.94772	3.74796	-5.38870	0.57302
9558.330	-4.17527	3.70611	-5.34201	0.54444
9562.328	-4.16761	3.67389	-5.26681	0.48453
9566.327	-4.08463	3.61312	-5.40934	0.48610
9570.326	-4.03633	3.56052	-5.29482	0.50970
9574.330	-3.95115	3.56168	-5.47850	0.54372
9578.329	-3.84688	3.53083	-5.44372	0.62033
9582.326	-3.63851	3.49893	-5.53719	0.55890
9586.330	-3.64639	3.49201	-5.53023	0.61898
9590.329	-3.41797	3.48758	-5.46096	0.63862
9594.331	-3.20570	3.50879	-5.44114	0.60314
9598.328	-3.51960	3.51896	-5.43472	0.60394
9602.326	-3.72462	3.50089	-5.23147	0.58680
9606.331	-3.69091	3.47558	-5.28273	0.61243
9610.331	-3.66548	3.46152	-5.40688	0.59932
9614.325	-3.67400	3.46038	-5.26472	0.70295
9618.325	-3.84397	3.38524	-5.12720	0.71080
9622.330	-3.86746	3.35612	-5.08131	0.67323
9626.329	-3.92077	3.27521	-5.19709	0.71963
9630.328	-3.89703	3.23537	-5.18766	0.75349
9634.338	-3.91207	3.20546	-5.31317	0.79967
9638.329	-3.89426	3.13076	-5.37229	0.79861
9642.326	-3.85867	3.10199	-5.42006	0.81952
9646.325	-3.75267	3.06452	-5.50955	0.80154
9650.326	-3.71456	3.04631	-5.54707	0.74142
9654.330	-3.67578	3.08081	-5.54577	0.70782
9658.328	-3.67123	3.01255	-5.46925	0.68330
9662.324	-3.73722	3.04153	-5.48420	0.61215
9666.326	-3.73230	2.99771	-5.47619	0.58266
9670.332	-3.67002	2.95137	-5.33581	0.53242
9674.332	-3.62212	2.90303	-5.30771	0.58123
9678.331	-3.54030	2.88540	-5.06390	0.57653
9682.324	-1.41239	2.90264	-4.66097	0.72766
9686.330	-0.31652	2.87145	-2.52939	0.72286
9690.328	-0.01477	2.95331	-1.59083	0.83599
9694.324	-0.54513	2.87960	-1.54227	0.77293
9698.324	-1.05441	2.77264	-1.76175	0.90125
9702.325	-1.29479	2.75307	-2.26948	0.86291
9706.324	-1.32282	2.67514	-3.04422	0.89137
9710.332	-1.23394	2.66209	-2.73182	0.95656
9714.370	-0.94232	2.62493	-2.34485	1.00577
9718.327	-0.81776	2.65748	-2.95854	1.08319
9722.323	-0.89912	2.74781	-2.73080	1.16397
9726.327	-0.53272	2.65773	-2.84712	1.20806
9730.326	-0.74382	2.60741	-2.95465	1.13263
9734.346	-0.82947	2.65301	-2.97490	1.09476
9738.330	-0.73970	2.65324	-2.88596	1.12134
9742.324	-0.89721	2.73789	-2.98114	1.09602
9746.323	-0.85290	2.80994	-3.00148	1.14395
9750.327	-0.80808	2.82367	-2.94807	1.13177
9754.325	-0.74029	2.86122	-2.93510	1.12764
9758.328	-0.79245	2.93422	-2.94126	1.12602
9762.322	-0.74814	2.85752	-2.88133	1.10993
9766.328	-0.79692	2.85687	-2.85066	1.08245
9770.324	-0.78967	2.86934	-2.78087	1.03758
9774.324	-0.75359	2.89090	-2.72706	1.07398
9778.329	-0.72635	2.86579	-2.66843	1.13314
9782.324	-0.77072	2.93173	-2.61018	1.15366
9786.325	-0.77687	2.93981	-2.51604	1.20757
9790.322	-0.77538	2.99319	-2.45698	1.20675
9794.327	-0.88523	2.95527	-2.42104	1.24547
9798.323	-0.96492	2.95421	-2.38549	1.29409
9802.356	-0.96829	2.97601	-2.34721	1.33999
9806.326	-0.99750	2.99581	-2.34344	1.37247
9810.321	-1.01290	3.02837	-2.30573	1.39579
9814.328	-1.06351	3.05169	-2.30162	1.45046
9818.325	-1.06473	3.08588	-2.26658	1.46801
9822.354	-1.13367	3.11647	-2.23258	1.47993
9826.333	-1.15528	3.12331	-2.28997	1.46570
9830.329	-1.15277	3.10768	-2.35496	1.38685
9834.326	-1.15297	3.08952	-2.31785	1.46160
9838.322	-1.08334	3.09096	-2.40246	1.28738
9842.330	-1.04009	3.10062	-2.39510	1.17189
9846.324	-1.01754	3.11077	-2.46268	1.15459
9850.320	-0.99087	3.13059	-2.46805	1.04556
9854.326	-0.92170	3.13281	-2.44945	1.09598
9858.324	-0.92450	3.13563	-2.53811	1.01180
9862.322	-0.91324	3.14302	-2.68541	1.00059
9866.320	-0.84121	3.13899	-2.73108	0.88772
9870.338	-0.76149	3.13323	-2.70614	0.84312
9874.329	-0.69238	3.13405	-2.69074	0.83254
9878.323	-0.57114	3.10989	-2.79243	0.81326
9882.329	-0.54012	3.09735	-2.77688	0.84665
9886.326	-0.47567	3.09532	-2.85764	0.85584
9890.326	-0.38221	3.11855	-2.88151	0.86012
9894.321	-0.46907	3.13546	-2.95661	0.87733
9898.320	-0.42316	3.15312	-3.02606	0.91349
9902.324	-0.43462	3.13996	-3.03408	0.90346
9906.319	-0.39770	3.12781	-3.07612	0.95017
9910.326	-0.56515	3.09280	-3.05217	1.04889
9914.322	-0.55468	3.04959	-3.12425	1.05710
9918.322	-0.67943	3.02579	-3.10787	1.11910
9922.321	-0.74615	2.99350	-3.16404	1.20553
9926.330	-0.73513	2.89151	-3.17767	1.30228
9930.323	-0.76985	2.85233	-3.15931	1.29146
9934.320	-0.78868	2.85150	-3.14323	1.35197
9938.414	-0.77893	2.78121	-3.12281	1.37215
9942.333	-0.75387	2.72146	-3.09322	1.38199
9946.320	-0.75067	2.71184	-3.06644	1.41089
9950.318	-0.70553	2.67706	-2.99972	1.41665
9954.325	-0.66838	2.67339	-2.96176	1.40596
9958.322	-0.57203	2.67234	-2.91094	1.41873
9962.327	-0.43475	2.66531	-2.85296	1.40970
9966.329	-0.55074	2.70674	-2.77772	1.40165
9970.321	-0.59191	2.74473	-2.71211	1.38861
9974.318	-0.62292	2.79037	-2.63420	1.39800
9978.317	-0.66069	2.77605	-2.57439	1.38452
9982.322	-0.70126	2.80607	-2.48497	1.36464
9986.321	-0.67355	2.81766	-2.45009	1.36219
9990.320	-0.74610	2.83237	-2.33351	1.33345
9994.319	-0.40105	2.90345	-2.43221	1.37623
9998.324	1.50527	2.92987	0.71513	1.40215
10002.320	4.76335	2.81479	3.02697	1.37689
10006.379	5.70313	2.79707	3.47594	1.33664
10010.333	8.06927	3.09943	6.50513	1.06067
10014.323	9.62577	2.76727	6.73608	0.45707
10018.318	12.02845	2.79541	8.74001	-1.85873
10022.325	12.12231	2.53344	9.86088	-1.53708
10026.317	14.60702	2.46975	11.25182	-2.49356
10030.320	14.80727	2.59267	12.44363	-1.85032
10034.324	17.21918	3.01718	12.93712	-1.93356
10038.322	17.38746	3.56823	14.92802	-1.33263
10042.319	17.21272	4.05553	14.34392	-0.81362
10046.318	17.01160	4.19662	14.00524	-1.39309
10050.327	16.19531	4.02052	14.04598	-1.41535
10054.322	15.84165	3.86770	14.47434	-1.39636
10058.318	16.17725	3.80560	14.32227	-1.52984
10062.317	16.80312	3.96510	14.55160	-1.54321
10066.323	17.08898	4.08540	14.48599	-1.77298
10070.319	17.32746	4.15678	14.64452	-1.76445
10074.343	17.04337	3.84998	14.67876	-1.69014
10078.324	17.06204	3.90233	14.55216	-1.56758
10082.317	16.96884	3.67927	14.40672	-1.65328
10086.323	17.07810	3.67268	14.27935	-1.70569
10090.326	16.98287	3.65831	14.38619	-1.67842
10094.322	16.98226	3.66256	14.48069	-1.72896
10098.317	17.10324	3.80798	14.52600	-1.73587
10102.319	17.11392	3.65258	14.27562	-1.62352
10106.325	17.07850	3.64881	14.32216	-1.55912
10110.319	17.11254	3.57836	14.12999	-1.59466
10114.323	17.06918	3.61170	14.08451	-1.58118
10118.321	16.86253	3.49106	14.13027	-1.54638
10122.322	16.80050	3.40998	14.23846	-1.54995
10126.322	16.92313	3.47796	14.21267	-1.49643
10130.320	16.81446	3.46279	14.23834	-1.42956
10134.322	16.93042	3.50160	14.38295	-1.38178
10138.318	16.91718	3.42802	14.46226	-1.40403
10142.343	16.93653	3.23667	14.21876	-1.49338
10146.326	17.08898	3.10176	14.25671	-1.54270
10150.322	17.03874	3.10994	14.34247	-1.63257
10154.315	17.20070	3.14825	14.37801	-1.56915
10158.319	17.02629	3.10728	14.42507	-1.52608
10162.317	16.89225	2.93308	14.42409	-1.52563
10166.318	16.82031	2.76616	14.39213	-1.40751
10170.316	16.83870	2.84346	14.38505	-1.34816
10174.327	16.87614	2.74124	14.35547	-1.43363
10178.319	16.79825	2.67990	14.26413	-1.45806
10182.315	16.80930	2.63944	14.13766	-1.43484
10186.315	16.81194	2.64261	14.10791	-1.42371
10190.321	16.83493	2.76733	14.13666	-1.31128
10194.319	16.80585	2.72259	14.13379	-1.28035
10198.316	16.87807	2.75028	14.15589	-1.22700
10202.319	16.95663	2.82475	14.12112	-1.10046
10206.317	17.10204	2.96510	14.08647	-0.93300
10210.332	17.24981	3.11829	13.96842	-1.02581
10214.327	17.41632	3.23423	13.95091	-1.12760
10218.323	17.30961	3.35308	13.75844	-1.02869
10222.318	17.28063	3.39863	13.71758	-0.95186
10226.315	17.30158	3.35951	13.82735	-0.94642
10230.319	17.29758	3.41938	13.88036	-0.82769
10234.320	17.15644	3.40043	13.84481	-0.78175
10238.318	16.87748	3.45428	13.70992	-0.76769
10242.313	17.06045	3.50933	13.63046	-0.76867
10246.322	16.97002	3.52215	13.60493	-0.73894
10250.315	16.80321	3.58253	13.61898	-0.81432
10254.315	16.72744	3.59311	13.68516	-0.71633
10258.325	16.69338	3.66551	13.59952	-0.68785
10262.318	16.65230	3.68298	13.60749	-0.73591
10266.315	16.66341	3.68972	13.66215	-0.71749
10270.314	16.60048	3.70271	13.65948	-0.72800
10274.319	16.50610	3.81926	13.55947	-0.71439
10278.324	15.97193	3.85309	11.29753	-0.42418
10282.320	14.02064	4.02065	10.95007	0.83238
10286.316	13.47970	4.45570	10.42715	2.23550
10290.319	13.48768	4.97943	9.97048	2.44846
10294.316	13.61192	4.94726	10.45970	2.22656
10298.320	14.54463	4.67382	11.09210	2.20921
10302.327	14.76902	4.41887	11.50124	1.90096
10306.313	14.29802	4.44106	11.75205	1.73515
10310.314	14.05610	4.64132	11.33244	1.65451
10314.320	14.29249	4.71030	11.20187	1.60896
10318.317	14.17836	4.95695	11.22000	1.72033
10322.317	14.50560	5.10382	11.21610	1.67035
10326.314	14.53874	5.10858	11.21021	1.73446
10330.319	14.52979	5.00524	11.15601	1.67552
10334.317	14.58359	4.98069	10.92318	1.62970
10338.316	14.68496	5.05776	10.91870	1.57802
10342.325	14.69926	4.97855	10.96296	1.49838
10346.356	14.73506	4.99510	10.86636	1.44644
10350.317	14.70820	5.03261	10.88937	1.40440
10354.311	14.70126	5.02667	10.79701	1.38020
10358.317	14.54681	4.99128	10.70299	1.34463
10362.314	14.54253	4.94688	10.72893	1.28625
10366.313	14.33339	4.82832	10.67358	1.23571
10370.311	14.28793	4.75732	10.57675	1.17927
10374.191	14.08461	4.69499	10.49467	1.21314
10378.192	14.12480	4.58328	10.44170	1.17780
10382.220	13.98122	4.39871	10.48807	1.17101
10386.198	13.97882	4.41050	10.38958	1.17758
10390.198	13.92141	4.32808	10.34929	1.18548
10394.193	13.86270	4.29192	10.30072	1.19742
10398.211	13.82890	4.38164	10.30507	1.18709
10402.195	13.79328	4.33605	10.50023	1.32655
10406.191	13.74596	4.29226	10.64029	1.57364
10410.190	13.73737	4.50816	10.61138	1.47599
10414.244	13.70828	4.60144	10.87448	1.57245
10418.195	13.68748	4.70267	10.87484	1.53689
10422.191	13.72641	4.84784	10.94626	1.54742
10426.187	13.74465	4.85767	11.00264	1.62283
10430.194	13.86088	4.93186	11.13855	1.59170
10434.186	13.92192	5.15931	11.22298	1.69640
10438.191	14.17537	5.19464	11.23244	1.71375
10442.189	14.16158	5.25620	11.28209	1.73257
10446.187	14.28599	5.30012	11.27715	1.68327
10450.186	14.24683	5.36925	11.29324	1.59667
10454.191	14.37578	5.41255	11.29534	1.56154
10458.189	14.34478	5.41186	11.22456	1.55094
10462.190	14.35104	5.41350	11.19499	1.48085
10466.192	14.33262	5.47085	11.17976	1.43839
10470.191	14.29662	5.49216	11.18754	1.38205
10474.201	14.13003	5.47945	11.07628	1.26064
10478.185	14.05997	5.44835	11.00647	1.19094
10482.245	13.98344	5.41168	10.97023	1.14646
10486.205	13.86645	5.37110	10.85514	1.01837
10490.189	13.72648	5.34030	10.83139	1.12838
10494.189	13.83814	5.13996	10.85021	1.13971
10498.187	13.87204	5.16028	10.88814	1.27449
10502.188	14.14639	5.16870	10.97736	1.29335
10506.189	14.57018	5.18298	10.99384	1.24629
10510.186	14.80505	5.09949	10.97511	1.22360
10514.196	14.73332	5.07112	11.03188	1.23048
10518.189	14.64526	5.05025	10.97681	1.21008
10522.186	14.55397	5.01537	10.75572	1.17711
10526.187	14.64768	4.89851	10.91954	1.27936
10530.189	14.56074	4.69223	11.16187	1.37759
10534.188	14.41045	4.41812	11.18143	1.33998
10538.185	14.47373	4.27374	11.23490	1.36996
10542.191	14.43196	4.27521	11.31584	1.29864
10546.188	14.29834	4.16050	11.28102	1.24299
10550.630	14.21708	4.04488	11.23862	1.15267
10554.195	14.24515	4.45244	11.21536	1.07494
10558.185	14.09759	4.41522	11.11036	0.93985
10562.190	14.05142	4.63870	11.20646	0.81713
10566.217	14.09946	4.76947	11.19034	0.72051
10570.189	14.01239	4.72482	11.26736	1.07000
10574.183	13.95313	4.73025	11.15255	1.01363
10578.189	13.99625	4.85773	11.29161	0.97795
10582.185	13.99059	4.82114	11.29646	0.86338
10586.187	13.97783	4.88878	11.25144	0.83596
10590.189	14.02910	4.93828	11.21014	1.11356
10594.185	14.03136	4.93572	11.12390	1.10987
10598.188	14.03150	4.93515	11.06167	1.15601
10602.188	14.17607	4.97376	11.02667	1.16560
10606.186	14.59691	5.01156	10.82813	1.19617
10610.185	14.71607	4.98301	10.79540	1.25947
10614.183	14.73827	5.02570	10.80278	1.28271
10618.193	14.83116	5.08010	11.11602	1.22550
10622.184	14.90677	5.06243	10.98635	1.30618
10626.189	14.98813	5.04700	11.22160	1.35836
10630.187	15.04360	4.97125	11.59503	1.33293
10634.184	14.80746	4.24768	11.92484	0.91154
10638.188	15.08370	2.28465	12.39975	-0.54122
10642.189	15.16712	0.97371	12.90638	-1.35125
10646.185	15.29847	1.67749	13.02481	-2.31047
10650.187	15.23757	1.31715	12.88011	-2.64277
10654.188	15.20265	1.18548	12.64773	-2.76570
10658.183	15.27790	1.35382	12.78118	-2.42732
10662.185	15.33280	1.51357	12.76081	-2.26500
10666.189	15.38768	1.53333	12.68257	-2.14197
10670.189	15.45931	1.55144	12.73255	-2.12674
10674.184	15.59289	1.34244	12.95551	-2.22407
10678.188	15.54335	1.14489	13.06205	-2.12363
10682.192	15.52965	1.00347	12.95513	-2.22444
10686.200	15.53974	0.79809	12.76364	-2.24624
10690.185	15.59204	0.67220	12.85855	-2.19731
10694.182	15.67621	0.72118	12.83611	-2.23179
10698.187	15.70432	0.91236	12.86815	-2.16817
10702.183	15.62807	0.70235	12.94346	-2.17272
10706.183	15.63205	0.73478	13.05814	-2.19618
10710.188	15.68518	0.88136	13.11688	-2.08350
10714.186	15.64827	0.77221	13.06586	-2.21929
10718.183	15.66047	0.77604	12.94047	-2.24583
10722.192	15.73573	0.80081	12.87416	-2.04346
10726.186	15.87885	1.08853	12.88166	-1.91098
10730.183	15.99654	1.07808	12.96522	-1.85500
10734.181	15.68617	1.20290	13.01706	-2.21719
10738.187	15.56784	1.25324	13.00785	-2.28518
10742.186	15.75771	1.44129	13.06271	-1.97205
10746.182	16.13381	1.56871	12.77096	-2.16485
10750.182	16.12985	1.55693	12.84487	-2.28072
10754.211	16.08296	1.50114	12.84508	-2.11916
10758.191	16.07734	1.53525	12.82302	-2.09411
10762.188	16.01635	1.63546	12.84491	-1.99564
10766.184	16.10999	1.92156	12.87999	-2.16232
10770.186	16.16539	1.79230	12.92489	-2.11769
10774.188	15.98216	1.63879	12.91371	-2.17409
10778.182	16.05326	1.63048	12.95532	-2.19477
10782.214	15.97386	1.41279	12.97561	-2.17164
10786.182	16.00220	1.15933	12.93783	-2.18692
10790.180	16.01018	0.98529	13.01046	-2.18684
10794.179	15.82954	1.06404	13.03505	-2.18432
10798.184	15.90701	1.03291	13.01871	-2.32808
10802.181	15.85706	0.81585	13.13479	-2.36520
10806.188	15.83135	0.69966	13.06393	-2.30595
10810.189	15.85033	0.59505	13.00483	-2.34861
10814.182	15.68778	0.66327	12.97142	-2.39498
10818.181	15.78972	0.80043	12.98355	-2.40926
10822.209	15.87584	0.62060	12.97361	-2.36075
10826.186	15.81098	0.57592	13.00384	-2.35814
10830.186	15.84174	0.55784	12.84647	-2.39830
10834.183	15.90332	0.69848	12.77122	-2.48201
10838.185	15.86486	1.04534	12.85815	-2.45153
10842.187	15.85212	0.95737	12.80818	-2.42065
10846.187	15.89244	1.34627	12.90487	-2.38190
10850.184	15.90236	1.46810	12.78701	-2.32174
10854.179	16.00266	2.23557	12.89463	-2.26866
10858.185	16.11597	1.98267	12.94992	-2.09518
10862.181	15.99537	1.62835	12.94023	-2.23993
10866.179	16.00635	1.31377	12.98605	-2.28487
10870.179	15.93141	1.41925	12.80022	-2.32847
10874.181	15.80163	1.97861	12.87313	-2.29081
10878.182	15.87272	2.00277	12.91380	-2.20316
10882.181	15.94162	2.09193	12.91656	-2.15213
10886.189	16.21963	2.13797	12.85574	-2.02510
10890.209	16.60757	2.13500	12.86046	-2.05173
10894.190	16.48887	2.08948	13.08023	-1.94074
10898.193	16.14352	1.91165	12.89669	-2.16222
10902.191	15.71791	1.85258	12.80615	-2.23825
10906.180	15.65334	1.86198	12.88188	-2.25494
10910.184	15.94697	1.93616	12.80464	-2.26182
10914.183	16.07187	1.95961	12.77660	-2.16821
10918.179	16.11984	1.92087	12.73897	-2.04211
10922.178	16.20478	1.84375	12.94007	-1.86890
10926.183	16.50877	1.80273	12.90515	-1.92735
10930.187	16.45528	1.81801	12.98327	-1.89606
10934.184	16.39224	1.76315	13.18986	-1.75146
10938.177	16.06641	1.74790	13.07632	-2.28986
10942.182	15.72030	1.75530	13.12726	-2.35725
10946.183	15.62107	1.76734	13.06570	-2.45285
10950.179	15.89503	1.77217	13.03991	-2.32904
10954.174	16.04661	1.80139	12.99915	-2.08966
10958.204	16.09815	1.81729	12.97344	-1.96308
10962.187	16.12083	1.87605	13.08576	-1.77358
10966.179	16.30051	1.92297	13.05538	-1.99783
10970.189	16.29294	1.94887	13.06944	-2.38419
10974.183	16.28103	1.94094	12.96918	-2.38564
10978.181	16.40471	1.96576	12.93599	-2.45457
10982.178	16.53653	2.02921	12.83257	-2.49077
10986.182	16.43412	2.04382	12.81068	-2.41388
10990.181	16.36587	1.96877	12.80197	-2.26657
10994.178	16.31985	1.84050	12.71552	-2.36034
10998.177	16.34657	1.75037	12.78651	-2.33256
11002.216	16.20675	1.91364	12.86025	-2.23835
11006.176	16.24425	1.83220	12.95009	-2.30839
11010.178	16.29765	1.84805	13.07585	-2.28076
11014.187	16.13590	1.81832	13.03023	-2.27182
11018.179	16.17358	1.84904	13.07293	-2.17060
11022.176	16.07356	1.87049	12.99050	-2.25826
11026.176	16.02763	1.74616	12.98141	-2.11801
11030.175	16.03925	1.59430	13.06188	-2.08474
11034.176	16.51208	1.75969	13.13428	-1.99562
11038.182	16.95172	1.85409	13.18195	-1.83387
11042.178	16.26573	1.94695	13.12022	-1.68655
11046.179	16.14886	1.96472	13.09360	-1.58255
11050.176	16.16461	1.98900	13.14044	-1.57123
11054.189	16.21114	1.96446	13.18315	-1.44320
11058.179	16.41932	1.98651	13.24633	-1.32587
11062.178	16.43165	2.03097	13.31013	-1.24175
11066.175	16.40391	2.02774	13.19002	-1.22464
11070.181	16.54136	2.10398	13.26885	-1.16441
11074.178	16.50110	2.22468	13.34665	-1.07940
11078.178	16.52738	2.27331	13.32773	-1.14711
11082.176	16.45898	2.39785	13.27283	-1.14959
11086.181	16.11563	2.38784	13.33377	-1.19136
11090.178	16.17947	2.43827	13.29542	-1.37607
11094.243	16.06087	2.51793	13.36636	-1.26971
11098.195	16.24709	2.58387	13.30804	-1.39408
11102.177	16.19174	2.67492	13.26269	-1.42699
11106.181	16.18759	2.71983	13.22791	-1.45986
11110.178	16.34586	2.71106	13.21246	-1.60267
11114.178	16.40530	2.76329	13.14426	-1.67292
11118.175	16.34071	2.76242	13.07088	-1.67988
11122.180	16.34421	2.80310	13.19564	-1.68471
11126.176	16.43279	2.77260	13.20569	-1.70987
11130.175	16.48671	2.78515	13.20482	-1.70620
11134.180	16.50539	2.80094	13.28221	-1.69674
11138.183	16.60260	2.84714	13.27504	-1.72195
11142.178	16.62298	2.89132	13.30247	-1.73173
11146.175	16.59116	2.88532	13.38888	-1.76478
11150.181	16.59330	2.90369	13.42866	-1.69045
11154.176	16.57623	3.00894	13.45935	-1.71312
11158.176	16.46779	3.04333	13.45552	-1.75053
11162.201	16.54029	3.12292	13.51588	-1.75513
11166.184	16.42946	3.12140	13.53824	-1.72511
11170.178	16.41108	3.12785	13.60327	-1.69375
11174.173	16.35829	3.12366	13.57867	-1.80078
11178.184	16.34138	3.03239	13.52876	-1.82679
11182.177	16.34389	2.94329	13.51368	-1.96853
11186.175	16.29811	2.88907	13.50631	-1.93652
11190.174	16.32828	2.79921	13.44090	-1.99100
11194.179	16.35678	2.81610	13.46613	-2.04543
11198.176	16.42396	2.65755	13.42432	-2.08284
11202.175	16.47753	2.56713	13.46165	-2.15101
11206.181	16.47518	2.52376	13.45627	-2.15253
11210.208	16.55596	2.48550	13.43263	-2.19660
11214.192	16.60319	2.38346	13.44986	-2.21830
11218.174	16.64897	2.29564	13.41603	-2.21509
11222.178	16.70128	2.27988	13.40180	-2.17313
11226.055	16.76783	2.20848	13.44794	-2.17727
11230.199	16.80514	2.20424	13.51135	-2.16791
11234.051	16.82745	2.18427	13.54771	-2.17446
11238.048	16.83761	2.12910	13.55897	-2.10746
11242.052	16.83725	2.12034	13.55311	-2.16618
11246.049	16.83568	2.14204	13.55984	-2.14303
11250.048	16.87471	2.11505	13.56491	-2.13377
11254.052	16.84116	2.04296	13.49758	-2.11389
11258.049	16.83843	2.05698	13.48782	-2.08685
11262.048	16.81597	2.04079	13.50589	-2.09362
11266.051	16.78692	2.04944	13.43336	-2.18211
11270.053	16.73304	2.02982	13.50851	-2.19009
11274.056	16.69029	2.01484	13.61452	-2.15928
11278.050	16.63248	1.96763	13.61349	-2.06407
11282.051	16.56414	1.92255	13.80549	-1.96873
11286.050	16.52706	1.86948	13.78167	-1.97980
11290.048	16.44008	1.81720	13.77225	-1.92535
11294.046	16.37156	1.80026	13.87440	-1.91118
11298.075	16.42211	1.82027	13.69291	-1.70980
11302.058	16.42820	1.93457	13.76109	-1.68377
11306.049	16.68284	1.92757	13.57698	-1.54488
11310.054	16.60935	2.01888	13.53758	-1.40861
11314.047	16.64571	2.11170	13.42453	-1.41029
11318.053	16.74362	2.25221	13.59813	-1.35097
11322.049	16.61081	2.25356	13.48019	-1.29418
11326.048	16.48278	2.21516	13.36504	-1.30981
11330.050	16.43188	2.29889	13.33852	-1.25681
11334.051	16.39290	2.37356	13.35569	-1.28586
11338.043	16.52449	2.54796	13.27555	-1.24947
11342.053	16.68047	2.78147	13.38846	-1.22475
11346.049	16.50500	2.78550	13.54661	-1.23937
11350.053	16.56367	2.82388	13.53805	-1.27155
11354.049	16.60415	2.83553	13.47500	-1.29479
11358.053	16.63063	2.92474	13.59337	-1.29644
11362.051	16.54811	2.80185	13.54044	-1.30928
11366.050	16.51990	2.76382	13.55811	-1.30462
11370.051	16.57808	2.70081	13.46472	-1.32740
11374.051	16.60429	2.76359	13.49833	-1.34212
11378.046	16.67665	2.77972	13.46510	-1.37141
11382.045	16.78035	2.98899	13.51321	-1.48167
11386.050	16.83570	2.89256	13.46092	-1.51532
11390.046	16.85184	2.92652	13.40502	-1.60145
11394.052	16.87312	2.96540	13.33018	-1.64176
11398.045	16.85430	3.05050	13.33224	-1.65612
11402.053	16.70877	2.99369	13.24050	-1.70020
11406.046	16.70766	2.83186	13.11568	-1.73714
11410.052	16.51502	2.78795	13.04083	-1.67907
11414.047	16.87489	2.87233	13.31937	-1.62992
11418.046	16.87598	2.92525	13.32569	-1.76522
11422.108	16.91986	3.03432	13.28423	-1.79570
11426.056	16.88089	2.94628	13.18492	-1.81789
11430.046	16.73975	2.97049	13.23031	-1.74800
11434.051	16.58567	2.82786	13.12326	-1.50055
11438.050	15.95908	2.75766	13.22843	-1.45233
11442.048	16.99136	2.71723	13.20990	-1.40670
11446.045	17.10118	2.72526	13.14835	-1.46338
11450.044	17.11891	2.66114	13.31410	-1.27339
11454.048	16.86194	2.52365	13.40704	-1.35449
11458.047	16.64154	2.32763	13.35001	-1.30525
11462.069	16.30670	2.34139	13.25559	-1.34680
11466.056	16.57812	2.25442	13.25679	-1.29125
11470.047	16.47151	2.14057	13.02028	-1.31069
11474.064	16.35815	2.16151	13.29302	-1.31198
11478.052	16.66565	2.02162	13.02017	-1.37757
11482.048	16.55653	1.87236	12.95669	-1.43421
11486.047	16.40315	1.79821	13.07335	-1.48141
11490.045	16.26991	1.75074	13.13385	-1.39374
11494.043	16.38662	1.72348	13.10914	-1.32804
11498.049	16.39952	1.72301	13.06744	-1.41855
11502.081	16.39324	1.91546	13.19760	-1.44908
11506.050	17.05006	3.04627	13.14708	-1.24906
11510.046	16.53112	4.96498	13.18779	-0.10040
11514.043	16.42946	5.66984	13.02679	1.99465
11518.053	16.41400	5.89939	13.02926	2.09993
11522.053	16.86825	5.68936	13.22599	2.34355
11526.050	16.80682	5.52327	13.31469	2.19043
11530.049	16.50786	5.22109	13.27285	1.92612
11534.043	16.70841	4.77070	13.41068	1.67701
11538.042	16.55470	4.83116	13.48411	1.52160
11542.048	16.59800	5.02854	13.48808	1.64252
11546.050	17.25295	5.37558	13.51025	1.83857
11550.044	17.24035	5.49263	13.34909	1.85113
11554.041	17.27457	5.68780	13.53850	1.85527
11558.052	17.06419	5.65145	13.48336	1.81056
11562.049	16.84709	5.68264	13.50657	1.76698
11566.046	16.69131	5.83430	13.47148	1.76526
11570.067	16.47326	5.86532	13.35259	1.74326
11574.052	16.52752	5.72936	13.37294	1.72104
11578.048	16.55197	5.68750	13.20515	1.68776
11582.042	16.77204	5.73319	13.15186	1.72175
11586.051	16.69807	5.74839	13.19764	1.74592
11590.045	16.57456	5.70408	13.22850	1.57881
11594.046	16.46911	5.72952	13.35947	1.73901
11598.043	16.47174	5.72281	13.42594	1.72005
11602.050	16.36114	5.61144	13.45707	1.76071
11606.044	16.53603	5.49838	13.47953	1.77239
11610.046	16.59061	5.46699	13.62936	1.90736
11614.047	16.65114	5.32081	13.72015	2.01547
11618.045	16.63106	5.16596	13.61086	2.02637
11622.042	16.62730	5.01370	13.73849	2.03214
11626.042	16.52097	5.08453	13.72788	2.07269
11630.046	16.52106	4.93492	13.75959	2.03933
11634.045	16.51235	4.94486	13.78834	2.12033
11638.065	16.47034	4.93527	13.80861	2.08821
11642.052	16.39121	4.92058	13.79440	2.06337
11646.116	16.41491	4.87718	13.77443	2.09392
11650.049	16.31224	4.88094	13.76043	2.10152
11654.041	16.27334	4.89133	13.74704	2.10699
11658.045	16.20620	4.92064	13.70743	2.06484
11662.043	16.12438	4.99915	13.72882	2.07364
11666.041	16.07091	5.06235	13.72444	2.08959
11670.040	15.99546	5.10149	13.69528	2.03365
11674.044	16.00216	5.15229	13.73477	2.05127
11678.042	16.04299	5.22029	13.64729	2.05039
11682.047	16.11551	5.30304	13.61443	2.04329
11686.045	16.24340	5.34514	13.60681	2.06422
11690.045	16.22075	5.37079	13.60292	2.02504
11694.043	16.23544	5.42835	13.45202	1.89771
11698.040	16.29998	5.43523	13.37171	1.90370
11702.047	16.37170	5.43913	13.46712	1.75037
11706.047	16.44624	5.43319	13.29528	1.70760
11710.047	16.44206	5.44401	13.28018	1.65027
11714.041	16.47142	5.41631	13.17532	1.55814
11718.045	16.50441	5.39558	13.22420	1.47847
11722.043	16.56218	5.34281	13.28437	1.73220
11726.044	16.67535	5.33987	13.32174	1.87110
11730.039	16.93650	5.33865	13.40103	1.70666
11734.045	16.91645	5.32785	13.37810	1.72936
11738.041	16.99526	5.28963	13.48639	2.02472
11742.042	17.19646	5.28363	13.45402	1.72693
11746.040	17.18849	5.27550	13.56514	1.77282
11750.045	17.22339	5.29034	13.60517	1.51841
11754.043	17.28502	5.26087	13.66416	1.83178
11758.042	17.29156	5.29087	13.73772	1.84401
11762.039	17.32226	5.31142	13.76268	1.97868
11766.048	17.34196	5.33220	13.83257	1.84548
11770.043	17.30192	5.33475	13.85643	1.83960
11774.044	17.26563	5.36341	13.84177	1.86510
11778.044	17.25961	5.41269	13.83009	1.87495
11782.039	17.08179	5.42240	13.84020	1.85974
11786.044	16.96568	5.44942	13.80355	1.91200
11790.045	16.70682	5.48831	13.67888	1.91466
11794.043	16.61249	5.53328	13.62034	1.92153
11798.039	16.36190	5.54938	13.57490	1.85028
11802.042	16.17892	5.55792	13.37183	1.85359
11806.041	16.03352	5.57416	13.26502	1.81113
11810.043	15.92393	5.56154	13.21067	1.83358
11814.044	16.02538	5.57627	13.08639	1.79210
11818.043	16.03889	5.53760	12.89015	1.82299
11822.037	16.39612	5.51395	12.99696	1.93615
11826.039	16.61881	5.51880	13.06986	1.84994
11830.043	16.88223	5.50130	13.19872	1.92400
11834.042	17.14837	5.50050	13.59220	1.86867
11838.049	17.15743	5.49439	13.57476	1.98197
11842.052	17.08694	5.49701	13.49993	1.93162
11846.045	17.24693	5.51183	13.61537	2.01965
11850.043	17.29509	5.54200	13.62835	2.02511
11854.043	17.23786	5.58572	13.48432	2.05213
11858.064	17.18156	5.62863	13.62324	2.09587
11862.041	17.15052	5.64889	13.56364	2.03324
11866.040	17.04670	5.68924	13.40208	2.02029
11870.040	16.83643	5.71664	13.29546	2.02778
11874.036	16.71258	5.75076	13.08503	2.03066
11878.042	16.53539	5.79652	12.97262	2.02827
11882.040	16.56485	5.81714	13.29885	1.96560
11886.039	16.49145	5.83379	13.18760	1.88769
11890.042	16.54510	5.82907	13.13249	1.82897
11894.047	16.50731	5.82169	12.99361	1.84891
11898.037	16.35468	5.80287	13.05489	1.87157
11902.040	16.36871	5.78854	12.92503	1.85145
11906.039	16.26783	5.81879	12.89831	1.89431
11910.065	16.19295	5.78230	13.12696	1.97685
11914.044	16.12177	5.77222	13.27191	1.99300
11918.038	16.11432	5.74956	13.39440	2.01435
11922.037	16.07705	5.71317	13.37289	2.03717
11926.041	16.08255	5.65800	13.53699	2.02989
11930.040	16.06293	5.59340	13.45566	2.16231
11934.045	15.99388	5.41291	13.57673	2.16662
11938.037	15.99766	5.41546	13.60076	2.21837
11942.041	15.98682	5.07320	13.71388	2.23989
11946.040	15.95222	5.03635	13.71397	2.24645
11950.036	15.99177	5.15395	13.69715	2.21768
11954.036	15.95906	5.16887	12.40089	2.12376
11958.041	14.07650	5.19995	10.76271	2.02757
11962.044	10.46138	4.58520	9.53349	1.25066
11966.038	9.65874	1.69506	7.51559	0.74777
11970.043	8.61681	1.92335	7.14240	0.01354
11974.044	8.09608	1.72016	6.96670	-0.73727
11978.041	6.88247	0.68846	6.61087	-0.61396
11982.038	6.91390	-0.59039	5.03982	-0.98574
11986.036	5.83950	-0.23368	4.48318	-1.37677
11990.037	4.93277	-0.23034	4.15364	-2.10920
11994.042	4.08453	-0.59427	3.06132	-2.49783
11998.036	3.57810	-1.84468	1.09715	-2.86151
12002.036	2.85272	-3.03767	1.09321	-3.12630
12006.040	2.38868	-3.78256	0.64766	-3.46244
12010.038	2.06205	-4.26888	-0.39380	-3.68069
12014.037	1.45296	-4.10850	-0.46964	-3.78049
12018.039	1.08696	-4.05179	-0.85133	-4.10816
12022.040	1.02025	-3.56515	-0.85280	-4.01913
12026.036	0.98172	-4.05815	-0.88227	-4.20615
12030.034	0.81022	-4.19397	-1.10961	-4.38902
12034.040	0.80513	-4.40490	-1.20343	-4.60085
12038.040	0.70340	-4.77951	-1.26517	-4.87689
12042.036	0.75878	-4.85453	-1.09172	-4.94970
12046.060	0.71635	-4.91706	-1.29281	-5.26150
12050.041	0.58811	-5.17148	-1.36350	-5.30983
12054.040	0.61635	-5.45909	-1.51963	-5.43172
12058.040	0.59042	-5.63777	-1.52178	-5.48685
12062.044	0.55099	-5.47813	-1.61178	-5.65610
12066.033	0.57568	-5.59799	-1.64241	-5.57537
12070.039	0.52892	-5.56476	-1.64060	-5.60274
12074.036	0.62709	-5.35857	-1.73197	-5.69321
12078.038	0.78099	-5.39908	-1.72255	-5.69189
12081.942	0.76791	-5.28590	-1.76931	-5.71174
12085.910	0.70516	-5.29883	-1.82740	-5.78776
12089.912	0.75905	-5.98008	-1.75210	-5.88887
12093.908	0.73717	-6.25347	-1.64347	-5.99098
12097.913	0.73945	-6.33923	-1.70799	-6.08837
12101.908	0.81873	-6.49548	-1.62797	-6.04967
12105.914	0.87900	-6.71937	-1.53304	-6.12402
12109.916	0.85414	-6.84317	-1.50425	-6.07286
12113.911	0.72518	-6.83155	-1.52198	-6.12545
12117.914	0.66680	-6.56730	-1.51467	-6.14936
12121.963	0.81258	-5.92841	-1.42635	-6.18052
12125.909	0.82543	-6.13502	-1.44259	-6.18705
12129.913	0.74034	-6.37698	-1.44760	-6.21061
12133.910	0.64019	-6.45325	-1.48545	-6.22381
12137.908	0.44078	-6.37835	-1.52236	-6.23011
12141.907	0.09133	-6.27062	-1.43912	-6.15932
12145.917	0.40395	-6.23217	-1.46142	-6.16137
12149.916	0.56568	-6.19676	-1.42871	-6.17108
12153.907	0.62970	-6.20803	-1.48627	-6.22641
12157.911	0.62151	-6.35554	-1.48049	-6.39519
12161.910	0.46616	-6.97062	-1.41849	-6.36951
12165.907	0.06056	-7.01543	-1.44510	-6.40064
12169.913	-0.00705	-7.18163	-1.45562	-6.34075
12173.913	0.21378	-7.57632	-1.53964	-6.29494
12177.911	0.16059	-7.58125	-1.52057	-6.32309
12181.913	0.32161	-7.36015	-1.55889	-6.27235
12185.909	0.31657	-7.59557	-1.58378	-6.28290
12189.916	0.08892	-7.62726	-1.56057	-6.31598
12193.908	0.13761	-7.73249	-1.65024	-6.29205
12197.908	0.23502	-7.77677	-1.71565	-6.32585
12201.912	-0.06559	-7.80632	-1.69180	-6.35912
12205.909	0.13764	-7.79245	-1.69567	-6.26621
12209.906	0.12679	-7.92940	-1.67534	-6.20609
12213.944	0.10483	-7.91383	-1.67911	-6.19658
12217.921	0.09282	-7.75199	-1.70105	-6.21570
12221.911	0.22567	-7.78949	-1.75471	-6.24763
12225.906	0.15782	-7.35041	-1.83382	-6.25070
12229.915	0.06547	-7.25959	-1.83581	-6.23349
12233.911	0.27962	-7.11879	-1.55407	-6.23962
12237.908	0.38020	-6.54672	-1.68444	-6.29562
12241.907	0.34665	-6.17310	-1.57840	-6.33791
12245.909	0.14101	-6.29351	-1.82056	-6.43036
12249.912	0.16712	-6.25319	-1.54470	-6.42520
12253.911	0.11424	-6.68735	-1.54671	-6.37177
12257.909	0.42286	-6.69282	-1.67477	-6.43836
12261.907	0.59724	-6.49067	-1.87265	-6.40717
12265.913	0.59625	-6.52753	-1.90715	-6.41563
12269.914	0.54687	-6.62166	-1.50522	-6.53298
12273.911	0.63297	-7.22233	-1.37382	-6.63906
12277.913	0.88354	-9.15505	-0.34020	-8.27339
12281.933	0.94911	-11.15272	-0.00536	-10.23394
12285.907	0.56630	-13.63825	0.40033	-10.55107
12289.904	0.75392	-14.48362	-0.47855	-11.40192
12293.909	0.31389	-14.82996	-0.15494	-11.60940
12297.908	-19.99372	-12.28408	-0.28617	-12.28661
12301.908	-19.99372	-12.20379	0.21862	-13.19142
12305.911	-19.99372	-12.16760	0.16226	-12.73881
12309.907	-19.99372	-12.14689	0.30054	-13.06446
12313.915	-19.99372	-12.13339	0.47808	-12.89218
12317.937	-19.99372	-12.12384	0.39472	-12.45767
12321.911	-19.99372	-12.11672	0.35744	-12.61624
12325.910	-19.99372	-12.12259	0.47952	-12.95110
12329.908	-19.99372	-12.08298	0.52959	-13.04023
12333.914	-19.99372	-12.07856	0.24917	-12.97039
12337.910	NaN	NaN	0.52930	-13.07105
12341.907	NaN	NaN	0.37243	-13.15499
12345.905	NaN	NaN	0.17092	-13.13416
12349.909	NaN	NaN	0.10232	-13.23514
12353.915	NaN	NaN	0.01268	-13.29848
12357.909	NaN	NaN	0.24711	-13.01279
12361.903	NaN	NaN	0.17194	-12.84592
12365.910	NaN	NaN	0.36007	-12.98744
12369.908	NaN	NaN	-0.18591	-13.05893
12373.907	NaN	NaN	-0.05259	-13.28426
12377.905	NaN	NaN	-0.06239	-13.33344
12381.909	NaN	NaN	0.14399	-13.38553
12386.401	NaN	NaN	0.13804	-13.45964
12389.913	NaN	NaN	-0.07078	-13.56085
12393.914	NaN	NaN	0.23564	-13.49373
12397.910	NaN	NaN	0.05636	-13.23150
12401.909	NaN	NaN	0.11635	-12.82955
12405.909	NaN	NaN	0.35439	-12.66666
12409.908	NaN	NaN	0.33288	-13.27268
12413.902	NaN	NaN	0.66350	-13.25751
12417.908	NaN	NaN	0.43150	-13.20277
12421.904	NaN	NaN	0.62431	-13.08288
12425.903	NaN	NaN	0.39651	-12.89853
12429.906	NaN	NaN	0.27272	-12.88400
12433.903	NaN	NaN	0.33226	-12.86615
12437.906	NaN	NaN	0.12315	-12.91325
12441.928	NaN	NaN	0.06440	-12.97824
12445.912	NaN	NaN	0.04844	-13.02090
12449.903	NaN	NaN	0.32049	-13.12117
12453.943	NaN	NaN	0.43882	-13.22499
12457.907	NaN	NaN	0.03976	-13.20466
12461.908	NaN	NaN	0.07036	-13.12466
12465.910	NaN	NaN	-0.21733	-13.52655
12469.905	NaN	NaN	-0.47177	-13.71361
12473.905	NaN	NaN	-0.47043	-13.71741
12477.907	NaN	NaN	-0.46311	-13.79441
12481.934	NaN	NaN	-0.48731	-13.79010
12485.911	NaN	NaN	-0.56759	-13.81749
12489.903	NaN	NaN	-0.60580	-13.83605
12493.903	NaN	NaN	-0.85734	-13.87594
12497.913	NaN	NaN	-0.81779	-13.83766
12501.907	NaN	NaN	-0.74794	-13.90758
12505.934	NaN	NaN	-0.90996	-13.91122
12509.905	NaN	NaN	-1.03077	-13.81175
12513.903	NaN	NaN	-0.94289	-13.76783
12517.902	NaN	NaN	-0.88036	-13.71374
12521.933	NaN	NaN	-0.92043	-13.68642
12525.912	NaN	NaN	-0.93527	-13.70803
12529.907	NaN	NaN	-0.85935	-13.59256
12533.903	NaN	NaN	-0.69007	-13.60332
12537.901	NaN	NaN	-0.66295	-13.62088
12541.900	NaN	NaN	-0.59736	-13.60086
12545.906	NaN	NaN	-0.63414	-13.58514
12549.903	NaN	NaN	-0.15958	-13.49281
12553.902	NaN	NaN	-0.56009	-13.50074
12557.899	NaN	NaN	-0.28069	-13.51512
12561.909	NaN	NaN	-0.33206	-13.45133
12565.903	NaN	NaN	-0.29195	-13.36901
12569.901	NaN	NaN	-0.31516	-13.38507
12573.900	NaN	NaN	-0.41847	-13.43963
12577.907	NaN	NaN	-0.54180	-13.38081
12581.902	NaN	NaN	-0.44182	-13.37646
12585.922	NaN	NaN	-0.31307	-13.39008
12589.915	NaN	NaN	-0.28309	-13.40472
12593.907	NaN	NaN	-0.21854	-13.50580
12597.902	NaN	NaN	-0.30168	-13.49994
12601.905	NaN	NaN	-0.54833	-13.46503
12605.907	NaN	NaN	-0.56850	-13.54434
12609.902	NaN	NaN	-0.40613	-13.61392
12613.900	NaN	NaN	-0.57654	-13.61370
12617.906	NaN	NaN	-0.44532	-13.67149
12621.903	NaN	NaN	-0.53495	-13.61079
12625.903	NaN	NaN	-0.55925	-13.65422
12629.899	NaN	NaN	-0.63657	-13.66199
12633.906	NaN	NaN	-0.77064	-13.55221
12637.903	NaN	NaN	-0.81717	-13.50770
12641.903	NaN	NaN	-0.81625	-13.47991
12645.905	NaN	NaN	-0.87796	-13.48292
12649.904	NaN	NaN	-0.88252	-13.43294
12653.899	NaN	NaN	-0.85888	-13.38711
12657.904	NaN	NaN	-0.81903	-13.37151
12661.902	NaN	NaN	-0.98494	-13.38886
12665.898	NaN	NaN	-0.95031	-13.40273
12669.904	NaN	NaN	-0.97492	-13.39313
12673.901	NaN	NaN	-0.92190	-13.42730
12677.899	NaN	NaN	-1.03560	-13.44050
12681.899	NaN	NaN	-1.03756	-13.41139
12685.908	NaN	NaN	-0.89503	-13.07938
12689.905	0.41425	-12.87050	-0.78732	-10.85428
12693.899	1.61386	-8.80372	-0.75444	-9.20191
12697.899	2.08572	-8.79084	-0.54342	-7.17050
12701.902	3.67452	-5.28483	-0.44840	-5.33252
12705.901	3.35944	-2.69881	-0.04043	-4.05597
12709.910	3.49908	-2.63169	0.03579	-3.36743
12713.901	3.40163	-1.62278	-0.17459	-3.32707
12717.956	2.54474	0.36358	-0.19129	-2.26919
12721.904	2.98158	0.62619	-0.12741	-0.99791
12725.929	3.38489	1.03300	-0.02973	-0.35203
12729.916	3.41963	1.00259	-0.04797	-0.58309
12733.904	3.39441	0.87160	0.03169	-1.36031
12737.896	3.25461	0.88169	0.09796	-1.99048
12741.897	3.28563	0.93065	0.25391	-1.73271
12745.901	3.23056	1.00454	0.26912	-1.08718
12749.900	3.21688	1.10768	0.17243	-0.68761
12753.897	3.16760	1.25658	0.21112	-0.79686
12757.896	3.18346	1.18886	0.10624	-0.56090
12761.902	3.22762	1.23687	0.15777	-0.64287
12765.901	3.26000	1.29027	0.14541	-0.59034
12769.903	3.26102	1.23884	0.29148	-0.63265
12773.925	3.19845	1.24578	0.28359	-0.64917
12777.913	3.17923	1.29935	0.32047	-0.58370
12781.897	3.20469	1.27809	0.31312	-0.68507
12785.897	3.22453	1.25999	0.30486	-0.82169
12789.901	3.27353	1.24353	0.24621	-0.91272
12793.919	3.33092	1.18854	0.24222	-1.01269
12797.904	3.42690	1.14007	0.22703	-1.06133
12801.897	3.50044	1.10500	0.28289	-1.10713
12805.897	3.64484	1.10151	0.31536	-1.03817
12809.901	3.56279	1.03362	0.31434	-1.12536
12813.905	3.61387	1.01420	0.27875	-1.14764
12817.898	3.56250	0.95969	0.30558	-1.14799
12821.898	3.63208	0.94405	0.29692	-1.16927
12825.901	3.66006	0.95331	0.27143	-1.11552
12829.900	3.64353	0.89626	0.24036	-1.07327
12833.899	3.49784	0.88152	0.26336	-1.03800
12837.904	3.30502	0.84973	0.07249	-0.97382
12841.899	2.98836	0.88487	0.01531	-0.88655
12845.897	2.72261	0.90096	-0.10277	-0.90878
12849.896	2.72788	0.92249	0.00402	-0.93735
12853.906	2.69044	1.02610	0.00025	-0.93631
12857.898	2.71768	1.00106	0.05281	-0.95116
12861.926	2.68031	1.07010	-0.04030	-1.00711
12865.897	2.64775	1.12407	-0.01948	-1.01950
12869.899	2.60456	1.27711	0.06326	-1.05088
12873.898	2.55572	1.36069	0.13200	-1.08923
12877.899	2.58967	1.40363	0.21941	-1.13369
12881.896	2.60528	1.50284	0.35891	-1.17761
12885.899	2.65166	1.53017	0.48900	-1.18234
12889.898	2.78070	1.54516	0.57406	-1.20447
12893.901	2.85083	1.58075	0.63163	-1.20265
12897.900	2.94579	1.65590	0.58677	-1.23154
12901.898	3.02012	1.61441	0.53423	-1.21909
12905.897	3.15006	1.63923	0.41931	-1.19114
12909.935	3.01947	1.62892	0.01586	-1.16849
12913.898	2.86076	1.48997	-0.08776	-1.15061
12917.899	2.91225	1.43326	0.03038	-1.12833
12921.896	2.98463	1.28091	0.00342	-1.08352
12925.892	3.10940	1.26739	0.01216	-1.04452
12929.918	3.19355	1.32619	0.10106	-1.09124
12933.902	3.21102	1.25385	0.10607	-1.00236
12937.773	3.30599	1.22497	0.07959	-0.97859
12941.773	2.91713	1.12322	0.11074	-0.93072
12945.775	2.85363	1.11673	0.20529	-0.91541
12949.771	2.95082	1.01341	0.22964	-0.94259
12953.768	2.92077	0.77717	0.32349	-0.91885
12957.769	2.90834	0.29448	0.44572	-0.87576
12961.780	2.96391	0.00496	0.54428	-0.93858
12965.771	2.92047	0.13257	0.63890	-1.14348
12969.769	2.96094	-0.13497	0.59585	-1.15162
12973.774	2.98678	-0.22053	0.65729	-1.26021
12977.771	2.84524	-0.44561	0.66791	-1.27352
12981.776	2.81422	-0.23878	0.66248	-1.40904
12985.773	2.85331	-0.43913	0.61893	-1.44114
12989.773	2.89822	-0.38134	0.61511	-1.48650
12993.771	2.88383	-0.40432	0.60702	-1.50168
12997.792	2.89426	-0.38047	0.60315	-1.49922
13001.777	2.87997	-0.36164	0.61024	-1.55625
13005.770	2.84616	-0.33512	0.54540	-1.57045
13009.769	2.85977	-0.29429	0.51121	-1.52336
13013.767	2.83026	-0.27551	0.46882	-1.50814
13017.774	2.80669	-0.24335	0.46160	-1.46355
13021.769	2.78369	-0.20315	0.48071	-1.44127
13025.774	2.77443	-0.22204	0.49061	-1.47395
13029.775	2.76086	-0.18347	0.52843	-1.51680
13033.774	2.95906	-0.14761	0.53959	-1.53897
13037.770	2.97468	0.14500	0.71030	-1.33917
13041.768	4.67350	3.11160	1.74352	0.99065
13045.773	5.43546	3.65430	3.00982	2.75424
13049.771	7.75022	5.90909	3.54573	4.17898
13053.768	7.39918	7.20029	3.94732	6.24783
13057.767	8.11868	7.46735	5.82248	6.88101
13061.774	8.50100	7.78511	6.31524	6.70910
13065.802	9.33120	8.89714	7.41382	8.09132
13069.776	9.78030	10.21658	7.62223	8.93225
13073.767	9.34918	10.51059	7.49324	9.36805
13077.773	9.23836	10.62327	7.28852	10.61457
13081.769	9.52821	10.41122	7.23775	10.26739
13085.765	9.20173	10.11784	7.27792	9.66297
13089.774	9.25536	9.92745	7.51622	9.48504
13093.770	9.29800	9.73452	7.71216	9.56725
13097.770	9.38607	9.83784	7.71126	9.86946
13101.772	9.50373	9.84280	7.71196	9.57099
13105.769	9.46809	9.83657	7.75293	9.71861
13109.774	9.47256	9.89463	7.75451	9.70289
13113.767	9.39305	9.87117	7.80489	9.88413
13117.773	9.43494	9.79630	7.82918	9.90005
13121.768	9.41463	9.76020	7.89542	9.88777
13125.767	9.34522	9.74654	7.98508	9.86562
13129.771	9.33321	9.73851	8.00805	9.87296
13133.855	9.34527	9.76109	8.05735	10.07724
13137.776	9.34657	9.77934	8.01937	10.00953
13141.766	9.28867	9.79060	8.05382	10.03377
13145.771	9.25661	9.80043	7.96811	10.12976
13149.775	9.21967	9.80630	7.98272	10.15732
13153.768	9.17367	9.80488	7.83607	10.11029
13157.771	9.16291	9.78971	7.62843	10.16931
13161.769	9.16487	9.79888	7.51200	10.20413
13165.768	9.13927	9.80453	7.45782	10.20439
13169.764	9.14387	9.81091	7.46099	10.27275
13173.769	9.21873	9.87171	7.57278	10.24719
13177.767	9.23855	10.06438	7.57769	10.13242
13181.768	9.17488	10.27338	7.58690	9.85179
13185.765	9.17989	10.46374	7.59051	9.88496
13189.774	9.19191	10.49622	7.57427	9.94270
13193.771	9.20637	10.60677	7.54862	10.14259
13197.768	9.21766	10.64445	7.59661	10.12783
13201.842	9.21072	10.68618	7.66185	10.15870
13205.774	9.21532	10.73222	7.72400	10.30164
13209.786	9.23962	10.76606	7.81885	10.39271
13213.778	9.31871	10.80872	7.90190	10.38600
13217.766	9.30418	10.83748	8.02343	10.49253
13221.771	9.28702	10.83040	8.00134	11.01960
13225.767	9.34420	10.81358	8.06716	10.72993
13229.767	9.42209	10.78980	8.06334	10.47166
13233.769	9.44849	10.76040	8.14412	10.62357
13237.773	9.61416	10.73236	8.15975	10.37499
13241.767	9.57003	10.69639	8.20243	10.48915
13245.764	9.59534	10.66838	8.16262	10.26887
13249.769	9.52051	10.60281	7.72215	10.33534
13253.769	9.45863	10.50040	7.74861	10.39858
13257.765	9.50214	10.49893	7.70948	10.43928
13261.762	9.53967	10.47051	7.63330	10.28911
13265.769	9.58444	10.46124	7.50159	10.26060
13269.794	9.58914	10.45257	7.55581	10.25946
13273.779	9.65413	10.39855	7.46324	10.30394
13277.795	9.69318	10.39248	7.55383	10.28660
13281.775	9.64806	10.29347	7.45972	10.35453
13285.768	9.70128	10.15113	7.42053	10.35317
13289.768	9.68988	10.11465	7.38671	10.40671
13293.764	9.60244	10.19300	7.34851	10.39412
13297.763	9.28502	10.15340	7.36967	10.16375
13301.767	6.49124	8.40079	6.72528	8.00137
13305.766	5.08387	6.59929	4.48130	4.92749
13309.762	3.74464	4.28835	4.24100	3.58192
13313.769	4.21126	1.94742	3.24113	0.45204
13317.772	3.94512	2.20886	2.50477	-0.14801
13321.767	3.52334	0.86684	2.16233	-0.81789
13325.763	2.92265	-0.49414	1.66681	-1.69859
13329.795	2.69983	-1.35185	0.84456	-2.23671
13333.765	2.54073	-1.35823	0.72841	-2.21658
13337.781	2.66337	-1.26223	0.91356	-1.78694
13341.791	2.62363	-1.01886	0.97539	-1.35785
