time (ms)	lx (deg)	ly (deg)	rx (deg)	ry (deg)
0.000	8.95557	-3.06848	5.60477	0.53572
3.999	8.89993	-3.09737	5.62709	0.51038
7.989	8.91350	-3.07924	5.63527	0.44091
11.991	8.88654	-3.13469	5.54039	0.43670
15.987	8.42287	-3.19124	5.09155	0.43187
19.995	7.46153	-3.12516	4.52858	0.36389
23.990	5.38887	-3.09238	1.74330	0.40405
27.990	4.24172	-2.79527	1.20130	0.38679
31.991	4.28436	-2.54842	1.02610	0.27585
35.996	5.02637	-2.42253	1.48979	0.05351
39.993	6.74051	-2.82761	2.84774	0.18859
43.986	6.93058	-3.08117	3.56195	0.05548
47.999	6.58570	-2.49639	3.33206	0.10612
51.987	5.76949	-2.72682	2.96794	0.11802
55.989	5.48061	-2.50278	2.79223	0.10538
60.017	5.55674	-2.35510	2.51814	0.08155
63.984	5.58584	-2.19955	2.28913	0.05385
68.018	5.43145	-2.01546	2.38809	0.03722
71.999	5.49242	-2.25144	2.58903	-0.01830
75.994	5.42606	-1.89373	2.66050	0.08410
79.984	5.36880	-2.17231	2.65198	0.08504
83.992	5.35281	-1.97131	2.66689	0.09686
87.986	5.21666	-1.89776	2.60404	0.12275
91.990	5.20703	-2.10294	2.56919	0.10076
95.984	5.16425	-2.04285	2.57273	0.11131
99.985	5.16071	-2.00195	2.60622	0.10332
103.988	5.09584	-1.83040	2.63289	0.09587
107.991	5.12149	-2.02692	2.67397	0.07603
111.985	5.14126	-2.08759	2.72523	0.06565
115.988	5.10418	-1.90356	2.75222	0.06625
119.987	5.12614	-1.87840	2.78490	0.07108
123.991	5.13570	-2.02544	2.79518	0.07173
127.990	5.14515	-2.08965	2.81063	0.01583
131.984	5.15098	-2.11968	2.79218	0.00911
136.587	5.15285	-2.12373	2.80030	0.00181
139.997	5.22264	-1.78059	2.81236	-0.01621
143.989	5.23465	-1.78649	2.78929	-0.11221
147.987	5.33003	-2.02936	2.81201	-0.06922
151.990	5.38528	-2.04123	2.81038	-0.07255
155.991	5.44515	-2.00913	2.78528	-0.10112
159.988	5.51423	-1.23323	2.76747	-0.09628
163.982	5.66595	-1.89889	2.73246	-0.12284
167.989	5.75374	-1.71533	2.72273	-0.16389
171.989	5.86074	-1.84480	2.71783	-0.22426
175.989	6.21791	-1.66513	2.75044	-0.26729
179.984	6.05820	-1.77181	2.73489	-0.29462
183.983	6.01972	-1.57589	2.73848	-0.29963
187.989	6.05754	-1.78485	2.77597	-0.27471
191.990	6.13635	-1.79680	2.75836	-0.33160
195.989	6.13255	-1.57744	2.75876	-0.35599
199.990	6.20251	-1.73732	2.75482	-0.39675
204.015	6.21747	-1.68112	2.76874	-0.37014
207.990	6.20955	-1.68214	2.77089	-0.42352
211.984	6.24244	-1.73702	2.79691	-0.42394
215.983	6.14273	-1.89109	2.81253	-0.36263
219.903	6.06959	-1.90458	2.80184	-0.32349
223.876	6.01895	-1.96252	2.81298	-0.28495
227.864	5.88368	-1.81250	2.82105	-0.28718
231.860	5.85274	-1.88513	2.80496	-0.21516
235.858	5.75006	-1.99643	2.82026	-0.15202
239.861	5.73207	-2.75904	2.84675	-0.06329
243.885	5.73758	-3.06018	2.87381	-0.05621
247.863	5.83685	-2.91212	2.85274	-0.02167
251.863	5.77750	-2.95742	2.84353	0.05361
255.859	5.76893	-3.13500	2.85452	0.14213
259.885	5.83689	-3.05986	2.83950	0.18661
263.858	5.89372	-3.15914	2.82736	0.29988
267.860	5.93809	-3.20883	2.83608	0.24240
271.865	5.99522	-3.16992	2.84106	0.39009
275.864	6.05059	-3.23953	2.84299	0.39384
279.859	6.08885	-3.23179	2.83600	0.38935
283.864	6.09611	-3.20231	2.82615	0.42586
287.862	6.10821	-3.16753	2.81145	0.46175
291.864	6.10610	-3.07181	2.78627	0.51135
295.860	6.08941	-3.11887	2.79379	0.54060
299.858	6.16334	-3.04936	2.75155	0.51126
303.857	6.16741	-3.05993	2.71035	0.54970
307.869	6.14280	-3.12932	2.71855	0.54377
311.860	6.11329	-3.07559	2.70812	0.59060
315.858	6.07032	-3.03890	2.71884	0.55632
319.855	6.02296	-3.15692	2.69983	0.52908
323.859	6.02818	-3.22245	2.72214	0.52535
327.866	6.00938	-3.42496	2.71112	0.48664
331.859	5.99463	-3.26598	2.62665	0.50186
335.859	5.93264	-3.40862	2.67382	0.45858
339.895	5.93736	-3.43851	2.68995	0.41129
343.866	5.88545	-3.49868	2.67984	0.39074
347.857	5.84193	-3.59551	2.67412	0.35279
351.855	5.78057	-3.45948	2.62241	0.31863
355.860	5.74030	-3.58411	2.59898	0.27241
359.868	5.68765	-3.64503	2.55049	0.23511
363.855	5.69249	-3.61864	2.46298	0.21338
367.859	5.66288	-3.66272	2.48250	0.18741
371.862	5.60477	-3.65555	2.38965	0.18566
375.858	5.53675	-3.65530	2.35764	0.16761
379.860	5.50139	-3.56513	2.33702	0.16506
383.858	5.49232	-3.50632	2.30979	0.14873
387.852	5.43718	-3.52197	2.28660	0.18590
391.860	5.39342	-3.56286	2.25288	0.17751
395.864	5.36299	-3.59429	2.19536	0.18561
399.855	5.37045	-3.64015	2.16644	0.17754
403.855	5.34747	-3.61885	2.12057	0.23593
407.887	5.29907	-3.64565	2.08929	0.27281
411.859	5.27648	-3.57152	2.03950	0.31608
415.867	5.29523	-3.33928	2.03350	0.37635
419.853	5.32228	-3.34207	2.00452	0.41720
423.852	5.34139	-3.27630	2.03784	0.40374
427.861	5.28982	-3.25405	2.17673	0.36323
431.859	5.34260	-3.24924	2.32320	0.28965
435.870	5.28360	-3.08356	2.43912	0.31413
439.858	5.29642	-2.92794	2.70777	0.38219
443.852	5.33514	-2.83635	2.84130	0.41154
447.856	5.37738	-2.63639	2.87856	0.43480
451.859	5.44719	-2.93465	2.73989	0.41045
455.854	5.47498	-2.75520	2.73662	0.46111
459.857	5.59575	-2.83100	2.77309	0.30106
463.859	5.74389	-2.83094	2.70718	0.37353
467.851	5.71124	-2.80029	2.75079	0.40774
471.859	5.78843	-2.76136	2.63467	0.43079
475.925	5.77504	-2.71446	2.63722	0.47703
479.857	5.85974	-2.72557	2.62972	0.49764
483.853	5.87408	-2.82404	2.66927	0.49142
487.855	5.96014	-2.93168	2.57593	0.57436
491.851	5.95705	-2.97336	2.48113	0.59146
495.866	5.99456	-2.84066	2.50883	0.41279
499.857	6.05054	-2.82518	2.48752	0.41101
503.857	6.05052	-2.79725	2.46667	0.38440
507.857	6.05449	-2.79208	2.51054	0.26406
511.855	6.06063	-2.84330	2.48297	0.20201
515.858	6.03633	-2.88252	2.55475	0.27577
519.859	6.10313	-2.85121	2.60213	0.18210
523.853	6.12455	-2.80357	2.60463	0.12387
527.854	6.10850	-2.83358	2.65669	0.08261
531.854	6.08136	-2.76971	2.67152	0.07320
535.863	6.05138	-2.75576	2.72699	0.06081
539.855	6.05297	-2.79219	2.66939	0.00276
543.856	6.08632	-2.78519	2.63398	0.00097
547.864	6.19832	-2.78892	2.69245	0.11006
551.857	6.18939	-2.76875	2.65015	0.07020
555.854	6.38680	-2.73257	2.56092	0.11290
559.855	6.26816	-2.69270	2.56954	0.29143
563.855	6.20523	-2.71743	2.66929	0.30960
567.854	6.20558	-2.81165	2.49939	0.25992
571.861	6.19348	-2.72286	2.50541	0.57015
575.859	6.10225	-2.71051	2.45438	0.54815
579.851	6.06868	-2.63353	2.43590	0.55439
583.850	5.89235	-2.61487	2.45966	0.41365
587.859	5.98371	-2.68316	2.45133	0.45037
591.852	5.87091	-2.64476	2.43763	0.57263
595.858	5.82358	-2.57890	2.44142	0.71152
599.855	5.53500	-2.47599	2.48411	0.70569
603.854	5.51710	-2.17096	2.47033	0.67102
607.855	5.45550	-2.20569	2.46045	0.65946
611.850	5.36132	-1.78566	2.49255	0.73755
615.853	5.44739	-2.29626	2.51935	0.54832
619.864	5.33817	-2.11485	2.56107	0.51658
623.857	5.45388	-2.37526	2.58717	0.62122
627.852	5.45004	-2.49669	2.59998	0.63980
631.858	5.47938	-2.53733	2.61191	0.78335
635.855	5.52436	-2.56184	2.61924	0.87252
639.854	5.58061	-2.64198	2.63787	0.82654
643.860	5.61013	-2.86406	2.62157	0.96677
647.865	5.70038	-2.97893	2.64594	1.03770
651.879	5.79064	-3.02476	2.66466	0.92266
655.854	5.80607	-3.09069	2.67479	1.04479
659.853	5.84765	-3.13587	2.66711	0.99202
663.850	5.88422	-3.09135	2.68871	1.04118
667.853	5.87012	-3.33431	2.70121	1.01581
671.856	5.72738	-3.08378	2.70983	0.95489
675.849	5.79428	-2.92528	2.71149	0.79398
679.865	5.80025	-2.93363	2.73484	0.72746
683.874	5.87567	-2.55357	2.78906	0.62298
687.852	5.95194	-2.34537	2.81412	0.42435
691.850	5.89036	-2.26294	2.83492	0.27189
695.852	5.89416	-2.30312	2.86049	0.10225
699.849	5.92876	-2.31628	2.85920	0.02909
703.854	5.87754	-2.13185	2.82293	-0.05860
707.856	5.75848	-2.06905	2.80766	-0.15083
711.850	5.66408	-2.06951	2.72640	-0.14183
715.853	5.66531	-1.97988	2.69720	-0.20227
719.847	5.78298	-2.07543	2.68522	-0.22486
723.858	5.63591	-2.03578	2.64881	-0.25207
727.850	5.62272	-2.04960	2.56582	-0.08393
731.852	5.76679	-2.37392	2.44311	-0.17505
735.848	5.76109	-2.45314	2.42334	-0.18153
739.857	5.61841	-2.44955	2.43605	-0.00189
743.854	5.59941	-2.87084	2.52163	0.04970
747.889	5.65388	-2.96741	2.89193	0.05661
751.858	5.64616	-2.87537	2.98369	0.14688
755.853	5.73338	-2.89689	2.88507	0.24959
759.850	5.89814	-2.85654	2.97958	0.23858
763.852	5.85603	-2.96446	2.82100	0.20083
767.850	5.89014	-2.90281	2.74313	0.23195
771.851	6.00695	-2.96594	2.87814	0.24721
775.849	6.00752	-2.90542	2.78429	0.25150
779.852	6.03287	-2.76537	2.87267	0.22304
783.882	6.01790	-2.65003	2.78399	0.11832
787.853	5.99814	-2.47311	2.76473	-0.09161
791.853	6.01559	-2.47367	2.77978	-0.03907
795.850	5.99897	-2.40046	2.75195	-0.09380
799.853	5.97416	-2.36775	2.73053	-0.14282
803.851	5.94587	-2.25188	2.71817	-0.14751
807.861	5.87643	-2.09987	2.74410	-0.18886
811.847	5.91121	-2.13659	2.75844	-0.09715
815.863	5.95081	-2.11294	2.77532	0.07379
819.859	6.03101	-2.09629	2.80632	0.03904
823.849	5.91928	-2.13962	2.78003	0.13343
827.860	6.07508	-2.34950	2.84224	0.41218
831.850	6.12072	-2.52165	2.85640	0.37840
835.848	6.18335	-2.60082	2.88435	0.33960
839.854	6.07106	-2.52716	2.90232	0.35441
843.847	6.08492	-2.55055	2.91228	0.34334
847.856	5.87879	-2.57536	2.92636	0.35525
851.851	5.85988	-2.71541	2.93351	0.41031
855.848	5.92724	-2.73360	2.86537	0.21438
859.854	5.90229	-2.75195	2.89267	0.23388
863.875	6.50624	-2.62535	3.14315	0.34103
867.856	8.20046	-2.17979	5.34400	0.34966
871.857	9.68951	0.09394	7.00326	2.07440
875.849	10.75509	-0.16029	7.19847	2.35474
879.845	11.68217	-0.00187	8.69227	2.09328
883.902	11.88161	-0.55086	9.75203	1.25095
887.851	11.80630	-0.30309	9.44926	1.20762
891.846	11.77608	-0.41534	9.39878	2.01036
895.847	11.50441	-0.23091	9.02602	1.85346
899.846	10.84247	-0.24330	8.83277	1.44948
903.848	10.67948	-0.24856	8.68247	1.44928
907.858	11.03901	-0.28896	9.43779	1.81053
911.849	11.25450	-0.15802	9.46961	1.70707
915.846	11.62978	0.01159	9.23198	1.80253
919.846	11.63225	0.07314	9.15514	1.78861
923.855	11.62428	0.11673	9.13192	1.68702
927.846	11.66084	0.30729	9.13855	1.69035
931.854	11.58949	0.32397	9.07958	1.78261
935.848	11.64189	0.35891	9.09447	1.63812
939.852	11.65665	0.50451	9.17457	1.63104
943.847	11.68933	0.47469	9.14327	1.60598
947.851	11.76530	0.51146	9.23616	1.67244
951.911	11.79408	0.56908	9.21943	1.58073
955.879	11.82074	0.60922	9.21776	1.59020
959.845	11.76725	0.58103	9.27414	1.52361
963.847	11.70568	0.52841	9.29077	1.56975
967.843	11.64192	0.48081	9.30897	1.61836
971.851	11.58770	0.39403	9.32876	1.67555
975.851	11.64059	0.33710	9.33671	1.76253
979.846	11.63447	0.16808	9.33157	1.76147
983.843	11.69438	0.01747	9.34442	1.74987
987.851	11.78928	-0.25113	9.31823	1.94631
991.856	11.82029	-0.08749	9.30897	1.86999
995.849	11.78683	-0.10832	9.22941	1.96633
999.850	11.94869	-0.08543	9.22538	1.93218
1003.846	12.03069	-0.07257	9.16017	1.98210
1007.846	12.14399	-0.10478	9.12839	1.92035
1011.850	12.07184	0.02243	9.11162	1.77412
1015.845	12.10594	0.09755	9.15783	1.68940
1019.862	12.12986	0.11749	9.16305	1.59885
1023.849	12.18258	0.23068	9.19764	1.55519
1027.847	12.18927	0.32129	9.19005	1.43280
1031.847	12.19626	0.28096	9.24025	1.38774
1035.847	12.15419	0.31533	9.30472	1.38271
1039.849	12.14523	0.34216	9.32693	1.33388
1043.851	12.11529	0.42633	9.31885	1.29818
1047.850	12.09237	0.34600	9.37322	1.27937
1051.846	12.04984	0.32379	9.39984	1.29292
1055.842	12.05608	0.08911	9.41520	1.36804
1059.850	12.05884	0.06537	9.42107	1.43507
1063.850	12.03852	-0.33673	9.44952	1.59034
1067.849	11.99733	-0.08507	9.45996	1.63766
1071.843	11.98624	-0.16901	9.52758	1.74123
1075.724	11.96510	-0.21810	9.53641	1.76919
1079.725	11.98213	-0.19111	9.57339	1.84190
1083.721	12.00709	-0.13701	9.59872	1.69538
1087.950	12.03498	-0.15459	9.64355	1.49923
1091.732	12.08240	-0.10964	9.58827	1.58617
1095.720	12.14342	0.00571	9.55992	1.51740
1099.718	12.21260	0.13695	9.53815	1.49135
1103.718	12.33915	0.29246	9.57860	1.51281
1107.720	12.38512	0.30210	9.57703	1.63877
1111.720	12.49777	0.30192	9.59706	1.49880
1115.718	12.48218	0.36467	9.64912	1.55189
1119.724	12.53414	0.40782	9.66125	1.47195
1123.726	12.48379	0.42358	9.69721	1.43550
1127.723	12.46105	0.38419	9.66617	1.42569
1131.717	12.47385	0.37303	9.66364	1.44531
1135.718	12.26967	0.34496	9.67721	1.52385
1139.720	12.18182	0.28406	9.71768	1.54966
1143.723	12.12537	0.18634	9.71023	1.58572
1147.721	12.20712	0.07332	9.73277	1.58980
1151.720	12.20909	-0.08639	9.75642	1.57652
1155.725	12.24253	-0.14048	9.66344	1.63659
1159.800	12.23085	-0.09389	9.56994	1.63746
1163.722	12.28450	-0.06879	9.47891	1.63625
1167.722	12.29211	-0.12264	9.44730	1.63339
1171.717	12.30459	-0.16776	9.52374	1.07229
1175.723	12.52312	-0.81601	9.79580	-0.67120
1179.719	12.73219	-2.12883	10.63391	-1.25660
1183.741	12.82944	-3.35575	10.90088	-2.76210
1187.727	13.52761	-3.42821	11.07204	-3.24572
1191.717	13.59166	-3.49737	11.12400	-3.34848
1195.723	13.63175	-3.59666	11.28293	-3.46022
1199.720	13.70729	-3.55929	11.29627	-3.33177
1203.722	13.82054	-3.31957	11.29161	-3.21473
1207.729	13.93373	-3.39593	11.35038	-3.13370
1211.721	13.89203	-3.46216	11.42914	-3.32595
1215.716	13.90840	-3.71676	11.47817	-3.39590
1219.719	13.87096	-4.00789	11.58151	-3.39783
1223.735	13.91998	-4.05660	11.62330	-3.48119
1227.758	13.94820	-4.21819	11.68881	-3.55899
1231.716	13.94270	-4.24182	11.72553	-3.53020
1235.717	13.90242	-4.48765	11.80157	-3.57420
1239.714	13.88523	-4.44322	11.87090	-3.51334
1243.722	13.86521	-4.48480	11.88870	-3.51469
1247.727	13.83673	-4.54438	11.94090	-3.53911
1251.723	13.81380	-4.46756	11.98011	-3.57666
1255.718	13.79836	-4.53486	11.99046	-3.51073
1259.719	13.79749	-4.54936	11.98990	-3.45100
1263.719	13.80800	-4.51386	12.00022	-3.43578
1267.736	13.82897	-4.45813	12.01720	-3.30288
1271.717	13.84078	-4.39312	12.01872	-3.24620
1275.715	13.83886	-4.36471	12.04604	-3.18739
1279.717	13.87824	-4.29487	12.02580	-3.17253
1283.720	13.89304	-4.25674	12.00300	-3.13672
1287.721	13.97040	-4.12784	11.99037	-3.13665
1291.728	14.03617	-4.09985	12.00775	-3.11430
1295.757	14.03926	-4.10097	11.98469	-3.11132
1299.718	14.08447	-4.09143	11.99284	-3.15904
1303.710	14.13199	-4.00661	11.99358	-3.25406
1307.729	14.14786	-3.89226	11.96470	-3.31527
1311.714	14.13776	-3.81682	11.93009	-3.47971
1315.721	14.15316	-3.82246	11.97503	-3.51149
1319.716	14.16711	-3.78143	11.95320	-3.57854
1323.712	14.12247	-3.77550	11.91336	-3.62392
1327.715	14.11888	-3.70777	11.95180	-3.63498
1331.728	14.07973	-3.69967	12.02176	-3.67378
1335.720	14.01802	-3.75158	12.03285	-3.70478
1339.721	13.99513	-3.67625	12.04096	-3.71106
1343.720	14.00312	-3.58326	12.09249	-3.74202
1347.765	13.97697	-3.55145	12.03695	-3.76631
1351.713	13.95890	-3.52367	12.12568	-3.79753
1355.714	13.96168	-3.50638	12.10288	-3.77688
1359.765	13.94058	-3.47030	12.09790	-3.79911
1363.723	13.92814	-3.39005	12.04998	-3.78984
1367.713	13.90803	-3.34828	12.08065	-3.80204
1371.725	13.88399	-3.36617	12.04621	-3.77971
1375.716	13.90700	-3.29608	11.99730	-3.77263
1379.734	13.91451	-3.29374	11.98700	-3.76098
1383.725	13.86703	-3.28818	11.99984	-3.79142
1387.714	13.85702	-3.33690	11.98063	-3.79074
1391.712	13.84062	-3.34545	12.04225	-3.74720
1395.717	13.82560	-3.39619	12.01378	-3.68166
1399.753	13.78396	-3.45477	11.99201	-3.65782
1403.728	13.75971	-3.50589	11.98013	-3.62363
1407.714	13.72526	-3.57614	11.99927	-3.55934
1411.714	13.70064	-3.65166	11.96916	-3.51590
1415.724	13.70420	-3.63449	11.98657	-3.46085
1419.716	13.67239	-3.69310	12.02086	-3.41997
1423.716	13.61898	-3.74898	11.98142	-3.36451
1427.769	13.60388	-3.76881	11.94688	-3.31311
1431.766	13.55937	-3.78761	11.94415	-3.27481
1435.735	13.52451	-3.81334	11.88088	-3.24055
1439.726	13.51201	-3.84397	11.87860	-3.22642
1443.718	13.48308	-3.86339	11.86595	-3.18282
1447.753	13.45634	-3.89839	11.88390	-3.16782
1451.738	13.45205	-3.85275	11.87358	-3.16760
1455.716	13.49932	-3.77210	11.85561	-3.17445
1459.711	13.51982	-3.69061	11.86058	-3.16981
1463.715	13.56235	-3.61162	11.78350	-3.19781
1467.714	13.56857	-3.57868	11.73124	-3.25852
1471.713	13.19941	-3.84102	11.51454	-3.24600
1475.711	10.09638	-3.86193	7.47992	-3.19390
1479.716	8.76173	-3.81101	6.52434	-2.64593
1483.720	6.36557	-3.85504	5.30136	-2.39567
1487.715	5.20538	-3.98631	2.19477	-1.77142
1491.717	3.49777	-3.92525	1.46025	-1.59111
1495.744	2.06979	-4.08341	0.05807	-1.72917
1499.725	0.37055	-3.97800	-2.39272	-1.32513
1503.717	-0.15824	-4.01721	-2.78124	-1.36548
1507.710	-1.63264	-3.91702	-3.60274	-0.88425
1511.711	-2.04465	-3.59074	-4.67367	-0.87682
1515.715	-2.08937	-3.55598	-4.85862	-0.79437
1519.717	-0.62181	-3.60738	-4.64692	-0.73367
1523.714	-0.94956	-3.53367	-4.25724	-0.60822
1527.709	-1.32029	-3.36671	-4.38830	-0.54618
1531.715	-1.74861	-3.22666	-4.40350	-0.49216
1535.715	-1.82854	-3.27695	-4.51329	-0.46078
1539.715	-2.00609	-3.20755	-4.52089	-0.37955
1543.710	-2.16109	-3.18946	-4.55453	-0.35645
1547.718	-2.35107	-3.16424	-4.58229	-0.34293
1551.712	-2.41603	-3.12474	-4.63531	-0.36810
1555.717	-2.43345	-3.13185	-4.67419	-0.39636
1559.714	-2.57516	-3.02775	-4.63240	-0.40327
1563.723	-2.62308	-2.98119	-4.66415	-0.45922
1567.718	-2.26790	-2.95992	-4.74590	-0.51045
1571.711	-2.22416	-2.96082	-4.84526	-0.51802
1575.717	-2.13822	-2.99502	-4.91679	-0.56565
1579.719	-2.10436	-2.93837	-4.92427	-0.59205
1583.712	-2.13291	-2.91405	-4.94563	-0.66261
1587.712	-1.76542	-2.78433	-4.94768	-0.67567
1591.714	-1.81213	-2.77505	-4.93088	-0.69285
1595.712	-1.72820	-2.75322	-4.93681	-0.70952
1599.713	-1.76413	-2.74025	-4.94078	-0.70331
1603.713	-1.77578	-2.79765	-4.94475	-0.73182
1607.714	-1.74377	-2.81643	-4.92681	-0.73372
1611.712	-1.76329	-2.85731	-4.90425	-0.72528
1615.711	-1.90921	-2.88923	-4.79659	-0.71522
1619.711	-1.90510	-2.91802	-4.74969	-0.68805
1623.720	-2.16161	-2.89708	-4.62683	-0.69860
1627.720	-2.04622	-2.97816	-4.57746	-0.70487
1631.739	-2.31024	-2.98071	-4.58636	-0.73037
1635.718	-2.37989	-3.02235	-4.61573	-0.68009
1639.711	-2.53905	-3.02746	-4.61100	-0.67353
1643.710	-2.67813	-3.08240	-4.62902	-0.69454
1647.733	-2.51438	-3.12839	-4.64118	-0.70837
1651.736	-2.61657	-3.15495	-4.54770	-0.66235
1655.709	-2.56141	-3.21777	-4.55236	-0.53488
1659.712	-2.48480	-3.23659	-4.60787	-0.48729
1663.711	-2.48807	-3.36193	-4.64155	-0.45841
1667.713	-2.49510	-3.27265	-4.70384	-0.39634
1671.715	-2.57870	-3.34876	-4.73712	-0.22880
1675.708	-2.51985	-3.41935	-4.70301	-0.29404
1679.705	-2.46033	-3.47488	-4.69554	-0.25231
1683.715	-2.46578	-3.52313	-4.67562	-0.16143
1687.709	-2.52711	-3.47815	-4.65414	-0.05568
1691.707	-2.39706	-3.51804	-4.59110	-0.00114
1695.710	-2.30695	-3.53728	-4.62471	0.05385
1699.736	-2.32221	-3.51434	-4.62890	0.08290
1703.727	-2.13636	-3.56908	-4.62665	0.07683
1707.711	-2.12920	-3.53353	-4.57647	0.05586
1711.707	-2.02111	-3.59391	-4.54659	0.05955
1715.708	-1.91375	-3.60284	-4.53800	-0.01917
1719.710	-1.82673	-3.58721	-4.56964	-0.09336
1723.715	-1.79492	-3.55511	-4.57714	0.00924
1727.707	-1.78238	-3.53577	-4.55263	-0.12440
1731.711	-1.76051	-3.56265	-4.51255	-0.42855
1735.709	-1.69604	-3.58623	-4.50902	-0.55961
1739.712	-1.69926	-3.60401	-4.50796	-0.67303
1743.706	-1.68592	-3.63773	-4.47121	-0.75684
1747.722	-1.75624	-3.61766	-4.45740	-0.46230
1751.710	-1.80191	-3.64785	-4.47131	-0.52236
1755.715	-1.91945	-3.70222	-4.50281	-0.84337
1759.709	-2.80899	-3.72452	-4.55445	-0.94806
1763.708	-4.78203	-3.79501	-4.83750	-0.90859
1768.179	-4.60210	-3.80201	-6.01493	-1.19758
1771.740	-4.48007	-3.87210	-6.57649	-1.42698
1775.710	-4.30877	-3.96547	-6.27528	-1.47041
1779.709	-4.12406	-3.97179	-5.75593	-1.54731
1783.706	-3.74530	-3.96416	-5.77404	-1.57170
1787.715	-3.59080	-3.95722	-6.01721	-1.64012
1791.712	-4.04063	-3.94366	-6.24261	-1.69013
1795.707	-4.06831	-3.95196	-6.27807	-1.76057
1799.712	-3.95846	-3.85922	-6.34733	-1.89607
1803.709	-4.07883	-3.85976	-6.32657	-1.96384
1807.712	-4.03591	-3.84185	-6.35265	-2.13235
1811.713	-3.86674	-3.78009	-6.30605	-1.98543
1815.707	-3.84856	-3.74131	-6.28185	-1.99932
1819.708	-3.77886	-3.70878	-6.23535	-2.03019
1823.708	-3.76398	-3.67560	-6.32022	-2.11118
1827.708	-3.82936	-3.65913	-6.34535	-2.10799
1831.712	-3.90728	-3.61027	-6.37388	-2.08102
1835.731	-3.74686	-3.54668	-6.33665	-2.03423
1839.715	-3.75613	-3.50633	-6.40619	-2.04500
1843.706	-3.78953	-3.43324	-6.43412	-1.96148
1847.713	-3.79966	-3.28737	-6.43944	-1.93261
1851.709	-3.81261	-3.19911	-6.48445	-1.84125
1855.708	-3.94322	-3.05328	-6.56113	-1.85180
1859.732	-4.09757	-3.01635	-6.71011	-1.81778
1863.707	-4.09725	-3.34217	-6.80614	-1.76977
1867.707	-4.19654	-3.60943	-6.92753	-1.73583
1871.712	-4.36873	-3.84784	-6.94103	-1.69142
1875.710	-4.54336	-3.84838	-6.93912	-1.65682
1879.712	-4.51716	-4.00962	-6.73250	-1.65683
1883.704	-4.57734	-4.08855	-6.19133	-1.63349
1887.709	-4.49329	-4.05565	-6.25367	-1.57890
1891.702	-4.56417	-4.04567	-6.23523	-1.53337
1895.703	-4.64828	-3.84045	-6.27221	-1.54180
1899.706	-4.71964	-3.79568	-6.05481	-1.51238
1903.710	-4.75795	-3.75113	-6.18936	-1.50815
1907.708	-4.64426	-2.60333	-5.74313	-1.43562
1911.708	-2.49610	-1.98979	-5.40899	0.52194
1915.719	-1.00524	0.02790	-3.08619	2.71196
1919.709	-0.28155	2.41817	-2.12369	5.20832
1923.709	0.17799	3.92168	-2.63514	5.63276
1927.579	-0.83749	3.69706	-2.57375	5.69481
1931.585	-1.56459	3.61125	-2.67568	5.52535
1935.587	-1.18862	2.68625	-2.91861	4.69594
1939.580	-1.03486	1.03493	-3.02368	3.64404
1943.582	-0.69139	0.91935	-2.95089	3.80404
1947.583	-0.54096	1.43808	-2.84851	4.60226
1951.583	-0.87719	2.40842	-2.88864	5.32235
1955.583	-0.52523	2.77247	-2.83672	5.63755
1959.586	-0.39110	3.00546	-2.60260	5.56519
1963.582	-0.33248	3.09939	-2.51710	5.63419
1967.582	-0.57111	3.17596	-2.53922	5.53847
1971.580	-0.56431	2.93349	-2.63938	5.57074
1975.580	-0.43259	2.86319	-2.25456	5.45461
1979.579	-0.49718	2.88363	-2.16870	5.51169
1983.586	-0.52212	2.81734	-2.05715	5.34729
1987.580	-0.70387	2.75877	-1.99840	5.24325
1991.582	-1.07914	2.80556	-2.02376	5.29168
1995.577	-1.04349	2.84594	-1.96714	5.23259
1999.583	-0.40060	2.61761	-1.93809	5.15923
2003.586	-0.44157	2.53341	-1.94764	5.02672
2007.579	-0.60349	2.37955	-1.90244	4.97477
2011.583	-0.86215	2.43824	-1.98792	4.86817
2015.581	-0.69759	2.43881	-1.92904	4.85774
2019.579	-0.54505	2.39311	-2.04341	4.80580
2023.584	-0.49274	2.34560	-2.09477	4.77812
2027.579	-0.50547	2.37715	-2.23090	4.81559
2031.580	-0.44373	2.33297	-2.35211	4.83974
2035.578	-0.41033	2.30018	-2.46067	4.81850
2039.733	-0.42241	2.31618	-2.61238	4.81607
2043.586	-0.48339	2.34913	-2.69782	4.88637
2047.587	-0.52954	2.37149	-2.76024	4.91561
2051.581	-0.66032	2.45832	-2.80548	4.96060
2055.584	-0.63407	2.50421	-2.73712	4.99133
2059.601	-0.57687	2.50989	-2.89235	5.03215
2063.585	-0.69362	2.55061	-2.90463	5.09840
2067.579	-0.75508	2.58159	-2.88641	5.10127
2071.578	-0.73975	2.57379	-2.85442	5.08826
2075.579	-0.62491	2.50233	-2.85999	5.06603
2079.583	-0.77364	2.51260	-2.80068	5.06340
2083.583	-0.76238	2.47600	-2.72996	5.02674
2087.585	-0.67876	2.52339	-2.55728	4.96983
2091.576	-0.61781	2.48855	-2.57494	4.81991
2095.582	-0.52533	2.66688	-2.47061	4.82207
2099.578	-0.66020	3.27355	-2.36187	4.58482
2103.578	-0.69637	3.06889	-2.35694	4.88479
2107.632	-0.65307	3.01867	-2.41784	5.44466
2111.579	-0.64702	2.90450	-2.35927	5.39393
2115.577	-0.66575	2.89614	-2.36908	5.35835
2119.575	-0.81727	2.99945	-2.34121	5.29574
2123.583	-0.84247	2.96942	-2.41628	5.39764
2127.580	-0.90056	2.97770	-2.45240	5.40424
2131.586	-0.91401	2.92915	-2.50011	5.45271
2135.575	-1.00062	2.97388	-2.54992	5.44045
2139.577	-1.15374	3.01235	-2.56218	5.41274
2143.578	-1.25820	2.96559	-2.59262	5.43791
2147.579	-1.22372	2.93029	-2.68418	5.46988
2151.575	-1.26212	2.85526	-2.66994	5.39058
2155.581	-1.22995	2.86112	-2.69926	5.34518
2159.580	-1.30759	2.86604	-2.70748	5.27555
2163.575	-1.45385	2.88128	-2.73125	5.23380
2167.580	-1.13853	2.76074	-2.57984	5.12288
2171.582	1.84984	2.27274	-0.83007	4.96993
2175.812	3.49678	1.50244	1.75515	4.50061
2179.579	5.50591	0.95348	3.29211	3.10962
2183.579	6.58864	-1.25762	5.60015	0.53028
2187.589	8.07959	-2.17681	6.35491	-0.03680
2191.576	8.72825	-2.49447	7.16735	-1.10463
2195.575	9.16634	-3.35726	6.71233	-1.96495
2199.576	9.24344	-3.56703	6.88044	-1.93558
2203.575	8.58718	-3.53476	6.66122	-1.35525
2207.576	8.63951	-3.21032	6.97353	-0.97276
2211.583	8.93602	-3.18419	7.06581	-0.91542
2215.575	9.04415	-3.30927	7.09805	-1.02121
2219.580	9.09127	-3.49334	7.14040	-1.25720
2223.577	9.09841	-3.76989	7.16344	-1.27124
2227.574	9.11537	-3.76516	7.18916	-1.37591
2231.578	9.65107	-3.52980	7.21574	-1.50044
2235.575	9.61110	-3.57869	7.11225	-1.57616
2239.575	9.46631	-3.51225	7.03956	-1.54725
2243.610	9.25021	-3.49408	7.06723	-1.38362
2247.580	9.12682	-3.42907	6.99213	-1.47029
2251.585	9.54153	-3.00098	7.01049	-1.19462
2255.580	9.70449	-2.68175	7.04799	-1.07311
2259.577	9.72857	-2.80164	6.96467	-1.16027
2263.593	9.60919	-2.76988	6.91997	-1.11750
2267.576	9.62803	-2.85003	6.73263	-1.22001
2271.575	9.59416	-2.86664	6.51775	-1.26617
2275.573	9.29991	-3.10150	6.59929	-1.25101
2279.576	9.58367	-2.94056	6.72680	-1.13413
2283.574	9.49342	-2.98786	6.71069	-1.12798
2287.574	9.44713	-2.98124	6.68149	-1.14682
2291.583	9.46341	-3.09818	6.81701	-1.11636
2295.580	9.46590	-3.22547	6.97651	-1.10777
2299.575	9.34689	-3.33247	6.89277	-1.20917
2303.573	9.29742	-3.45435	6.92400	-1.25821
2307.581	9.32912	-3.52058	6.88940	-1.32396
2311.600	9.23669	-3.46672	6.97920	-1.34232
2315.579	9.23430	-3.54315	6.98776	-1.39032
2319.577	9.26776	-3.38768	7.04650	-1.32852
2323.575	9.26208	-3.43475	7.05046	-1.37068
2327.599	9.27641	-3.42926	7.04750	-1.34572
2331.585	9.31281	-3.49768	7.08204	-1.30306
2335.581	9.30583	-3.44354	7.07884	-1.29767
2339.569	9.36017	-3.49315	7.05978	-1.31508
2343.571	9.44211	-3.31089	7.03440	-1.27396
2347.604	9.48659	-3.30941	7.01071	-1.25778
2351.580	9.54727	-3.26494	7.01529	-1.22454
2355.572	9.54368	-3.24328	7.00961	-1.13822
2359.575	9.52466	-3.19475	6.95616	-1.09204
2363.577	9.47063	-3.16317	6.90463	-1.05840
2367.578	9.41337	-3.18596	6.82180	-1.00247
2371.573	9.35196	-3.18014	6.77298	-0.97539
2375.582	9.33369	-3.17124	6.75957	-0.94574
2379.575	9.31931	-3.17758	6.69539	-0.96469
2383.582	9.32591	-3.21641	6.65798	-0.99432
2387.569	9.33843	-3.34311	6.61648	-0.95107
2391.570	9.30206	-3.45264	6.62197	-0.89946
2395.574	9.29261	-3.55048	6.57641	-0.88950
2399.571	9.31806	-3.73063	6.52101	-0.90241
2403.572	9.30510	-3.61433	6.49722	-0.82719
2407.578	9.40658	-3.21635	6.50876	-0.82601
2411.572	9.58215	-2.64654	6.46571	-0.81680
2415.575	9.74121	-2.77981	6.47252	-0.81538
2419.580	9.76854	-3.18978	6.45047	-0.89017
2423.572	9.80067	-3.15549	6.46485	-0.95541
2427.575	9.76175	-3.22624	6.45498	-0.99895
2431.572	9.62430	-3.41938	6.46902	-1.04051
2435.581	9.55719	-3.37008	6.51652	-0.89435
2439.573	9.43173	-3.22041	6.57279	-0.69085
2443.576	9.75290	-2.81590	6.52929	-0.73465
2447.579	9.79127	-2.81147	6.56880	-0.88769
2451.615	9.91926	-2.97262	6.53245	-1.03789
2455.570	9.96740	-3.11644	6.56128	-1.11971
2459.581	9.92972	-3.21607	6.61714	-1.00158
2463.572	9.79751	-3.30861	6.61802	-0.90853
2467.572	9.72014	-3.55775	6.63622	-0.95972
2471.579	9.75078	-3.55013	6.56297	-1.04426
2475.573	9.84503	-3.52624	6.67742	-0.92004
2479.571	9.85638	-3.06401	6.66888	-1.05369
2483.569	9.86406	-2.86013	6.73475	-1.07247
2487.576	9.71999	-3.00794	6.76843	-1.09694
2491.570	9.62533	-3.26580	6.49058	-1.14832
2495.571	8.35993	-3.35868	5.76993	-1.11710
2499.580	5.24078	-3.51175	2.76755	-1.06630
2503.579	2.09988	-3.12009	1.89647	-0.65873
2507.574	0.12086	-2.40894	-0.54421	0.17935
2511.569	-1.22514	-1.35436	-2.91557	0.78193
2515.594	-1.50204	-0.70785	-3.09181	0.95186
2519.573	-2.55190	-0.84087	-5.71637	1.25692
2523.575	-5.17986	-0.73353	-6.45694	1.39287
2527.573	-5.44109	-0.96451	-7.31916	1.12414
2531.568	-7.09756	-0.78200	-8.03382	1.24960
2535.570	-5.86332	-0.83102	-8.03343	1.47316
2539.575	-5.86212	-0.75142	-7.26552	1.57573
2543.573	-5.61652	-0.59879	-7.18523	1.57270
2547.617	-5.35234	-0.66058	-7.10983	1.36745
2551.573	-5.57773	-0.54749	-7.38410	1.47318
2555.571	-5.64860	-0.36392	-7.74340	1.54235
2559.574	-5.87467	-0.11123	-7.99177	1.59327
2563.572	-5.90178	0.06377	-8.18286	1.62847
2567.572	-5.90293	0.16126	-8.30743	1.60329
2571.573	-5.96878	0.34039	-8.14390	1.64391
2575.570	-6.09638	0.38189	-7.80404	1.61000
2579.570	-6.30678	0.39918	-7.73090	1.55953
2583.579	-6.52618	0.55927	-7.79853	1.54803
2587.575	-6.59466	0.44301	-7.84055	1.53413
2591.570	-6.11044	0.17750	-7.79656	1.58848
2595.570	-5.96844	0.25772	-7.33755	1.62775
2599.569	-6.02259	0.26009	-6.97482	1.68105
2603.572	-6.07859	0.04411	-7.11963	1.50929
2607.589	-6.18409	-0.22521	-7.24793	1.53704
2611.585	-6.22297	-0.20513	-7.11877	1.52301
2615.571	-6.12848	-0.16376	-6.97228	1.46749
2619.572	-6.55743	0.07085	-6.85918	1.32345
2623.567	-6.49019	0.06365	-7.05809	1.26532
2627.581	-6.16689	-0.05823	-7.27272	1.24705
2631.582	-5.77988	-0.18174	-7.22451	1.34483
2635.566	-5.81982	-0.03881	-7.08913	1.24228
2639.567	-5.85148	-0.01498	-7.29023	1.25280
2643.569	-5.86312	0.06578	-7.43615	1.17983
2647.575	-5.81884	0.15087	-7.48441	1.24097
2651.612	-5.71834	0.15718	-7.81420	1.21528
2655.568	-5.65329	0.19016	-7.81678	1.26197
2659.567	-5.65123	0.18999	-7.92123	1.30835
2663.572	-5.68330	0.21619	-8.02930	1.40770
2667.575	-5.68688	0.18867	-7.93267	1.51608
2671.566	-5.72591	0.23476	-7.98196	1.60956
2675.567	-5.82552	0.27054	-7.93756	1.61812
2679.573	-6.17855	0.34058	-7.91412	1.71704
2683.565	-6.59508	0.48991	-7.85122	1.75041
2687.565	-6.52676	0.46082	-7.77381	1.75440
2691.570	-6.60213	0.48923	-7.84094	1.76002
2695.568	-6.66046	0.53024	-7.85227	1.85116
2699.571	-6.71224	0.58756	-7.83086	1.92731
2703.566	-6.57264	0.59357	-7.79870	1.95542
2707.574	-6.55192	0.60760	-7.78864	1.96791
2711.572	-6.54440	0.61605	-7.79028	1.98725
2715.570	-6.55278	0.61260	-7.75173	2.02759
2719.564	-6.26159	0.58895	-7.74220	2.00069
2723.569	-6.23908	0.56057	-7.78309	1.82128
2727.570	-6.21841	0.53750	-7.80550	1.79477
2731.565	-6.11805	0.51556	-7.78455	1.64472
2735.568	-6.07803	0.51300	-7.76084	1.55693
2739.567	-5.85775	0.48261	-7.59973	1.55080
2743.570	-5.95498	0.46925	-7.56225	1.45604
2747.571	-5.87030	0.44248	-7.40677	1.21463
2751.577	-5.87683	0.42940	-7.26596	1.08635
2755.578	-5.90541	0.42523	-7.30195	1.02880
2759.568	-5.94322	0.44801	-7.19842	1.05243
2763.567	-6.02588	0.45340	-7.13568	0.97567
2767.565	-6.11805	0.44582	-7.09922	0.95275
2771.567	-6.23253	0.37658	-7.09619	0.92564
2775.570	-6.32037	0.35478	-7.13661	0.93167
2779.565	-6.45993	0.29449	-7.11616	0.95769
2783.444	-6.45775	0.15677	-7.14910	0.90364
2787.471	-6.49315	0.05738	-7.20885	0.93618
2791.442	-6.46003	-0.16444	-7.23098	0.92401
2795.438	-6.41599	-0.21594	-7.28161	0.99012
2799.449	-6.29820	-0.25601	-7.25760	1.02366
2803.442	-6.06352	-0.48100	-7.28647	1.06011
2807.444	-6.17006	-0.49716	-7.31406	1.07202
2811.447	-6.09292	-0.47613	-7.34135	1.11043
2815.442	-5.93014	-0.55988	-7.34946	1.13320
2819.442	-5.99210	-0.57546	-7.37985	1.16229
2823.439	-6.24124	-0.41894	-7.30600	1.25889
2827.443	-5.89043	-0.08231	-7.40352	1.57117
2831.439	-5.70531	0.66115	-7.23855	1.86713
2835.443	2.31225	-0.17966	-8.30928	1.78652
2839.446	-9.10971	1.71485	NaN	NaN
2843.445	5.52694	7.09545	NaN	NaN
2847.443	NaN	NaN	NaN	NaN
2851.440	NaN	NaN	NaN	NaN
2855.464	NaN	NaN	NaN	NaN
2859.438	NaN	NaN	NaN	NaN
2863.436	NaN	NaN	NaN	NaN
2867.446	NaN	NaN	NaN	NaN
2871.443	NaN	NaN	NaN	NaN
2875.447	NaN	NaN	NaN	NaN
2879.450	NaN	NaN	NaN	NaN
2883.443	NaN	NaN	NaN	NaN
2887.438	NaN	NaN	NaN	NaN
2891.447	NaN	NaN	NaN	NaN
2895.459	NaN	NaN	NaN	NaN
2899.449	NaN	NaN	NaN	NaN
2903.435	NaN	NaN	-0.75449	6.13716
2907.440	NaN	NaN	16.11368	5.85775
2911.438	NaN	NaN	15.93974	3.29149
2915.435	16.81829	2.81256	8.28753	-1.09086
2919.443	17.17859	2.38830	16.26776	1.59944
2923.440	17.54637	2.72818	16.32499	0.45101
2927.443	17.61800	1.96615	16.17484	-0.74008
2931.442	17.75526	1.15453	14.96629	-0.63731
2935.442	16.98693	0.65301	14.13381	-0.59643
2939.440	16.82718	0.09676	13.70348	-0.58769
2943.436	16.43403	-0.26086	13.37496	-0.68942
2947.441	15.79188	-0.36653	13.14953	-0.64390
2951.444	14.85317	-0.46620	13.11370	-0.63075
2955.437	14.84877	-0.42708	13.10958	-0.55200
2959.442	14.86657	-0.43891	12.91185	-0.59647
2963.445	14.87088	-0.43352	12.86695	-0.55324
2967.438	14.85785	-0.60656	12.80086	-0.57550
2971.436	14.87974	-0.57442	12.69882	-0.61532
2975.439	14.89967	-0.63341	12.56129	-0.64902
2979.436	15.06373	-0.67532	12.62424	-0.66447
2983.443	14.93446	-0.85961	12.55372	-0.63386
2987.438	14.96040	-0.92934	12.62485	-0.56928
2991.441	15.00887	-0.81206	12.61360	-0.62268
2995.454	15.02508	-0.79614	12.51650	-0.64317
2999.443	14.96140	-0.83024	12.50922	-0.61197
3003.438	14.98023	-0.90516	12.53057	-0.62171
3007.444	14.85554	-0.94865	12.55441	-0.65561
3011.436	14.88143	-0.85024	12.50538	-0.73102
3015.440	14.80389	-0.84057	12.49098	-0.78508
3019.442	14.90549	-0.80410	12.53107	-0.72700
3023.436	14.86240	-0.86998	12.56148	-0.74445
3027.439	14.88215	-0.79820	12.59992	-0.73027
3031.447	14.91710	-0.68999	12.60474	-0.76534
3035.442	14.79897	-0.68576	12.54779	-0.80955
3039.440	14.75217	-0.71053	12.58765	-0.88454
3043.433	14.77971	-0.77033	12.63461	-0.92736
3047.446	14.70532	-0.88640	12.71467	-0.95549
3051.440	14.71663	-0.94380	12.73592	-0.97371
3055.462	14.71245	-0.97099	12.76709	-0.99733
3059.443	14.72074	-1.02824	12.69599	-1.03660
3063.440	14.68461	-0.99731	12.73656	-1.05054
3067.441	14.66008	-1.08211	12.79897	-1.11028
3071.438	14.64849	-1.06619	12.85131	-1.14560
3075.433	14.61373	-1.21535	12.79841	-1.20145
3079.434	14.63070	-1.14902	12.85923	-1.27071
3083.442	14.69097	-1.11423	12.77301	-1.27885
3087.459	14.80419	-1.07434	12.83385	-1.23444
3091.444	14.81177	-1.09601	12.85659	-1.19844
3095.435	14.80679	-1.12783	12.81221	-1.14207
3099.442	14.92032	-1.09099	12.83840	-1.12524
3103.434	14.90241	-1.18016	12.82434	-1.24018
3107.437	14.96663	-1.17407	12.85968	-1.25724
3111.432	15.00008	-1.20031	12.88624	-1.18280
3115.441	15.01943	-1.49814	12.90815	-1.22642
3119.441	15.03906	-1.37878	12.91795	-1.20434
3123.436	15.00869	-1.31661	12.83059	-1.29684
3127.720	14.95431	-1.36023	12.88829	-1.28095
3131.447	14.85941	-1.44391	12.91682	-1.24841
3135.437	14.84921	-1.43320	13.01300	-1.21151
3139.434	14.84747	-1.40426	13.00257	-1.26712
3143.435	14.85180	-1.40363	13.04768	-1.24040
3147.450	14.93765	-1.30637	13.08305	-1.32968
3151.452	14.87209	-1.31145	13.05752	-1.44662
3155.443	14.91893	-1.25075	13.08359	-1.43832
3159.435	14.81616	-1.31872	13.14607	-1.42811
3163.437	14.84992	-1.24678	13.20733	-1.40532
3167.438	14.83436	-1.22418	13.26697	-1.44797
3171.444	14.96761	-1.14107	13.28051	-1.48862
3175.434	14.91995	-1.15227	13.25696	-1.55948
3179.438	14.93334	-1.04381	13.09292	-1.54727
3183.445	14.98424	-0.99744	13.01051	-1.54009
3187.439	15.01695	-0.92229	12.96729	-1.54082
3191.435	15.00327	-0.96311	12.88195	-1.49722
3195.475	15.00869	-0.97689	12.94278	-1.49412
3199.449	14.99151	-0.96449	12.92896	-1.46564
3203.439	15.04274	-0.93551	12.99451	-1.41253
3207.433	15.06380	-0.89109	12.98473	-1.37225
3211.435	15.10973	-0.90339	12.87343	-1.37303
3215.440	15.06197	-0.97655	12.86593	-1.31179
3219.435	15.04726	-1.02929	12.85793	-1.25132
3223.432	15.02420	-1.05671	12.92875	-1.19943
3227.437	14.98711	-1.12758	12.93516	-1.21087
3231.435	14.94226	-1.19669	12.94438	-1.22155
3235.440	14.88954	-1.16439	12.95199	-1.26818
3239.435	14.82518	-1.17974	12.92918	-1.34559
3243.431	14.76479	-1.25839	12.90730	-1.30283
3247.469	14.76205	-1.26653	12.86607	-1.32866
3251.464	14.74026	-1.28553	12.83062	-1.30800
3255.441	14.69778	-1.25491	12.78949	-1.21787
3259.435	14.73444	-1.22612	12.77603	-1.18887
3263.461	14.76512	-1.23024	12.75372	-1.10357
3267.437	14.81212	-1.26751	12.75462	-1.05063
3271.433	14.89552	-1.18507	12.75665	-1.15388
3275.429	14.91916	-1.15297	12.78646	-1.06724
3279.436	14.86639	-1.16543	12.76076	-1.00920
3283.433	14.84278	-1.18087	12.76730	-0.98233
3287.436	14.90538	-1.16102	12.79369	-0.90602
3291.430	14.91291	-1.13268	12.78158	-0.84828
3295.435	14.88783	-1.13811	12.80140	-0.83971
3299.439	14.89928	-1.23479	12.82625	-0.80709
3303.437	14.70695	-1.26579	12.74723	-0.98888
3307.429	13.13519	-2.29125	11.71273	-1.83387
3311.441	9.98658	-4.29217	9.82547	-2.19060
3315.436	9.03827	-6.31618	6.08438	-4.80134
3319.436	7.44906	-7.87543	6.18399	-6.33023
3323.430	6.83171	-8.84731	5.61694	-6.73241
3327.433	6.54384	-9.43841	5.30055	-7.07089
3331.462	6.18681	-9.83494	2.85163	-7.64512
3335.486	6.11456	-10.03132	2.23474	-7.49619
3339.437	5.94570	-10.14264	2.50244	-7.29393
3343.433	6.08539	-10.24158	2.90671	-7.02512
3347.467	6.22652	-10.08847	2.97554	-7.04931
3351.429	5.90796	-10.11551	3.00091	-7.19956
3355.430	5.72077	-10.25193	2.97896	-7.25875
3359.430	5.71192	-10.35939	2.87354	-7.28488
3363.431	5.76062	-10.28924	2.85648	-7.37746
3367.433	5.55956	-10.32870	2.61573	-7.45575
3371.433	5.71863	-10.43820	2.55091	-7.46430
3375.434	5.63336	-10.43610	2.62638	-7.37489
3379.436	5.54720	-10.45198	2.43498	-7.51791
3383.434	5.47700	-10.49024	2.30211	-7.62748
3387.432	5.39345	-10.51625	2.11827	-7.69127
3391.427	5.44121	-10.57098	1.97818	-7.73176
3395.434	5.44985	-10.61416	2.15301	-7.66722
3399.433	5.52534	-10.54930	2.60253	-7.61777
3403.433	5.50805	-10.47277	2.43412	-7.54504
3407.429	5.30500	-10.56344	2.53498	-7.60114
3411.435	5.35674	-10.63908	2.87940	-7.58155
3415.431	5.37992	-10.60475	2.73477	-7.52225
3419.435	5.24941	-10.62368	2.54088	-7.51831
3423.436	5.32754	-10.58269	2.58056	-7.61439
3427.433	5.28475	-10.51207	2.62789	-7.47932
3431.479	5.42518	-10.55942	2.64864	-7.48291
3435.458	5.25478	-10.51861	2.66219	-7.45479
3439.456	5.28805	-10.49288	2.62769	-7.48657
3443.436	5.25480	-10.51345	2.47375	-7.51118
3447.433	5.27149	-10.59864	2.50422	-7.61244
3451.433	5.30018	-10.68303	2.37724	-7.66427
3455.442	5.32282	-10.67997	2.25731	-7.72063
3459.431	5.27090	-10.68037	2.49654	-7.64134
3463.433	5.35748	-10.61997	2.50207	-7.67939
3467.433	5.57692	-10.66535	2.53563	-7.63660
3471.437	5.62407	-10.68001	2.61169	-7.61491
3475.428	5.69148	-10.64923	2.58737	-7.57066
3479.430	5.46689	-10.69851	2.69970	-7.61496
3483.429	5.61849	-10.67698	2.60391	-7.63824
3487.432	5.65929	-10.66527	2.64044	-7.65777
3491.430	5.57205	-10.67370	2.55554	-7.62034
3495.433	5.76497	-10.57911	2.61325	-7.57417
3499.483	5.69175	-10.53857	2.51789	-7.57307
3503.433	5.33923	-10.51874	2.30377	-7.66623
3507.451	4.80988	-10.55092	2.28269	-7.75297
3511.426	4.90373	-10.57014	2.23325	-7.83910
3515.430	4.99687	-10.61362	2.08553	-7.91461
3519.436	5.20073	-10.61970	2.15192	-7.88280
3523.429	5.27405	-10.65424	2.08887	-7.92049
3527.430	5.34001	-10.73488	2.09266	-7.93808
3531.426	5.36575	-10.76928	2.07519	-7.97475
3535.431	5.33886	-10.75577	1.98529	-7.99557
3539.435	5.18820	-10.78619	1.95232	-8.03107
3543.430	5.37598	-10.80181	1.98318	-8.05787
3547.440	5.25542	-10.85944	2.01310	-8.05731
3551.430	5.35731	-10.88060	2.10748	-7.98599
3555.428	5.47338	-10.83371	2.13071	-7.93860
3559.438	5.58929	-10.82507	2.29520	-7.78813
3563.428	5.63395	-10.86939	2.40107	-7.64331
3567.427	5.65292	-10.90021	2.56552	-7.50748
3571.431	5.75458	-10.79452	2.65954	-7.42354
3575.430	5.64887	-10.75768	2.53853	-7.45458
3579.426	5.78293	-10.68772	2.87128	-7.27478
3583.432	5.83301	-10.59883	2.86165	-7.28634
3587.433	5.74937	-10.59028	2.88208	-7.26167
3591.431	5.69649	-10.59277	2.80828	-7.25844
3595.434	5.72072	-10.52753	2.79444	-7.24619
3599.433	5.74389	-10.55314	2.72573	-7.24707
3603.443	5.64243	-10.53101	2.61726	-7.32132
3607.431	5.63319	-10.43056	2.64805	-7.39705
3611.432	5.59110	-10.41146	2.43270	-7.43955
3615.428	5.49072	-10.40496	2.48190	-7.44114
3619.426	5.42132	-10.39654	2.59406	-7.41423
3623.447	5.43106	-10.38757	2.67972	-7.42940
3627.443	5.36506	-10.28929	2.80815	-7.44308
3631.438	5.39502	-10.23240	2.81201	-7.43556
3635.308	5.33743	-10.10717	2.74828	-7.37382
3639.321	5.36693	-9.70030	2.39990	-6.87809
3643.301	5.14921	-8.02861	2.31582	-5.44075
3647.303	5.12829	-7.14048	2.69255	-4.86783
3651.302	5.47048	-6.34308	3.00599	-4.19485
3655.305	6.17011	-6.42892	3.13021	-3.44920
3659.314	6.12477	-6.05658	3.40450	-2.86305
3663.315	5.92960	-4.71408	3.77152	-2.61793
3667.298	6.09120	-2.60967	3.70524	-0.36950
3671.300	6.16658	-2.10062	3.56015	1.24797
3675.308	6.24595	-2.12959	3.74721	1.42674
3679.308	6.22370	-0.22358	3.41523	1.98500
3683.301	6.02021	1.55754	2.50256	2.78087
3687.301	6.00636	1.64065	3.31012	3.17249
3691.301	5.82722	2.02399	2.98557	5.37021
3695.304	5.48054	3.92062	3.23606	5.92462
3699.301	5.40395	4.60861	3.11274	6.34957
3703.297	5.60649	3.36144	2.73043	7.57389
3707.300	5.05508	4.77145	2.55329	7.64932
3711.306	4.34497	5.17285	2.44995	8.04736
3715.299	4.14680	5.89929	2.40791	8.37564
3719.307	3.61419	6.70990	2.38524	8.66557
3723.300	3.55328	6.20985	2.30695	8.78406
3727.308	3.70045	5.62003	2.32592	8.75894
3731.301	4.99219	5.54284	2.33829	8.54680
3735.299	4.62473	5.79395	2.35229	8.52200
3739.299	4.17625	6.14734	2.23987	8.62295
3743.302	3.79581	6.35185	2.15985	8.80454
3747.302	3.54707	6.45951	2.07484	8.82391
3751.306	3.49053	6.27984	1.96925	8.82862
3755.301	3.44802	6.17960	1.87490	8.82612
3759.304	3.30341	6.17524	1.71471	8.81104
3763.300	4.59346	6.05827	1.60451	8.80371
3767.304	4.05987	6.14938	1.56727	8.78288
3771.299	5.15106	5.94381	1.86970	8.65551
3775.303	4.22128	6.01371	1.99630	8.62666
3779.303	3.87351	6.06970	1.62711	8.79374
3783.300	3.60212	6.02968	1.98261	8.66836
3787.299	3.66318	5.82053	2.00871	8.58392
3791.300	3.64563	5.73623	2.22850	8.45082
3795.301	3.90484	5.75357	2.19497	8.39544
3799.304	3.85469	5.78817	2.19383	8.25720
3803.306	4.82513	5.85737	2.22453	8.21554
3807.310	5.27055	5.70899	2.22607	8.17804
3811.307	5.14852	5.74398	2.15685	8.15805
3815.298	4.02290	5.95324	2.03766	8.15039
3819.298	3.73893	6.01515	1.83985	8.31843
3823.300	3.60830	6.18374	1.93028	8.33461
3827.299	3.92946	5.78015	1.99456	8.40442
3831.299	3.78079	6.07602	2.33217	8.41563
3835.303	4.19032	5.95855	2.29609	8.44021
3839.301	4.09604	5.99120	2.21108	8.45714
3843.300	4.11051	5.97449	2.09484	8.66262
3847.302	4.68915	5.07189	1.95939	8.73065
3851.298	4.37029	4.96303	1.85760	8.79630
3855.297	4.19835	5.36857	1.75805	8.83218
3859.301	4.10130	5.21837	1.77444	8.88162
3863.302	4.29737	5.10078	1.93923	8.85106
3867.294	4.22619	5.13980	2.26807	8.83327
3871.302	4.42925	5.04670	2.25305	8.89076
3875.301	4.75891	5.06017	2.03090	8.91562
3879.309	4.72726	4.93912	1.91786	8.98688
3883.300	4.60732	4.93320	1.89342	9.01758
3887.300	4.53613	4.85568	1.74283	9.00439
3891.303	4.33892	4.92115	1.55717	9.00815
3895.297	4.44213	4.94804	1.71714	8.94889
3899.299	4.49023	4.89775	2.10947	8.92095
3903.301	4.52094	4.88242	2.24611	8.82072
3907.297	4.64320	4.93713	2.28536	8.90288
3911.299	4.89405	4.84813	2.17569	8.89314
3915.300	4.46305	4.92348	1.99620	8.84788
3919.295	4.48542	4.90012	1.96516	8.79166
3923.298	4.33219	4.90776	1.78262	8.71543
3927.303	4.26151	4.94777	1.66958	8.68842
3931.302	4.63657	4.86715	1.59345	8.67860
3935.299	4.72595	4.70870	2.37139	8.63556
3939.290	4.76734	4.80018	2.43097	8.62136
3943.319	4.75117	4.94937	2.00108	8.64601
3947.304	3.67816	5.69851	0.90192	9.28179
3951.296	-0.86793	9.41915	-1.35246	12.30838
3955.295	-4.13337	11.60016	-3.66656	13.75398
3959.299	-4.16902	11.42770	NaN	NaN
3963.299	-3.94505	11.53694	NaN	NaN
3967.305	-1.64030	11.21903	NaN	NaN
3971.297	-1.58356	11.00009	-2.14954	14.08298
3975.298	-1.37811	10.34014	-1.52585	13.38314
3979.296	-0.74484	9.73570	-1.44560	12.64722
3983.297	-0.96291	9.70648	-1.28385	12.68652
3987.302	-1.35149	9.87289	-1.60253	13.05310
3991.296	-2.25216	10.51302	-1.84852	13.30575
3995.299	-2.06711	10.33975	-2.75945	13.66626
3999.303	-2.36792	10.49363	-2.47620	13.65554
4003.298	-2.26864	10.50129	-2.79597	13.76201
4007.301	-2.37892	10.66331	-2.90646	13.93017
4011.337	-2.62219	10.79676	-3.00094	13.91701
4015.311	-2.05886	10.80510	-3.12791	13.79376
4019.297	-1.50495	10.85323	-3.18633	13.94424
4023.294	-1.63549	10.83977	-3.36891	14.05955
4027.297	-1.94131	10.92267	-3.32434	14.06621
4031.291	-2.25020	11.01290	-3.30260	14.11115
4035.302	-2.44375	11.08961	-3.34497	14.15485
4039.294	-2.46357	11.10630	-3.45064	14.18397
4043.298	-2.64800	11.14999	-3.35271	14.21387
4047.385	-2.89750	11.20700	-3.37005	14.27406
4051.305	-3.12460	11.22043	-3.23009	14.29050
4055.295	-2.67358	11.20320	-3.31541	14.36651
4059.303	-2.60240	11.22004	-3.43031	14.48114
4063.298	-2.54752	11.26992	-3.44389	14.48264
4067.297	-2.44348	11.33652	-3.44579	14.44908
4071.295	-2.27466	11.37697	-3.46852	14.40720
4075.291	-2.22565	11.36207	-3.73655	14.57131
4079.302	-2.36373	11.34993	-3.93764	14.63196
4083.296	-1.97176	11.30984	-3.32991	14.45450
4087.290	-2.14734	11.24696	-3.28783	14.46044
4091.305	-2.09264	11.06782	-3.21891	14.19663
4095.294	-2.20300	11.06479	-3.28993	14.57282
4099.297	-2.27766	11.05027	-3.05657	14.38446
4103.292	-2.54281	11.11669	-3.04108	14.35552
4107.292	-2.44504	11.03919	-2.90839	14.17784
4111.293	-2.38412	11.01765	-2.87408	14.24870
4115.296	-2.26433	11.03856	-2.78394	14.00905
4119.297	-2.23058	11.06583	-2.73709	14.06023
4123.295	-2.25714	11.07023	-2.72828	13.96542
4127.291	-2.15145	11.09410	-2.77332	14.02034
4131.296	-1.98876	10.98793	-2.98260	14.13692
4135.299	-1.92904	11.02620	-3.41632	14.33037
4139.296	-2.30838	11.09124	-3.57629	14.22300
4143.295	-2.44259	11.14233	-3.49594	14.24695
4147.329	-2.47232	11.14488	-2.82192	13.91956
4151.305	-2.51051	11.10597	-2.56476	14.02851
4155.299	-2.70550	11.14735	-2.44202	14.02657
4159.294	-2.99368	11.15968	-2.59354	14.02667
4163.293	-3.18160	11.21807	-2.53060	14.01723
4167.294	-2.97386	11.14000	-2.77030	13.95669
4171.300	-2.98448	11.11115	-2.93240	14.08167
4175.304	-2.63158	11.08598	-4.06695	14.18039
4179.296	-3.03650	11.43242	-1.69664	13.18311
4183.297	0.10031	8.76487	-0.13389	12.17807
4187.300	NaN	NaN	NaN	NaN
4191.294	NaN	NaN	NaN	NaN
4195.286	NaN	NaN	NaN	NaN
4199.295	NaN	NaN	NaN	NaN
4203.293	NaN	NaN	NaN	NaN
4207.299	NaN	NaN	NaN	NaN
4211.294	NaN	NaN	NaN	NaN
4215.810	NaN	NaN	NaN	NaN
4219.588	NaN	NaN	NaN	NaN
4223.300	NaN	NaN	NaN	NaN
4227.296	NaN	NaN	NaN	NaN
4231.294	NaN	NaN	NaN	NaN
4235.291	NaN	NaN	NaN	NaN
4239.296	NaN	NaN	-9.45954	10.82820
4243.295	NaN	NaN	3.67287	-0.25906
4247.313	NaN	NaN	8.25999	2.33985
4251.292	NaN	NaN	8.27929	-1.91548
4255.288	NaN	NaN	3.80036	-2.50461
4259.301	NaN	NaN	1.46063	-2.48560
4263.289	0.76367	10.92056	1.93755	-2.75812
4267.294	6.67811	-1.04429	9.72817	-1.52384
4271.287	5.80708	-4.31640	8.21859	-1.70012
4275.298	5.94504	-4.40293	8.54348	-1.79043
4279.291	5.87788	-4.15977	8.26070	-1.77144
4283.291	7.06897	-3.73770	8.22642	-1.89431
4287.292	8.24431	-4.07796	8.12617	-1.95614
4291.296	9.68935	-3.91674	7.63911	-2.09484
4295.291	9.40209	-4.03531	7.45306	-2.16141
4299.302	9.41414	-3.95942	7.68106	-2.13423
4303.294	9.44875	-4.01315	7.55518	-2.16951
4307.293	9.44863	-4.09742	7.43274	-2.15848
4311.296	9.41356	-4.02198	7.45270	-2.16579
4315.289	9.50718	-3.98159	7.36044	-2.22855
4319.288	9.51761	-3.87971	7.37846	-2.22925
4323.292	9.61723	-4.05935	7.31714	-2.30508
4327.291	9.71143	-4.12143	7.24424	-2.32406
4331.293	9.69516	-4.09577	7.19285	-2.31401
4335.289	9.75034	-4.10531	7.14284	-2.31707
4339.291	9.84920	-4.09059	7.07429	-2.35762
4343.296	9.81706	-4.18070	7.12129	-2.40279
4347.293	9.89354	-4.21543	7.20321	-2.42151
4351.300	9.92656	-4.17644	7.24297	-2.35879
4355.294	9.98008	-4.13189	7.26732	-2.36641
4359.293	9.99903	-4.11179	7.32041	-2.33486
4363.293	10.00793	-4.13621	7.40757	-2.27022
4367.289	9.95565	-4.36988	7.47770	-2.17462
4371.290	9.92957	-4.33689	7.47673	-2.14176
4375.291	9.91177	-4.35832	7.53688	-2.16960
4379.291	9.88143	-4.35992	7.60470	-2.07161
4383.292	9.85787	-4.38708	7.61860	-2.00425
4387.288	9.82655	-4.42220	7.63406	-2.04712
4391.292	9.81130	-4.36035	7.62926	-2.04449
4395.295	9.81004	-4.34109	7.54810	-2.09560
4399.286	9.80520	-4.41783	7.36769	-2.09100
4403.287	9.78397	-4.44124	7.29169	-2.16043
4407.289	9.78267	-4.47076	7.29833	-2.23876
4411.293	9.81356	-4.44795	7.18846	-2.32476
4415.288	9.78479	-4.45187	6.96098	-2.35992
4419.288	9.79780	-4.46827	6.91077	-2.45473
4423.299	9.80486	-4.50305	6.84490	-2.52436
4427.295	9.75239	-4.58127	6.84159	-2.55073
4431.285	9.76216	-4.58590	6.81417	-2.61630
4435.306	9.75191	-4.62947	6.79464	-2.68892
4439.332	9.74427	-4.72322	6.82134	-2.68310
4443.302	9.76490	-4.80289	6.81911	-2.66539
4447.290	9.82118	-4.78749	6.98768	-2.62691
4451.287	9.79033	-4.77901	7.13893	-2.56304
4455.284	9.80009	-4.80436	7.02871	-2.57007
4459.292	9.71298	-4.78449	7.20079	-2.44655
4463.290	9.68645	-4.74760	7.33076	-2.40463
4467.291	9.56856	-4.67291	7.35080	-2.34166
4471.310	9.55671	-4.64101	7.36891	-2.33847
4475.296	9.61272	-4.45901	7.37028	-2.26561
4479.291	9.67989	-4.34024	7.34868	-2.19852
4483.290	9.65946	-4.37280	7.35375	-2.12264
4487.290	9.57877	-4.26586	7.44293	-2.07709
4491.164	9.60931	-4.19525	7.41726	-2.03367
4495.166	9.64391	-4.18069	7.36586	-2.01823
4499.168	9.71594	-4.10117	7.20282	-2.00619
4503.163	9.75668	-4.06291	7.15841	-1.99030
4507.160	9.77353	-4.04382	7.10384	-1.95714
4511.169	9.78544	-4.08422	7.09050	-1.97560
4515.167	9.79045	-4.05575	7.12422	-1.95200
4519.159	9.81706	-4.07384	7.28097	-1.92681
4523.167	9.76042	-4.05438	7.40440	-1.92672
4527.165	9.82532	-4.04073	7.60136	-1.95820
4531.160	9.70167	-4.10924	7.56805	-2.03366
4535.160	9.68660	-4.12234	7.26942	-2.09510
4539.164	9.75842	-4.14217	6.97110	-2.18733
4543.168	9.72457	-4.16405	7.09243	-2.16706
4547.168	9.80108	-4.17325	6.91769	-2.17024
4551.163	9.79050	-4.21038	7.11173	-2.18679
4555.213	9.92774	-4.20754	7.09712	-2.18738
4559.169	9.66122	-4.20455	7.06774	-2.19087
4563.166	9.70555	-4.22200	7.07852	-2.16668
4567.162	9.85324	-4.24933	7.37851	-2.19323
4571.164	10.32513	-4.25499	7.39793	-2.26020
4575.186	12.29152	-3.79596	10.41940	-1.80821
4579.177	14.81177	-1.90025	12.67445	-2.00273
4583.159	16.44955	0.58806	14.69176	-1.37689
4587.161	17.59550	0.49634	16.34357	-1.71211
4591.160	18.06629	0.91226	16.55151	-1.82460
4595.170	18.05211	1.10610	17.25850	-1.79241
4599.171	18.13571	0.97840	16.98689	-2.06457
4603.157	17.81451	0.45748	15.67492	-2.27097
4607.164	16.82095	-0.75207	15.02219	-2.48469
4611.162	15.98390	-0.89386	14.86291	-2.21130
4615.162	16.67068	0.10312	15.13968	-2.27404
4619.163	17.12566	0.47254	15.75929	-2.04519
4623.157	17.71444	0.83157	16.31601	-2.20670
4627.163	17.43973	0.32383	16.54289	-2.33724
4631.167	17.51379	0.48746	16.69168	-2.39788
4635.162	17.45816	0.34039	16.45286	-2.40111
4639.187	17.31373	0.24769	16.49043	-2.39713
4643.159	17.19968	0.10200	16.44302	-2.26711
4647.162	17.25524	0.06493	16.42412	-2.20669
4651.161	17.28914	-0.14713	16.52743	-2.14609
4655.158	17.29855	-0.25402	16.36005	-2.11213
4659.160	17.32153	-0.69908	16.40532	-2.04425
4663.162	17.35342	-0.59587	16.40238	-1.96835
4667.158	17.31574	-0.60427	16.33377	-2.08667
4671.157	17.28550	-0.64923	16.26410	-2.03238
4675.159	17.27459	-0.46803	15.91232	-1.98254
4679.169	17.25042	-0.59407	15.69470	-1.97041
4683.157	17.30502	-0.55307	15.69254	-1.91759
4687.160	17.35573	-0.52477	15.65589	-1.92475
4691.166	17.34548	-0.58776	15.53900	-1.93510
4695.167	17.33277	-0.68215	15.59501	-1.96015
4699.160	17.38751	-0.58680	15.45673	-1.93286
4703.157	17.42346	-0.51950	15.41139	-1.94998
4707.162	17.43711	-0.47845	15.37054	-1.97159
4711.160	17.48805	-0.45592	15.39658	-1.94457
4715.163	17.51548	-0.45666	15.37690	-1.88327
4719.179	17.55343	-0.49980	15.40007	-1.86362
4723.175	17.54946	-0.53605	15.49831	-1.81657
4727.161	17.54123	-0.58183	15.62607	-1.83775
4731.163	17.51338	-0.68904	15.72662	-1.88724
4735.156	17.53818	-0.65156	15.82596	-1.92529
4739.157	17.57358	-0.60610	15.80659	-1.94248
4743.159	17.52807	-0.68514	15.89749	-1.92699
4747.163	17.48523	-0.69938	15.95119	-1.92233
4751.160	17.48616	-0.73151	16.06174	-1.94097
4755.155	17.46678	-0.65952	16.06806	-1.85590
4759.186	17.46457	-0.66761	16.14219	-1.88074
4763.169	17.43830	-0.67301	16.22457	-1.83467
4767.162	17.44682	-0.64032	16.24942	-1.86451
4771.155	17.32721	-0.74372	16.21549	-1.81545
4775.155	17.36857	-0.60351	16.18855	-1.73218
4779.164	17.30946	-0.59813	16.06350	-1.72044
4783.163	17.29423	-0.60999	15.89574	-1.69671
4787.160	17.26563	-0.61564	15.77184	-1.70330
4791.154	17.29952	-0.57161	15.72619	-1.67373
4795.159	17.28952	-0.54419	15.72975	-1.60765
4799.162	17.32782	-0.52828	15.72122	-1.64710
4803.164	17.34987	-0.64256	15.65946	-1.63790
4807.171	17.39955	-0.65293	15.68575	-1.62597
4811.161	17.37510	-0.72325	15.66038	-1.59901
4815.157	17.38708	-0.65570	15.64029	-1.60802
4819.159	17.39696	-0.71461	15.73361	-1.53685
4823.157	17.40532	-0.74099	15.78800	-1.56643
4827.181	17.37273	-0.81472	15.87361	-1.54976
4831.173	17.36447	-0.80261	15.94066	-1.50973
4835.175	17.34173	-0.77566	15.88229	-1.46713
4839.158	17.34688	-0.78856	15.92260	-1.47825
4843.158	17.35785	-0.78801	15.93976	-1.53098
4847.166	17.33341	-0.74695	15.93770	-1.66212
4851.157	17.33599	-0.69891	15.91186	-1.75345
4855.161	17.40787	-0.62026	15.87042	-1.79889
4859.161	17.45127	-0.58806	15.84263	-1.85111
4863.155	17.46003	-0.51653	15.88218	-1.91759
4867.155	17.50528	-0.48429	15.82451	-1.98061
4871.162	17.56289	-0.37831	15.78012	-2.05329
4875.157	17.64694	-0.28811	15.72899	-1.89193
4879.152	17.59360	-0.35610	15.65840	-1.83765
4883.157	17.58194	-0.30932	15.64551	-1.89949
4887.164	17.58352	-0.29996	15.58608	-1.79450
4891.154	17.52976	-0.32187	15.48626	-1.68469
4895.154	17.45161	-0.32727	15.51292	-1.66064
4899.154	17.35785	-0.36558	15.51721	-1.49182
4903.161	17.26685	-0.38401	15.43632	-1.42174
4907.158	17.21173	-0.39482	15.45548	-1.38388
4911.152	17.23333	-0.38574	15.41335	-1.33599
4915.156	17.22165	-0.38486	15.33703	-1.31119
4919.162	17.15791	-0.47229	15.33940	-1.31187
4923.155	17.15974	-0.41861	15.34030	-1.33248
4927.156	17.17284	-0.34011	15.33615	-1.29570
4931.160	17.09961	-0.39190	15.31364	-1.28328
4935.164	17.08472	-0.24059	15.41095	-1.28110
