time (ms)	lx (deg)	ly (deg)	rx (deg)	ry (deg)
0.000	2.91861	-2.06702	6.11518	-13.78539
4.003	2.93126	-2.19973	5.87270	-13.62393
8.006	2.93802	-2.21830	5.82402	-13.26650
12.002	2.97918	-2.19612	5.49455	-13.05346
16.011	2.84207	-2.19289	7.40296	-12.96005
20.003	2.91916	-2.28946	7.53527	-12.77626
24.001	3.00465	-2.34250	6.28724	-12.73373
28.001	2.96272	-2.26504	7.88190	-12.53359
32.000	2.83120	-2.14151	5.82707	-13.71248
35.999	2.97406	-2.22106	5.86239	-13.45934
40.015	2.89846	-2.12776	5.55359	-13.18238
44.000	2.83031	-2.18221	6.85718	-13.21318
48.009	2.87519	-2.27279	6.96692	-13.06025
52.000	2.77314	-2.10506	6.42633	-12.87072
56.009	2.85559	-2.29226	6.75159	-12.60355
60.005	2.97453	-2.41579	3.41590	-13.59991
64.009	3.26567	-2.29542	4.27698	-13.43312
67.999	3.63020	-2.27763	5.23996	-13.39247
72.009	4.41257	-2.18830	7.45638	-13.61289
76.004	5.35396	-2.38269	7.62545	-13.46311
79.998	4.65977	-2.25565	6.19986	-13.36467
84.000	4.20353	-2.38231	6.04335	-12.98849
88.001	3.89140	-2.52545	8.07840	-13.13705
91.924	4.23986	-2.43158	8.06898	-12.68126
95.887	4.52565	-2.37437	7.83173	-12.69077
99.877	4.37781	-2.42968	7.72288	-12.36841
103.874	4.41711	-2.36624	7.79968	-11.82008
107.901	4.59164	-2.44581	5.16017	-13.14705
111.882	4.43132	-2.45594	8.42330	-11.89440
115.872	4.45488	-2.36701	8.38816	-11.65054
119.874	4.60594	-2.31169	7.77047	-11.37648
123.883	4.39868	-2.30171	5.47208	-12.78553
127.874	4.52920	-2.37446	5.19601	-12.69716
131.889	4.51877	-2.32691	8.65436	-11.52876
135.875	4.58888	-2.34506	8.70173	-11.37122
139.885	4.48367	-2.36780	7.73143	-11.38096
143.870	4.61507	-2.43255	7.70904	-11.35575
147.890	4.67589	-2.41231	7.44089	-11.35740
151.865	4.55810	-2.38020	6.57323	-11.41481
155.870	4.52338	-2.36740	6.77541	-11.42686
159.867	4.57800	-2.39872	8.41148	-11.63878
163.885	4.57593	-2.46675	7.27216	-11.80567
167.871	4.58732	-2.51732	7.17722	-11.65346
171.876	4.65893	-2.48142	7.01436	-11.77773
175.871	4.72317	-2.47793	7.01472	-11.92385
179.878	4.93575	-2.45570	6.96553	-11.90658
183.875	4.86002	-2.45358	6.88712	-11.97566
187.874	4.75506	-2.17333	6.73370	-12.05302
191.884	4.83459	-2.19889	6.35672	-12.09491
195.872	4.77818	-2.09726	6.06129	-12.11291
199.880	4.70419	-2.09390	5.60224	-12.14248
203.870	4.70360	-2.14272	5.72175	-12.09382
207.877	4.84060	-2.24315	3.58161	-12.69602
211.929	4.76660	-2.44067	7.06386	-11.97123
215.871	4.67791	-2.40254	7.04750	-11.81463
219.869	4.59586	-2.26615	7.52969	-11.61199
223.867	4.51714	-2.26820	6.10686	-12.31492
227.889	4.43061	-2.38833	6.70433	-12.01520
231.878	4.60030	-2.36272	6.89473	-11.88798
235.873	4.48091	-2.44571	6.90285	-11.70457
239.869	4.45106	-2.49072	6.79804	-11.49194
243.870	4.46608	-2.50080	7.05736	-11.22867
247.873	4.75487	-2.53592	5.46352	-11.97457
251.882	4.57756	-2.48141	5.96777	-11.85160
255.871	4.47565	-2.23865	6.15296	-11.62836
259.871	4.43206	-2.30069	6.26699	-11.40455
263.873	4.55574	-2.10270	6.08640	-11.32509
267.869	4.73816	-1.88836	5.18153	-11.99382
271.872	5.05149	-2.14327	5.50710	-11.92592
275.878	4.84425	-2.13507	5.69266	-11.86821
279.930	4.84938	-2.06230	5.78047	-11.77323
283.869	4.89649	-2.18170	5.80860	-11.71558
287.872	4.86702	-2.07305	5.78583	-11.63478
291.928	4.91784	-2.32797	5.82705	-11.40202
295.871	4.94612	-2.13650	5.91302	-11.26212
299.879	5.11748	-2.04166	5.21730	-12.01506
303.891	5.20814	-2.15508	5.12282	-12.08098
307.868	5.27944	-2.15602	5.52492	-11.90819
311.877	5.17732	-2.23908	4.99283	-12.02267
315.874	5.13493	-2.25653	4.87271	-11.96421
319.872	5.16964	-2.28642	5.05518	-11.97706
323.868	5.21055	-2.19866	5.46549	-11.83446
327.882	5.28874	-2.18756	5.25488	-11.83824
331.877	5.36080	-2.16596	4.98312	-12.00606
335.874	5.43160	-2.13656	5.28315	-11.98173
339.867	5.51191	-2.19436	5.16738	-12.04544
343.873	5.53776	-2.20202	5.20031	-12.03304
347.926	5.49640	-2.16708	5.21890	-11.98598
351.868	5.49753	-2.24033	5.35623	-11.99689
355.875	5.58184	-2.21929	5.47006	-11.98516
359.864	5.55907	-2.25894	5.61952	-12.00458
363.890	5.60094	-2.20505	5.75964	-12.00812
367.872	5.55784	-2.01745	5.97502	-11.99177
371.877	5.35018	-1.97293	6.19032	-12.01413
375.873	5.38516	-2.04580	6.33544	-12.01455
379.868	5.25116	-1.62740	6.68183	-11.99597
383.871	5.33455	-2.05047	6.95411	-11.93641
387.873	5.27513	-1.97665	7.13935	-11.79448
391.869	5.22042	-1.92333	7.66733	-11.78951
395.873	5.21853	-2.57165	3.65843	-12.30197
399.878	5.14591	-2.26007	6.60335	-11.34557
403.872	5.13732	-2.38992	6.74119	-11.07419
407.867	5.17535	-2.44267	6.67174	-10.88783
411.872	5.12974	-2.24735	6.33645	-11.86687
415.873	5.20782	-2.03633	6.37062	-11.97644
419.870	5.03319	-1.68626	6.45655	-12.01433
423.867	5.06794	-2.08968	6.48318	-11.96855
427.867	5.09968	-2.05101	7.25497	-11.82694
431.869	5.20460	-2.47150	5.81626	-11.49506
435.899	5.08682	-2.04796	5.92432	-11.55608
439.877	5.17139	-2.25645	5.90374	-11.62049
443.871	5.06402	-2.41885	6.19174	-11.54923
447.870	5.01034	-2.25545	6.76415	-11.41486
451.867	5.07092	-2.16264	3.20041	-12.20493
455.877	5.05787	-2.24735	3.30722	-12.47123
459.868	5.11061	-2.48931	5.95461	-11.37220
463.869	5.14180	-2.47390	5.93097	-11.36151
467.872	5.16295	-2.45045	6.79415	-11.28799
471.873	5.21791	-2.34695	6.85336	-11.30777
475.868	5.19448	-2.23395	5.62144	-11.30484
479.910	5.24139	-2.41887	5.67592	-11.50071
483.878	5.42336	-2.30129	5.68254	-11.53320
487.868	5.19650	-2.03570	6.79141	-11.53990
491.886	5.18742	-1.88388	5.18434	-11.51740
495.899	5.43657	-2.24115	5.19544	-11.62622
499.869	5.21678	-2.29433	6.87254	-10.94056
503.875	5.12090	-2.18342	7.21664	-10.82737
507.864	5.19318	-2.19286	3.99766	-11.78552
511.867	5.20888	-2.33797	4.50236	-12.01752
515.869	4.88520	-1.99278	6.76165	-10.89885
519.874	5.38941	-2.33889	6.98020	-10.88959
523.871	5.07727	-2.03855	7.32285	-11.03385
527.869	4.98780	-1.54716	5.30402	-10.74798
531.866	5.33854	-2.01579	6.68411	-10.80676
535.879	5.48191	-2.30196	7.03130	-10.77687
539.864	5.20351	-2.07930	7.48466	-10.74006
543.864	5.12634	-1.92921	5.93927	-10.71639
547.890	5.39839	-1.93173	6.38807	-10.76840
551.871	5.51885	-2.19375	7.00575	-10.72903
555.864	5.26775	-1.93406	7.42127	-10.69208
559.873	5.39303	-1.87093	5.54398	0.01598
563.875	5.30451	-2.00962	2.86477	0.24587
567.861	5.44817	-2.14626	3.41857	0.43517
571.886	5.46674	-1.89869	3.69081	0.59525
575.866	5.38152	-2.05130	3.37925	0.51436
579.869	5.39278	-2.08842	3.29011	0.44746
583.869	5.38754	-2.14195	3.19825	0.50448
587.868	5.38904	-1.98918	3.32375	0.44647
591.861	5.39077	-2.11239	3.24494	0.50803
595.877	5.35746	-2.26447	3.12158	0.42267
599.869	5.49652	-2.29760	3.19232	0.46841
603.873	5.50911	-2.47837	3.22651	0.43667
607.874	5.41768	-2.40109	3.30003	0.46432
611.865	5.37515	-2.27626	3.20298	0.54048
615.893	5.41610	-2.44120	3.23771	0.46475
619.874	5.37704	-2.47311	3.31957	0.51122
623.885	5.44812	-2.50312	3.26309	0.65098
627.868	5.32451	-2.48412	3.23499	0.63465
631.869	5.40769	-2.40570	3.40074	0.57487
635.865	5.16662	-2.30292	3.38689	0.51704
639.865	5.46332	-2.38755	3.26653	0.53159
643.873	5.39318	-2.36540	3.35879	0.47791
647.865	5.26758	-2.16876	3.34764	0.49181
651.877	5.17819	-1.93671	3.28578	0.55862
655.862	5.41551	-2.28082	3.15132	0.55474
659.874	5.41153	-2.29072	3.32669	0.60225
663.865	5.37697	-1.65473	3.28706	0.59476
667.867	5.29595	-1.77462	3.34099	0.63002
671.880	5.44702	-2.11748	3.21226	0.52531
675.868	5.57326	-2.36703	3.18111	0.65131
679.863	5.53274	-2.41808	3.20422	0.68250
683.900	5.42828	-2.36642	3.27069	0.70111
687.875	5.46150	-2.07499	3.36231	0.77002
691.878	5.53476	-2.03193	3.31578	0.76956
695.871	5.63741	-2.59706	3.21391	0.77274
699.864	5.57333	-2.63580	3.27044	0.84559
703.870	5.56092	-2.60352	3.42881	0.81971
707.857	5.57195	-2.32457	3.41548	0.77677
711.902	5.56502	-2.35867	3.35550	0.63668
715.867	5.60362	-2.74389	3.37576	0.59317
719.867	5.53960	-2.69516	3.38662	0.70799
723.865	5.48216	-2.56906	3.30853	0.56508
727.875	5.45705	-2.45325	3.38817	0.66159
731.859	5.42235	-2.28463	3.30678	0.57041
735.873	5.44372	-2.23206	3.23902	0.71961
739.870	5.46696	-2.15773	3.25837	0.64205
743.867	5.42311	-2.46300	3.25879	0.61412
755.186	5.55202	-2.41033	3.26700	0.54037
758.855	5.44958	-2.06594	3.32014	0.55225
761.917	5.42237	-1.88070	3.26428	0.62555
764.660	5.36447	-1.52362	3.19190	0.69665
767.870	5.35537	-1.54641	3.15825	0.56112
771.873	5.43007	-1.82695	3.21572	0.60926
775.861	5.29644	-2.05957	3.17477	0.68163
779.867	5.41108	-2.03635	3.17764	0.76899
783.857	5.42589	-1.83504	3.32530	0.62735
787.866	5.42095	-1.88713	3.27927	0.62123
791.861	5.47670	-1.72640	3.26495	0.50745
795.881	5.42299	-3.17014	3.21708	0.64665
799.865	5.35308	-2.34958	3.25288	0.63739
803.859	5.40053	-2.01746	3.23346	0.66410
807.861	5.41401	-1.94082	3.23319	0.56167
811.870	5.60062	-2.14094	3.19194	0.60970
815.864	5.52202	-2.38220	3.27707	0.58105
819.859	5.51568	-2.94605	3.35639	0.62101
823.863	5.50857	-2.66060	3.25288	0.51324
827.863	5.44493	-2.62644	3.30799	0.58296
831.864	5.39264	-2.24902	3.38902	0.63651
835.861	5.52627	-2.46647	3.39582	0.68842
839.860	5.38973	-2.29485	3.21325	0.69190
843.867	5.49446	-2.43318	3.09522	0.66858
847.861	5.50169	-2.49781	3.10252	0.67555
851.869	5.50149	-2.34122	3.16525	0.75248
855.862	5.42444	-2.09320	3.27675	0.70847
859.886	5.41930	-2.19816	3.22111	0.68122
863.868	5.49441	-2.24052	3.26737	0.64703
867.865	5.41519	-2.24284	3.20647	0.72926
871.866	5.52964	-2.08582	3.31318	0.70269
875.865	5.55942	-2.31376	3.21943	0.74961
879.869	5.62640	-2.16549	3.06357	0.64743
883.866	5.61694	-2.26225	2.98158	0.63882
887.861	5.69133	-2.05502	3.01212	0.66272
891.876	5.65511	-2.06384	3.00376	0.65266
895.906	5.71099	-2.20344	3.10104	0.69224
899.862	5.64783	-2.21477	3.10797	0.77674
903.863	5.62940	-2.23716	3.16792	0.79091
907.872	5.62616	-2.44458	3.12143	0.75254
911.863	5.65186	-2.23530	3.16307	0.78133
915.855	5.61859	-2.28308	3.11497	0.74118
919.869	5.59506	-1.84680	3.03863	0.79393
923.861	5.48206	-1.62286	3.08832	0.80215
927.869	5.45282	-1.25442	3.14412	0.87328
931.856	5.39005	-1.79108	3.21483	0.92739
935.864	5.37018	-2.11481	3.23677	0.94372
939.866	5.40102	-1.92033	3.18989	0.88837
943.871	5.34432	-1.79925	3.18435	0.80136
947.737	5.34009	-2.04252	3.17443	0.73891
951.735	5.31935	-2.12475	3.31811	0.67684
955.738	5.34235	-2.29535	3.16374	0.68717
959.739	5.32916	-2.30664	3.20333	0.71170
963.776	5.41962	-1.84445	3.11863	0.70697
967.741	5.45078	-2.09099	3.11334	0.76996
971.740	5.41785	-2.06961	3.22327	0.74974
975.732	5.43170	-2.18344	3.36114	0.69390
979.738	5.43902	-1.88912	3.40667	0.70059
983.736	5.43179	-1.90936	3.41985	0.75861
987.767	5.58346	-1.23155	3.44317	0.80641
991.738	5.58506	-2.10158	3.34895	0.82308
995.737	5.73279	-2.29840	3.40962	0.85341
999.761	5.56126	-1.89938	3.39050	0.83611
1003.733	5.67595	-2.16990	3.40356	0.81309
1007.743	5.60177	-2.09216	3.43870	0.85609
1011.733	5.56232	-2.03124	3.46842	0.83964
1015.730	5.65226	-2.21503	3.46335	0.82102
1019.737	5.57028	-2.19877	3.46728	0.78732
1023.740	5.61519	-2.09177	3.45561	0.63967
1027.733	5.67334	-2.23275	3.47898	0.54844
1031.759	5.66514	-2.36799	3.48978	0.58223
1035.743	5.73394	-2.39758	3.51090	0.52505
1039.731	5.64651	-2.67184	3.48993	0.48005
1043.736	5.65970	-2.65845	3.51505	0.48428
1047.727	5.64471	-2.57467	3.43548	0.42088
1051.751	5.67919	-2.62298	3.35523	0.52469
1055.735	5.68298	-2.63293	3.40373	0.49912
1059.734	5.67499	-2.79472	3.41721	0.61519
1063.751	5.68794	-2.30875	3.38622	0.59874
1067.737	5.68951	-2.40183	3.41357	0.59927
1071.737	5.68843	-2.27698	3.43388	0.66845
1075.738	5.68556	-2.17979	3.51238	0.67016
1079.732	5.59550	-2.19929	3.53332	0.73499
1083.732	5.59668	-2.30504	3.23066	0.86083
1087.732	5.61286	-2.04848	3.31996	0.84987
1091.738	5.60485	-1.98372	3.17171	0.90201
1095.735	5.57540	-2.20270	3.29716	0.94436
1099.737	5.70581	-2.00716	3.50850	1.03103
1103.763	5.56881	-1.78296	3.35763	1.55432
1107.735	5.25995	-1.35661	3.95580	1.15188
1111.737	5.31989	-0.55517	0.12446	1.42706
1115.732	3.81026	-0.37047	0.33310	1.41895
1119.746	5.70989	-0.71261	-1.27309	2.22013
1123.731	2.52733	0.31607	-1.66269	7.62725
1127.738	NaN	NaN	7.48161	-0.93858
1131.730	NaN	NaN	5.60765	11.38812
1135.730	NaN	NaN	NaN	NaN
1139.733	NaN	NaN	NaN	NaN
1143.732	NaN	NaN	NaN	NaN
1147.734	NaN	NaN	NaN	NaN
1151.727	NaN	NaN	NaN	NaN
1155.762	NaN	NaN	NaN	NaN
1159.756	NaN	NaN	NaN	NaN
1163.734	NaN	NaN	NaN	NaN
1168.258	NaN	NaN	NaN	NaN
1171.918	NaN	NaN	NaN	NaN
1175.727	NaN	NaN	NaN	NaN
1179.729	NaN	NaN	NaN	NaN
1183.743	NaN	NaN	NaN	NaN
1187.825	NaN	NaN	NaN	NaN
1191.732	NaN	NaN	NaN	NaN
1195.747	NaN	NaN	NaN	NaN
1199.737	NaN	NaN	NaN	NaN
1203.723	NaN	NaN	-16.88073	13.55387
1207.743	NaN	NaN	-13.79805	1.72152
1211.725	NaN	NaN	NaN	NaN
1215.734	NaN	NaN	1.49770	1.82827
1219.730	NaN	NaN	1.98591	1.13838
1223.729	3.48323	9.95700	4.80911	2.78038
1227.724	NaN	NaN	-4.21249	2.02944
1231.740	NaN	NaN	5.40075	3.39775
1235.733	-3.54213	2.79942	5.34494	5.55264
1239.731	3.86741	-0.38844	-2.87165	5.75327
1243.757	4.36797	-0.74324	4.55135	0.98373
1247.739	3.87406	-2.62769	-2.36760	0.47860
1251.731	6.23005	-0.74259	0.43596	7.55029
1255.729	7.73387	-1.34747	0.59359	7.98951
1259.738	7.21618	-0.93873	2.27711	8.30760
1263.735	8.15980	-1.51107	-2.63698	7.96237
1267.728	8.30748	-1.81913	-0.13473	8.91225
1271.730	7.77264	-1.92578	-2.02074	6.47353
1275.733	8.06723	-1.62628	0.14369	0.44886
1279.732	7.51852	-1.82022	1.86437	1.24367
1283.744	6.36133	-2.12051	1.11075	1.04805
1287.729	6.81290	-2.32097	1.91682	1.23338
1291.734	6.54817	-2.03402	2.58744	1.39723
1295.730	5.67062	-2.13184	2.21786	8.09755
1299.735	5.26147	-2.43344	0.36635	7.03746
1303.803	5.65990	-2.13546	-0.04911	7.53957
1307.764	5.70536	-2.23512	-0.34491	8.56882
1311.741	7.23579	-2.52049	-0.25917	10.15751
1315.741	6.72078	-2.29111	0.29220	8.74161
1319.727	5.94592	-2.26752	-0.06348	10.01152
1323.734	5.32570	-2.17167	-0.31900	11.74877
1327.730	5.23007	-2.34031	-1.21881	10.04279
1331.736	5.27688	-2.08743	-0.12094	11.61344
1335.726	5.71603	-2.16602	-1.25922	10.29152
1339.728	5.32811	-1.92488	-1.45286	11.57346
1343.736	4.17494	-2.04395	3.58556	1.00640
1347.725	4.88215	-2.02392	3.53350	1.03011
1351.726	5.27287	-2.22779	3.46669	1.02379
1355.736	4.92827	-2.04186	3.42789	1.11490
1359.741	4.97236	-1.99225	3.39997	1.12344
1363.722	5.04356	-2.07317	3.13630	1.19204
1367.731	4.81584	-2.05390	3.16943	1.07534
1371.733	4.79075	-2.15907	3.18826	1.10610
1375.733	5.14446	-2.20914	3.22072	0.93590
1379.725	5.03644	-2.28067	3.20800	1.22189
1383.726	5.26548	-2.25312	3.30423	1.11113
1387.728	5.27331	-2.31206	3.19773	1.14936
1391.728	5.17011	-2.26653	3.06392	0.88989
1395.751	5.03378	-2.35249	3.05340	0.98159
1399.754	5.26942	-2.27529	3.18027	0.96265
1403.727	5.14015	-2.26142	3.01826	0.98604
1407.733	5.29861	-2.24047	3.11351	0.84751
1411.729	5.14862	-2.27298	3.08792	0.82143
1415.740	5.51624	-2.29768	3.17257	0.62420
1419.725	5.22106	-2.13581	3.16493	0.80517
1423.733	5.26332	-2.33663	3.21020	0.79789
1427.729	5.15337	-2.13725	3.13425	0.76597
1431.742	5.12548	-2.19327	3.22139	0.73830
1435.727	5.03166	-2.28536	3.27737	0.74369
1439.778	5.27508	-2.20708	3.38798	0.78991
1443.744	5.01140	-2.30817	3.24857	0.83589
1447.732	5.03573	-2.34848	3.13014	0.74320
1451.722	4.97812	-2.40004	3.30433	0.69650
1455.730	5.03716	-2.40410	3.30505	0.70498
1459.727	5.12358	-2.52043	3.25513	0.81802
1463.726	5.05375	-2.46863	3.23202	0.71475
1467.733	5.09300	-2.47068	3.30379	0.68975
1471.730	5.29260	-2.51820	3.20251	0.60515
1475.719	5.24250	-2.57000	3.40635	0.64049
1479.733	5.24698	-2.55923	3.32887	0.65726
1483.728	5.29233	-2.55045	3.22680	0.56961
1487.727	5.24981	-2.57266	3.25716	0.58689
1491.728	5.24816	-2.54686	3.21918	0.54960
1495.726	5.35463	-2.57118	3.25956	0.64823
1499.736	5.34737	-2.57541	3.26394	0.58507
1503.726	5.30121	-2.48912	3.34076	0.61821
1507.765	5.22682	-2.51434	3.36958	0.60746
1511.729	5.18441	-2.50925	3.39394	0.63978
1515.726	5.17951	-2.53348	3.28800	0.67188
1519.720	5.04358	-2.53021	3.23954	0.74156
1523.727	5.04304	-2.57668	3.17391	0.65982
1527.735	5.09783	-2.59348	3.18442	0.63920
1531.722	5.08909	-2.52020	3.14001	0.64870
1535.729	5.14727	-2.55220	3.20115	0.68000
1539.727	5.31396	-2.57955	3.19657	0.60262
1543.717	5.16652	-2.66400	3.12014	0.70255
1547.734	5.12171	-2.65626	3.14870	0.38738
1551.722	5.00650	-2.63621	3.18336	0.51702
1555.723	5.24417	-2.66456	3.14771	0.45722
1559.725	5.13971	-2.60475	3.19914	0.38867
1563.730	5.17092	-2.66292	3.24041	0.49022
1567.737	5.10364	-2.67158	3.24551	0.60545
1571.726	5.13102	-2.64338	3.30621	0.48451
1575.807	5.14197	-2.67157	3.18442	0.51265
1579.740	5.09409	-2.69555	3.23046	0.61513
1583.738	5.09763	-2.70571	3.25797	0.59428
1587.726	5.07348	-2.66054	3.27061	0.67863
1591.722	5.12777	-2.61181	3.29364	0.55407
1595.754	5.21023	-2.60962	3.29632	0.62370
1599.732	5.15042	-2.61305	3.28150	0.65156
1603.728	5.07626	-2.64976	3.26960	0.67236
1607.727	5.15667	-2.68200	3.25619	0.63724
1611.730	5.18825	-2.61801	3.28912	0.51870
1615.729	5.13981	-2.61744	3.30027	0.59723
1619.726	5.11945	-2.56783	3.32251	0.64057
1623.730	5.13621	-2.58517	3.37252	0.59456
1627.721	5.10822	-2.61698	3.42935	0.52718
1631.731	5.12297	-2.60904	3.41167	0.65723
1635.729	5.16504	-2.59098	3.48951	0.79747
1639.721	5.19337	-2.55111	3.51780	0.57780
1643.726	5.25591	-2.57095	3.43506	0.67996
1647.740	5.24511	-2.49715	3.36119	0.68475
1651.723	5.28889	-2.49757	3.36243	0.70585
1655.720	5.26278	-2.48172	3.41350	0.53992
1659.727	5.33728	-2.46549	3.32508	0.70278
1663.730	5.36486	-2.53929	3.41612	0.58401
1667.723	5.38695	-2.50083	3.52759	0.64897
1671.731	5.33812	-2.48601	3.16827	0.70681
1675.723	5.41969	-2.54064	3.22096	0.58954
1679.722	5.39571	-2.58405	3.27343	0.50167
1683.725	5.34122	-2.63835	3.26517	0.40542
1687.725	5.31081	-2.62006	3.21718	0.63283
1691.729	5.21026	-2.64444	3.22611	0.56081
1695.740	5.15965	-2.69557	3.29790	0.46229
1699.733	5.08131	-2.71565	3.27502	0.64120
1703.732	5.46977	-2.63922	3.38036	0.81931
1707.726	5.88228	-2.52213	5.82189	1.35426
1712.356	9.10867	-1.80467	6.75933	1.51357
1715.736	9.72913	0.19610	8.39411	3.59961
1719.753	10.92189	0.31282	9.09885	3.38702
1723.717	11.49772	0.55116	9.17679	3.17258
1727.726	11.86564	0.83629	9.90412	2.38369
1731.726	11.83498	0.80040	9.79648	2.58889
1735.740	11.52657	0.54226	9.37904	2.49929
1739.722	11.27739	0.57342	9.14704	2.87019
1743.717	11.25077	0.62435	9.15328	2.73066
1747.737	11.32636	0.69652	9.29727	2.66292
1751.736	11.57760	0.62789	9.50465	2.84090
1755.719	11.50265	0.67505	9.63795	3.11225
1759.719	11.51232	0.74173	9.52051	2.92050
1763.717	11.50432	0.84181	9.59472	2.90943
1767.732	11.55226	0.93993	9.60618	2.93590
1771.724	11.41490	0.86819	9.50882	3.09457
1775.732	11.40846	0.79200	9.49757	3.19243
1779.721	11.40088	0.69271	9.52893	3.13397
1783.720	11.37748	0.65377	9.61771	3.01885
1787.721	11.36448	0.69053	9.65524	3.05091
1791.721	11.35580	0.60403	9.68389	3.08110
1795.728	11.37321	0.63332	9.61395	3.01426
1799.711	11.34912	0.57917	9.61527	2.84489
1803.603	11.36088	0.56431	9.60077	2.77383
1807.606	11.35845	0.63018	9.57843	2.68598
1811.596	11.35656	0.52768	9.59855	2.54472
1815.597	11.37999	0.52751	9.59172	2.51159
1819.602	11.44916	0.48375	9.56957	2.50784
1823.591	11.46721	0.54401	9.55374	2.46273
1827.599	11.55776	0.56382	9.53682	2.43910
1831.595	11.61204	0.57323	9.51058	2.42290
1835.599	11.67551	0.54390	9.50192	2.41026
1839.601	11.69378	0.55206	9.52572	2.44708
1843.596	11.73390	0.57241	9.48891	2.51357
1847.622	11.73902	0.57613	9.48265	2.56464
1851.653	11.77277	0.58080	9.50322	2.66067
1855.595	11.79313	0.60403	9.49861	2.68463
1859.596	11.78036	0.55690	9.48410	2.72847
1863.610	11.75481	0.56322	9.52473	2.70543
1867.600	11.72332	0.52838	9.62196	2.71101
1871.612	11.67784	0.51700	9.77119	2.68092
1875.595	11.62668	0.50693	9.89008	2.60744
1879.597	11.62135	0.53487	9.61199	2.67114
1883.607	11.63523	0.51275	9.50578	2.73162
1887.595	11.62904	0.53948	9.62473	2.70363
1891.592	11.66565	0.59562	9.76936	2.53177
1895.626	11.70042	0.49338	9.76529	2.53972
1899.602	11.65068	0.47602	9.84245	2.48791
1903.599	11.71948	0.45844	9.96889	2.54970
1907.625	11.66249	0.40431	9.82910	2.64141
1911.588	11.79784	0.43026	9.79922	2.71542
1915.596	11.83629	0.52797	9.74895	2.43806
1919.598	11.87907	0.64962	9.73070	2.17526
1923.591	11.91911	0.66142	9.84782	2.25969
1927.608	11.90759	0.56972	9.94717	2.25864
1931.592	11.90262	0.50304	9.97792	2.33991
1935.605	11.88699	0.51607	9.97770	2.35426
1939.591	11.89179	0.61383	9.90205	2.27931
1943.599	11.92840	0.78897	9.83496	2.40692
1947.601	11.95484	0.62285	9.74878	2.22077
1951.590	11.92657	0.65588	9.72819	2.27187
1955.590	11.87689	0.68540	9.72855	2.28490
1959.595	11.87959	0.53931	9.74692	2.34351
1963.612	11.86714	0.56766	10.02543	2.34338
1967.595	11.85685	0.58543	10.08529	2.39184
1971.590	11.85459	0.73277	10.06037	2.35830
1975.590	11.87610	0.89658	10.01905	2.35681
1979.595	11.86683	0.99035	9.75039	2.34280
1983.594	11.75182	0.68077	9.79679	2.33773
1987.596	11.69693	0.58607	9.80224	2.22142
1991.603	11.59001	0.64198	9.66576	2.20645
1995.609	11.63185	0.67888	9.64217	2.19251
1999.598	11.55395	0.63457	9.61028	2.13944
2003.587	11.59225	0.63314	9.69957	2.07009
2007.596	11.56717	0.68242	9.69935	2.01580
2011.594	11.60601	0.69347	9.65131	1.97149
2015.596	11.61482	0.61997	9.68532	1.92348
2019.596	11.63042	0.54364	9.61428	1.89868
2023.591	11.59084	0.52422	9.64767	1.84813
2027.597	11.69426	0.49580	9.67454	1.86743
2031.595	11.67889	0.52744	9.70982	1.87269
2035.597	11.70633	0.54478	9.78134	1.89756
2039.590	11.69616	0.53500	9.83469	1.94414
2043.590	11.78057	0.53238	9.84676	2.05863
2047.592	11.81617	0.53951	9.89533	2.18691
2051.593	11.81655	0.54476	9.96292	2.02119
2055.589	11.77879	0.52954	9.94862	2.15860
2059.591	12.00177	0.58750	10.08808	2.16041
2063.608	13.62528	0.79163	12.49952	2.14571
2067.606	14.91678	1.56441	13.65008	2.05027
2071.596	16.04221	2.24698	14.38698	2.06921
2075.590	16.46019	1.61139	15.36380	1.20540
2079.618	17.00650	2.42286	15.98720	1.67560
2083.595	17.14087	2.12114	15.98218	0.48990
2087.588	16.98641	2.26131	15.70784	0.87944
2091.588	16.81437	2.43034	15.54771	1.12034
2095.611	16.64072	2.48502	15.42232	1.02143
2099.599	16.84809	2.68164	15.55946	0.96767
2103.586	16.73199	2.59791	15.63865	1.16386
2107.588	16.92410	2.66227	15.83094	0.98005
2111.597	16.98859	2.73944	15.81723	0.98363
2115.591	16.92129	2.57003	15.76511	0.92175
2119.596	16.99526	2.67746	15.88383	1.00175
2123.592	16.91974	2.60390	15.80627	0.93540
2127.588	16.87660	2.71132	15.63941	0.99248
2131.604	16.90243	2.68255	15.70639	0.94863
2135.594	16.89418	2.71932	15.79997	0.89900
2139.594	16.97197	2.76866	15.88658	0.89866
2143.589	16.95211	2.64653	15.85120	0.98540
2147.591	16.97488	2.59567	15.84452	1.02343
2151.603	16.92424	2.61283	15.84073	1.04190
2155.596	16.86460	2.55630	15.75587	1.01712
2159.587	16.85496	2.60762	15.75047	0.95933
2163.590	16.84300	2.59459	15.79528	0.82590
2167.596	16.87155	2.67556	15.80105	0.82582
2171.592	16.89339	2.65571	15.83960	0.95090
2175.593	16.89859	2.66508	15.82217	0.96728
2179.589	16.93130	2.76416	15.82010	1.01801
2183.593	16.92131	2.84113	15.81419	1.06716
2188.055	16.93026	2.94864	15.81730	0.99580
2191.605	16.93385	2.78547	15.75378	0.93158
2195.588	16.94293	2.79985	15.73674	0.76245
2199.597	16.95290	2.81613	15.76157	0.74823
2203.589	16.97363	2.74554	15.75217	0.80780
2207.587	16.99588	2.76720	15.70924	1.00613
2211.590	17.02806	2.81965	15.71161	1.02956
2215.595	17.08129	2.97832	15.69404	1.02957
2219.587	17.10102	2.84279	15.71926	1.06857
2223.586	16.97563	2.71964	15.71264	0.94483
2227.587	16.93807	2.64315	15.65925	0.94519
2231.601	16.91059	2.63603	15.63088	0.98056
2235.604	16.90518	2.73103	15.64514	1.03487
2239.585	16.96053	2.80589	15.66279	1.10055
2243.599	17.00378	2.75022	15.70712	1.18384
2247.589	17.05412	2.80184	15.69530	1.22408
2251.599	16.96705	2.80864	15.70935	1.09633
2255.590	16.95921	2.81694	15.73446	1.04240
2259.587	16.96559	2.82305	15.63111	1.03161
2263.586	16.97120	2.81994	15.51511	1.07396
2267.604	16.92983	2.79101	15.52410	1.13744
2271.587	16.97813	2.82256	15.52723	1.16123
2275.586	17.00273	2.85886	15.58161	1.11116
2279.592	17.03967	2.83109	15.61872	1.14947
2283.593	17.05294	2.82117	15.70744	1.16891
2287.583	17.08803	2.87428	15.79322	1.19010
2291.586	17.05959	2.90050	15.61980	1.18202
2295.605	17.07542	2.79389	15.61587	1.24151
2299.594	17.09000	2.70748	15.59163	1.26367
2303.586	17.09501	2.72675	15.49967	1.27697
2307.596	17.09975	2.70483	15.53299	1.28449
2311.581	17.11530	2.63707	15.59050	1.27334
2315.584	17.14452	2.67002	15.56425	1.28568
2319.605	17.12262	2.65614	15.62761	1.27340
2323.589	17.09054	2.60326	15.59892	1.21573
2327.594	17.07116	2.67358	15.52737	1.18507
2331.588	17.02892	2.69625	15.41997	1.16004
2335.596	17.00555	2.67727	15.41944	1.11483
2339.582	16.96923	2.69360	15.45871	1.01543
2343.585	16.95685	2.69103	15.43307	0.98799
2347.586	16.93264	2.69280	15.47167	0.92015
2351.593	16.92837	2.75213	15.49813	0.95031
2355.584	16.88878	2.78355	15.46678	0.99923
2359.591	16.82315	2.76890	15.47418	0.95457
2363.593	16.78494	2.77304	15.45161	0.94157
2367.594	16.75953	2.76807	15.44801	0.96386
2371.589	16.71337	2.69805	15.47203	0.90368
2375.589	16.70661	2.65943	15.53778	0.80891
2379.584	16.68642	2.67705	15.59692	0.77250
2383.593	16.69832	2.73550	15.60491	0.78805
2387.594	16.69958	2.80515	15.67593	0.81798
2391.583	16.71419	2.75294	15.72067	0.81974
2395.591	16.70413	2.82249	15.74959	0.80870
2399.586	16.72787	2.74768	15.81782	0.86257
2403.598	16.76028	2.87209	15.78897	0.98456
2407.588	16.78269	2.82154	15.75049	1.08392
2411.583	16.69953	2.38906	15.41822	0.73672
2415.587	15.03084	0.52165	12.85640	0.41889
2419.592	13.61567	-0.92345	12.47456	-0.40726
2423.584	11.99125	-3.06388	12.05770	-1.56175
2427.585	11.72696	-3.89250	10.32042	-2.80017
2431.583	11.78107	-4.55055	10.30252	-3.08525
2435.585	11.92496	-4.30259	10.18183	-3.70839
2439.584	11.88981	-4.31057	10.12428	-3.64467
2443.592	11.94472	-4.24034	10.22736	-3.65908
2447.583	12.00324	-4.22548	10.21630	-3.61642
2451.600	12.02933	-4.35446	10.15264	-3.68194
2455.589	11.92633	-4.44460	10.23988	-3.79306
2459.583	11.88190	-4.67456	10.19500	-3.88010
2463.586	11.82140	-4.60489	10.12789	-4.00311
2467.584	11.74418	-4.71098	10.05029	-4.06530
2471.600	11.84570	-4.56442	9.87138	-4.04382
2475.581	11.86125	-4.53678	9.76912	-4.07063
2479.581	11.91723	-4.57605	9.61421	-4.09107
2483.583	11.91567	-4.63510	9.76541	-4.04228
2487.597	11.81929	-4.74040	9.82038	-4.10910
2491.581	11.81888	-4.76886	9.81147	-4.11854
2495.590	11.81372	-4.75190	9.80503	-4.14210
2499.582	11.81111	-4.83073	9.73332	-4.14063
2503.597	11.88152	-4.77149	9.68522	-4.13871
2507.582	11.91348	-4.76803	9.64470	-4.10124
2511.583	11.94710	-4.74673	9.62152	-4.09854
2515.578	11.95724	-4.75609	9.57230	-4.07239
2519.588	11.93859	-4.79982	9.55929	-4.06026
2523.583	11.92246	-4.81737	9.51474	-4.04818
2527.581	11.90091	-4.99345	9.48487	-4.04646
2531.594	11.90303	-4.99476	11.79315	-3.91210
2535.583	11.82502	-5.18454	9.42605	-3.95306
2539.588	11.78761	-5.41552	9.36216	-3.89576
2543.587	11.77689	-5.40182	9.38114	-4.07575
2547.585	11.70104	-5.54963	11.80169	-3.33817
2551.583	11.60725	-5.63026	11.30378	-4.36524
2555.587	11.52743	-5.56997	10.88518	-4.27588
2559.582	11.49450	-5.62216	9.38218	-4.10150
2563.582	11.49254	-5.62965	9.38168	-4.14014
2567.590	11.46790	-5.62852	11.01792	-3.97993
2571.604	11.49364	-5.60546	11.02108	-3.98306
2575.581	11.51702	-5.60358	9.73561	-4.07101
2579.580	11.56362	-5.56421	9.78291	-4.16522
2583.584	11.55064	-5.62550	9.69793	-4.09927
2587.593	11.58315	-5.60468	9.78855	-4.06276
2591.578	11.59918	-5.55469	10.15396	-4.15089
2595.602	11.56955	-5.51854	9.92432	-4.06857
2599.588	11.68634	-5.47735	9.79436	-4.00772
2603.590	11.70799	-5.39556	9.64656	-3.95773
2607.586	11.76314	-5.45645	9.76054	-3.93275
2611.586	11.76064	-5.46750	9.82853	-3.95994
2615.585	11.71951	-5.49348	9.71833	-3.93804
2619.587	11.67113	-5.49858	9.72368	-3.92484
2623.583	11.74413	-5.51934	9.69041	-3.89368
2627.594	11.75003	-5.46828	9.59860	-3.89072
2631.598	11.78026	-5.41156	10.23243	-3.90041
2635.584	11.76290	-5.40706	9.82978	-3.91314
2639.588	11.78657	-5.38885	9.81014	-3.87993
2643.579	11.72127	-5.42468	9.70560	-3.82685
2647.583	11.67429	-5.47233	9.82896	-3.81824
2651.585	11.44735	-5.52708	9.80491	-3.81079
2655.466	11.51692	-5.55158	9.73836	-3.74888
2659.459	11.63109	-5.54586	9.77401	-3.75870
2663.583	11.82193	-5.52082	9.75316	-3.73608
2667.454	11.69221	-5.53068	9.74239	-3.70621
2671.458	11.60620	-5.57020	9.81790	-3.75057
2675.457	11.49252	-5.63467	9.74511	-3.84061
2679.450	11.90735	-5.53550	9.68117	-3.86153
2683.460	11.84444	-5.55622	9.67037	-3.75749
2687.461	11.73264	-5.54138	9.72739	-3.83303
2691.461	11.60782	-5.55372	9.69586	-3.79201
2695.468	11.73459	-5.46312	9.65990	-3.83075
2699.467	11.74608	-5.48164	9.63419	-3.87607
2703.455	11.70854	-5.48357	9.66718	-3.81989
2707.458	11.70637	-5.46919	9.61177	-3.83676
2711.467	11.70000	-5.43768	9.61064	-3.85704
2715.461	11.65532	-5.47084	9.54348	-3.77425
2719.449	11.69400	-5.45858	9.48070	-3.81945
2723.461	11.59963	-5.53199	9.46804	-3.79582
2727.456	11.58777	-5.57642	9.47287	-3.80540
2731.452	11.55292	-5.57185	9.51792	-3.82367
2735.464	11.59008	-5.54934	9.51348	-3.86585
2739.461	11.54244	-5.61052	9.53089	-3.85577
2743.459	11.47276	-5.61772	9.69111	-3.82369
2747.492	11.45918	-5.63680	9.39786	-3.79488
2751.467	10.70203	-5.51236	6.99536	-3.70359
2755.460	7.98199	-5.27311	6.58886	-2.25653
2759.466	6.48039	-4.60940	5.28446	-1.71711
2763.458	6.00975	-3.68785	3.64518	-0.52577
2767.452	4.31005	-3.83006	2.70822	-0.43265
2771.458	3.42675	-3.28886	2.10615	-0.15850
2775.454	2.48428	-2.88644	1.22434	0.04387
2779.458	3.19528	-2.89241	0.58468	0.24075
2783.456	3.16364	-2.72260	0.71871	0.28683
2787.464	2.96272	-2.70224	0.66846	0.29871
2791.463	2.81447	-2.82556	0.65714	0.18412
2795.448	2.83549	-2.97337	0.76769	0.15604
2799.454	2.70780	-3.01654	0.68203	0.09755
2803.465	2.49015	-2.75744	0.55175	0.11852
2807.450	2.47717	-2.66721	0.52709	0.12335
2811.453	2.44185	-2.58381	0.46813	0.15438
2815.483	2.46055	-2.51210	0.43358	0.16283
2819.454	2.38053	-2.54292	0.51247	0.19553
2823.457	2.44975	-2.50243	0.60491	0.25948
2827.459	2.36693	-2.48731	0.61255	0.32158
2831.457	2.28308	-2.37953	0.69528	0.23274
2835.449	2.30258	-2.36720	0.69754	0.25598
2839.453	2.26272	-2.26751	0.64019	0.26316
2843.456	2.24148	-2.17033	0.61101	0.28868
2847.452	2.24309	-1.97800	0.56233	0.27735
2851.446	2.22837	-2.07665	0.52148	0.29258
2855.468	2.27885	-2.15843	0.41189	0.30442
2859.455	2.22218	-2.16959	0.32238	0.29550
2863.466	2.30474	-2.26170	0.50875	0.26669
2867.456	2.27994	-2.29074	0.39829	0.24359
2871.456	2.32607	-2.23781	0.47076	0.18181
2875.453	2.34805	-2.24105	0.39730	0.07994
2879.459	2.31089	-2.19916	0.39797	0.00298
2883.450	2.32144	-2.54528	0.35040	-0.04560
2887.455	2.34986	-2.59739	0.28888	-0.10079
2891.456	2.37352	-2.62936	0.24850	-0.04450
2895.459	2.43035	-2.62697	0.22854	0.00837
2899.451	2.43176	-2.59684	0.25773	-0.10938
2903.453	2.40246	-2.55705	0.29672	-0.14343
2907.466	2.32293	-2.41460	0.29193	-0.14365
2911.455	2.22195	-2.33977	0.29890	-0.26434
2915.449	2.21754	-2.15306	0.24351	-0.32649
2919.458	2.31103	-2.25085	0.21470	-0.34855
2923.462	2.36636	-2.19781	0.18472	-0.26499
2927.455	2.39995	-2.16999	0.15863	-0.27587
2931.450	2.36358	-2.05069	0.12111	-0.27135
2935.458	2.37922	-2.06780	0.02911	-0.28084
2939.467	2.32716	-1.99425	0.16985	-0.23785
2943.450	2.21841	-1.91856	0.26460	-0.20075
2947.457	2.21519	-1.84946	0.42222	-0.10168
2951.451	2.22914	-1.76198	0.41373	-0.12722
2955.467	2.19009	-1.64654	0.39489	-0.01506
2959.452	2.01841	-1.75681	0.45847	0.01707
2963.458	2.22795	-1.85919	0.64077	-0.03762
2967.449	2.15195	-1.78025	0.59580	-0.09156
2971.460	2.15346	-1.78898	0.65392	-0.10349
2975.457	2.28690	-1.81504	0.66109	-0.17801
2979.454	2.26534	-1.84151	0.66913	-0.05558
2983.449	2.33232	-1.89358	0.67270	-0.04453
2987.460	2.38824	-1.95548	0.72059	-0.00735
2991.465	2.30987	-1.92677	0.70819	-0.06980
2995.488	2.22307	-1.94152	0.59521	-0.10918
2999.463	1.81352	-1.96213	0.39050	-0.14271
3003.458	-0.30957	-1.83788	-2.17975	0.38766
3007.475	-2.90851	-1.32034	-4.78681	0.43858
3011.479	-4.57342	0.06126	-5.53795	1.35831
3015.445	-6.71858	0.31509	-7.89707	1.11761
3019.451	-7.24437	0.30315	-7.68664	1.29257
3023.455	-7.86530	0.45968	-9.16281	1.31873
3027.459	-8.26155	0.34877	-10.18048	1.24197
3031.453	-7.99272	0.37288	-10.00483	1.58343
3035.449	-7.80409	0.43708	-9.78291	1.54510
3039.453	-8.07608	0.51809	-9.75856	1.75832
3043.451	-8.09365	0.58186	-9.77640	1.80077
3047.447	-8.37655	0.80898	-9.66347	1.81097
3051.452	-8.38299	1.10632	-9.67316	1.85641
3055.456	-8.50110	1.31585	-9.67145	1.74431
3059.451	-8.45747	1.18918	-9.63264	1.80479
3063.462	-8.49408	1.06142	-9.62384	1.86448
3067.449	-8.49615	1.01559	-9.55794	1.81995
3071.459	-8.43972	1.18675	-9.45063	1.82079
3075.464	-8.47767	1.22891	-9.32236	1.81588
3079.450	-8.50086	1.21133	-9.21860	1.77772
3083.449	-8.52736	1.25511	-9.25540	1.73623
3087.445	-8.53071	1.27372	-9.09483	1.67595
3091.461	-8.52950	1.28770	-9.26638	1.65889
3095.458	-8.49479	1.25109	-9.37187	1.69984
3099.460	-8.50799	1.24071	-9.30786	1.73536
3103.445	-8.50741	1.22430	-9.49004	1.79752
3107.447	-8.64771	1.27259	-9.48198	1.80581
3111.449	-8.66462	1.28496	-9.62338	1.85707
3115.467	-8.70687	1.25731	-9.53245	1.84915
3119.451	-8.72229	1.19321	-9.56535	1.82750
3123.447	-8.82424	1.18591	-9.71464	1.83323
3127.457	-8.76435	1.15031	-9.68221	1.79472
3131.462	-8.79048	1.07573	-9.71724	1.70029
3135.450	-8.81409	1.00290	-9.74188	1.51010
3139.447	-8.70577	0.97031	-9.73542	1.39267
3143.452	-8.53287	1.00097	-9.73993	1.70833
3147.457	-8.68936	0.97593	-9.70779	1.70854
3151.450	-8.65848	0.98632	-9.70020	1.60090
3155.450	-8.64558	0.91860	-9.65076	1.60867
3159.453	-8.59992	0.95096	-9.55188	1.68771
3163.452	-8.60834	1.00104	-9.43233	1.66195
3167.457	-8.53896	1.04663	-9.27003	1.70580
3171.444	-8.57471	1.10771	-9.22141	1.69880
3175.447	-8.62307	1.13864	-9.31223	1.70241
3179.448	-8.60174	1.19804	-9.23128	1.72559
3183.453	-8.66668	1.18622	-9.11402	1.76146
3187.450	-8.69256	1.18481	-9.17428	1.70587
3191.448	-8.72808	1.19214	-9.14564	1.67088
3195.451	-8.74879	1.15446	-9.13603	1.69728
3199.461	-8.70342	1.17829	-9.08595	1.67388
3203.447	-8.74675	1.19708	-9.09316	1.63619
3207.449	-8.64992	1.14747	-9.18260	1.63771
3211.447	-8.57209	1.03003	-9.14747	1.65844
3215.462	-8.46735	0.97593	-9.14941	1.68682
3219.453	-8.49369	1.01076	-9.13536	1.73365
3223.472	-8.50396	0.89995	-9.06577	1.69106
3227.446	-8.52212	0.89789	-9.03721	1.68178
3231.446	-8.42207	0.85005	-9.03004	1.74892
3235.444	-8.37801	0.82088	-9.03679	1.74460
3239.454	-8.38636	0.82199	-9.14726	1.64597
3243.448	-8.32390	0.76302	-9.13071	1.54987
3247.459	-8.31299	0.71538	-9.18920	1.55033
3251.449	-8.31992	0.68793	-9.25458	1.60748
3255.443	-8.35823	0.71842	-9.28871	1.54521
3259.460	-8.41493	0.72015	-9.30445	1.52063
3263.447	-8.45322	0.69465	-9.29193	1.44695
3267.449	-8.39253	0.70279	-9.30977	1.48300
3271.448	-8.38265	0.69927	-9.31549	1.49449
3275.445	-8.39567	0.74106	-9.23410	1.54734
3279.453	-8.43644	0.74339	-9.25103	1.56454
3283.455	-8.47886	0.75753	-9.13313	1.60990
3287.446	-8.54197	0.78979	-9.04069	1.62130
3291.442	-8.53205	0.83630	-9.03740	1.73437
3295.494	-8.61761	0.88877	-9.03084	1.74203
3299.450	-8.63993	0.97215	-9.02508	1.78729
3303.448	-8.63034	0.99273	-9.00080	1.76346
3307.445	-8.61251	1.00627	-9.04565	1.78655
3311.456	-8.66811	1.08504	-9.06078	1.87370
3315.450	-8.62037	1.10660	-9.09645	1.92673
3319.442	-8.65851	1.11041	-9.14070	1.90958
3323.450	-8.60140	1.12569	-9.23045	1.93656
3327.450	-8.59471	1.14757	-9.22845	1.96680
3331.455	-8.59325	1.18284	-9.24779	1.98254
3335.448	-8.66789	1.19660	-9.29911	2.00070
3339.448	-8.68259	1.21534	-9.29674	2.02155
3343.443	-8.66333	1.21405	-9.28823	2.12407
3347.443	-8.62840	1.19680	-9.25734	2.03143
3351.447	-8.69564	1.22256	-9.17258	2.02976
3355.445	-8.72277	1.22299	-9.08157	1.80746
3359.446	-8.58614	1.22670	-8.96741	2.03808
3363.447	-5.55524	1.16709	-6.45981	2.17303
3367.460	-2.97294	1.11607	-3.59154	2.40041
3371.449	-0.07339	1.22485	-1.54931	3.23283
3375.453	1.65037	1.29354	0.64144	4.11129
3379.448	3.41753	1.27519	2.02805	4.05497
3383.442	4.61756	1.26076	3.28781	3.87481
3387.449	6.68232	1.02637	5.31015	3.10267
3391.451	7.13710	1.19794	5.51936	3.21098
3395.444	7.90116	1.25303	6.16304	3.36928
3399.437	8.09662	1.22315	5.96350	3.07528
3403.454	7.68484	1.33530	5.92780	3.28881
3407.449	7.41883	1.30763	5.83965	3.28549
3411.449	7.54142	1.43302	5.88663	3.22990
3415.447	7.67253	1.39736	6.01530	3.22346
3419.447	7.86242	1.37648	6.17001	3.20738
3423.442	8.31299	1.37281	6.29178	3.14725
3427.464	8.43491	1.37574	6.32711	3.08634
3431.451	8.41218	1.42462	6.43922	3.06496
3435.442	8.55282	1.37802	6.45669	3.01780
3439.456	8.45293	1.35104	6.47779	3.05999
3443.440	8.26104	1.35298	6.55405	3.24971
3447.446	8.15759	1.33015	6.56956	3.23755
3451.448	7.97327	1.29197	6.57779	3.25054
3455.441	8.29018	1.21225	6.62133	3.34526
3459.439	8.49365	1.19732	6.59268	3.41458
3463.443	8.50935	1.13795	6.50724	3.37430
3467.447	8.39287	1.11087	6.38074	3.40792
3471.444	8.46080	1.08126	6.36091	3.46979
3475.442	8.41760	1.00385	6.19743	3.65231
3479.450	8.33294	1.02740	6.23216	3.61345
3483.504	8.50661	1.03497	6.13346	3.61835
3487.440	8.56020	1.00338	6.04234	3.63573
3491.448	8.62804	0.97488	6.10924	3.67482
3495.474	8.66544	0.89188	6.05525	3.69724
3499.442	8.68625	0.90708	6.11079	3.69070
3503.447	8.63828	0.89951	6.13824	3.69425
3507.441	8.55006	0.90340	6.25757	3.63414
3511.320	8.51855	0.83716	6.37415	3.62518
3515.313	8.40737	0.79071	6.37168	3.59799
3519.320	8.35495	0.82043	6.43060	3.51040
3523.314	8.26196	0.78842	6.40940	3.49898
3527.313	8.14601	0.76654	6.45013	3.49036
3531.344	8.11955	0.72084	6.47931	3.48702
3535.325	8.10788	0.73459	6.45770	3.43705
3539.320	8.03828	0.80146	6.46194	3.40920
3543.311	8.05317	0.88986	6.38959	3.32145
3547.320	8.08781	0.90240	6.36182	3.30746
3551.377	8.09044	0.97810	6.33441	3.33316
3555.315	8.11965	1.00272	6.31132	3.22755
3559.315	8.09873	1.00676	6.26934	3.17479
3563.315	8.18602	1.23910	6.23665	3.12987
3567.314	8.32218	1.15329	6.24641	3.12979
3571.315	8.36972	1.16859	6.23950	3.07846
3575.319	8.45004	1.21463	6.21617	3.03913
3579.321	8.47192	1.18948	6.20700	3.00610
3583.336	8.47189	1.25687	6.19709	2.98108
3587.320	8.44506	1.22752	6.21384	2.98756
3591.319	8.41738	1.22830	6.21914	3.04239
3595.318	8.38318	1.23536	6.21259	3.03272
3599.319	8.44137	1.23318	6.18068	3.10018
3603.319	8.50797	1.24911	6.21259	3.12938
3607.310	8.50234	1.18973	6.21080	3.17825
3611.314	8.45441	1.21142	6.21983	3.26899
3615.318	8.42190	1.21713	6.22927	3.49351
3619.322	8.42993	1.16347	6.24416	3.65327
3623.318	8.64080	1.18672	6.30122	3.51889
3627.311	8.69527	1.17879	6.32225	3.58990
3631.311	8.75124	1.15561	6.34388	3.63314
3635.314	8.78973	1.13445	6.34785	3.61407
3639.317	8.83747	1.10200	6.34211	3.72258
3643.311	8.81889	1.05574	6.35920	3.69314
3647.312	8.77819	1.02065	6.31409	3.71508
3651.327	8.72694	1.02489	6.33694	3.72636
3655.322	8.59568	0.96706	6.31811	3.70283
3659.309	8.47782	0.91028	6.29092	3.65776
3663.323	8.42041	0.86824	6.20710	3.60727
3667.313	8.28711	0.85158	6.17173	3.59334
3671.315	8.16972	0.81747	6.10882	3.58136
3675.319	8.31270	0.79845	6.13988	3.50261
3679.312	8.20447	0.80164	6.13733	3.49704
3683.324	8.14777	0.81919	6.07275	3.48097
3687.317	8.37366	0.91082	6.28168	3.52399
3691.319	10.28955	1.07954	8.19744	3.44388
3695.314	12.13109	1.11582	9.88049	3.42394
3699.317	12.94674	1.19128	11.01491	3.39564
3703.316	13.34058	1.44966	11.50863	2.53078
3707.313	13.34075	1.39800	11.27178	2.45140
3711.307	13.03008	1.42162	10.70615	2.35519
3715.317	12.73762	1.37762	10.52526	2.12380
3719.312	11.84927	1.44098	10.33264	2.22851
3723.317	11.79582	1.51958	10.28263	2.08147
3727.310	12.48490	1.60640	10.48000	2.17266
3731.314	12.95482	1.59232	10.79595	1.98088
3735.311	13.11074	1.63018	10.73933	1.99693
3739.315	12.97754	1.64347	10.80101	1.95364
3743.328	12.91399	1.64735	10.68489	1.90846
3747.315	12.88683	1.59440	10.72369	1.91354
3751.345	12.84482	1.50521	10.61929	1.92356
3755.337	12.85624	1.55671	10.70198	2.00330
3759.318	12.97172	1.56881	10.73253	2.17853
3763.306	12.96399	1.55851	10.83469	2.32856
3767.315	13.00785	1.49518	10.87824	2.47077
3771.311	13.11114	1.46686	10.90540	2.49770
3775.315	13.16209	1.43839	10.88513	2.51999
3779.308	13.19124	1.39327	10.86546	2.59543
3783.311	13.24708	1.37223	10.90392	2.55412
3787.327	13.31330	1.30929	10.91279	2.66103
3791.315	13.34317	1.29313	10.91399	2.70496
3795.309	13.36377	1.26144	10.92550	2.70328
3799.326	13.37336	1.23853	10.93622	2.73178
3803.309	13.31203	1.11069	10.89571	2.70798
3807.327	13.29405	0.99463	10.87343	2.65215
3811.317	13.34770	1.01012	10.88618	2.61293
3815.317	13.32122	0.97288	10.82732	2.57080
3819.331	13.30209	0.89705	10.79919	2.53688
3823.319	13.28103	0.82860	10.78891	2.50087
3827.317	13.28176	0.88279	10.75157	2.47871
3831.312	13.28693	0.92426	10.71113	2.43176
3835.315	13.27666	0.96267	10.68314	2.36807
3839.311	13.26845	0.96309	10.67452	2.36360
3843.315	13.28923	0.95831	10.64372	2.31830
3847.305	13.33137	0.96564	10.66819	2.25302
3851.315	13.33032	1.03294	10.67238	2.20924
3855.311	13.32637	1.08229	10.65295	2.09089
3859.315	13.34397	1.07276	10.66460	2.01516
3863.307	13.34449	1.11032	10.66050	1.90169
3867.319	13.35226	1.12611	10.66793	1.83068
3871.355	13.36786	1.19402	10.67464	1.70952
3875.306	13.35395	1.32985	10.70541	1.59983
3879.318	13.26664	1.35552	10.74527	1.55424
3883.311	13.22888	1.46413	10.78199	1.66323
3887.318	13.16419	1.38061	10.85547	1.66487
3891.369	13.16007	1.56196	10.84482	1.85606
3895.315	13.09475	1.59089	10.84712	1.99800
3899.315	12.92010	1.58480	10.91423	1.97834
3903.310	12.83444	1.52046	10.89360	1.94292
3907.325	12.88461	1.48800	10.90872	1.84743
3911.317	12.85631	1.42319	10.93433	1.77003
3915.319	12.81787	1.48477	10.93538	1.89722
3919.311	12.76527	1.32062	10.94725	1.90743
3923.310	12.74367	1.29271	10.84853	2.00927
3927.309	12.75795	1.27088	10.76242	1.97632
3931.310	12.78989	1.24652	10.78465	1.97316
3935.329	12.79701	1.13412	10.80805	1.98877
3939.312	12.78691	1.14495	10.83568	1.98552
3943.316	12.83567	1.20515	10.78963	1.92999
3947.311	12.89737	1.48246	10.82426	1.97385
3951.313	12.90706	1.39286	10.86981	1.93055
3955.362	12.90657	1.38655	10.86074	1.94738
3959.314	12.88610	1.38986	10.83508	1.91524
3963.311	12.88287	1.38465	10.82150	1.88593
3967.303	12.90793	1.35047	10.72872	1.95869
3971.314	12.90779	1.30089	10.70313	1.98388
3975.307	12.81464	1.29573	10.74616	1.97260
3979.312	12.74992	1.24764	10.67684	1.95922
3983.302	12.73753	1.27009	10.68847	1.88869
3987.312	12.75842	1.36338	10.64099	1.84351
3991.307	12.73824	1.28183	10.70066	1.91690
3995.328	12.65883	1.15958	10.55747	1.84274
3999.319	11.53999	0.53958	9.81708	1.53388
4003.302	9.27424	-2.47294	8.14008	-0.62070
4007.312	8.76964	-3.74662	7.74793	-1.74971
4011.310	7.75960	-5.06053	6.94374	-2.50801
4015.314	7.27924	-5.43963	6.17999	-2.57398
4019.309	7.48617	-5.64747	5.06114	-2.72742
4023.333	8.30308	-5.51865	5.02157	-2.73329
4027.306	7.83938	-5.20777	5.10748	-2.49137
4031.306	8.10253	-5.06966	5.67887	-2.18450
4035.313	8.11727	-4.78588	5.75301	-2.10089
4039.307	8.01740	-4.83306	5.82083	-2.08674
4043.309	8.01912	-4.95000	5.64619	-2.30727
4047.313	7.81900	-5.02342	5.67706	-2.30951
4051.306	7.66353	-5.07157	5.58302	-2.31623
4055.310	7.73662	-5.04563	5.42210	-2.38378
4059.314	7.79339	-5.01955	5.33657	-2.46592
4063.328	7.81405	-4.96330	5.42697	-2.45029
4067.305	7.85845	-4.95180	5.47564	-2.39333
4071.305	7.87063	-4.92510	5.50842	-2.62913
4075.304	7.89125	-4.93236	5.47014	-2.62972
4079.319	7.86773	-4.95543	5.48494	-2.68593
4083.306	7.86595	-4.97478	5.41148	-2.78402
4087.307	7.86849	-4.98193	5.37583	-2.75849
4091.306	7.86739	-4.97430	5.39047	-2.76946
4095.313	7.95317	-4.95346	5.37040	-2.82323
4099.309	7.99785	-4.95812	5.35069	-2.81221
4103.312	8.04635	-4.93524	5.37340	-2.76511
4107.304	8.07917	-4.93689	5.36769	-2.69973
4111.323	8.08625	-4.98288	5.33121	-2.65130
4115.304	8.08788	-5.05285	5.31278	-2.56289
4119.329	8.07835	-5.11544	5.29103	-2.57066
4123.311	8.06219	-5.17900	5.26162	-2.45061
4127.308	8.06144	-5.18718	5.35251	-2.45605
4131.309	8.05930	-5.17315	5.32240	-2.42962
4135.305	8.10839	-5.15113	5.33354	-2.40922
4139.304	8.13008	-5.15646	5.38671	-2.36770
4143.309	8.16206	-5.23404	5.39384	-2.39627
4147.325	8.25824	-5.22483	5.39318	-2.41067
4151.312	8.16934	-5.29424	5.46613	-2.46885
4155.302	8.21543	-5.31392	5.45140	-2.57857
4159.373	8.21733	-5.32606	5.53387	-2.62351
4163.314	8.21128	-5.28520	5.47569	-2.66672
4167.304	8.23731	-5.18947	5.50461	-2.61540
4171.307	8.27564	-5.10636	5.50980	-2.62766
4175.300	8.33425	-5.06884	5.54567	-2.73089
4179.321	8.31107	-5.07097	5.51022	-2.77201
4183.305	8.33972	-4.93652	5.56079	-2.76719
4187.314	8.34261	-4.99539	5.54255	-2.75079
4191.303	8.36030	-4.94036	5.54803	-2.71298
4195.307	8.39744	-4.92774	5.53950	-2.72018
4199.312	8.42102	-4.85514	5.52728	-2.66621
4203.313	8.41743	-4.79585	5.46559	-2.71373
4207.305	8.41505	-4.73270	5.49301	-2.65590
4211.308	8.39064	-4.71713	5.43610	-2.74832
4215.301	8.38044	-4.71801	5.38299	-2.82505
4219.308	8.34873	-4.79164	5.36179	-2.85343
4223.306	8.36669	-4.89489	5.34639	-2.84081
4227.332	8.34375	-5.07386	5.29659	-2.87589
4231.304	8.35602	-5.10410	5.25473	-2.84894
4235.338	8.32667	-5.07137	5.20172	-2.85922
4239.309	8.29674	-5.10996	5.15692	-2.89046
4243.325	8.24473	-5.07574	5.11817	-2.90663
4247.305	8.24271	-4.96300	5.17115	-2.90303
4251.318	8.26420	-4.99753	5.15450	-2.89074
4255.308	8.27659	-4.93470	5.25655	-2.87556
4259.303	8.27508	-4.95947	5.24922	-2.83190
4263.302	8.33809	-4.93596	5.32555	-2.80255
4267.303	8.37874	-4.88634	5.30803	-2.77472
4271.308	8.37371	-4.83139	5.42028	-2.73909
4275.303	8.39885	-4.75402	5.42579	-2.71384
4279.302	8.42190	-4.67600	5.52645	-2.67157
4283.319	8.42656	-4.63391	5.52047	-2.59220
4287.318	8.43720	-4.55556	5.57439	-2.56755
4291.307	8.42860	-4.46403	5.52399	-2.54444
4295.358	8.46160	-4.49995	5.48750	-2.50861
4299.316	8.47835	-4.51351	5.47955	-2.52012
4303.311	8.48248	-4.52426	5.48334	-2.52400
4307.307	8.50603	-4.47567	5.45400	-2.49001
4311.306	8.49047	-4.45929	5.40735	-2.49469
4315.304	8.49959	-4.44330	5.36061	-2.50061
4319.314	8.49022	-4.47790	5.36538	-2.52771
4323.312	8.53549	-4.54935	5.30874	-2.57068
4327.306	8.54688	-4.62126	5.32341	-2.57835
4331.305	8.57949	-4.66495	5.29501	-2.59474
4335.301	8.54610	-4.83117	5.27513	-2.60902
4339.312	8.52222	-4.85484	5.30193	-2.68291
4343.301	8.48015	-4.98575	5.26184	-2.69550
4347.306	8.47638	-5.03633	5.26770	-2.71587
4351.298	8.45380	-5.05738	5.28785	-2.71946
4355.308	8.42335	-5.06100	5.36191	-2.68889
4359.303	8.41998	-5.07929	5.43664	-2.66620
4363.331	8.40242	-5.08764	5.36841	-2.72360
4367.209	8.34907	-5.04030	5.32301	-2.72471
4371.181	8.37781	-5.00843	5.31918	-2.81404
4375.184	8.36278	-4.96390	5.34282	-2.83745
4379.176	8.41689	-4.80262	5.25852	-2.89470
4383.194	8.41927	-4.89865	5.18033	-2.89551
4387.186	8.44178	-4.86152	5.24964	-2.87290
4391.181	8.43989	-4.78261	5.19901	-2.86432
4395.179	8.41920	-4.67415	5.19256	-2.85749
4399.173	8.35942	-4.70121	5.22407	-2.74453
4403.187	8.31027	-4.65327	5.26701	-2.85660
4407.176	8.25715	-4.62729	5.25958	-2.87224
4411.181	8.19545	-4.62007	5.42100	-2.80426
4415.182	8.06210	-4.65210	5.39384	-2.80807
4419.193	8.14203	-4.62867	5.29322	-2.79233
4423.177	8.04762	-4.65346	5.32011	-2.78214
4427.178	8.04037	-4.67757	5.44284	-2.74890
4431.228	8.03265	-4.66234	5.42518	-2.77396
4435.182	8.03428	-4.68234	5.37539	-2.77915
4439.181	8.02562	-4.67339	5.33746	-2.82345
4443.175	8.02591	-4.63927	5.39214	-2.86631
4447.178	8.03180	-4.60896	5.26745	-2.90735
4451.171	8.08051	-4.61100	5.14237	-2.89704
4455.197	8.06628	-4.61123	5.16474	-2.91207
4459.186	8.10270	-4.62842	5.15044	-2.94830
4463.174	8.12850	-4.62585	5.17998	-2.97696
4467.175	8.16350	-4.58158	5.14045	-2.96987
4471.181	8.22820	-4.54721	5.05725	-2.97341
4475.177	8.22141	-4.54274	5.08692	-2.96239
4479.169	8.27144	-4.50832	5.08707	-2.95590
4483.173	8.35896	-4.54284	5.14963	-2.93588
4487.180	8.31107	-4.55562	5.18468	-2.94140
4491.174	8.26923	-4.60023	5.40174	-2.86817
4495.178	8.28247	-4.64571	5.49846	-2.84210
4499.208	8.30680	-4.62788	5.56637	-2.83398
4503.180	8.28991	-4.66379	5.29681	-2.86718
4507.173	8.30293	-4.60230	5.36742	-2.82381
4511.196	8.29061	-4.63406	5.39891	-2.83568
4515.168	8.25851	-4.65899	5.43492	-2.83041
4519.174	8.27995	-4.65321	5.55438	-2.80512
4523.172	8.33280	-4.65745	5.55561	-2.81520
4527.189	8.25729	-4.69730	5.62468	-2.74757
4531.173	8.27241	-4.71879	5.60961	-2.69029
4535.178	8.24619	-4.75593	5.70780	-2.70758
4539.179	8.27090	-4.65493	5.63407	-2.72791
4543.182	8.28097	-4.53969	5.63628	-2.76584
4547.173	8.29926	-4.49227	5.56600	-2.78221
4551.174	8.26130	-4.52405	5.43083	-2.76895
4555.171	8.23162	-4.54006	5.24530	-2.77904
4559.175	8.26821	-4.48583	5.13149	-2.80125
4563.176	8.26935	-4.55820	5.49369	-2.77485
4567.244	8.26672	-4.53340	5.56055	-2.68862
4571.178	8.29178	-4.55547	5.42464	-2.73114
4575.179	8.25071	-4.60912	5.41433	-2.74158
4579.171	8.24025	-4.60560	5.23352	-2.73935
4583.180	8.23313	-4.69375	5.35158	-2.61085
4587.176	8.22572	-4.76226	5.49143	-2.61360
4591.178	8.28179	-4.82322	5.61851	-2.58925
4595.176	8.29419	-4.83322	5.63493	-2.57676
4599.177	8.30903	-4.78316	5.61903	-2.52779
4603.171	8.28838	-4.85336	5.56581	-2.49243
4607.194	8.27747	-4.87093	5.58334	-2.48653
4611.174	8.17653	-4.93592	5.55226	-2.53924
4615.177	8.16138	-4.92343	5.57677	-2.54809
4619.171	8.20493	-4.87631	5.54046	-2.59216
4623.184	8.21857	-4.82692	5.55718	-2.59186
4627.178	8.20617	-4.71608	5.45963	-2.68520
4631.171	8.13264	-4.82915	5.44402	-2.79152
4635.205	8.16552	-4.87896	5.38742	-2.73975
4639.177	8.16000	-4.82875	5.32939	-2.76035
4643.176	8.13891	-4.91870	5.31064	-2.79966
4647.170	8.04348	-5.04545	5.33716	-2.82333
4651.175	8.15180	-4.98456	5.35802	-2.86411
4655.170	8.19119	-4.91830	5.35751	-2.89473
4659.180	8.22747	-4.91473	5.32912	-2.92470
4663.177	8.23347	-4.97336	5.33421	-2.92330
4667.175	8.24701	-4.91608	5.34073	-2.93321
4671.184	8.25902	-4.89222	5.32567	-2.91112
4675.186	8.34460	-4.85941	5.33952	-2.88655
4679.180	8.32728	-4.85535	5.34604	-2.90856
4683.180	8.27873	-4.87616	5.33350	-2.92996
4687.173	8.32957	-4.78684	5.38442	-2.94418
4691.171	8.31343	-4.77034	5.36742	-2.96903
4695.185	8.26198	-4.75140	5.38299	-2.94915
4699.173	8.19061	-4.84777	5.37153	-2.95752
4703.170	8.19078	-4.82181	5.41694	-2.92739
4707.179	8.11537	-4.85642	5.52807	-2.83635
4711.180	8.03200	-4.96144	5.52888	-2.85222
4715.176	7.95769	-5.00562	5.63508	-2.84941
4719.166	7.96697	-5.09679	5.61330	-2.85003
4723.173	7.95713	-5.06458	5.54457	-2.84930
4727.176	7.97554	-5.03200	5.50348	-2.87570
4731.170	7.96205	-5.05866	5.46773	-2.79792
4735.168	7.93523	-5.05887	5.53788	-2.80781
4739.172	7.93883	-5.13456	5.47493	-2.84633
4743.188	7.96624	-5.07870	5.43848	-2.84860
4747.199	7.92734	-5.05476	5.55932	-2.74232
4751.173	7.95414	-5.00825	5.55460	-2.76830
4755.167	7.97984	-4.96984	5.52409	-2.76889
4759.169	8.01547	-4.99571	5.43563	-2.72060
4763.168	8.05531	-4.93019	5.50931	-2.64218
4767.173	8.11192	-4.88877	5.66695	-2.64226
4771.174	8.11985	-4.91989	5.66010	-2.70237
4775.172	8.11213	-4.92545	5.73210	-2.67285
4779.171	8.10630	-4.86798	5.73094	-2.61779
4783.164	8.19594	-4.83664	5.84959	-2.38591
4787.174	8.37536	-4.39829	5.99578	-2.35111
4791.174	10.35001	-1.21013	8.21478	-0.12344
4795.175	10.15213	-0.80023	8.53695	1.73401
4799.185	10.73531	1.27292	8.61295	2.17603
4803.173	11.26467	1.96132	9.02588	3.26761
4807.177	11.72795	2.67765	8.99494	3.42221
4811.170	11.80783	2.91150	9.67984	3.84128
4815.182	11.77142	4.52141	9.88116	5.39088
4819.167	11.15554	5.36326	9.81816	6.48975
4823.175	10.87711	5.43818	9.55765	6.29154
4827.169	10.95421	5.41707	9.77977	5.33866
4831.183	11.37023	5.41581	9.72330	5.51353
4835.168	11.43636	5.32412	9.78881	5.69050
4839.242	11.41554	5.37427	9.74470	5.56983
4843.169	11.35566	5.51417	9.76037	5.57486
4847.162	11.12249	5.53950	9.69545	5.56346
4851.169	11.08856	5.55920	9.68594	5.87707
4855.171	11.05830	5.54805	9.63117	6.15629
4859.169	10.97767	5.63655	9.58053	6.11651
4863.172	10.86062	5.76228	9.63317	6.11555
4867.173	10.77272	5.80854	9.61713	6.01399
4871.174	10.71118	5.79140	9.58478	6.06619
4875.173	10.84044	5.78866	9.55246	6.22766
4879.173	10.86926	5.85598	9.55946	6.17558
4883.167	10.90973	5.89505	9.59182	6.21530
4887.167	10.86093	5.82962	9.62550	6.22233
4891.169	10.89334	5.71331	9.63269	6.13876
4895.175	10.94141	5.68969	9.68115	6.13064
4899.173	11.02990	5.67420	9.69156	6.18299
4903.167	11.21687	5.67682	9.73882	6.22889
4907.713	11.20572	5.42020	9.76276	6.24778
4911.216	11.28834	5.47519	9.78814	6.33138
4915.171	11.38552	5.36303	9.82262	6.33429
4919.174	11.41676	5.32994	9.79197	6.38975
4923.169	11.43696	5.21628	9.74670	6.47542
4927.184	11.44342	5.21111	9.71208	6.52451
4931.171	11.47205	5.19887	9.64900	6.45579
4935.171	11.45562	5.24832	9.57324	6.52868
4939.173	11.48368	5.26611	9.49501	6.57544
4943.192	11.50108	5.26832	9.43701	6.58724
4947.171	11.46554	5.25693	9.38588	6.57722
4951.175	11.40064	5.24286	9.44518	6.53758
4955.167	11.27087	5.27773	9.41583	6.46358
4959.187	11.30347	5.30011	9.41547	6.46283
4963.181	11.31343	5.33534	9.44168	6.43812
4967.169	11.24464	5.38882	9.45423	6.40434
4971.161	11.18976	5.49323	9.54450	6.34191
4975.187	11.29424	5.52761	9.68238	6.27643
4979.173	11.36639	5.58750	9.70929	6.27675
4983.164	11.38216	5.58869	9.79879	6.27039
4987.169	11.33053	5.48626	9.82814	6.27160
4991.160	11.31934	5.53730	9.88815	6.24710
4995.223	11.24948	5.53820	9.88302	6.13222
4999.175	11.35279	5.46856	9.90785	6.21461
5003.178	11.29032	5.43615	9.88466	6.17877
5007.165	11.29152	5.40000	9.83496	6.19257
5011.164	11.34048	5.61219	9.88663	6.18621
5015.168	11.41230	5.52587	9.91522	6.21592
5019.180	11.39129	5.54018	9.87377	6.26586
5023.166	11.35012	5.48109	9.81809	6.25972
5027.170	11.29479	5.52331	9.76683	6.28696
5031.165	11.27579	5.55561	9.72939	6.24301
5035.170	11.41984	5.51139	9.65662	6.18898
5039.169	11.44456	5.50727	9.70099	6.19098
5043.187	11.47977	5.57185	9.61933	6.28904
5047.176	11.57434	5.50067	9.48376	6.31499
5051.166	11.67482	5.54894	9.54397	6.41226
5055.164	11.67627	5.47801	9.57577	6.49472
5059.163	11.47586	6.09695	8.16683	6.79990
5063.169	8.30335	5.43475	9.42296	7.80807
5067.169	6.40695	2.23564	10.16377	6.56698
5071.165	NaN	NaN	10.34890	6.66832
5075.179	6.27837	10.23701	NaN	NaN
5079.171	NaN	NaN	NaN	NaN
5083.177	NaN	NaN	NaN	NaN
5087.161	NaN	NaN	NaN	NaN
5091.167	NaN	NaN	NaN	NaN
5095.169	NaN	NaN	NaN	NaN
5099.196	NaN	NaN	NaN	NaN
5103.166	NaN	NaN	NaN	NaN
5107.177	NaN	NaN	NaN	NaN
5111.775	NaN	NaN	NaN	NaN
5115.763	NaN	NaN	NaN	NaN
5119.493	NaN	NaN	NaN	NaN
5123.208	NaN	NaN	NaN	NaN
5127.319	NaN	NaN	NaN	NaN
5131.202	NaN	NaN	-4.13377	7.09794
5135.170	NaN	NaN	-5.84873	7.22561
5139.158	NaN	NaN	13.38419	3.92032
5143.171	NaN	NaN	10.33507	2.14950
5147.163	NaN	NaN	10.19803	-1.40499
5151.183	NaN	NaN	1.42052	-1.83913
5155.163	8.18429	-3.75991	7.65488	-2.29730
5159.161	8.35656	-4.09204	6.95817	-2.41474
5163.167	7.97013	-4.73078	2.72615	-2.59552
5167.172	7.49041	-4.92279	5.96510	-2.33303
5171.161	7.37895	-4.92134	6.77044	-2.23783
5175.166	7.16898	-4.30569	6.69023	-2.18184
5179.168	6.99783	-4.24526	7.12075	-2.10500
5183.169	7.52683	-4.08473	6.67742	-2.19020
5187.165	7.68423	-4.13081	8.42962	-2.02552
5191.160	8.38384	-3.96039	7.24554	-2.15181
5195.184	8.42126	-4.01635	6.60796	-2.14690
5199.155	8.41264	-4.15354	6.60073	-2.06951
5203.173	8.98060	-4.00664	6.78297	-2.09180
5207.163	8.77078	-4.07827	6.97785	-2.04064
5211.171	8.63973	-4.03425	7.04758	-2.03485
5215.162	8.55231	-4.05447	7.13986	-2.03833
5219.039	8.68451	-4.04223	7.25597	-2.02473
5223.033	8.60240	-4.08565	7.04670	-2.09142
5227.042	8.92178	-4.13502	7.06012	-2.09653
5231.036	9.12715	-4.15445	6.98062	-2.13916
5235.041	9.03871	-4.23126	6.93731	-2.13608
5239.033	9.26476	-4.24161	7.01568	-2.17577
5243.035	9.36073	-4.26602	7.03389	-2.22924
5247.065	9.14784	-4.30234	6.94279	-2.25561
5251.048	9.23838	-4.33058	6.91293	-2.26731
5255.040	9.48149	-4.34090	6.88127	-2.33517
5259.038	9.57686	-4.33087	6.84837	-2.42759
5263.037	9.60572	-4.35311	6.79283	-2.46691
5267.039	9.62917	-4.33729	6.77812	-2.55274
5271.036	9.66766	-4.36683	6.75757	-2.58558
5275.040	9.67570	-4.35662	6.77078	-2.55374
5279.036	9.71560	-4.33440	6.74271	-2.58819
5283.054	9.69605	-4.38173	6.73480	-2.54762
5287.035	9.58803	-4.41900	6.76138	-2.43453
5291.046	9.62832	-4.37676	6.74692	-2.37245
5295.045	9.53897	-4.47878	6.80076	-2.44537
5299.045	9.56381	-4.56288	6.78211	-2.46196
5303.037	9.44793	-4.52686	6.76432	-2.40513
5307.036	9.40607	-4.48131	6.75943	-2.39636
5311.047	9.45822	-4.58304	6.72719	-2.38408
5315.087	9.46319	-4.57559	6.73157	-2.37913
5319.049	9.45689	-4.56070	6.72653	-2.36977
5323.040	9.51054	-4.56038	6.74016	-2.38350
5327.035	9.51763	-4.59094	6.74129	-2.39133
5331.040	9.53603	-4.57779	6.71826	-2.48244
5335.038	9.55357	-4.62357	6.78436	-2.50178
5339.068	9.56863	-4.60693	6.72504	-2.55132
5343.040	9.58852	-4.60095	6.74917	-2.55770
5347.063	9.58743	-4.64402	6.71723	-2.58422
5351.037	9.55787	-4.69910	6.73008	-2.58247
5355.039	9.51191	-4.68950	6.78123	-2.58506
5359.040	9.28226	-4.61881	6.83418	-2.60075
5363.040	9.17965	-4.70909	6.85226	-2.57490
5367.036	9.11070	-4.79758	7.00145	-2.54644
5371.055	9.14680	-4.81020	6.95333	-2.53649
5375.037	9.19880	-4.85789	6.91931	-2.50760
5379.044	9.27656	-4.74675	6.92562	-2.51542
5383.071	9.40248	-4.57827	6.98027	-2.56645
5387.040	9.37994	-4.53637	6.86268	-2.51299
5391.031	9.37967	-4.45085	7.03995	-2.47734
5395.046	9.30730	-4.39693	7.03237	-2.47883
5399.037	9.44933	-4.29750	7.06791	-2.46412
5403.035	9.54025	-4.34083	7.02399	-2.44377
5407.041	9.56735	-4.28496	7.00463	-2.40340
5411.036	9.52647	-4.39768	6.98996	-2.39670
5415.029	9.54710	-4.35293	6.94861	-2.41063
5419.049	9.55198	-4.37021	6.96993	-2.39193
5423.030	9.58347	-4.39814	6.91928	-2.36682
5427.045	9.55625	-4.41218	6.86545	-2.30066
5431.033	9.59238	-4.46890	6.90216	-2.30236
5435.034	9.61706	-4.42808	6.85214	-2.28861
5439.033	9.62683	-4.54551	6.88607	-2.31187
5443.041	9.71715	-4.55483	6.88335	-2.31085
5447.032	9.67355	-4.59957	6.89084	-2.30591
5451.089	9.74437	-4.56383	6.87137	-2.35805
5455.043	9.76158	-4.53208	6.87230	-2.38644
5459.039	9.79542	-4.59878	6.85300	-2.39619
5463.033	9.79710	-4.57119	6.82006	-2.43254
5467.028	9.75013	-4.62164	6.73980	-2.45366
5471.049	9.77580	-4.51841	6.77888	-2.44235
5475.041	9.68853	-4.63198	6.79726	-2.44100
5479.034	9.58038	-4.64938	6.80521	-2.45722
5483.030	9.62176	-4.60602	6.75984	-2.42072
5487.037	9.54672	-4.67958	6.76107	-2.41862
5491.038	9.52835	-4.64300	6.76471	-2.40240
5495.034	9.48125	-4.64288	6.76882	-2.33493
5499.033	9.41834	-4.69737	6.74349	-2.25330
5503.039	9.41646	-4.69888	6.72834	-2.17856
5507.034	9.40798	-4.73231	6.76606	-2.14461
5511.049	9.42139	-4.72628	6.82139	-2.19290
5515.033	9.41723	-4.76364	6.83176	-2.16804
5519.054	9.42909	-4.76131	6.87178	-2.15170
5523.035	9.42660	-4.74014	6.86207	-2.17707
5527.034	9.42648	-4.76171	6.87917	-2.15305
5531.035	9.42740	-4.73066	6.86574	-2.14535
5535.028	9.41566	-4.74153	6.85158	-2.15793
5539.048	9.43003	-4.77364	6.85185	-2.17421
5543.026	9.41117	-4.77392	6.88619	-2.23078
5547.046	9.42798	-4.75918	6.87058	-2.23546
5551.058	9.39008	-4.76342	6.85578	-2.25901
5555.034	9.39571	-4.78297	6.83783	-2.20642
5559.056	9.38972	-4.79537	6.84551	-2.19922
5563.035	9.40045	-4.77733	6.80423	-2.19640
5567.031	9.44204	-4.67075	6.85777	-2.17418
5571.033	9.59855	-4.67305	6.92877	-2.03792
5575.037	9.75341	-4.18489	7.03956	-1.40867
5579.035	9.46082	-3.63397	7.24849	-1.01668
5583.031	9.58755	-3.23441	7.29169	-0.58488
5587.082	9.46667	-3.31451	7.25406	-0.89212
5591.060	9.51464	-3.71805	7.24869	-1.16468
5595.040	9.62328	-3.77207	7.33596	-1.47566
5599.034	9.73424	-3.64786	7.46587	-1.58267
5603.029	9.86160	-3.56177	7.54813	-1.25706
5607.033	10.00788	-3.42139	7.66709	-1.05973
5611.034	10.10357	-3.33083	7.65090	-1.27050
5615.028	10.12464	-3.40158	7.64403	-1.21845
5619.034	9.86931	-3.40007	7.57122	-0.94120
5623.043	9.97353	-3.50729	7.50564	-1.04055
5627.035	10.01077	-3.53570	7.40174	-1.05013
5631.037	9.99924	-3.52807	7.38742	-1.07182
5635.029	10.05531	-3.59327	7.44071	-0.96609
5639.029	10.13833	-3.53418	7.39715	-1.06396
5643.030	10.16480	-3.46361	7.38483	-1.01492
5647.028	10.12248	-3.25627	7.34314	-0.99720
5651.045	10.14946	-3.34332	7.34731	-0.98416
5655.034	10.05507	-3.22478	7.39918	-0.92832
5659.033	10.04408	-3.13359	7.39288	-0.87484
5663.036	10.07545	-3.32051	7.48051	-0.92334
5667.034	10.08342	-3.34172	7.50566	-0.90395
5671.040	10.08640	-3.33079	7.54047	-0.95419
5675.031	10.10959	-3.29615	7.53259	-0.94931
5679.048	10.14804	-3.33122	7.53137	-0.95887
5683.035	10.13958	-3.37492	7.52591	-0.97021
5687.039	10.15336	-3.51070	7.50281	-1.00821
5691.029	10.12161	-3.05583	7.53193	-0.99162
5695.036	10.11252	-3.21501	7.45870	-0.97937
5699.033	10.12902	-3.41828	7.41626	-1.01093
5703.029	10.06881	-3.34865	7.43676	-1.03660
5707.027	10.06357	-3.46017	7.37787	-1.09684
5711.038	10.10651	-3.42120	7.34189	-1.14017
5715.027	10.10314	-3.31920	7.30002	-1.11911
5719.031	10.08917	-3.34612	7.29001	-1.12948
5723.049	9.99491	-3.34917	7.32053	-1.16259
5727.084	10.02090	-3.26693	7.33620	-1.12257
5731.029	9.93949	-3.27418	7.30649	-1.13201
5735.031	9.94356	-3.29176	7.35144	-1.17072
5739.031	9.95695	-3.33160	7.48271	-1.18184
5743.047	10.02100	-3.31022	7.48917	-1.13124
5747.050	10.00697	-3.38472	7.51691	-1.06305
5751.039	10.02767	-3.39080	7.58895	-1.06654
5755.032	10.04023	-3.34750	7.70107	-1.04593
5759.041	10.06186	-3.43347	7.70979	-0.98434
5763.033	10.06913	-3.48317	7.72583	-1.02650
5767.031	10.13573	-3.41855	7.75025	-1.00025
5771.027	10.14196	-3.37534	7.81037	-0.98329
5775.033	10.19228	-3.35129	7.86539	-0.99387
5779.030	10.24524	-3.29382	7.86293	-1.03103
5783.027	10.30677	-3.28024	7.80718	-1.05440
5787.037	10.34924	-3.23921	7.76260	-1.12058
5791.082	10.35738	-3.26191	7.69264	-1.14708
5795.098	10.38389	-3.39666	7.60149	-1.21956
5799.023	10.31475	-3.40147	7.57620	-1.30686
5803.031	10.27383	-3.44511	7.51544	-1.37574
5807.026	10.29414	-3.39095	7.49912	-1.40824
5811.042	10.22483	-3.41031	7.45494	-1.44150
5815.034	10.05815	-3.30984	7.50927	-1.50290
5819.036	10.02923	-3.50985	7.46875	-1.54863
5823.026	10.09792	-3.33169	7.43110	-1.56433
5827.025	10.03852	-3.30531	7.48432	-1.57783
5831.031	9.96260	-3.29527	7.51432	-1.59672
5835.026	9.93535	-3.30711	7.47863	-1.62620
5839.026	9.91199	-3.19020	7.47009	-1.60489
5843.036	9.89624	-3.17240	7.40706	-1.59987
5847.026	9.91739	-3.03225	7.42590	-1.49723
5851.036	9.96147	-3.12897	7.44067	-1.44655
5855.025	10.02225	-3.03535	7.46180	-1.28521
5859.036	10.10230	-2.94381	7.48727	-1.36630
5863.031	10.16182	-2.94839	7.50910	-1.31952
5867.023	10.14504	-2.94513	7.62514	-1.26969
5871.051	10.13467	-2.95233	7.61743	-1.23571
5875.038	10.16040	-2.97539	7.64713	-1.21770
5879.030	10.20406	-2.87124	7.72883	-1.24107
5883.032	10.18260	-2.80661	7.77222	-1.28905
5887.028	10.24223	-2.83123	7.84852	-1.31827
5891.022	10.29548	-2.94218	7.87733	-1.45343
5895.074	10.28551	-2.90162	7.83933	-1.38495
5899.023	10.29937	-2.88806	7.87168	-1.40418
5903.037	10.26924	-2.93060	7.87793	-1.43793
5907.024	10.26497	-3.04615	7.89308	-1.50840
