time (ms)	lx (deg)	ly (deg)	rx (deg)	ry (deg)
0.000	9.60181	4.28857	7.52279	2.48623
3.989	9.15906	4.24316	7.59888	2.48363
7.994	9.29640	4.23791	7.52996	2.62579
12.000	9.38160	4.21869	7.55127	2.63606
15.996	8.94578	4.16667	7.58907	2.59571
19.997	9.29865	4.13775	7.56520	2.46961
23.991	9.18395	4.14303	7.48710	2.68591
27.994	9.05301	4.26729	7.59378	2.85817
31.987	9.22139	4.39068	7.39508	3.13371
35.994	3.43904	4.42504	6.08662	3.92371
39.989	1.60018	6.12016	2.44680	4.06340
43.989	-1.45929	13.50569	2.77456	2.05838
47.989	NaN	NaN	NaN	NaN
51.991	NaN	NaN	NaN	NaN
56.005	NaN	NaN	NaN	NaN
59.993	NaN	NaN	NaN	NaN
63.989	NaN	NaN	NaN	NaN
67.991	NaN	NaN	NaN	NaN
71.990	NaN	NaN	NaN	NaN
75.996	NaN	NaN	NaN	NaN
79.993	NaN	NaN	-21.62209	9.01436
84.033	NaN	NaN	-20.25023	6.19515
87.999	NaN	NaN	-18.35962	4.41879
91.989	NaN	NaN	-3.21557	0.73903
95.994	2.06193	13.45903	-7.47270	3.26206
99.990	NaN	NaN	-5.66639	3.34628
103.994	NaN	NaN	-1.11507	2.49127
107.996	2.03382	6.27905	-5.71165	1.62909
111.985	4.17581	2.20296	-2.18238	1.01655
115.994	4.10545	2.23842	-4.33762	1.10370
119.990	3.96889	1.44260	-7.16896	0.55962
124.024	3.88611	1.83346	-4.18581	0.83441
127.993	2.59024	2.16526	-4.12053	0.93840
131.989	2.76230	1.57782	-3.64778	1.02587
135.991	2.00730	1.19392	-2.53429	1.14752
139.991	2.07350	1.46569	-2.95591	1.07136
143.988	1.00521	1.76562	-1.37873	1.07277
147.991	-0.64908	1.53658	-0.88540	1.07221
151.991	0.01854	1.18022	-0.46674	1.06118
155.989	1.24240	1.45059	-0.07480	1.11047
159.990	1.44302	1.37783	0.22815	1.12201
163.984	1.59088	1.36140	-0.34355	1.14748
167.992	0.29290	1.51498	-0.12002	1.09228
171.988	1.13595	1.44275	-0.07907	1.06978
175.992	1.36528	1.41236	-0.37926	1.03247
179.996	1.18884	1.40635	-0.30848	1.05859
183.989	0.92795	1.34856	-0.37459	0.97969
187.991	0.55756	1.34726	-0.29523	0.95023
191.982	0.77012	1.40208	-0.30729	0.82192
195.992	0.85007	1.45765	-0.42576	0.89268
199.987	0.92046	1.47627	-0.38174	0.75543
203.991	0.74685	1.48733	-0.46259	0.77060
207.985	0.88617	1.48390	-0.45852	0.77154
211.987	0.96554	1.49159	-0.56729	0.77571
215.989	1.07001	1.48231	-0.58406	0.81990
219.994	1.11102	1.48946	-0.54414	0.88179
223.987	1.06012	1.48778	-0.54833	0.86805
227.989	1.10192	1.46472	-0.58210	0.83155
231.985	0.99261	1.43271	-0.62565	0.83659
235.992	0.95289	1.43995	-0.63163	0.83256
239.987	1.02449	1.38696	-0.62895	0.74728
243.986	0.95700	1.39186	-0.68379	0.61666
247.988	0.93497	1.33055	-0.72858	0.63067
251.990	0.83525	1.33635	-0.75156	0.53037
256.003	0.94361	1.30239	-0.69357	0.56573
259.990	0.74511	1.28107	-0.68332	0.69681
263.994	0.78866	1.23484	-0.68769	0.58076
267.986	0.71637	1.24174	-0.71007	0.52431
271.990	0.69466	1.28981	-0.68389	0.47634
275.986	0.67454	1.32761	-0.69191	0.43430
279.989	0.72898	1.31381	-0.72508	0.51117
283.984	0.74620	1.29386	-0.74541	0.38495
287.985	0.73288	1.26824	-0.71392	0.40667
291.988	0.75486	1.27106	-0.74144	0.43926
295.988	0.79109	1.25712	-0.74181	0.43616
299.989	0.77789	1.28052	-0.82176	0.47876
303.995	0.76079	1.29162	-0.83391	0.44969
307.991	0.73124	1.29116	-0.81069	0.40735
311.985	0.75928	1.27767	-0.76980	0.37322
315.984	0.78761	1.30299	-0.72491	0.42058
319.985	0.73935	1.29054	-0.79042	0.42778
324.016	0.67332	1.24262	-0.79280	0.38251
327.985	0.57032	1.18560	-0.74804	0.49042
331.983	0.71878	1.13850	-0.75752	0.52694
335.984	0.75630	1.12828	-0.70724	0.48886
339.986	0.87428	1.09425	-0.68762	0.43644
343.990	0.74469	1.02193	-0.61203	0.37512
347.986	0.77054	1.06931	-0.62538	0.31005
351.984	0.75508	1.03571	-0.66489	0.26403
356.428	0.87488	1.07790	-0.73211	0.33911
360.004	0.75903	1.00394	-0.75853	0.29215
363.987	0.77178	0.98645	-0.76119	0.28812
368.015	0.82057	0.97158	-0.70141	0.18417
371.996	0.88515	1.00075	-0.67057	0.14367
375.980	0.81446	1.02549	-0.71164	0.15671
379.988	0.87163	1.02492	-0.71642	0.12533
383.982	0.82997	1.03137	-0.73087	0.15840
387.992	0.84104	1.03785	-0.67297	0.17448
391.984	0.84947	1.05173	-0.69273	0.20144
395.988	0.93681	1.03735	-0.69191	0.17341
399.984	0.91120	1.00238	-0.69260	0.10659
403.987	0.95762	1.00366	-0.66873	0.09499
407.984	0.95829	1.00890	-0.69374	0.04087
411.988	0.97603	1.02214	-0.67628	0.09067
415.983	0.91478	1.06565	-0.70471	0.18668
419.987	0.85533	1.04887	-0.62982	0.19185
423.985	0.89413	0.99769	-0.62967	0.22979
428.004	0.83972	0.99100	-0.61543	0.30662
431.991	0.78657	0.97298	-0.63699	0.40163
435.987	0.79377	0.95716	-0.54555	0.44025
439.982	0.70923	1.01982	-0.52136	0.52729
443.984	0.66399	0.98220	-0.47165	0.62253
447.985	0.62188	1.04518	-0.45532	0.44669
451.859	0.60543	1.09324	-0.51681	0.63315
455.877	0.61543	1.09332	-0.65101	0.67170
459.861	0.59468	1.00757	-0.62364	0.61886
463.857	0.63342	1.04920	-0.60947	0.47349
467.858	0.64436	1.21501	-0.58434	0.47590
471.857	0.62630	1.17548	-0.61528	0.35408
475.865	0.67337	1.13501	-0.59972	0.29661
479.859	0.62168	1.14475	-0.59684	0.35872
483.858	0.60980	1.05415	-0.60925	0.30813
487.856	0.60942	1.10045	-0.66997	0.27814
491.858	0.60344	1.07591	-0.66863	0.34577
495.864	0.60310	1.00926	-0.75506	0.46950
499.861	0.57436	0.95802	-0.74732	0.37819
503.860	0.62287	0.83773	-0.65201	0.31529
507.855	0.69933	0.86422	-0.62426	0.36732
511.863	0.62228	0.82812	-0.65062	0.38839
515.863	0.68940	0.88050	-0.62158	0.46936
519.864	0.52736	0.96046	-0.62029	0.44149
523.858	0.62079	0.84056	-0.75493	0.40878
527.863	0.53287	0.91960	-0.76935	0.48177
531.857	0.37752	0.95000	-0.74739	0.55998
535.861	0.47140	0.92341	-0.69025	0.60317
539.853	0.64446	0.88540	-0.64037	0.68417
543.889	0.54391	0.91026	-0.50135	0.56843
547.857	0.58039	0.91152	-0.58372	0.50271
551.855	0.61273	0.88361	-0.67230	0.49207
555.869	0.74173	0.79086	-0.60322	0.55836
559.869	0.68990	0.87677	-0.53567	0.43677
563.859	0.69682	0.82510	-0.58391	0.51799
567.853	0.72422	0.91221	-0.49165	0.58048
571.859	0.58883	0.90198	-0.44609	0.61202
575.856	0.69682	0.87491	-0.44532	0.55333
579.859	0.68305	0.91018	-0.44214	0.52113
583.851	0.63665	0.99291	-0.44544	0.51184
587.859	0.73588	1.00993	-0.48813	0.52776
591.855	0.66990	1.05125	-0.52520	0.61663
595.860	0.58935	1.07566	-0.43527	0.64250
599.855	0.55898	1.11171	-0.48041	0.65219
603.862	0.60292	1.13584	-0.50215	0.67403
607.859	0.54625	1.14142	-0.53029	0.63221
611.858	0.58987	1.12221	-0.52552	0.49240
615.853	0.62454	1.14980	-0.51830	0.65534
619.870	0.57937	1.15082	-0.44189	0.62534
623.861	0.62943	1.15563	-0.51279	0.76165
627.862	0.72168	1.19140	-0.50523	0.73648
631.854	0.65201	1.13136	-0.50029	0.74998
635.856	0.63774	1.11221	-0.52694	0.68053
639.856	0.60335	1.12049	-0.67712	0.61808
643.860	0.65099	1.10799	-0.72523	0.68371
647.853	0.58111	1.08443	-0.72022	0.66406
651.853	0.63943	1.07781	-0.81714	0.69873
655.868	0.55935	1.07254	-0.93745	0.74913
659.856	0.56362	1.06392	-1.03593	0.76367
663.860	0.58704	1.07499	-1.05580	0.70246
667.852	0.58823	1.10976	-1.01722	0.67437
671.862	0.56905	1.13421	-0.98467	0.74661
675.853	0.59612	1.18510	-0.87282	0.10833
679.859	0.81766	1.03182	-0.80374	0.13994
683.877	0.84575	0.91787	-0.64337	0.28341
687.851	0.91614	0.83901	-0.68573	0.14975
691.859	0.82310	1.11378	-0.65188	0.22750
695.853	0.78595	1.08990	-0.59193	0.34260
699.854	0.84106	1.18898	-0.62456	0.14382
703.855	0.80493	1.24641	-0.53180	0.40156
707.853	0.87488	1.28404	-0.48860	0.29209
711.853	0.93200	1.10719	-0.48805	0.58135
715.854	0.83300	1.04433	-0.36017	0.39747
719.856	0.99720	1.00976	-0.41313	0.09162
723.859	0.93095	0.96420	-0.41008	0.23362
727.856	0.84972	1.07001	-0.44994	0.30817
731.852	0.80478	1.07901	-0.45946	0.38306
735.855	0.75940	1.10153	-0.42817	0.47850
739.854	0.83342	1.00260	-0.45199	0.61805
743.853	0.84724	1.01713	-0.38373	0.54037
747.856	0.90629	0.99846	-0.31548	0.52795
751.888	0.94110	0.94060	-0.27739	0.62169
755.870	0.85146	0.99207	-0.28289	0.48057
759.856	0.84821	1.01422	-0.40966	0.55483
763.857	0.93018	0.93556	-0.48108	0.49966
767.856	0.82935	0.95308	-0.90264	0.54285
771.856	0.85337	0.93762	-0.96112	0.52838
775.854	0.88952	0.95997	-0.73030	0.57353
779.856	0.81337	0.92508	-0.56056	0.48587
783.854	0.84171	0.92299	-0.72017	0.44163
787.850	0.78181	0.90917	-0.73568	0.52749
791.851	0.73739	0.76626	-0.76322	0.61804
795.852	0.75186	0.80665	-0.88255	0.69404
799.853	0.77307	0.69503	-0.88781	0.79893
803.852	0.76476	0.65764	-0.86567	1.08588
807.871	0.76809	0.66972	-0.84692	0.76480
811.859	0.88396	0.66008	-0.80908	0.80431
815.851	0.82925	0.71887	-0.79469	0.85452
819.851	0.77863	0.71756	-0.78389	0.79997
823.851	0.88934	0.75058	-0.81459	0.83297
827.854	0.83642	0.84956	-0.82595	0.70141
831.854	0.87947	0.85408	-0.81684	0.54231
835.851	0.85505	0.88595	-0.76804	0.38224
839.854	0.83071	1.01753	-0.71399	0.23384
843.851	0.80124	1.01752	-0.71697	0.34550
847.850	0.87275	1.08145	-0.77015	0.50850
851.855	0.80342	1.16130	-0.75796	0.55755
855.866	0.78377	1.20825	-0.67124	0.48588
859.853	0.79416	1.31200	-0.62248	0.47284
863.850	0.87612	1.26879	-0.69156	0.48409
867.852	0.76528	1.35117	-0.68538	0.44650
871.850	0.77987	1.39001	-0.66352	0.41062
875.856	0.76938	1.40933	-0.68712	0.45015
879.854	0.78002	1.41628	-0.82922	0.44062
883.851	0.84267	1.37983	-1.02317	0.58051
887.850	0.80590	1.39159	-1.24458	0.59835
891.855	0.81091	1.41282	-1.06857	0.54063
895.853	0.75630	1.45733	-1.22062	0.48461
899.853	0.71563	1.49271	-1.18803	0.47381
903.857	0.43849	1.41699	-1.13263	0.43313
907.849	0.51279	1.50746	-1.15153	0.37949
911.853	0.41872	1.48531	-1.06872	0.24017
915.848	0.50999	1.47834	-1.13072	0.28936
919.855	0.42361	1.45697	-1.04007	0.25277
923.850	0.58848	1.46379	-0.77295	0.20864
927.854	0.34134	1.43042	-0.58985	0.15696
931.867	0.42321	1.50895	-0.58935	0.21665
935.859	0.38060	1.53024	-0.50952	0.32563
939.849	0.36191	1.50623	-0.51513	0.27892
943.853	0.33692	1.49439	-0.48984	0.31269
947.862	0.33057	1.49707	-0.47031	0.35393
951.857	0.09483	1.46069	-0.48118	0.35229
955.853	0.35037	1.46712	-0.41787	0.28869
959.854	0.45649	1.41033	-0.43313	0.36626
963.849	0.59543	1.31601	-0.39330	0.33627
967.894	0.81600	1.20297	-0.48364	0.50729
971.861	0.67501	1.38915	-0.51920	0.61546
975.852	0.52044	1.28652	-0.55046	0.58577
979.853	0.53585	1.31759	-0.55612	0.53121
983.845	0.56431	1.30615	-0.56195	0.42333
987.853	0.77982	1.22069	-0.59084	0.28398
991.861	0.82074	1.24738	-0.61042	0.41420
995.852	0.75630	1.31385	-0.61610	0.54350
999.854	0.51954	1.31456	-0.62823	0.46700
1003.848	0.79431	1.40647	-0.60826	0.60509
1007.852	1.89890	1.43480	-0.58903	0.66351
1011.844	2.83197	1.71417	1.16282	0.97511
1015.858	3.40264	2.07317	1.56397	1.42725
1019.850	5.00854	2.56824	2.54737	1.97049
1023.848	4.85618	2.97775	2.99005	2.00349
1027.853	4.83597	3.13092	3.27858	1.68280
1031.848	4.71496	3.16196	3.35142	1.07673
1035.892	4.12587	3.21648	2.93037	1.94914
1039.855	3.63260	2.82396	2.92096	1.74964
1043.843	4.52843	3.17808	3.02700	1.39041
1047.853	4.69344	3.15771	3.14370	1.16555
1051.847	4.95972	3.13848	3.17289	1.76745
1055.859	4.97948	3.23784	3.30082	2.09407
1059.857	4.96425	3.27676	3.35511	1.91869
1063.847	4.97980	3.34517	3.50232	1.55698
1067.847	4.88877	3.28290	3.54015	1.33734
1071.851	4.86184	3.28198	3.35214	1.57626
1075.849	4.82809	3.21365	3.43244	1.40634
1079.847	4.75642	3.21354	3.48284	1.18679
1083.846	4.62532	3.16157	3.40069	1.65034
1087.860	4.99662	3.05251	3.33621	1.87804
1091.854	4.93398	3.14371	3.31924	1.88855
1095.852	4.88998	3.08769	3.45823	1.50711
1099.848	4.77279	3.13575	3.36703	1.16422
1103.880	4.67014	3.17226	3.26502	1.19710
1107.857	4.67678	3.06524	3.23187	1.35083
1111.847	4.69610	3.04256	3.21926	1.14222
1115.853	4.59428	3.02153	3.23410	0.95699
1119.850	4.63617	2.97657	3.26940	0.86172
1123.852	4.69541	3.14106	3.28590	1.05436
1127.846	4.83329	3.14549	3.27776	1.27093
1131.851	4.87234	3.23474	3.36161	1.15285
1135.845	4.73781	3.17178	3.30349	1.21049
1139.856	4.73500	3.24492	3.23841	1.19066
1143.853	4.78294	3.20798	3.22520	1.23479
1147.843	4.83112	3.22054	3.23123	1.24515
1151.850	4.90107	3.15330	3.24308	1.28300
1155.860	4.89584	3.18398	3.25780	1.34448
1159.850	4.99019	3.12081	3.28266	1.45128
1163.846	5.00763	3.12167	3.26040	1.43919
1167.848	4.96058	3.06347	3.25599	1.51290
1171.874	4.96297	3.07975	3.29322	1.55588
1175.846	4.93987	3.09590	3.29169	1.67754
1179.855	4.98807	3.10530	3.33000	1.73820
1183.856	5.08340	2.98563	3.31217	1.77886
1187.849	5.11051	2.93202	3.29307	1.86739
1191.846	5.05385	2.89457	2.79374	1.84247
1195.846	5.02337	2.89799	3.13113	1.64032
1199.844	4.90777	2.89620	2.91639	1.68503
1203.849	4.78304	2.94596	3.13397	1.33655
1207.846	4.76638	2.92417	3.22341	1.47581
1211.847	4.86490	2.90353	3.21001	1.65693
1215.843	4.77481	2.87210	3.17500	1.61368
1219.845	4.72549	2.80486	3.09589	1.57406
1223.852	4.65525	2.78021	3.06399	1.76820
1227.851	4.53687	2.80533	2.98601	1.41322
1231.845	4.51822	2.83093	3.01497	1.18149
1235.849	4.43317	2.85946	3.01801	1.30349
1239.895	4.33182	2.87337	3.19209	1.39738
1243.853	4.32483	2.81687	3.22032	1.25171
1247.844	4.44553	2.76592	3.30102	1.48497
1251.844	4.35042	2.75339	3.22930	1.56969
1255.854	4.33981	2.75074	3.19338	1.46006
1259.847	4.43236	2.76179	3.16035	1.45507
1263.844	4.47193	2.73695	3.10131	1.59287
1267.851	4.65035	2.70415	3.22057	1.52904
1271.844	4.75659	2.74845	3.24202	1.41767
1275.843	4.74089	2.71971	3.29238	1.44152
1279.843	4.77665	2.70010	3.30186	1.53415
1283.846	4.92033	2.74317	3.27150	1.53135
1287.844	5.01679	2.79016	3.19336	1.44117
1291.844	5.02295	2.84708	3.06550	1.53726
1295.844	5.02408	2.89006	3.12645	1.57074
1299.846	5.06548	2.83117	3.09688	1.71981
1303.736	5.04341	2.81699	3.16965	1.52433
1307.719	5.03147	2.83260	3.05038	1.31292
1311.738	5.00886	2.91258	3.10181	1.33377
1315.725	5.00650	2.90278	3.13618	1.43584
1319.714	4.94736	2.91529	3.06659	1.56793
1323.724	4.93093	2.88704	3.04806	1.70380
1327.718	4.69211	2.85663	2.51846	1.41544
1331.723	4.39565	2.65345	2.65998	1.48117
1335.714	3.02259	2.61795	1.73485	1.33953
1339.724	1.83692	2.65056	0.40941	1.27156
1343.718	1.95125	2.60421	0.49942	1.40146
1347.722	2.14166	2.53915	0.47808	1.24798
1351.713	2.48918	2.50746	0.76106	1.28134
1355.737	2.37838	2.43258	0.95246	1.24549
1359.724	2.39758	2.43123	0.88103	1.04040
1363.718	2.22181	2.34428	0.86282	0.96931
1367.717	2.20969	2.26095	0.80473	0.95018
1371.726	2.10540	2.19498	0.71856	0.78346
1375.720	2.05811	2.20511	0.71618	0.80659
1379.751	2.04996	2.18647	0.60605	0.74917
1383.719	2.08111	2.15968	0.68275	0.81954
1387.720	2.00036	2.24643	0.69357	0.70153
1391.712	1.97500	2.27247	0.70196	0.71477
1395.725	2.04996	2.28707	0.71536	0.68948
1399.720	2.04198	2.23784	0.67943	0.72635
1403.711	2.05754	2.12090	0.65779	0.80394
1407.722	2.09261	2.05297	0.63975	0.79751
1411.716	2.09608	2.17379	0.62367	0.79480
1415.719	2.10067	2.13302	0.60702	0.83694
1419.712	2.11683	2.18762	0.59317	0.83351
1423.720	2.12322	2.15305	0.58712	0.84631
1427.716	2.12005	2.05155	0.52930	0.83906
1431.720	2.17675	1.97849	0.53768	0.83210
1435.725	2.17824	1.93399	0.50696	0.80013
1439.721	2.20267	1.89911	0.45140	0.77284
1443.727	2.17799	1.85352	0.43830	0.72019
1447.721	2.24279	1.86939	0.38859	0.67543
1451.715	2.28802	1.85254	0.40839	0.69307
1455.716	2.26202	1.79272	0.36484	0.71200
1459.720	2.37198	1.79695	0.36357	0.68142
1463.717	2.49899	1.78986	0.37546	0.73608
1467.716	2.49664	1.80030	0.42666	0.77701
1471.714	2.49084	1.84361	0.48135	0.76871
1475.716	2.44744	1.87237	0.51016	0.75822
1479.722	2.49183	1.95716	0.46366	0.73063
1483.717	2.49342	2.02979	0.45743	0.82160
1487.714	2.45577	2.11184	0.46177	0.89260
1491.740	2.32508	2.08318	0.44850	0.93511
1495.722	2.25105	2.00688	0.39616	0.97951
1499.712	2.36767	2.05807	0.44445	0.95978
1503.719	2.65144	2.10688	2.32781	1.03529
1507.716	5.40870	2.32679	3.69778	1.18341
1512.073	7.34790	2.67808	5.18466	1.45783
1515.729	8.88542	2.82360	7.29831	1.59792
1519.723	10.83687	4.11878	9.57585	1.74444
1523.717	12.43310	3.47848	10.30853	1.60391
1527.715	14.23025	3.38342	12.03921	1.58796
1531.716	14.78113	3.59301	12.79262	1.46554
1535.717	16.42514	3.95891	14.54235	1.48285
1539.717	16.26801	4.34403	14.88294	1.62604
1543.712	16.33486	4.55308	14.70179	1.54367
1547.720	16.01784	4.28464	14.30804	1.59425
1551.716	15.87671	4.65584	14.36479	1.48279
1555.717	15.70809	4.65944	14.68844	1.40017
1559.717	15.75814	4.44746	14.60830	1.24396
1563.720	15.89246	4.76548	14.58275	1.10499
1567.716	15.75044	4.73212	14.73662	1.13283
1571.715	15.94325	4.79622	14.76572	1.13748
1575.717	15.94415	4.85214	14.92491	1.07419
1579.718	15.83471	4.92174	14.83970	1.04278
1583.721	15.77115	4.90953	14.93599	1.01987
1587.714	15.69470	4.87648	14.82228	0.98998
1591.714	15.70043	4.82828	14.83629	0.98410
1595.745	15.67393	4.74857	14.85424	0.98602
1599.718	15.74488	4.77935	14.84492	1.01214
1603.718	15.79997	4.81087	14.80553	1.04585
1607.717	15.77421	4.77375	14.88862	1.07953
1611.709	15.75171	4.75361	14.83856	1.08896
1615.719	15.76359	4.76827	14.78189	1.06246
1619.716	15.81833	4.69703	14.73529	1.05111
1623.712	15.81089	4.68217	14.72457	1.11300
1627.713	15.83090	4.60336	14.70876	1.21841
1631.714	15.95638	4.56060	14.72431	1.31991
1635.712	16.00995	4.57058	14.72032	1.23047
1639.712	16.09169	4.56760	14.73346	1.29045
1643.722	16.11118	4.54232	14.72462	1.38485
1647.718	16.17972	4.50520	14.70579	1.42595
1651.716	16.30501	4.45432	14.68484	1.54454
1655.713	16.32065	4.46427	14.64773	1.55619
1659.717	16.24597	4.45475	14.66162	1.59671
1663.712	16.21476	4.41013	14.68375	1.63865
1667.716	16.16800	4.41364	14.65576	1.60763
1671.708	16.13805	4.44441	14.56692	1.57896
1675.717	15.95688	4.40301	14.44206	1.50021
1679.713	16.04285	4.44877	14.17152	1.56120
1683.717	15.88459	4.49377	14.30948	1.55230
1687.721	15.85166	4.54482	14.35682	1.63956
1691.716	15.94603	4.80581	14.33707	1.69664
1695.716	15.93614	4.82488	14.23939	1.73003
1699.707	15.76228	4.75312	14.17201	1.71440
1703.722	15.83949	4.86132	14.16009	1.69080
1707.716	15.90470	4.85309	14.04837	1.77529
1711.712	15.97427	4.85310	14.06471	1.96534
1715.726	16.01399	4.79283	13.97758	1.99424
1719.714	16.07070	4.81162	13.99031	2.06019
1723.709	16.03504	4.75362	14.04407	2.10677
1727.716	16.11169	4.69377	14.01919	2.10707
1731.713	16.16491	4.52660	13.95156	2.04432
1735.714	16.14455	4.41368	13.90363	2.07946
1739.711	16.13445	4.33203	13.92685	2.06892
1743.717	16.19066	4.32457	13.91306	2.09419
1747.711	16.19874	4.32057	13.90703	2.12765
1751.714	16.20599	4.27737	13.93649	2.12461
1755.729	16.18290	4.22333	13.86291	2.12300
1759.715	16.16736	4.16792	13.87679	2.10355
1763.712	16.16095	4.15614	13.85260	2.12770
1767.711	16.20437	4.21618	13.81876	2.14868
1771.715	16.23217	4.22534	13.84148	2.09488
1775.714	16.25276	4.31465	13.84153	2.12609
1779.710	16.22995	4.41458	13.89402	2.18301
1783.717	16.28000	4.56224	13.92452	2.13937
1787.714	16.20700	4.64224	13.91294	2.07396
1791.714	16.12138	4.74900	13.95126	1.89879
1795.709	15.95335	4.74055	14.04921	1.87802
1799.711	16.13949	4.84867	14.03237	1.89114
1803.729	16.18649	4.91215	14.13274	1.95568
1807.741	15.87012	4.87720	14.09280	1.89757
1811.715	15.65746	4.89908	14.11325	1.84911
1815.711	15.76819	4.91447	14.13323	1.87160
1819.714	15.55354	4.91262	14.14481	1.91906
1823.704	15.50089	4.93210	14.07679	1.86291
1827.714	15.43678	4.93277	13.87122	1.85787
1831.708	15.38069	4.83062	13.62341	1.92565
1835.713	15.30161	4.82059	13.55424	1.96827
1839.712	15.30046	4.81862	13.52581	2.01411
1843.711	15.22907	4.76437	13.44968	2.06380
1847.708	15.22109	4.76688	13.31271	2.12776
1851.722	15.15425	4.76732	13.10584	2.14764
1855.714	15.15667	4.79170	13.03079	2.18247
1859.713	15.16132	4.81808	12.98148	2.21857
1863.708	15.18529	4.84970	12.87485	2.20060
1867.713	15.23955	4.81549	12.90881	2.21278
1871.710	15.29850	4.79194	12.82526	2.23183
1875.711	15.28538	4.79021	12.84267	2.18608
1879.708	15.46828	4.85675	12.76536	2.15205
1883.708	15.61129	4.92743	12.76777	2.09961
1887.713	15.69707	4.96208	12.72407	2.04240
1891.711	15.92696	4.95239	12.72948	1.96291
1895.716	15.81261	5.02353	12.74499	1.88807
1899.707	16.09139	5.06013	12.78299	1.84240
1903.713	16.04767	4.99803	12.88121	1.81746
1907.708	16.16592	4.94696	12.92081	1.77360
1911.712	16.30069	5.01938	12.95275	1.74492
1915.708	16.46475	4.82464	13.07669	1.67316
1919.709	16.02919	4.47333	13.54523	0.96606
1923.713	15.45975	1.25859	13.49265	-1.35330
1927.709	15.27018	1.21634	13.25317	-2.66784
1931.737	14.82690	-1.16345	13.23266	-4.25972
1935.717	14.86949	-2.41185	13.63295	-5.14042
1939.718	14.71721	-3.09440	13.81261	-6.40909
1943.708	14.59052	-6.23560	12.57292	-8.03059
1947.708	14.51756	-6.56748	12.43554	-6.61331
1951.710	14.57578	-6.74953	14.54372	-7.40834
1955.718	14.49814	-6.66975	14.48976	-8.40280
1959.711	14.58866	-6.46018	14.65411	-8.10666
1963.706	14.63692	-6.39854	14.65825	-7.79961
1967.707	14.59979	-6.42664	14.65837	-7.76815
1971.707	14.51984	-6.44448	14.34364	-8.33808
1975.708	14.51626	-6.44777	14.49962	-8.33329
1979.708	14.45190	-6.44266	14.48964	-8.47545
1983.719	14.43433	-6.46688	14.47673	-8.41414
1987.708	14.51988	-6.43146	14.44848	-8.43424
1991.709	14.52535	-6.38284	14.33583	-8.42553
1995.711	14.58866	-6.28667	14.20245	-8.44808
1999.714	14.78530	-6.25334	14.19681	-8.23811
2003.708	14.97736	-6.25697	14.11965	-8.13262
2007.737	15.03311	-6.20808	14.10921	-5.44895
2011.701	15.13066	-6.21194	14.12604	-8.19612
2015.711	14.95797	-6.28934	14.10660	-8.13289
2019.712	14.84659	-6.32541	14.01931	-8.11155
2023.706	14.85869	-6.44191	13.97496	-7.98754
2027.704	14.67660	-6.54285	13.96895	-8.02468
2031.708	14.64729	-6.59286	13.96856	-8.00024
2035.706	14.48006	-6.66616	13.90331	-7.94825
2039.705	14.30449	-6.83708	13.94439	-7.90567
2043.704	14.24419	-6.83231	16.54463	-7.90014
2047.707	14.35202	-6.82062	15.50352	-7.99060
2051.705	14.37620	-6.75215	15.71515	-7.97801
2055.740	14.48097	-6.66065	16.01500	-7.99261
2059.719	14.34114	-6.68540	15.96716	-7.98307
2063.710	14.33618	-6.55989	15.95702	-5.63562
2067.705	14.27632	-6.30770	15.90337	-5.34009
2071.722	14.40852	-6.26411	15.86140	-7.90480
2075.712	14.64050	-6.18705	16.02222	-7.71789
2079.702	15.04959	-6.08430	15.90346	-7.63041
2083.710	14.91064	-5.91036	15.88346	-7.21455
2087.705	14.81764	-6.04477	15.85053	-6.89526
2091.709	14.80352	-6.20008	15.81948	-6.55461
2095.700	14.74767	-6.31106	15.83533	-6.44207
2099.709	14.70089	-6.52377	15.89641	-6.24484
2103.712	14.72928	-6.37421	15.90272	-6.06137
2107.704	14.65372	-6.41947	15.92175	-6.09194
2111.699	14.74098	-6.70493	15.96661	-6.02560
2115.709	14.72239	-6.88819	16.05555	-5.85638
2119.718	14.68143	-6.92444	16.10202	-5.77705
2123.707	14.66201	-6.78782	16.20144	-5.66280
2127.714	14.62514	-6.86774	16.22727	-5.55454
2131.704	14.53626	-6.81652	16.34954	-5.44299
2135.703	14.46905	-6.80652	18.67236	-5.38814
2139.707	14.32887	-6.77474	18.77305	-5.40778
2143.709	14.35309	-6.72212	18.83732	-5.33931
2147.707	14.27413	-6.76797	18.81695	-5.36257
2151.703	14.32118	-6.82881	18.89518	-5.34889
2155.704	14.29522	-6.79189	14.87401	-6.79732
2159.585	14.25408	-6.74707	14.76212	-7.03088
2163.579	14.28818	-6.74328	18.97856	-5.41737
2167.579	14.20546	-6.77735	19.09741	-5.42336
2171.578	14.23608	-6.79059	19.21743	-5.70655
2175.579	14.34410	-6.75935	19.28158	-5.72003
2179.581	14.41964	-6.77159	18.78257	-5.66646
2183.581	14.50632	-6.82042	18.27646	-5.75087
2187.582	14.49472	-6.85481	18.52322	-5.77066
2191.584	14.54272	-6.91512	18.27467	-5.81451
2195.583	14.58389	-6.80441	18.30378	-5.91913
2199.574	14.60444	-6.82680	14.81456	-5.82960
2203.578	14.58029	-6.71580	14.98433	-5.81005
2207.580	14.57174	-6.70508	15.08944	-5.83755
2211.583	14.65014	-6.36995	15.15635	-5.82995
2215.581	14.61425	-6.44170	15.22280	-5.78496
2219.583	14.63827	-6.13013	15.21266	-5.76905
2223.578	14.57950	-6.11478	20.11071	-5.96634
2227.582	14.56846	-6.19736	15.23623	-5.82437
2231.601	14.53142	-6.38379	15.23791	-5.80074
2235.586	14.49702	-6.29777	15.24147	-5.81421
2239.577	14.45693	-6.31005	15.22082	-5.76012
2243.579	14.46349	-6.17733	15.25159	-5.75776
2247.582	14.48322	-6.16187	15.26824	-5.72745
2251.577	14.46724	-6.25501	19.98954	-5.77669
2255.577	14.61894	-6.21945	15.27032	-5.72222
2259.578	14.51042	-6.56164	15.28025	-7.59066
2263.575	14.53035	-6.80150	15.27145	-7.68658
2267.578	14.56778	-6.88006	15.26975	-7.74354
2271.579	14.55093	-6.80371	15.27988	-7.68004
2275.580	14.63525	-6.78954	15.30330	-7.73996
2279.576	14.61260	-6.87659	15.19008	-7.67541
2283.576	14.64684	-6.94869	15.29870	-7.64277
2287.578	14.63093	-6.96988	15.35074	-7.59562
2291.577	14.68424	-6.95214	15.37944	-7.59727
2295.575	14.71410	-7.01823	15.45126	-7.60226
2299.576	14.68860	-7.01109	15.45919	-7.58263
2303.578	14.70950	-7.07252	15.53052	-9.04677
2307.574	14.78189	-6.95559	15.58656	-9.02089
2311.581	14.78542	-6.90057	15.63159	-9.09990
2315.582	14.79547	-6.92521	15.74968	-9.05960
2319.580	14.81442	-6.97323	15.80204	-9.03528
2323.572	14.88632	-6.95801	15.81376	-9.10322
2327.577	14.86131	-6.94139	15.86856	-9.13101
2331.575	14.91198	-7.00453	15.89604	-9.10167
2335.582	14.92897	-7.06283	15.99390	-9.06013
2339.576	15.10982	-6.96800	16.00514	-8.94815
2343.580	14.99704	-5.32851	13.95554	-8.88174
2347.572	14.98044	-3.73618	13.45205	-6.95214
2351.581	14.92751	-0.97464	13.51891	-5.62078
2355.599	15.01022	-0.80502	13.35400	-3.52796
2359.583	15.06963	0.28373	13.41202	-2.06733
2363.580	15.06343	2.27100	13.11580	-1.31531
2367.579	15.30203	3.85249	12.89723	-0.00242
2371.572	15.04022	3.89492	13.16336	1.21812
2375.581	15.27173	4.05025	13.02422	1.15270
2379.576	15.24152	3.83095	13.05585	1.39450
2383.573	15.19900	3.44940	13.06028	1.19514
2387.575	15.25584	3.25045	12.98954	1.14153
2391.576	15.25540	3.37573	12.86084	1.15643
2395.579	15.35533	3.49843	12.91817	1.22744
2399.581	15.40745	3.64880	12.96097	1.39835
2403.577	15.45514	3.66091	12.98452	1.44201
2407.576	15.41056	3.65733	12.88079	1.39291
2411.575	15.36996	3.63222	12.86534	1.47829
2415.575	15.39829	3.52687	12.84723	1.54987
2419.580	15.38687	3.53131	12.76626	1.41418
2423.575	15.39268	3.57358	12.75521	1.33918
2427.579	15.38768	3.59232	12.73158	1.39613
2431.576	15.39444	3.66143	12.74456	1.42343
2435.574	15.41109	3.71415	12.74622	1.40557
2439.584	15.40191	3.73165	12.80492	1.44104
2443.581	15.40742	3.78854	12.75351	1.37492
2447.605	15.39052	3.85434	12.73750	1.40521
2451.569	15.40745	3.92557	12.74414	1.40195
2455.589	15.38839	4.10745	12.80150	1.36870
2459.578	15.52771	4.11508	12.83040	1.35537
2463.577	15.54315	4.17653	12.87617	1.41216
2467.578	15.67303	4.28352	12.91060	1.46076
2471.573	15.70084	4.36402	12.98164	1.50572
2475.577	15.91709	4.44457	13.04365	1.54090
2479.569	15.96652	4.47411	13.12251	1.58203
2483.585	15.80703	4.48525	13.06807	1.58523
2487.573	15.86071	4.50796	13.08376	1.60804
2491.577	15.70797	4.52848	13.05373	1.55373
2495.569	15.76173	4.54250	13.06610	1.50054
2499.575	15.74090	4.51516	13.06511	1.48872
2503.572	15.68228	4.49110	13.11827	1.44687
2507.572	15.62409	4.42992	13.13581	1.42391
2511.573	15.60608	4.33682	13.17092	1.32539
2515.572	15.65568	4.23746	13.27372	1.28651
2519.576	15.70349	4.21489	13.11997	1.23539
2523.574	15.66944	4.16026	13.01022	1.28323
2527.578	15.81123	4.10714	13.02848	1.32639
2531.572	15.90236	4.12255	13.04850	1.35394
2535.576	15.87791	4.03397	13.03798	1.35189
2539.571	15.87954	4.00021	13.07914	1.46660
2543.575	16.35040	4.07752	13.05406	1.67143
2547.575	17.04033	5.25225	13.18953	2.08527
2551.572	16.94718	5.59231	13.40103	2.26244
2555.594	16.88978	5.46470	13.33020	2.16250
2559.579	16.55042	5.44090	13.36716	2.15985
2563.570	16.78581	5.26356	13.46169	2.18668
2567.581	16.97163	5.41194	13.60559	2.18208
2571.576	16.99463	5.50479	13.60442	2.22637
2575.576	17.10573	5.54829	13.86376	2.31346
2579.568	17.22475	5.64387	13.91635	2.39276
2583.577	17.13312	5.65826	13.95453	2.45106
2587.572	17.18197	5.74056	13.95390	2.44776
2591.576	17.16688	5.76175	14.00410	2.33096
2595.567	17.12883	5.62751	13.83636	2.34934
2599.572	17.17363	5.73496	13.90247	2.37853
2603.574	17.20328	5.62957	14.00742	2.38900
2607.577	17.31816	5.72444	14.03164	2.45673
2611.571	17.31457	5.75158	14.19513	2.40560
2615.571	17.25409	5.72536	13.89241	2.47384
2619.589	17.24668	5.68407	13.70221	2.55195
2623.573	17.12713	5.64417	13.61551	2.47976
2627.576	17.03396	5.55338	13.56289	2.48513
2631.576	16.90754	5.44367	13.41350	2.51025
2635.574	16.66895	5.38363	13.33055	2.54029
2639.571	16.72007	5.40504	13.36300	2.57245
2643.571	16.61279	5.39370	13.27066	2.56701
2647.578	16.51992	5.41038	13.42228	2.56463
2651.576	16.54362	5.37072	13.32815	2.55518
2655.587	16.54634	5.36760	13.30794	2.57287
2659.575	16.47431	5.36151	13.31930	2.57692
2663.570	16.44037	5.38654	13.37282	2.57326
2667.577	16.41873	5.40549	13.41188	2.60633
2671.572	16.43122	5.44955	13.40765	2.59996
2675.609	16.45195	5.49219	13.50455	2.60238
2679.575	16.48828	5.55394	13.50915	2.65253
2683.581	16.51000	5.58923	13.47981	2.64292
2687.573	16.57324	5.62865	13.51457	2.65312
2691.574	16.61069	5.63296	13.53392	2.68344
2695.569	16.58614	5.68454	13.53843	2.71890
2699.573	16.61343	5.71041	13.55323	2.72379
2703.564	16.67592	5.73481	13.61928	2.74981
2707.573	16.69507	5.73705	13.65470	2.76799
2711.569	16.82110	5.79407	13.74027	2.81686
2715.572	16.84091	5.79396	13.68609	2.85720
2719.565	16.90975	5.81704	13.64811	2.90246
2723.568	16.99034	5.81363	13.68174	2.90566
2727.572	17.10460	5.81318	13.69375	2.95685
2731.574	17.12076	5.81108	13.68398	2.94192
2735.576	17.19295	5.82056	13.67145	2.84126
2739.574	17.20745	5.77410	13.52627	2.74044
2743.573	17.32913	5.73617	13.45651	2.68282
2747.568	17.25184	5.73753	13.31018	2.72443
2751.574	17.19255	5.74918	13.30508	2.69954
2755.583	16.93026	5.75747	13.33842	2.66548
2759.571	16.95040	5.75968	13.30026	2.64267
2763.570	16.60472	5.73709	13.31995	2.61181
2767.572	16.40391	5.71802	13.24572	2.59180
2771.569	16.42873	5.72266	13.31934	2.54523
2775.574	16.46879	5.69845	13.35400	2.53572
2779.583	16.36699	5.66015	13.40215	2.64763
2783.569	16.41167	5.64729	13.49488	2.81312
2787.572	16.40713	5.69083	13.48049	2.79922
2791.566	16.40553	5.67908	13.56008	2.98947
2795.573	16.41368	5.69938	13.60528	2.92770
2799.569	16.52314	5.69918	13.58911	2.88644
2803.569	16.52024	5.71327	13.56629	2.75353
2807.571	16.61274	5.75209	13.60751	2.78146
2811.566	16.66542	5.83108	13.60158	2.76240
2815.580	16.78046	5.94515	13.65903	2.82932
2819.569	16.90666	6.05138	13.60927	2.87952
2823.572	16.86966	5.96636	13.52665	2.84418
2827.564	16.84057	6.07047	13.41244	2.90723
2831.572	16.83839	6.10795	13.32714	2.70561
2835.569	16.85062	6.14362	13.27781	2.72194
2839.568	16.83752	6.15912	13.32486	2.73777
2843.568	16.74003	6.11097	13.40002	2.78137
2847.570	16.66569	5.97865	13.34479	2.74802
2851.569	16.71729	5.56849	13.32484	2.62073
2855.587	16.78183	5.31141	13.28174	2.56694
2859.582	16.80910	5.46363	13.26135	2.49585
2863.567	16.85482	5.29172	13.17560	2.43519
2867.567	16.85014	5.17624	13.17393	2.41316
2871.566	16.88303	5.33860	13.19701	2.39474
2875.566	16.91536	5.31822	13.20439	2.50505
2879.568	16.93998	5.31597	13.21027	2.52583
2883.570	16.93778	5.40089	13.28244	2.38277
2887.600	17.05621	5.63971	13.22312	2.37961
2891.565	17.09254	5.76547	13.30566	2.45682
2895.566	17.04478	5.74241	13.32750	2.55400
2899.573	17.05392	5.87185	13.36906	2.68097
2903.565	17.01887	5.91613	13.40166	2.85463
2907.564	17.03432	5.59495	13.48195	2.81841
2911.565	16.97542	5.44867	13.53291	2.77358
2915.568	16.89266	5.08547	13.54563	2.83513
2919.569	16.76474	5.25071	13.66634	2.87560
2923.566	16.67733	5.21376	13.69748	2.93527
2927.564	16.49761	5.12429	13.74587	2.93277
2931.578	16.39443	5.18585	13.79274	2.91911
2935.572	16.18471	5.12462	13.79882	2.93056
2939.573	16.05243	5.20730	13.76774	2.88993
2943.569	15.90164	5.29379	13.70996	2.88686
2947.570	16.11579	5.24346	13.57236	2.84334
2951.567	16.06545	5.19185	13.52946	2.80881
2955.580	16.10388	5.20250	13.37961	2.81930
2959.573	16.24345	5.23547	13.26239	2.81082
2963.561	16.38602	5.23407	13.25261	2.84138
2967.571	16.26394	5.26816	13.16943	2.81218
2971.565	16.36532	5.29070	13.08072	2.80080
2975.569	16.61397	5.30409	13.06930	2.85005
2979.560	16.63038	5.38091	13.14616	2.84889
2983.579	16.73006	5.39940	13.16146	2.82426
2987.568	16.90270	5.37394	13.23473	2.77682
2991.569	16.91608	5.43249	13.29525	2.81956
2995.567	17.00736	5.44030	13.35247	2.79571
2999.567	17.04668	5.45911	13.48824	2.78037
3003.561	17.19010	5.47278	13.48676	2.67153
3007.570	17.25157	5.45282	13.47073	2.53182
3011.564	17.17499	5.44803	13.54678	2.37676
3015.441	17.23061	5.41829	13.54753	2.34733
3019.442	17.13973	5.26694	13.65148	2.22187
3023.440	17.11065	5.14594	13.72849	2.05858
3027.443	17.15052	5.13085	13.90062	2.35965
3031.443	17.11344	5.07640	13.94958	2.46743
3035.443	17.11573	5.20810	14.03358	2.35415
3039.436	17.01664	5.30807	13.91759	2.35791
3043.445	17.04881	5.60318	14.03580	2.36806
3047.443	17.05632	5.76494	13.95776	2.44772
3051.445	16.98273	5.79864	13.90999	2.47370
3055.458	16.98248	5.90434	13.94539	2.52082
3059.443	16.95849	5.95722	13.97828	2.57504
3063.445	16.97288	5.99723	13.91916	2.60680
3067.439	17.01598	6.00843	13.70945	2.65086
3071.449	17.05149	5.98486	13.77420	2.63542
3075.443	17.08027	6.03704	13.66772	2.59630
3079.444	17.10311	5.95080	13.60482	2.60658
3083.434	17.16514	5.77407	13.55348	2.58851
3087.480	17.23992	5.60667	13.55606	2.59837
3091.439	17.32124	5.63419	13.53772	2.56573
3095.438	17.43600	5.40524	13.58071	2.55596
3099.432	17.40518	5.32107	13.54861	2.52983
3103.442	17.43661	5.16791	13.57037	2.51388
3107.438	17.45784	5.31747	13.56655	2.43614
3111.442	17.47306	5.22911	13.59063	2.39997
3115.438	17.47480	5.10652	13.61007	2.35312
3119.461	17.50205	5.16940	13.62362	2.28360
3123.444	17.46545	5.25154	13.64277	2.22123
3127.433	17.48403	5.32364	13.67471	2.26134
3131.441	17.45935	5.39960	13.72563	2.32324
3135.437	17.36533	5.34484	13.88899	2.32720
3139.441	17.24046	5.38060	13.98695	2.35313
3143.439	17.25302	5.46380	13.96108	2.30837
3147.440	17.21881	5.47306	14.03975	2.24053
3151.435	16.89639	5.52595	14.04909	2.21685
3155.451	16.84145	5.59698	13.96685	2.24095
3159.446	16.76977	5.62232	13.69888	2.21704
3163.434	16.82586	5.64010	13.57459	2.35094
3167.441	16.96167	5.62345	13.45862	2.35749
3171.436	16.79006	5.53149	13.40298	2.32980
3175.441	16.80139	5.45585	13.31596	2.25348
3179.449	16.89932	5.46158	13.26702	2.26420
3183.442	16.80532	5.44205	13.40316	2.26780
3187.437	16.80894	5.31141	13.42117	2.24729
3191.433	16.85359	5.23499	13.88170	2.39493
3195.442	16.97497	5.12870	14.12294	2.40192
3199.438	16.96927	5.01474	14.23962	2.43119
3203.438	17.05367	5.00516	14.41003	2.44900
3207.436	17.10140	4.90441	14.33930	2.38835
3211.434	17.08971	4.84649	14.40463	2.43354
3215.439	17.09454	4.79517	14.32120	2.41714
3219.433	17.10673	4.77575	14.34697	2.41319
3223.443	17.12756	4.78725	14.37317	2.35000
3227.439	17.13479	4.72810	14.38051	2.33471
3231.436	17.09200	4.73258	14.37059	2.28064
3235.440	17.18559	4.78345	14.31454	2.28631
3239.440	17.29199	4.78888	14.18057	2.22010
3243.439	17.39829	4.84178	14.13078	2.19087
3247.432	17.44650	4.83636	14.08736	2.18644
3251.441	17.51112	4.82305	14.01141	2.14309
3255.450	17.53281	4.84304	14.01365	2.07007
3259.439	17.51478	4.82289	14.09656	2.04806
3263.435	17.54725	4.78584	14.06707	2.06328
3267.438	17.42154	4.72950	14.04386	2.06038
3271.435	17.46981	4.78597	14.07576	2.04112
3275.436	17.34551	4.78970	14.10305	2.03727
3279.439	17.33171	4.70429	14.01573	2.02321
3283.437	17.41609	4.68326	13.96330	2.03114
3287.439	17.42138	4.63336	13.85248	1.97592
3291.431	17.34962	4.70399	13.74327	1.96055
3295.441	17.30470	4.76935	13.56643	1.92997
3299.435	17.17214	4.78643	13.39649	1.92045
3303.439	17.14939	4.70939	13.89080	1.96506
3307.450	17.13013	4.74306	13.97148	1.95494
3311.439	17.26540	4.74658	13.92010	1.95942
3315.433	17.30278	4.76539	13.91173	1.91003
3319.434	17.27943	4.78887	13.75647	1.94202
3323.441	17.37844	4.70514	13.69380	1.90303
3327.435	17.27393	4.72763	13.60158	1.85287
3331.434	17.24865	4.79879	13.60430	1.91287
3335.433	17.17941	4.74694	13.92042	2.02391
3339.445	17.48543	4.72947	14.02148	2.09364
3343.437	17.50546	4.72803	14.05318	2.32396
3347.436	17.42563	4.94596	13.95841	2.24479
3351.435	17.36983	5.04728	13.92323	2.32568
3355.441	17.32524	5.06057	13.77659	2.32394
3359.438	17.19862	5.07621	13.85096	2.37723
3363.439	17.19458	5.02052	13.90522	2.18755
3367.449	17.24800	5.21801	13.95089	2.05216
3371.438	17.23102	5.26987	13.93438	2.19792
3375.438	17.34248	5.22047	13.99372	2.31720
3379.434	17.35288	5.25080	14.05245	2.40030
3383.437	17.30511	5.09638	14.07193	2.37421
3387.429	17.19619	5.00719	14.00239	2.31027
3391.439	17.19300	5.17913	13.75884	2.24505
3395.433	15.09333	5.35067	13.26479	2.35912
3399.438	16.14467	5.97190	13.39168	2.63405
3403.433	4.38970	5.30848	14.24732	5.84555
3407.433	NaN	NaN	NaN	NaN
3411.435	NaN	NaN	NaN	NaN
3415.433	NaN	NaN	NaN	NaN
3419.433	NaN	NaN	NaN	NaN
3423.447	NaN	NaN	NaN	NaN
3427.514	NaN	NaN	NaN	NaN
3431.435	NaN	NaN	NaN	NaN
3435.428	NaN	NaN	NaN	NaN
3439.437	NaN	NaN	NaN	NaN
3443.446	NaN	NaN	NaN	NaN
3447.528	NaN	NaN	NaN	NaN
3451.432	NaN	NaN	NaN	NaN
3455.438	NaN	NaN	NaN	NaN
3459.432	NaN	NaN	NaN	NaN
3463.430	NaN	NaN	NaN	NaN
3467.431	NaN	NaN	NaN	NaN
3471.442	NaN	NaN	-18.03787	7.21949
3475.437	NaN	NaN	-16.41692	6.78860
3479.433	NaN	NaN	-15.09013	5.31336
3483.435	NaN	NaN	-14.41024	4.21081
3487.435	-14.72900	9.15616	-5.71099	2.56932
3491.441	-12.34927	6.43571	-7.61114	2.67123
3495.436	-9.11298	4.03456	-9.85402	2.35004
3499.429	-10.88515	4.72041	-9.72192	2.37236
3503.437	-8.00338	2.97466	-8.31180	2.19165
3507.431	-8.03901	2.70913	-8.59104	2.17196
3511.436	-7.61185	2.84643	-8.39433	2.19337
3515.428	-7.22451	3.07840	-8.51865	1.93543
3519.436	-7.08260	3.11011	-8.61375	2.07367
3523.465	-7.15936	3.05524	-8.59165	2.04949
3527.437	-7.01553	3.00882	-8.61865	2.03556
3531.429	-7.05186	3.02715	-8.56430	1.94828
3535.434	-7.18232	3.06251	-8.58830	1.92708
3539.431	-7.29548	3.10671	-8.56748	1.91057
3543.432	-7.16732	3.00205	-8.53637	1.83308
3547.428	-7.00807	2.94268	-8.51947	1.82611
3551.460	-7.02032	2.94031	-8.51044	1.82183
3555.431	-7.00670	2.97151	-8.51909	1.78902
3559.437	-7.01663	2.90410	-8.50268	1.73761
3563.431	-7.04975	2.90338	-8.50219	1.77999
3567.429	-7.06730	3.02513	-8.50600	1.75888
3571.434	-7.11389	2.96006	-8.52294	1.73847
3575.433	-7.17211	3.00158	-8.55610	1.79756
3579.430	-7.20553	2.89192	-8.60924	1.72593
3583.429	-7.14978	2.93740	-8.71880	1.73392
3587.429	-7.17839	2.98612	-8.73293	1.71132
3591.432	-7.23875	2.97808	-8.76275	1.67892
3595.429	-7.26969	3.01907	-8.77092	1.60370
3599.428	-7.24490	2.99257	-8.82882	1.65544
3603.429	-7.25269	3.02570	-8.80665	1.62864
3607.432	-7.26061	3.02378	-8.82119	1.50101
3611.435	-7.31316	2.97031	-8.84077	1.46214
3615.430	-7.29089	2.91583	-8.85187	1.41476
3619.455	-7.24823	2.93170	-8.90003	1.40996
3623.437	-7.18621	2.94781	-8.93791	1.41308
3627.430	-7.17912	2.93155	-8.91544	1.42970
3631.432	-7.19393	2.89145	-8.91069	1.42285
3635.430	-7.13698	2.84161	-8.79148	1.54548
3639.429	-7.15012	2.86829	-8.85107	1.53215
3643.429	-7.13136	2.92628	-8.82756	1.43044
3647.429	-7.16288	2.90532	-8.94699	1.46576
3651.438	-7.11481	2.91084	-8.86963	1.56088
3655.431	-7.07202	2.89684	-8.90812	1.56130
3659.434	-7.07928	2.89025	-8.91134	1.52550
3663.428	-7.00690	2.91457	-8.88007	1.53436
3667.433	-6.98433	2.90268	-8.86209	1.55293
3671.427	-7.04203	2.89565	-8.84840	1.48797
3675.427	-7.07214	2.88002	-8.78217	1.56056
3679.432	-7.16324	2.91272	-8.83289	1.51858
3683.454	-7.22011	2.90382	-8.86815	1.39092
3687.429	-7.17199	2.87996	-8.85070	1.43597
3691.438	-7.15816	2.85939	-8.85378	1.32443
3695.429	-7.17060	2.82052	-8.84164	1.43232
3699.439	-7.21191	2.81045	-8.82199	1.37598
3703.429	-7.32732	2.81900	-8.75172	1.40417
3707.433	-7.20538	2.79574	-8.77271	1.37039
3711.424	-7.30708	2.79044	-8.73604	1.25422
3715.434	-7.30505	2.80004	-8.75255	1.38603
3719.429	-7.22766	2.80620	-8.75456	1.32090
3723.432	-7.17922	2.83449	-8.75172	1.28836
3727.428	-7.23958	2.76934	-8.76925	1.22620
3731.434	-7.25362	2.82579	-8.78731	1.40600
3735.433	-7.16315	2.84157	-8.72306	1.31115
3739.432	-7.20213	2.86504	-8.71635	1.29043
3743.426	-7.20841	2.89028	-8.83961	1.35903
3747.429	-7.14521	2.89464	-8.82982	1.31136
3751.430	-7.19241	2.89916	-8.83110	1.28774
3755.457	-7.25787	2.96777	-8.83830	1.41584
3759.431	-7.13642	2.96768	-8.83493	1.38160
3763.425	-7.19764	2.95130	-8.89128	1.28437
3767.430	-7.21376	2.86907	-8.89029	1.23228
3771.426	-7.16561	2.91600	-8.84646	1.30170
3775.431	-7.17949	2.88072	-8.89550	1.33802
3779.429	-7.26339	2.98421	-8.94254	1.31721
3783.428	-7.24556	2.91610	-8.91917	1.30768
3787.428	-7.25523	2.94195	-8.90114	1.28762
3791.426	-7.36174	2.88774	-8.90269	1.28879
3795.424	-7.29138	2.93518	-8.92667	1.33565
3799.430	-7.28044	2.98751	-8.92893	1.22687
3803.428	-7.26249	2.93765	-8.95305	1.30976
3807.430	-7.23059	2.90821	-8.92822	1.33375
3811.432	-7.26986	2.92720	-8.89456	1.28853
3815.425	-7.28967	2.97364	-8.89349	1.30443
3819.435	-7.22649	2.93255	-8.88879	1.27473
3823.428	-7.19752	2.92032	-8.84806	1.17133
3827.429	-7.24991	2.98521	-8.89967	1.17384
3831.429	-7.22852	2.99523	-8.93590	1.25727
3835.425	-7.17903	2.97613	-8.90470	1.24459
3839.427	-7.19530	2.85571	-8.88072	1.21258
3843.428	-7.13835	2.82766	-8.83711	1.25238
3847.423	-7.27609	2.90801	-8.84857	1.14441
3851.430	-7.31428	2.90580	-8.93435	1.05040
3855.441	-7.35620	2.94335	-8.95109	1.08785
3859.432	-7.22637	2.85822	-8.94198	1.12456
3863.440	-7.18750	2.97428	-9.00484	1.07417
3867.305	-7.20082	2.94358	-8.89957	1.01113
3871.303	-7.19009	3.01751	-8.85274	1.08406
3875.305	-7.11459	2.96512	-8.87871	1.05991
3879.300	-7.09365	3.00497	-8.86151	1.07123
3883.305	-7.05337	3.02852	-8.79223	0.99609
3887.298	-7.03944	3.07022	-8.87001	0.97543
3891.299	-7.09096	3.03110	-8.87723	0.94493
3895.302	-7.06813	3.06467	-8.85325	0.98708
3899.305	-7.01873	3.12350	-8.91141	1.18777
3903.299	-7.37282	4.18316	-9.01004	1.34287
3907.314	-7.96037	4.94211	-9.22922	3.73255
3911.304	-8.44433	5.85377	-9.28050	3.66514
3915.304	-8.11717	5.78368	-9.37496	4.29360
3919.298	-8.15810	5.73491	-9.51942	4.34619
3923.299	-8.06139	5.10081	-9.27404	3.95996
3927.304	-8.17729	5.38926	-9.08607	3.64229
3931.351	-8.25404	5.10534	-9.12384	3.67561
3935.313	-8.29411	5.20500	-9.43755	3.68619
3939.303	-8.34524	5.27781	-9.52784	3.83722
3943.299	-8.38719	5.39478	-9.69287	3.74924
3947.328	-8.29059	5.34860	-9.59486	3.69414
3951.305	-8.26626	5.47045	-9.58494	3.72909
3955.305	-8.25136	5.33648	-9.66219	4.08048
3959.326	-8.30928	5.38138	-9.75042	3.94691
3963.304	-8.27679	5.40792	-9.67097	3.83677
3967.301	-8.26145	5.50524	-9.73202	3.89205
3971.294	-8.04791	5.49515	-9.75912	3.87238
3975.302	-8.06830	5.57896	-9.75550	3.80904
3979.299	-8.01041	5.61460	-9.66822	3.79298
3983.298	-8.00530	5.64860	-9.35602	3.79585
3987.296	-7.81186	5.60347	-9.65715	3.87863
3991.306	-7.86184	5.63827	-9.75664	3.75580
3995.301	-8.30009	5.63971	-9.81344	3.79684
3999.298	-8.27343	5.68994	-9.86430	3.80423
4003.302	-7.91273	5.70743	-9.70678	3.82410
4007.298	-7.85570	5.67738	-9.44030	3.84383
4011.300	-7.79856	5.65199	-9.57440	3.83640
4015.296	-7.87160	5.65081	-9.85426	3.70913
4019.302	-7.91217	5.63847	-9.73311	3.59801
4023.298	-7.98827	5.65739	-9.64827	3.62805
4027.302	-8.20216	5.63131	-9.70162	3.75771
4031.306	-8.11410	5.67218	-9.78443	3.81466
4035.299	-8.05105	5.67167	-9.85209	3.75152
4039.301	-8.06071	5.65261	-9.82094	3.64310
4043.312	-8.01445	5.61331	-9.67309	3.71580
4047.300	-8.06450	5.60445	-9.45421	3.74350
4051.301	-8.04957	5.62026	-9.45571	3.69193
4055.301	-8.18534	5.61973	-9.67408	3.60032
4059.304	-8.08195	5.59427	-9.60994	3.53199
4063.298	-7.95446	5.59136	-9.64410	3.63722
4067.300	-8.18906	5.55139	-9.69535	3.78546
4071.296	-8.38355	5.55093	-9.60731	3.81293
4075.306	-8.20731	5.54310	-9.44950	3.77838
4079.298	-8.14225	5.52582	-9.47637	3.66520
4083.301	-8.00316	5.52091	-9.50993	3.69103
4087.295	-8.18555	5.54530	-9.46355	3.65972
4091.300	-8.13743	5.51913	-9.52705	3.76201
4095.297	-7.86060	5.54505	-9.61978	3.48966
4099.296	-8.23136	5.53443	-9.59752	3.39683
4103.297	-8.09854	5.59636	-9.63602	3.40267
4107.299	-8.05502	5.57395	-9.70567	3.23101
4111.299	-8.00990	5.58829	-9.77091	3.28845
4115.300	-8.06776	5.56966	-10.00793	3.29323
4119.327	-8.13748	5.60147	-9.98795	3.29492
4123.306	-8.13813	5.64946	-10.00981	3.25519
4127.297	-8.24264	5.62599	-9.99700	3.44320
4131.301	-8.34244	5.54791	-9.69284	3.11929
4135.298	-8.61669	4.83342	-10.15449	2.59701
4139.298	-10.19262	3.99030	-10.47921	2.19690
4143.296	-10.34559	2.66021	-10.68281	0.74738
4147.300	-10.71640	2.19339	-11.32865	-0.13544
4151.298	-10.76008	1.64457	-11.44838	-0.47868
4155.314	-10.78496	0.90227	-11.27968	-1.20215
4159.306	-10.79054	0.85813	-11.60975	-1.24384
4163.323	-10.64796	1.36291	-11.52243	-1.02318
4167.296	-10.53399	1.25286	-11.54142	-1.01011
4171.297	-10.63744	1.63440	-11.54454	-0.85089
4175.292	-10.69606	1.44369	-11.59280	-0.67096
4179.299	-10.62164	1.26414	-11.65377	-0.89935
4183.296	-10.71121	1.09718	-11.69533	-0.71186
4187.295	-10.86462	1.22844	-11.68791	-1.07363
4191.300	-10.85823	0.97942	-11.67565	-1.06852
4195.294	-10.48864	0.97038	-11.71201	-0.97848
4199.303	-10.52170	1.08284	-11.68745	-1.15989
4203.290	-10.49503	1.18170	-11.72769	-1.06278
4207.299	-10.54843	1.19576	-11.72798	-1.11830
4211.294	-10.40188	1.08199	-11.81318	-0.96990
4215.299	-10.61260	0.93656	-11.75213	-0.92902
4219.292	-10.79543	1.02435	-11.76124	-1.01394
4223.299	-10.73308	1.12336	-11.74128	-1.15441
4227.295	-10.39580	1.02623	-11.84102	-1.18968
4231.760	-10.50909	1.07179	-11.87910	-1.13458
4235.309	-10.48718	1.03157	-11.76939	-1.29814
4239.304	-10.39952	1.07747	-11.73719	-1.21301
4243.303	-10.45442	1.16078	-11.81936	-1.13410
4247.297	-10.55522	1.10624	-11.75600	-1.08840
4251.292	-10.32280	0.95454	-11.75607	-1.11221
4255.295	-10.42953	1.06315	-11.76533	-1.06419
4259.293	-10.51187	1.27341	-11.81862	-1.19508
4263.293	-10.58176	1.24021	-11.89133	-1.20387
4267.293	-10.43575	1.14404	-11.84106	-1.27180
4271.297	-10.40406	1.22048	-11.88268	-1.17637
4275.296	-10.44124	1.18867	-11.81256	-1.16376
4279.292	-10.49481	1.25778	-11.68248	-1.24181
4283.303	-10.43772	1.25774	-11.68753	-1.23189
4287.299	-10.52384	1.25427	-11.76183	-1.08981
4291.296	-10.44134	1.18044	-11.78333	-1.13982
4295.292	-10.38163	1.14497	-11.61994	-1.14392
4299.292	-10.42087	1.23321	-11.71672	-0.81300
4303.300	-10.45481	1.48134	-11.98256	-0.95482
4307.297	-10.49455	1.51423	-11.86624	-0.85224
4311.293	-10.52091	1.75455	-12.18659	-0.54955
4315.297	-10.63643	1.75211	-12.13797	-0.45661
4319.293	-10.68365	1.78675	-11.87872	-0.41742
4323.314	-10.68504	1.50817	-11.80124	-0.41126
4327.297	-10.75804	1.82026	-11.94389	-0.21975
4331.298	-10.79993	1.70066	-11.97624	-0.19690
4335.294	-10.77646	1.72721	-12.11780	-0.08380
4339.296	-10.86297	1.91277	-12.14537	-0.05514
4343.292	-10.87321	2.00272	-12.32167	-0.04644
4347.297	-10.93610	1.94121	-12.37515	-0.09046
4351.294	-10.93370	1.80956	-12.40193	-0.03803
4355.291	-10.95660	1.79836	-12.19048	-0.15370
4359.298	-10.95160	1.75837	-12.22115	-0.14433
4363.291	-10.94684	1.78236	-12.28398	-0.12905
4367.329	-10.95691	1.77148	-12.36935	-0.08651
4371.295	-10.95870	1.70427	-12.43454	-0.00415
4375.297	-10.96684	1.80013	-12.24163	-0.19267
4379.296	-11.00015	1.86691	-12.06370	-0.20594
4383.298	-11.02452	1.85842	-12.13045	-0.16926
4387.289	-11.02753	1.77056	-12.04714	-0.14095
4391.294	-11.02827	1.77222	-12.09190	-0.00347
4395.292	-11.05878	1.79925	-12.14632	0.14238
4399.294	-10.98037	1.79251	-12.17990	0.08203
4403.289	-10.90762	1.78154	-12.18218	0.10857
4407.301	-10.83769	1.79959	-12.20574	0.18682
4411.291	-10.77833	1.81594	-12.18758	0.10379
4415.295	-10.73272	1.84578	-12.15837	0.03554
4419.290	-10.73100	1.84079	-12.16527	0.10511
4423.290	-10.66237	1.86977	-12.20783	0.11879
4427.289	-10.42655	1.88854	-12.14437	0.17639
4431.296	-10.01108	2.70534	-11.80978	0.38994
4435.343	-7.94813	3.88943	-8.68366	1.79617
4439.306	-5.21392	4.75217	-8.20141	3.70619
4443.291	-4.85034	6.21218	-5.52674	5.30926
4447.301	-2.74244	6.55016	-4.60214	4.83628
4451.295	-1.96965	6.64194	-2.78243	4.82888
4455.295	-1.82621	6.65112	-3.07429	4.20454
4459.298	-2.36656	6.56094	-3.99988	2.92245
4463.293	-3.21391	6.55894	-4.53512	2.95463
4467.296	-4.49065	6.57088	-4.68777	3.58700
4471.292	-4.23952	6.62813	-4.49289	3.89425
4475.289	-3.40502	6.72445	-4.10915	4.24266
4479.290	-2.37776	6.58191	-3.66886	4.77359
4483.292	-2.29490	6.50669	-3.41689	5.13668
4487.293	-2.37221	6.45025	-3.57728	4.42511
4491.292	-2.14506	6.38006	-3.64288	4.03515
4495.293	-2.26113	6.32503	-3.62276	3.44263
4499.293	-2.61605	6.40232	-3.73767	3.43942
4503.321	-2.29091	6.39266	-3.78699	3.54172
4507.295	-2.44611	6.56443	-3.76967	3.79093
4511.288	-2.06676	6.43644	-3.77735	3.86285
4515.293	-2.18238	6.51537	-3.82719	4.11850
4519.292	-2.17219	6.51372	-3.97207	4.47694
4523.290	-2.27300	6.54090	-3.96938	3.93642
4527.288	-2.19695	6.53271	-3.69914	3.78657
4531.293	-2.17420	6.36609	-3.88087	3.77812
4535.294	-2.21127	6.21729	-4.02594	3.88834
4539.292	-2.25360	6.33703	-4.19447	3.96300
4543.288	-2.27374	6.37020	-4.44724	4.03971
4547.295	-2.18302	6.44641	-4.44102	4.13459
4551.291	-2.09422	6.31677	-4.17845	3.79086
4555.289	-2.10493	6.36748	-4.18408	3.94374
4559.292	-2.21462	6.43458	-3.99144	3.91384
4563.291	-2.29200	6.57265	-4.11125	3.89691
4567.287	-2.26358	6.47472	-4.33140	4.02904
4571.324	-2.26980	5.98419	-4.10382	4.02425
4575.301	-2.18882	6.16857	-3.84915	3.93153
4579.287	-2.38759	6.40222	-3.99378	4.00842
4583.293	-2.26130	6.49657	-4.14038	4.12586
4587.287	-2.06116	6.45586	-4.30731	4.53273
4591.292	-2.24963	6.49684	-3.87267	4.06690
4595.291	-2.24916	6.06588	-3.77651	4.10623
4599.292	-2.02140	6.13171	-3.93117	4.06361
4603.339	-2.22413	6.37335	-3.94777	4.06177
4607.293	-2.37907	6.52733	-3.89169	3.90572
4611.287	-2.32037	5.80892	-3.81980	3.96291
4615.296	-2.52706	6.03982	-3.87131	4.34171
4619.293	-2.71761	6.27216	-3.81484	3.93991
4623.288	-2.86685	6.42008	-3.89995	3.92330
4627.289	-2.44219	6.39304	-3.93959	3.81688
4631.287	-2.43298	5.93765	-4.08177	4.06493
4635.292	-2.40449	6.09394	-3.73636	3.78367
4639.286	-2.27597	6.26086	-3.75719	3.84939
4643.290	-2.33190	6.35611	-3.87411	4.06904
4647.286	-2.62308	6.11344	-4.05068	3.86041
4651.291	-2.53595	5.93375	-4.22175	3.81401
4655.307	-2.48978	6.02879	-4.40226	3.66578
4659.294	-2.58920	6.14264	-4.62998	3.62400
4663.290	-2.57137	6.29002	-4.65703	3.84898
4667.287	-2.68234	6.49151	-4.77850	4.12855
4671.290	-2.41960	5.73323	-4.26706	3.80600
4675.283	-2.76720	5.93265	-3.94186	3.95612
4679.291	-2.86663	5.91631	-4.38334	3.72622
4683.293	-2.86972	6.03842	-4.90784	3.67605
4687.286	-3.09470	6.05000	-5.18131	3.79599
4691.292	-3.17156	6.28902	-5.28741	3.90186
4695.286	-3.35793	6.52809	-4.38647	3.56216
4699.295	-2.99633	6.33829	-4.13641	3.61548
4703.284	-2.71832	6.34408	-4.10421	3.80868
4707.325	-2.57422	5.87774	-4.11357	3.79304
4711.294	-2.80786	5.84730	-4.02250	3.93967
4715.286	-3.09421	6.10958	-4.15579	4.23760
4719.291	-2.90463	6.17333	-4.60096	3.80490
4723.159	-2.55777	6.27436	-4.41238	3.90762
4727.161	-2.77042	6.44232	-4.26146	3.66421
4731.163	-2.54660	6.37043	-4.10703	3.44134
4735.159	-2.66756	6.35111	-4.08589	3.48554
4739.165	-2.68794	6.33053	-4.01191	3.52902
4743.161	-2.74794	6.30840	-4.11300	3.69268
4747.172	-2.79887	6.26551	-4.12935	3.89823
4751.167	-2.89517	6.37713	-4.08890	4.17243
4755.177	-2.81501	6.07844	-4.09560	4.48400
4759.163	-2.82023	6.12970	-4.27163	3.76075
4763.165	-2.64710	6.23833	-4.11031	3.68390
4767.162	-2.73407	6.27306	-4.01243	3.30946
4771.165	-2.55574	6.22413	-3.98368	3.52048
4775.193	-2.70683	6.23261	-4.02100	3.80340
4779.170	-2.83556	6.27223	-4.06394	3.98503
4783.160	-2.88537	6.27274	-4.11787	4.26758
4787.170	-3.04942	6.07698	-4.19264	3.90906
4791.162	-2.75539	5.97700	-4.07755	3.39679
4795.168	-2.62789	6.06816	-4.10229	3.46988
4799.158	-2.18761	6.14314	-4.18156	3.65032
4803.187	-2.64292	6.25054	-4.16946	4.12650
4807.172	-2.56377	6.27696	-4.23320	4.65155
4811.157	-2.60354	6.00207	-4.20410	3.49867
4815.163	-2.57712	5.95780	-4.27432	3.57831
4819.162	-2.43454	5.94297	-4.30346	3.70826
4823.207	-2.55547	6.06951	-4.37307	3.99060
4827.164	-2.60646	6.17936	-4.35593	3.85915
4831.163	-2.66258	6.45387	-4.16114	3.88218
4835.160	-2.72805	6.22401	-4.12108	4.09067
4839.159	-2.72855	5.79932	-4.33527	4.30921
4843.160	-2.83504	5.92415	-4.42540	3.96661
4847.156	-2.79508	5.93560	-4.59048	4.27905
4851.161	-2.94354	5.94269	-4.38156	4.10668
4855.174	-3.16738	6.13915	-4.36279	3.69746
4859.160	-3.26574	6.34530	-4.46702	3.74028
4863.163	-3.39955	6.36500	-4.67032	3.87797
4867.159	-3.49139	6.53526	-4.63260	3.92029
4871.168	-3.22319	6.40617	-4.77803	3.97857
4875.162	-3.39354	6.36686	-4.76761	3.94142
4879.161	-3.14169	6.33460	-4.88185	4.09905
4883.157	-3.11136	6.35032	-4.77409	4.08645
4887.159	-2.99710	6.43404	-4.79864	4.15769
4891.163	-3.03333	6.44189	-4.63139	3.95712
4895.160	-2.84083	6.43211	-4.66588	3.94064
4899.162	-2.50224	6.39989	-4.73500	4.54338
4903.156	-2.62826	6.38904	-4.64137	4.65645
4907.161	-2.40488	6.40837	-4.61085	4.78095
4911.197	-2.27818	6.28163	-4.55879	4.76015
4915.162	-2.50952	6.26743	-4.50175	4.52520
4919.153	-2.57766	6.14213	-4.46517	4.57621
4923.163	-2.68762	5.98288	-4.41647	4.49659
4927.157	-2.52983	5.95372	-4.43848	4.42539
4931.178	-2.77666	6.11110	-4.47200	4.18151
4935.163	-2.59648	6.34333	-4.38452	4.56853
4939.158	-2.65837	6.38031	-4.24073	4.60325
4943.157	-2.75764	6.43073	-4.17640	4.40405
4947.157	-2.90643	6.31652	-4.11878	4.23987
4951.159	-3.06117	6.33466	-4.27481	4.14788
4955.171	-2.97418	6.22041	-4.28557	3.96843
4959.164	-2.95032	6.21998	-4.25435	4.10803
4963.155	-2.96317	6.02501	-4.04226	4.14089
4967.156	-2.87752	6.05787	-4.00944	4.02095
4971.160	-2.84910	5.96192	-3.87504	3.99167
4975.157	-2.72251	5.77714	-3.86440	4.00294
4979.159	-2.63561	6.27557	-3.93221	3.84863
4983.156	-2.72840	6.19053	-4.03102	3.75928
4987.158	-2.70366	6.11979	-3.95515	3.60194
4991.159	-2.76133	6.15415	-4.01159	3.40697
4995.162	-2.71122	6.24034	-4.02324	3.34675
4999.167	-2.76383	6.26972	-4.02070	3.53212
5003.157	-2.77342	6.31746	-3.96029	3.75089
5007.160	-2.68767	6.35128	-3.97387	3.69753
5011.154	-2.65627	6.48339	-3.99279	3.67338
5015.160	-2.46201	6.43892	-4.00008	3.64271
5019.157	-2.48468	6.45033	-4.06629	3.69965
5023.187	-2.15534	6.38559	-4.09715	3.74211
5027.156	-2.30680	6.34482	-4.14690	4.03087
5031.162	-2.19051	6.32089	-4.24344	4.15529
5035.160	-2.31931	6.28984	-4.29836	4.25006
5039.161	-2.16714	6.20483	-4.36419	4.30289
5043.151	-2.22034	6.13407	-4.47721	4.41758
5047.155	-2.18277	6.01942	-4.61060	4.45295
5051.157	-2.15135	5.91846	-4.75036	4.47481
5055.177	-2.16238	5.77329	-4.72667	4.52298
5059.159	-2.25228	5.70677	-4.81133	4.46117
5063.153	-2.26723	5.80238	-4.83067	4.54287
5067.154	-2.38529	5.78737	-4.76155	4.49268
5071.158	-2.50638	6.07421	-4.75672	4.50285
5075.157	-2.63881	6.34765	-4.76332	4.54898
5079.163	-2.64015	6.33262	-4.87367	4.53985
5083.150	-2.73444	6.18493	-4.92474	4.50890
5087.159	-2.77599	6.18699	-4.85381	4.47271
5091.155	-2.73623	6.28681	-4.98650	4.41038
5095.156	-2.67776	6.15366	-4.69016	4.32598
5099.153	-2.65379	6.34966	-4.73056	4.31962
5103.159	-2.25989	6.26540	-4.61040	4.53714
5107.155	-2.48740	6.25915	-4.42548	4.55307
5111.157	-2.36180	6.13396	-4.55554	4.64384
5115.157	-2.27865	6.06070	-4.57749	4.56859
5119.162	-2.23566	5.94695	-4.64219	4.53529
5123.155	-2.39683	5.91793	-4.62000	4.57056
5127.159	-2.28427	5.88027	-4.66245	4.62654
5131.154	-2.39180	5.79027	-4.60500	4.33485
5135.157	-2.32625	5.78668	-4.31124	4.05102
5139.150	-2.45012	5.80629	-4.41410	3.99781
5143.159	-2.30060	5.78614	-4.48579	3.93640
5147.160	-2.37206	5.82402	-4.43816	4.03357
5151.152	-2.34758	5.61911	-4.41156	3.84890
5155.168	-2.40749	5.67155	-4.21819	4.15279
5159.158	-2.58675	5.68136	-4.22890	4.15010
5163.159	-2.58217	5.72365	-4.23772	4.20741
5167.155	-2.54702	5.70975	-4.15712	4.21235
5171.157	-2.55101	5.73787	-4.13426	4.12239
5175.156	-2.39527	5.76474	-4.12979	4.29236
5179.165	-2.55621	5.78820	-4.20629	4.37052
5183.167	-2.66006	5.80859	-4.15287	3.95406
5187.163	-2.81296	5.81716	-4.13530	3.98823
5191.153	-2.72773	5.74271	-4.16705	4.19884
5195.157	-2.43808	5.71627	-4.00201	4.10454
5199.152	-0.48565	5.53450	-1.93995	2.99888
5203.158	0.34166	5.38375	-0.76387	2.09255
5207.156	2.74841	3.47028	0.86151	0.51500
5211.154	3.43252	1.47046	1.67496	-0.89387
5215.152	3.86642	0.60539	2.25942	-1.57836
5219.153	4.04786	0.81249	2.65595	-2.83403
5223.155	4.30376	0.57488	2.86465	-3.16110
5227.153	4.43764	0.69527	2.74259	-2.86262
5231.151	4.33927	0.77602	2.89844	-2.66364
5235.152	4.25719	0.78924	2.93782	-2.51317
5239.155	4.17141	0.76113	3.02383	-2.49544
5243.159	4.16070	0.76428	3.01339	-2.58016
5247.158	4.21182	0.68341	3.03309	-2.72838
5251.174	4.43177	0.59435	3.05613	-2.85339
5255.148	4.77737	0.44354	3.13845	-2.86529
5259.160	4.91430	0.40122	3.16918	-2.86875
5263.152	4.85876	0.34032	3.19996	-2.85834
5267.151	5.03174	0.33709	3.18682	-2.85499
5271.151	4.91762	0.32148	3.21186	-2.85556
5275.151	5.04553	0.29211	3.18410	-2.86806
5279.153	4.97021	0.34680	3.18912	-2.83805
5283.151	4.93026	0.37442	3.17336	-2.88235
5287.160	4.93777	0.37286	3.16292	-2.83803
5291.156	4.99088	0.54194	3.16119	-2.75509
5295.155	4.98288	0.47725	3.16807	-2.68434
5299.151	5.08468	0.62292	3.13783	-2.60710
5303.153	5.04014	0.73270	3.13811	-2.43625
5307.154	5.02583	0.82708	3.13145	-2.27898
5311.154	4.92942	0.65369	3.09466	-2.27806
5315.147	4.87707	0.37292	3.06753	-2.35180
5319.181	4.86606	0.08403	3.01987	-2.27252
5323.157	4.90139	-0.16982	2.96431	-2.20029
5327.156	4.84149	-0.36907	2.97698	-2.16470
5331.151	4.86786	-0.58047	2.98963	-2.14359
5335.156	4.78811	-0.64823	2.99898	-2.09646
5339.151	4.83373	-0.71374	2.95401	-2.08857
5343.145	4.71294	-0.77612	2.94282	-2.05942
5347.156	4.72913	-0.66871	2.91693	-2.09112
5351.151	4.67118	-0.66850	2.86514	-2.11352
5355.150	4.65294	-0.73859	2.93096	-2.17044
5359.151	4.65691	-0.65717	2.93814	-2.17836
5363.152	4.71309	-0.61071	2.96257	-2.20473
5367.151	4.85182	-0.67310	2.98218	-2.27624
5371.166	4.85354	-0.43228	2.95960	-2.30937
5375.153	5.01913	-0.15501	2.95025	-2.32262
5379.159	5.10765	-0.26258	2.96812	-2.41152
5383.154	5.15049	-0.16156	2.97044	-2.45977
5387.149	5.18289	-0.10768	2.97433	-2.52378
5391.152	5.13993	-0.00592	2.99455	-2.58597
5395.151	5.19866	-0.02066	2.98366	-2.65123
5399.146	5.23494	0.02084	2.96760	-2.73045
5403.151	5.27230	0.13241	2.85658	-2.63439
5407.151	5.24095	0.20170	2.84165	-2.65936
5411.156	5.21107	0.25857	2.76495	-2.59398
5415.160	5.20536	0.27959	2.71686	-2.55472
5419.149	5.13314	0.23722	2.64839	-2.54282
5423.154	5.09406	0.21739	2.60661	-2.33204
5427.146	5.03270	0.21909	2.54848	-2.25383
5431.157	5.02886	0.22934	2.51673	-2.20681
5435.153	5.01246	0.22657	2.45225	-2.19651
5439.149	4.92127	0.22353	2.44004	-2.14655
5443.151	4.94701	0.23288	2.41831	-2.16091
5447.152	4.85290	0.13960	2.43902	-2.16584
5451.158	4.81310	0.10113	2.46736	-2.14311
5455.164	4.75967	0.13444	2.51282	-2.16787
5459.155	4.70552	0.10513	2.44157	-2.21814
5463.180	4.68575	0.12574	2.46313	-2.29438
5467.149	4.58688	0.08253	2.43134	-2.40344
5471.146	4.55339	0.05980	2.43501	-2.47265
5475.147	4.46268	0.04229	2.38606	-2.45472
5479.147	4.47257	0.01952	2.40055	-2.49330
5483.151	4.48414	-0.01905	2.41767	-2.56025
5487.142	4.47200	-0.08554	2.43491	-2.58345
5491.152	4.52668	-0.12160	2.44435	-2.65548
5495.153	4.53872	-0.16696	2.48567	-2.72867
5499.148	4.59386	-0.22394	2.47033	-2.73856
5503.146	4.70071	-0.29976	2.37706	-2.58007
5507.149	4.75055	-0.36590	2.40915	-2.35822
5511.147	4.79866	-0.37313	2.35801	-2.27604
5515.147	4.84270	-0.44422	2.39014	-2.22955
5519.147	4.70966	-0.46129	2.40934	-2.20657
5523.176	4.65797	-0.37326	2.51829	-2.19208
5527.153	4.65656	-0.39285	2.57469	-2.20061
5531.143	4.72179	-0.42553	2.62207	-2.17852
5535.156	4.77318	-0.20246	2.62053	-2.13272
5539.148	4.90410	-0.00668	2.66813	-2.07277
5543.151	4.95709	-0.05838	2.75210	-2.06784
5547.143	4.61970	0.05110	2.83977	-2.10397
5551.151	4.55324	0.22881	2.83170	-2.08882
5555.161	4.45150	0.24799	2.77614	-2.03235
5559.155	4.51889	0.22929	2.82350	-2.01668
5563.145	4.57384	0.31284	2.85361	-2.04216
5567.146	4.64990	0.30087	2.88663	-2.04502
5571.145	4.78129	0.34496	2.83234	-2.10024
5575.021	4.93440	0.34449	2.91166	-2.06297
5579.024	4.98999	0.28436	2.87601	-2.03245
5583.026	5.03945	0.21278	2.83462	-2.09325
5587.024	5.18333	0.11612	2.83452	-2.10634
5591.020	5.07503	0.06183	2.80845	-2.13169
5595.025	5.08892	0.00906	2.85210	-2.11260
5599.025	4.88064	-0.08146	2.90213	-2.30555
5603.017	4.89397	-0.18410	2.85470	-2.32467
5607.026	4.95036	-0.23080	2.79676	-2.19070
5611.021	4.91405	-0.29679	2.68952	-2.24807
5615.025	4.98034	-0.44678	2.63225	-2.21982
5619.024	5.00859	-0.46921	2.58549	-2.26878
5623.028	5.00945	-0.55007	2.47487	-2.23844
5627.023	5.11728	-0.64117	2.46689	-2.21039
5631.019	5.17265	-0.65275	2.45505	-2.19524
5635.021	4.99162	-0.59432	2.44056	-2.15865
5639.025	4.78755	-0.63424	2.50306	-2.15430
5643.021	4.87207	-0.69783	2.48255	-2.10659
5647.020	4.86975	-0.68967	2.51093	-2.07704
5651.020	4.92455	-0.75352	2.62254	-2.09761
5655.036	4.98155	-0.76551	2.81301	-2.07063
5659.028	4.91664	-0.71427	2.85190	-2.10911
5663.022	5.01999	-0.71188	2.86351	-2.14239
5667.029	4.88542	-0.67410	2.87903	-2.15741
5671.024	4.73512	-0.62176	2.90423	-2.23495
5675.020	4.60878	-0.53774	2.97629	-2.25247
5679.035	4.59408	-0.54818	2.93215	-2.36926
5683.029	4.73508	-0.52212	2.93542	-2.41907
5687.017	5.07860	-0.23586	2.86148	-2.30422
5691.017	5.23297	-0.40703	3.11071	-2.37122
5695.022	5.74075	-0.34384	4.96280	-2.53163
5699.019	8.32398	-0.41813	5.98572	-2.56495
5703.013	8.52894	-0.29285	6.73206	-2.61078
5707.027	8.74290	-0.40642	7.01084	-2.92062
5711.020	8.76057	-0.59301	7.00010	-3.28031
5715.022	8.50411	-1.06013	6.35233	-4.16958
5719.014	8.43916	-1.14754	5.76772	-3.92791
5723.022	8.42364	-1.37397	5.84790	-4.16270
5727.031	8.36394	-1.44514	5.85278	-4.12715
5731.020	8.41196	-1.57515	6.12430	-3.88089
5735.022	8.42119	-1.52392	5.93488	-3.87958
5739.015	8.19158	-1.75290	6.18483	-3.83217
5743.032	8.05645	-1.98457	6.11866	-3.98178
5747.027	8.13264	-1.59040	6.02195	-4.08983
5751.024	8.10905	-1.63821	6.06210	-4.10693
5755.023	8.06915	-1.74100	6.04269	-4.11398
5759.026	8.11625	-1.72838	6.02880	-4.10558
5763.015	8.24395	-1.64259	6.06760	-4.06792
5767.022	8.29800	-1.50086	6.13365	-4.11270
5771.018	8.06278	-1.35911	6.11979	-4.14341
5775.022	7.89517	-1.24835	6.07280	-4.23977
5779.014	7.99128	-1.17294	6.03753	-4.25268
5783.017	8.07015	-1.09146	6.00388	-4.29199
5787.020	8.10365	-1.10922	5.96124	-4.26335
5791.022	8.17879	-0.97171	5.92675	-4.19316
5795.354	8.18057	-1.01786	5.88653	-4.17805
5799.031	8.30412	-0.94505	5.93186	-4.12918
5803.025	8.50231	-0.88437	6.00040	-4.06606
5807.018	8.65778	-0.84211	6.04995	-3.97926
5811.019	8.29727	-0.86205	5.99473	-4.01572
5815.017	8.36975	-0.88160	5.98638	-4.00570
5819.018	8.36829	-0.93290	6.01370	-4.02640
5823.017	8.49457	-0.96542	6.03977	-4.06688
5827.020	8.37922	-1.03507	6.10919	-4.11940
5831.021	8.07027	-0.95466	6.12234	-4.18532
5835.019	8.14076	-0.97281	6.08406	-4.24678
5839.020	8.25707	-0.95227	6.10271	-4.22543
5843.021	8.27329	-0.99043	6.07008	-4.19536
5847.014	8.22479	-1.03975	6.00892	-4.04559
5851.022	8.21018	-1.05412	5.96117	-4.08888
5855.031	8.33088	-1.10795	5.97784	-4.04240
5859.020	8.41218	-1.17858	6.00379	-4.09522
5863.018	8.41505	-1.26688	6.10355	-4.07918
5867.019	8.29628	-1.18665	6.14477	-4.07963
5871.019	8.15747	-1.32302	6.21166	-3.99374
5875.023	8.22346	-1.41530	6.20364	-4.01310
5879.018	8.33953	-1.42164	6.17862	-3.91667
5883.011	8.51794	-1.55443	6.21779	-3.87219
5887.021	8.48158	-1.70946	6.20048	-3.97655
5891.017	8.29032	-1.86298	6.18024	-4.06033
5895.020	8.30177	-2.06245	6.14474	-4.04883
5899.012	8.26825	-2.13009	6.03123	-4.13752
5903.056	8.26801	-2.26092	5.96795	-4.15644
5907.015	8.26108	-2.39351	6.02018	-4.12082
5911.019	8.13575	-2.13180	5.97632	-4.12169
5915.017	8.25187	-2.08636	5.96819	-4.17608
5919.021	8.12539	-2.09926	6.01827	-4.13143
5923.014	8.06990	-2.13267	6.06031	-4.16695
5927.018	8.00455	-1.81175	6.15176	-4.14781
5931.075	7.95141	-2.16133	6.23197	-4.12533
5935.043	8.07195	-1.96609	6.12632	-4.07109
5939.020	8.18293	-1.91282	6.13750	-4.09657
5943.020	8.38338	-1.89183	6.16974	-4.14295
5947.015	8.38554	-1.77711	6.22039	-4.23850
5951.019	8.23376	-1.74112	6.23405	-4.18660
5955.027	8.37072	-1.74741	6.20715	-4.22733
5959.021	8.35138	-1.77909	6.16731	-4.17410
5963.015	8.45334	-1.83608	6.11049	-4.11558
5967.016	8.48287	-1.79879	6.01400	-4.10031
5971.014	8.48612	-1.78625	5.94622	-4.07335
5975.013	8.48126	-1.82043	5.90873	-3.98479
5979.014	8.45883	-1.74905	5.80435	-3.98656
5983.018	8.41116	-1.71081	5.79597	-3.89361
5987.014	8.40327	-1.67285	5.76308	-3.90915
5991.013	8.18961	-1.56727	5.77991	-3.86911
5995.017	8.17374	-1.64396	5.74465	-3.81673
5999.020	8.05509	-1.64902	5.73485	-3.81768
6003.015	8.05633	-1.62057	5.79140	-3.78117
6007.012	8.05830	-1.58644	5.90809	-3.78735
6011.016	8.08144	-1.59046	6.04993	-3.76354
6015.019	8.10756	-1.59947	6.10252	-3.75712
6019.015	8.04954	-1.51119	6.11093	-3.71580
6023.017	7.78024	-1.53125	5.70947	-3.69379
6027.009	6.20869	-1.28681	5.10628	-3.74930
6031.019	6.03584	-1.02850	4.30475	-3.67269
6035.013	5.97087	-1.15934	4.32720	-3.66077
6039.029	6.17195	-1.14616	4.26163	-3.70745
6043.015	6.61415	-1.13755	4.56794	-3.67701
6047.014	6.66555	-1.22819	4.55830	-3.61482
6051.015	6.57808	-1.10299	4.54286	-3.55570
6055.045	6.26032	-1.11022	4.43895	-3.52084
6059.016	6.19756	-1.03197	4.43342	-3.41665
6063.010	5.85551	-0.99755	4.43979	-3.27927
6067.056	5.78863	-0.96621	4.41203	-3.33858
6071.019	6.04350	-0.96811	4.37512	-3.22796
6075.019	6.08463	-0.92056	4.38677	-3.20559
6079.014	6.40695	-0.90049	4.44460	-3.31589
6083.018	6.63416	-0.87560	4.46635	-3.27698
6087.015	6.83881	-0.80545	4.41405	-3.29025
6091.014	6.93687	-0.66589	4.24752	-3.32743
6095.016	6.29945	-0.66119	4.21674	-3.45047
6099.013	6.43738	-0.55793	4.17053	-3.48561
6103.012	6.50315	-0.46212	4.09327	-3.50237
6107.046	6.30708	-0.46596	4.03310	-3.45729
6111.015	6.32645	-0.48473	3.95604	-3.48007
6115.012	6.12951	-0.47068	3.94125	-3.45106
6119.010	6.16255	-0.45487	3.99558	-3.39545
6123.018	6.10546	-0.41198	3.93860	-3.40072
6127.012	6.05813	-0.49966	3.90521	-3.17642
6131.011	5.99294	-0.51163	3.90750	-3.09643
6135.010	5.98383	-0.61787	3.95130	-3.13621
6139.014	6.00543	-0.65012	3.97066	-3.07481
6143.015	5.94241	-0.65699	3.92388	-3.03805
6147.015	5.93485	-0.73731	3.83999	-3.00072
6151.029	5.97069	-0.68871	3.82148	-3.09741
6155.011	5.96554	-0.69227	3.85785	-3.08227
6159.019	5.98312	-0.63593	3.85138	-3.11900
6163.012	5.98854	-0.62276	3.84597	-3.13376
6167.015	6.01292	-0.62280	3.82951	-3.13678
6171.017	6.05123	-0.60368	3.82926	-3.14333
6175.011	6.05226	-0.60699	3.86511	-3.21182
6179.015	6.06490	-0.56189	3.88955	-3.20110
6183.016	6.09035	-0.50758	3.89160	-3.13215
6187.012	6.13988	-0.52038	3.93779	-3.08633
6191.010	6.13544	-0.46967	4.04258	-3.07059
6195.010	6.05089	-0.46954	3.96353	-3.05566
6199.016	5.65145	-0.46985	3.70880	-3.18968
6203.009	3.16023	0.09781	1.60387	-2.75240
6207.016	0.35171	0.73431	-0.72923	-2.63834
6211.021	-0.91522	0.63621	-1.85653	-2.55625
6215.012	-1.79457	0.72709	-4.24633	-0.89928
6219.015	-3.64536	0.79148	-5.16255	-1.98964
6223.009	-4.30423	0.91422	-5.60934	-1.32053
6227.014	-5.30193	1.09197	-7.64513	-0.83496
6231.011	-7.78311	1.50897	-9.16760	-0.45027
6235.014	-7.98681	2.26147	-9.66670	-0.39385
6239.009	-7.89715	2.96021	-10.11654	0.06759
6243.014	-7.55891	2.93951	-9.68828	0.19265
6247.018	-7.31054	3.16465	-9.20497	0.32758
6251.009	-7.18020	2.93531	-8.49670	0.24335
6255.013	-7.42283	3.07629	-8.52450	0.32278
6259.011	-7.65619	3.12225	-9.09372	0.35718
6263.009	-7.70007	3.22744	-9.01000	0.38207
6267.015	-7.62487	3.25274	-9.11070	0.47419
6271.009	-7.66429	3.31314	-9.25042	0.55128
6275.014	-7.63150	3.37431	-9.26988	0.51979
6279.008	-7.63494	3.42119	-9.26694	0.48408
6283.010	-7.59556	3.39227	-9.16847	0.28422
6287.013	-7.66958	3.42584	-9.19858	0.30681
6291.018	-7.79958	3.37143	-9.17873	0.35228
6295.016	-7.85697	3.40197	-9.27900	0.34875
6299.014	-7.87299	3.38251	-9.35713	0.56768
6303.031	-7.87920	3.33095	-9.49385	0.69930
6307.016	-7.86866	3.35544	-9.66904	0.84716
6311.015	-7.88122	3.32897	-9.71090	0.90355
6315.036	-7.89376	3.28567	-9.71727	0.89183
6319.012	-7.91370	3.23723	-9.76478	0.95653
6323.006	-7.91684	3.21731	-9.74150	1.07409
6327.013	-8.01370	3.21895	-9.77156	1.05008
6331.015	-8.02175	3.18852	-9.84344	1.08930
6335.012	-7.96488	3.21742	-9.87264	1.09288
6339.012	-7.96212	3.31534	-9.90289	1.10758
6343.010	-7.81556	3.48647	-9.95945	1.09496
6347.011	-7.71735	3.60275	-9.91476	1.06426
6351.005	-7.80830	3.69821	-9.87907	1.06329
6355.010	-7.81766	3.75853	-9.76548	1.20522
6359.010	-7.78138	3.56914	-9.71066	1.08102
6363.007	-7.78014	3.59110	-9.61322	0.95983
6367.012	-7.86834	3.59902	-9.43513	0.83458
6371.018	-7.73402	3.38835	-9.44641	0.77128
6375.012	-7.72412	3.48075	-9.39779	0.52871
6379.036	-7.62977	3.73815	-9.38303	0.80039
6383.013	-7.61887	3.82000	-9.27208	0.90331
6387.007	-7.67921	3.69816	-9.26628	1.00900
6391.008	-7.74852	3.65057	-9.23773	0.87363
6395.012	-7.70660	3.47155	-9.35152	0.98321
6399.009	-7.61760	3.46685	-9.69388	0.84531
6403.010	-7.70531	3.36094	-9.97322	0.87584
6407.011	-7.76981	3.38381	-9.14278	0.88907
6411.006	-7.78969	3.34828	-9.11907	0.96389
6415.014	-7.69917	3.03111	-9.26921	0.90935
6419.012	-7.71455	3.13253	-9.48427	0.97536
6423.011	-7.74108	3.03518	-9.39177	0.91133
6426.880	-7.72183	2.92037	-9.51056	0.78527
6431.028	-7.81897	2.85192	-9.75878	0.72169
6434.883	-7.68781	2.66869	-9.73402	0.82452
6438.888	-7.70887	2.60958	-9.44605	0.94388
6442.887	-7.79534	2.53696	-9.40545	1.05153
6446.881	-7.77673	2.47038	-9.38583	1.00135
6450.886	-7.82294	2.50475	-9.46846	0.90966
6454.889	-7.88071	2.47902	-9.48970	0.87547
6458.885	-7.74082	2.54092	-9.57249	0.87923
6462.887	-7.67652	2.49862	-9.60162	0.75863
6466.883	-7.70960	2.48626	-9.65710	0.75547
6470.880	-7.68701	2.51060	-9.51211	0.97349
6474.920	-7.74593	2.53237	-9.52893	0.97290
6478.889	-7.76167	2.52945	-9.42733	1.19425
6482.881	-7.75256	2.52618	-9.43634	1.16665
6486.887	-7.76574	2.50819	-9.48355	1.23793
6490.882	-7.76416	2.56968	-9.49344	1.29855
6494.885	-7.72880	2.50902	-9.48900	1.18223
6498.887	-7.75758	2.45265	-9.54870	1.17154
6502.887	-7.73177	2.46796	-9.54377	1.04082
6506.885	-7.74878	2.46000	-9.57978	1.11955
6510.879	-7.76143	2.47347	-9.66301	1.13502
6514.884	-7.76806	2.47731	-9.67290	0.90546
6518.882	-7.71818	2.60058	-9.74627	0.96400
6522.885	-7.72909	2.70838	-9.69942	1.11607
6526.886	-7.73572	2.80233	-9.69465	1.05828
6530.882	-7.66336	2.81184	-9.56260	1.08289
6534.883	-7.66090	2.85957	-9.48917	1.06230
6538.909	-7.58985	3.01307	-9.40279	1.03333
6542.882	-7.59078	3.04136	-9.39214	1.04165
6546.892	-7.56418	3.05098	-9.35740	1.04587
6550.881	-7.54469	3.12006	-9.28741	1.08207
6554.876	-7.54059	3.14522	-9.19505	1.05040
6558.882	-7.51725	3.14070	-9.17788	1.04167
6562.878	-7.50673	3.13316	-9.14452	1.04265
6566.877	-7.50154	3.11875	-9.12505	1.05897
6570.884	-7.51637	3.16399	-9.17118	1.43006
6574.892	-7.61524	3.44252	-9.05427	1.62435
6578.887	-8.00418	4.84460	-9.12319	3.52331
6582.878	-7.92366	5.49925	-9.21889	4.11734
6586.888	-8.30267	6.10149	-9.22893	4.47365
6590.880	-8.40412	6.12174	-9.32709	4.26775
6594.883	-8.55265	6.05554	-9.28835	4.15761
6598.878	-8.64609	5.96717	-9.16027	3.78198
6602.883	-8.66557	5.95731	-9.32497	3.78308
6606.880	-8.70779	6.00456	-9.35653	3.75644
6610.883	-8.73739	6.05755	-9.65611	3.63682
6614.878	-8.76845	6.11018	-9.74306	3.64669
6618.885	-8.74707	6.16144	-9.83002	3.80336
6622.882	-8.67364	6.20132	-10.22904	3.93927
6626.885	-8.63670	6.25354	-9.92976	3.96355
6630.888	-8.62074	6.23319	-10.05069	3.87059
6634.881	-8.57180	6.23734	-10.25201	3.89622
6638.882	-8.54311	6.29008	-10.07028	3.92169
6642.878	-8.46997	6.32425	-10.15381	4.01641
6646.875	-8.44720	6.31884	-10.13530	4.07499
6650.880	-8.44268	6.33598	-10.09578	4.17065
6654.879	-8.43826	6.34919	-10.13222	4.28586
6658.883	-8.35865	6.29552	-9.98141	4.40202
6662.878	-8.38663	6.17596	-10.09532	4.47732
6666.882	-8.38692	6.07886	-9.97414	4.42148
6670.881	-8.40735	6.06540	-9.92155	4.51810
6674.885	-8.38199	5.99212	-9.86262	4.13466
6678.924	-8.34320	5.85497	-9.84248	3.96314
6682.890	-8.26651	5.82159	-9.90332	4.15470
6686.884	-8.20906	5.79624	-9.82987	4.11283
6690.881	-8.22642	5.74177	-9.83881	4.05041
6694.876	-8.09311	5.70010	-9.86584	3.96517
6698.883	-8.04302	5.68645	-9.89352	4.09757
6702.878	-8.02959	5.69353	-9.89607	3.79707
6706.880	-8.01538	5.72623	-9.88629	3.69500
6710.885	-7.95801	5.68561	-9.31786	3.72096
6714.879	-7.91555	5.63206	-9.18543	3.63740
6718.883	-7.93213	5.59800	-9.44126	3.61475
6722.878	-8.10805	5.59613	-9.50747	3.74663
6726.882	-8.20807	5.53941	-9.69279	3.72815
6730.873	-8.33476	5.51192	-9.46421	3.77365
6734.883	-8.40385	5.46277	-9.50689	3.82062
6738.877	-8.40048	5.46812	-8.76530	3.74256
6742.883	-8.51180	5.41577	-9.31680	3.71587
6746.920	-8.57178	5.40300	-9.15301	3.77761
6750.891	-8.66118	5.39537	-9.25507	3.80688
6754.901	-8.73519	5.41206	-9.26708	3.85197
6758.880	-8.73715	5.45905	-9.46887	3.84900
6762.876	-8.74438	5.49701	-9.53562	3.81266
6766.878	-8.71026	5.52691	-9.57664	3.72840
6770.876	-8.75795	5.58718	-9.43474	3.56171
6774.873	-8.75000	5.61026	-9.47995	3.42220
6778.874	-8.77623	5.62816	-9.47613	3.34913
6782.878	-8.78079	5.67118	-9.48287	3.42933
6786.876	-8.77364	5.69877	-9.38668	3.47044
6790.874	-8.80810	5.73308	-9.35901	3.74189
6794.888	-8.85228	5.75085	-9.41690	3.89121
6798.879	-8.78590	5.78409	-9.43141	3.91716
6802.875	-8.69089	5.78127	-9.38146	3.77341
6806.882	-8.57918	5.79041	-9.39049	3.81869
6810.876	-8.64990	5.81460	-9.35860	3.70700
6814.879	-8.64029	5.82122	-9.43226	4.00376
6818.874	-8.63190	5.82621	-9.47039	4.04034
6822.875	-8.57046	5.83374	-9.44530	4.08463
6826.878	-8.55129	5.80443	-9.53586	4.12975
6830.875	-8.51930	5.77091	-9.64253	4.19167
6834.879	-8.48207	5.73040	-9.70487	4.14843
6838.878	-8.45274	5.76171	-9.75755	4.10883
6842.879	-8.49755	5.77515	-9.85881	4.01954
6846.873	-8.47706	5.72120	-9.95757	4.08679
6850.879	-8.55826	5.73688	-10.08099	4.12667
6854.892	-8.59757	5.71940	-10.15925	4.12793
6858.879	-8.53557	5.65069	-10.35106	4.09372
6862.875	-8.55957	5.61948	-10.36571	4.09239
6866.877	-8.63726	5.61337	-10.43584	4.08612
6870.871	-8.35199	5.57943	-10.17767	3.96692
6874.880	-6.30276	5.48387	-7.08522	2.54446
6878.881	-3.99818	5.10823	-6.03142	2.01186
6882.916	-2.85942	3.62005	-2.81823	-0.34146
6886.882	-0.59414	1.55653	-1.33899	-1.00564
6890.873	0.97539	0.22013	-0.78471	-1.61228
6894.878	1.65173	-0.03117	0.54696	-3.62703
6898.871	3.66182	-0.53112	2.06019	-3.32254
6902.879	5.43076	-0.65859	2.61823	-4.03876
6906.874	5.50830	-0.66478	3.20065	-4.21395
6910.878	5.87381	-0.55850	3.13712	-4.00587
6914.870	5.45447	-0.50922	3.11406	-4.00376
6918.884	5.33696	-0.69698	2.92923	-4.05487
6922.876	5.24132	-0.92584	2.96849	-4.07196
6926.874	5.11927	-1.48524	3.09797	-4.05984
6930.886	5.56399	-1.36053	3.16166	-3.93516
6934.880	5.46549	-0.78579	3.36114	-4.10764
6938.870	5.31418	-1.08472	3.21090	-4.19809
6942.879	5.32058	-1.33004	3.37940	-4.16264
6946.874	5.33342	-1.30059	3.39008	-4.13715
6950.909	5.07919	-1.23115	3.27865	-4.09626
6954.899	5.39419	-1.50678	3.24922	-4.06994
6958.883	5.57267	-1.29298	3.20511	-4.10810
6962.878	5.41327	-1.26195	3.33374	-4.05476
6966.876	5.41610	-1.22473	3.25219	-4.10090
6970.868	5.59442	-1.12231	3.30935	-3.98601
6974.877	5.43012	-1.16221	3.33891	-4.06888
6978.872	5.78524	-1.14277	3.42886	-3.99747
6982.876	5.48373	-1.02888	3.33807	-3.96891
6986.868	5.51607	-1.36924	3.32966	-3.98198
6990.890	5.80521	-1.06442	3.31497	-3.92407
6994.878	5.45213	-1.15972	3.45321	-3.98863
6998.878	5.56323	-1.23703	3.48239	-4.01694
7002.875	5.80455	-0.92832	3.55881	-4.01819
7006.875	5.25884	-1.07901	3.64770	-3.99231
7010.873	5.73062	-1.15588	3.68569	-3.95562
7014.871	5.95908	-0.80182	3.77263	-3.92107
7018.870	5.21196	-1.36589	3.70240	-3.76540
7022.874	5.65437	-0.76230	3.65863	-3.78844
7026.876	5.58498	0.45462	3.69108	-3.26738
7030.868	1.86464	-0.20122	-0.24284	-3.75632
7034.877	2.81110	0.01899	-0.93066	-3.98869
7038.872	4.12127	9.58385	9.89260	-3.49086
7042.880	NaN	NaN	NaN	NaN
7046.869	NaN	NaN	NaN	NaN
7050.876	NaN	NaN	NaN	NaN
7054.873	NaN	NaN	NaN	NaN
7058.876	NaN	NaN	NaN	NaN
7062.873	NaN	NaN	NaN	NaN
7067.036	NaN	NaN	NaN	NaN
7070.879	NaN	NaN	NaN	NaN
7074.874	NaN	NaN	NaN	NaN
7079.015	NaN	NaN	NaN	NaN
7082.940	NaN	NaN	NaN	NaN
7087.741	NaN	NaN	NaN	NaN
7091.651	NaN	NaN	NaN	NaN
7095.695	NaN	NaN	NaN	NaN
7099.754	NaN	NaN	NaN	NaN
7103.711	NaN	NaN	NaN	NaN
7107.760	NaN	NaN	NaN	NaN
7111.786	NaN	NaN	NaN	NaN
7115.856	NaN	NaN	NaN	NaN
7119.990	NaN	NaN	NaN	NaN
7123.851	NaN	NaN	NaN	NaN
7127.945	NaN	NaN	NaN	NaN
7131.944	NaN	NaN	NaN	NaN
7135.776	NaN	NaN	NaN	NaN
7139.366	NaN	NaN	NaN	NaN
7143.320	NaN	NaN	NaN	NaN
7146.879	NaN	NaN	NaN	NaN
7150.934	NaN	NaN	NaN	NaN
7155.344	NaN	NaN	NaN	NaN
7158.885	NaN	NaN	NaN	NaN
7162.870	NaN	NaN	NaN	NaN
7166.879	NaN	NaN	NaN	NaN
7170.877	NaN	NaN	NaN	NaN
7174.897	-13.72432	-0.02308	NaN	NaN
7178.880	NaN	NaN	-1.63172	-5.55392
7182.874	NaN	NaN	-4.45385	-2.09708
7186.868	NaN	NaN	-2.97552	-4.46678
7190.868	NaN	NaN	0.80848	-2.42756
7194.867	-8.45575	-0.21728	-2.07370	-3.47254
7198.872	-7.21491	-0.68809	-2.95938	-2.67803
7202.872	1.69877	0.18092	-3.35869	-2.61571
7206.864	1.01948	0.44671	-2.70480	-2.65789
7210.878	0.70605	-0.09223	-2.39973	-2.29265
7214.870	0.28344	0.01672	-2.44957	-2.33299
7218.872	-0.51401	0.42196	-2.85116	-2.09964
7222.870	-0.41055	0.37635	-3.18183	-2.22637
7226.869	-0.38412	0.48203	-5.25810	-2.21290
7230.866	-0.75146	0.60287	-3.80965	-1.99451
7234.874	-1.41477	0.73202	-3.40942	-1.99534
7238.868	-2.11631	0.73854	-3.27766	-2.00708
7242.872	-2.72199	0.69324	-3.73618	-1.98150
7246.871	-2.52302	0.66233	-4.08367	-1.92179
7250.873	-1.61798	0.68046	-3.34089	-1.89860
7254.868	-2.72545	0.71637	-3.79070	-1.81417
7258.873	-2.40102	0.66909	-3.48847	-1.90742
7262.868	-2.47516	0.68995	-3.54897	-1.85983
7266.869	-2.24919	0.69806	-3.64298	-1.92880
7270.869	-2.37595	0.60823	-3.52549	-1.87197
7274.868	-2.03690	0.57391	-3.48892	-1.90269
7278.869	-2.33306	0.52543	-3.41825	-1.89396
7282.748	-2.18580	0.53678	-3.58912	-1.87813
7286.739	-2.12580	0.44580	-3.45539	-1.98162
7290.916	-2.00770	0.43712	-3.36639	-1.99639
7294.746	-2.05876	0.29315	-3.38803	-2.08185
7298.748	-1.99699	0.32942	-3.34351	-1.88994
7302.743	-1.93958	0.37190	-3.44901	-2.02221
7306.752	-2.03184	0.28690	-3.38951	-2.04961
7310.745	-1.96511	0.29521	-3.41733	-1.98569
7314.743	-1.84706	0.29192	-3.47601	-2.08282
7318.741	-1.90743	0.33679	-3.47918	-2.15890
7322.746	-1.95658	0.26729	-3.43843	-2.18203
7326.738	-1.84106	0.26888	-3.44258	-2.17486
7330.747	-1.82683	0.27675	-3.43516	-2.15524
7334.742	-1.81391	0.30000	-3.51916	-2.17840
7338.752	-1.96635	0.36459	-3.50425	-2.09338
7342.746	-1.86660	0.40276	-3.47057	-2.06477
7346.746	-1.81860	0.34575	-3.47398	-2.09464
7350.743	-1.85413	0.38011	-3.46644	-2.14826
7354.739	-1.91876	0.37131	-3.40193	-2.16980
7358.774	-1.99825	0.35482	-3.42188	-2.09716
7362.745	-1.87753	0.34678	-3.40818	-2.14269
7366.738	-1.86491	0.21791	-3.49137	-2.19036
7370.760	-1.98524	0.34244	-3.48207	-2.22062
7374.748	-2.01828	0.33751	-3.48687	-2.18715
7378.740	-2.04168	0.36040	-3.47408	-2.10995
7382.752	-1.97964	0.28711	-3.54062	-2.15641
7386.765	-1.97989	0.21449	-3.48711	-2.24730
7390.745	-1.96427	0.21266	-3.46118	-2.20687
7394.736	-1.91578	0.24396	-3.46392	-2.24867
7398.744	-2.00604	0.29895	-3.52487	-2.19830
7402.741	-1.79031	0.20361	-3.47730	-2.25059
7406.744	-2.05962	0.17391	-3.57718	-2.16254
7410.735	-2.08939	0.23189	-3.50192	-2.17247
7414.743	-1.95336	0.17543	-3.48894	-2.19096
7418.740	-1.97299	0.11548	-3.48687	-2.22375
7422.748	-1.91895	0.11243	-3.47554	-2.33120
7426.993	-1.83638	0.13151	-3.45178	-2.26527
7430.755	-2.03315	0.12109	-3.47735	-2.31701
7434.747	-1.95319	0.09770	-3.48039	-2.31010
7438.736	-2.07789	0.11731	-3.47089	-2.39099
7442.744	-2.08434	0.17336	-3.49003	-2.36482
7446.740	-2.05402	0.16204	-3.54467	-2.42725
7450.744	-1.89932	0.16349	-3.46417	-2.47643
7454.740	-1.93008	0.22992	-3.45784	-2.36837
7458.741	-2.20285	0.24500	-3.46807	-2.41994
7462.738	-1.96065	0.30320	-3.45072	-2.33612
7466.743	-1.91491	0.23506	-3.49470	-2.19545
7470.744	-2.08015	0.32250	-3.46627	-2.42005
7474.741	-2.09980	0.29739	-3.49189	-2.21121
7478.743	-2.06423	0.29755	-3.48946	-2.23912
7482.738	-2.07244	0.27952	-3.47159	-2.24276
7486.744	-2.08895	0.27492	-3.47670	-2.14286
7490.741	-1.98036	0.27208	-3.41080	-2.19777
7494.773	-1.57069	0.29055	-3.24066	-2.07182
7498.744	0.70536	0.23118	-2.14235	-2.13710
7502.742	2.07291	0.00127	0.78091	-2.43958
7506.739	4.71314	-0.50970	3.43887	-3.51842
7510.744	6.23866	-1.76588	5.13538	-4.50841
7514.739	7.70709	-2.44714	7.00707	-5.51560
7518.743	8.70182	-3.44240	7.60683	-7.37710
7522.735	9.86466	-5.00134	9.79751	-8.09677
7526.743	10.91253	-5.65506	10.83307	-8.85606
7530.738	13.39515	-6.19922	12.68271	-9.08270
7534.742	14.25711	-5.81488	14.07179	-9.39917
7538.734	15.70399	-5.06905	14.52726	-9.44602
7542.743	15.76511	-4.95469	14.66008	-9.07285
7546.742	15.14308	-5.16028	14.68784	-9.08730
7550.742	13.90204	-5.34728	14.58373	-9.27008
7554.749	13.95858	-5.56650	14.33506	-9.32612
7558.739	14.51195	-5.79063	14.30240	-9.25175
7562.751	14.61281	-5.77510	14.54779	-9.25927
7566.738	15.15119	-6.08651	14.56913	-9.34360
7570.744	15.25196	-5.97786	14.53767	-9.25397
7574.738	14.96418	-6.06288	14.43459	-9.26818
7578.743	14.94694	-5.91419	14.59314	-9.21747
7582.734	15.10441	-6.04578	14.22141	-9.25962
7586.743	14.90579	-5.94603	14.21896	-9.28414
7590.743	15.09837	-5.94852	14.22666	-9.26145
7594.742	15.01700	-5.94805	14.13311	-9.14689
7598.733	14.90556	-5.94891	14.10499	-9.02644
7602.743	15.10145	-5.95102	14.11374	-9.08003
7606.738	15.12899	-5.87262	14.11012	-9.03496
7610.742	15.08511	-5.97545	14.07627	-9.00943
7614.772	15.12261	-5.98164	14.05138	-8.87702
7618.751	15.05573	-5.95980	13.99907	-8.88056
7622.741	15.04781	-5.90781	14.02115	-8.86351
7626.736	14.99970	-5.94352	14.02354	-8.83326
7630.745	15.03337	-5.87245	14.00326	-8.73626
7634.740	14.98002	-5.98680	13.97830	-8.73071
7638.736	14.89031	-5.98719	14.01938	-8.70696
7642.735	14.95753	-6.02311	13.95682	-8.71420
7646.739	14.96849	-5.93666	14.00064	-8.68467
7650.739	14.87974	-5.96758	13.94850	-8.67084
7654.733	14.88697	-5.99056	13.90317	-8.64875
7658.741	14.87754	-5.95942	13.96360	-8.71675
7662.735	14.86671	-5.84368	13.93195	-8.70171
7666.739	14.81126	-6.01522	13.89692	-8.76047
7670.732	14.82827	-5.99544	13.87564	-8.76409
7674.739	14.75971	-6.03220	13.87477	-8.81494
7678.758	14.83654	-5.88107	13.82759	-8.86542
7682.742	14.86641	-6.03538	13.86663	-8.81668
7686.740	14.90955	-5.92388	13.90899	-8.79540
7690.737	14.86546	-6.08920	13.79075	-8.83091
7694.736	14.77707	-6.16303	13.79978	-8.80324
7698.749	14.79141	-6.09766	13.73404	-8.81834
7702.738	14.70532	-6.14886	13.70884	-8.75415
7706.734	14.81869	-6.08605	13.65174	-8.71128
7710.735	14.62954	-6.11827	13.67522	-8.62892
7714.742	14.79614	-5.98821	13.65603	-8.58880
7718.738	14.77846	-6.01289	13.71479	-8.52488
7722.735	14.75590	-6.00310	13.65172	-8.50659
7726.734	14.82270	-5.90243	13.66503	-8.50786
7730.735	14.80904	-5.88505	13.64935	-8.50910
7734.738	14.97590	-5.84026	13.69047	-8.51883
7738.735	15.03890	-5.81363	13.73034	-8.54737
7742.753	14.99104	-5.76879	13.80046	-8.56936
7746.739	14.91147	-5.76483	13.86897	-8.53883
7750.736	15.02351	-5.80996	13.86932	-8.51064
7754.742	15.04452	-5.84559	13.89180	-8.52266
7758.744	15.11863	-5.90358	13.86724	-8.48249
7762.735	15.11144	-5.93055	13.86544	-8.48006
7766.763	15.12802	-5.97985	13.85805	-8.36032
7770.739	15.10096	-5.97392	13.83961	-8.36121
7774.734	15.04390	-6.02938	13.76554	-8.45927
7778.737	15.06309	-6.07260	13.83938	-8.38942
7782.739	15.10103	-6.01202	13.81902	-8.35504
7786.735	15.07301	-6.07410	13.66194	-8.31582
7790.734	15.07486	-6.19424	13.62418	-8.26187
7794.736	15.09347	-6.22014	13.66004	-8.22236
7798.743	15.14444	-6.18222	13.62277	-8.18624
7802.742	15.04006	-6.19889	13.58681	-8.16991
7806.770	15.01334	-6.09354	13.46770	-8.22342
7810.744	15.14315	-5.97399	13.56359	-8.23873
7814.734	15.22837	-5.97933	13.62177	-8.27612
7818.730	15.10656	-6.00349	13.36528	-8.15404
7822.740	15.13487	-6.18276	13.45876	-8.11551
7826.735	15.17739	-6.20705	13.44165	-8.05174
7830.738	15.17480	-6.22770	13.40889	-8.02531
7834.796	15.19422	-6.21398	13.45712	-7.97411
7838.743	14.89965	-6.12167	13.39924	-7.98004
7842.731	14.96916	-6.07710	13.37244	-8.01378
7846.733	14.96346	-5.99818	13.40861	-8.06108
7850.737	15.14238	-6.10341	13.32306	-8.04185
7854.732	15.05094	-6.12611	13.35254	-7.97135
7858.738	15.10159	-6.08465	13.28712	-7.94636
7862.732	15.18238	-6.08837	13.29899	-7.92634
7866.739	15.20723	-6.14337	13.30266	-7.90138
7870.738	15.10027	-6.21181	13.30623	-7.84947
7874.732	15.07354	-6.27944	13.27313	-7.81820
7878.735	15.17917	-6.43851	13.25602	-7.79246
7882.732	15.12035	-6.57515	13.22354	-7.74376
7886.774	15.18303	-6.55845	13.20348	-7.69486
7890.742	15.25311	-6.53127	13.16998	-7.64575
7894.732	15.24256	-6.58775	13.16299	-7.59672
7898.731	15.23657	-6.70472	13.17242	-7.56982
7902.731	15.26381	-6.66564	13.17263	-7.53594
7906.739	15.19130	-6.64016	13.17847	-7.50803
7910.734	15.12603	-6.57230	13.12651	-7.48313
7914.736	15.14407	-6.53311	13.14393	-7.45722
7918.727	15.18197	-6.47721	13.17061	-7.46056
7922.741	15.13122	-6.49514	13.17753	-7.47036
7926.732	15.00424	-6.48301	13.17273	-7.48399
7930.761	15.06107	-6.35962	13.13875	-7.53542
7934.740	15.00758	-6.28583	13.20545	-7.58510
7938.733	15.02793	-6.22090	13.28096	-7.57586
7942.731	15.05436	-6.17315	13.24849	-7.58356
7946.731	15.04645	-6.05326	13.21105	-7.57418
7950.734	15.04346	-6.02085	13.19701	-7.63325
7954.735	15.16680	-6.06890	13.20971	-7.61501
7958.735	15.16675	-6.06287	13.21425	-7.62476
7962.735	15.19301	-5.94432	13.21122	-7.59550
7966.740	15.12428	-6.00959	13.23485	-7.61673
7970.733	15.16708	-5.93361	13.28058	-7.61733
7974.731	15.16248	-5.85226	13.33725	-7.64374
7978.742	15.28157	-5.85405	13.34834	-7.61687
7982.736	15.27333	-5.69755	13.29807	-7.64249
7986.735	15.23835	-5.75079	13.19647	-7.61836
7990.737	15.26972	-5.92993	13.30113	-7.62591
7994.733	15.20709	-5.89377	13.38698	-7.61737
7998.732	15.10938	-5.83717	13.37961	-7.61366
8002.731	15.09451	-5.80662	13.40058	-7.63057
8006.736	14.99908	-5.99138	13.32106	-7.65802
8010.735	15.16849	-5.92116	13.26963	-7.65241
8014.731	15.21250	-5.75633	13.17859	-7.56785
8018.731	15.00478	-5.18312	13.05543	-7.42619
8022.732	14.95843	-4.33975	12.48133	-5.98007
8026.733	14.98864	-0.67654	13.21456	-4.05114
8030.732	15.08585	1.09617	11.87149	-2.49490
8034.749	15.08581	1.75857	11.53131	-1.54475
8038.728	15.09659	3.51457	11.47689	0.21488
8042.732	15.10506	3.69666	11.54347	0.73308
8046.737	15.68877	4.21717	11.88016	1.57767
8050.730	16.10186	4.95298	12.61462	1.77574
8054.747	16.22986	5.32585	12.77537	1.78339
8058.732	16.09185	5.44347	12.64874	1.79258
8062.734	15.89152	5.40709	12.43189	1.53291
8066.729	16.02133	4.93642	12.26685	1.38481
8070.733	15.74327	5.13548	11.95263	1.50923
8074.729	16.01415	5.07026	12.08883	1.68396
8078.730	15.91766	5.05144	12.06532	1.78248
8082.729	15.96771	5.11608	12.16856	1.89358
8086.729	16.08032	5.19506	12.17492	2.04195
8090.734	16.04874	5.23515	12.20684	2.12160
8094.731	16.04145	5.27939	12.16930	2.20143
8098.729	15.99012	5.31633	12.13356	2.23736
8102.724	15.96964	5.28893	12.22383	2.26340
8106.731	15.98837	5.22249	12.13621	2.24040
8110.728	15.99156	5.28795	12.17641	2.28369
8114.730	16.03928	5.35230	12.32997	2.31976
8118.731	16.05065	5.42279	12.31563	2.33552
8122.745	16.07714	5.45833	12.37506	2.34442
8126.735	16.20096	5.47175	12.43483	2.36377
8130.739	16.15843	5.47339	12.48958	2.34118
8134.724	16.19592	5.48212	12.55346	2.33825
8138.611	16.22126	5.46790	12.59389	2.33154
8142.603	16.25159	5.38547	12.63530	2.35907
8146.733	16.29472	5.33521	12.63050	2.35413
8150.607	16.35776	5.32270	12.66925	2.38183
8154.616	16.35340	5.27204	12.68949	2.36968
8158.605	16.36496	5.22662	12.67419	2.38062
8162.603	16.34462	5.20597	12.66486	2.34973
8166.604	16.39317	5.15628	12.69589	2.40987
8170.605	16.44382	5.13693	12.69311	2.36616
8174.608	16.47290	5.15481	12.69871	2.37894
8178.611	16.53441	5.10039	12.70232	2.37225
8182.607	16.53600	5.10496	12.73588	2.33700
8186.604	16.57580	5.11206	12.76978	2.29950
8190.602	16.61710	5.12158	12.81939	2.27459
8194.608	16.65398	5.17656	12.84833	2.23966
8198.603	16.64927	5.17596	12.95518	2.22502
8202.607	16.64592	5.21484	12.92260	2.15080
8206.598	16.65797	5.24570	13.02865	2.08731
8210.608	16.68254	5.34220	13.08023	2.05125
8214.602	16.65180	5.35768	13.10860	2.01142
8218.607	16.62284	5.44675	13.11399	2.00405
8222.603	16.59542	5.54552	13.09143	1.95838
8226.601	16.61279	5.58189	13.10207	1.84561
8230.605	16.61550	5.59577	13.12218	1.83924
8234.602	16.59793	5.66404	13.09527	1.82005
8238.601	16.53252	5.47474	13.11686	1.80222
8242.658	16.49403	5.54655	13.10132	1.78246
8246.615	16.44939	5.44843	13.10224	1.60383
8250.631	16.44508	5.38622	12.99262	1.50563
8254.600	16.28658	5.31703	12.94634	1.41910
8258.606	16.23951	5.26439	12.72690	1.45708
8262.602	16.18970	5.17252	12.69963	1.38783
8266.606	16.19213	5.12272	12.71467	1.33394
8270.597	16.04900	5.08553	12.67005	1.36609
8274.605	16.00184	5.04260	12.60888	1.35498
8278.600	15.95309	4.99415	12.52390	1.35921
8282.605	15.97805	4.99327	12.56250	1.37876
8286.596	15.98005	4.97558	12.43857	1.47252
8290.605	15.98443	4.98685	12.37858	1.76614
8294.600	16.01713	4.95468	12.40950	1.76273
8298.604	16.09616	4.95116	12.36381	1.85103
8302.609	16.22071	4.93534	12.44392	1.83376
8306.603	16.24416	4.97399	12.45083	1.83129
8310.603	16.21574	5.00279	12.49410	1.86816
8314.600	16.15335	5.05019	12.51716	1.84844
8318.599	16.15071	5.10364	12.62771	1.95274
8322.602	16.22734	5.13192	12.62303	1.90625
8326.601	16.12078	5.13507	12.72565	1.92306
8330.599	16.18173	5.12548	12.78137	1.77073
8334.600	16.24075	5.20550	12.86739	1.77615
8338.602	16.32693	5.31448	12.86619	1.60840
8342.605	16.59323	5.42042	12.94752	1.75165
8346.603	16.70946	5.50321	13.06892	1.80439
8350.600	16.68036	5.52400	13.21747	1.83921
8354.618	16.77521	5.49534	13.33664	1.82973
8358.602	16.85200	5.54282	13.41307	1.83292
8362.604	16.90386	5.56330	13.35905	1.89651
8366.599	16.88664	5.66142	13.46965	2.01589
8370.602	16.97122	5.69123	13.52956	2.21129
8374.603	16.90018	5.69005	13.52454	2.24752
8378.600	16.98780	5.71485	13.60524	2.32727
8382.602	17.01719	5.70114	13.73111	2.40433
8386.603	16.95574	5.71453	13.73500	2.20667
8390.597	16.92481	5.73902	13.71648	2.26315
8394.599	16.92410	5.77124	13.62720	2.27182
8398.600	16.91079	5.80416	13.58418	2.28456
8402.603	16.86000	5.80527	13.53352	2.30610
8406.597	16.85575	5.89215	13.44592	2.30912
8410.603	16.86264	5.94337	13.37472	2.28716
8414.600	16.85218	5.97244	13.28503	2.20543
8418.604	16.80994	5.99816	13.36159	2.24101
8422.595	16.75081	5.99477	13.27363	2.21652
8426.609	16.77864	5.95695	13.21848	2.17871
8430.601	16.79286	5.95568	13.17889	2.19839
8434.594	16.79031	5.97136	13.13637	2.19374
8438.604	16.78023	5.93802	13.12069	2.24103
8442.598	16.74399	5.95334	13.11808	2.27858
8446.604	16.79934	5.91074	13.11189	2.29915
8450.604	16.86175	5.93582	13.10370	2.23625
8454.617	16.82051	5.86753	13.14757	2.27086
8458.599	16.86394	5.81727	13.16416	2.26006
8462.604	16.92331	5.85284	13.15244	2.23306
8466.597	16.95467	5.82030	13.12896	2.24637
8470.610	16.97304	5.85375	13.13428	2.24588
8474.614	16.94598	5.86900	13.11643	2.23877
8478.601	16.96861	5.86044	13.11196	2.28335
8482.596	16.99127	5.82061	13.09235	2.25380
8486.614	17.02980	5.82222	13.01569	2.23487
8490.595	17.05265	5.85196	13.06694	2.20391
8494.600	17.03486	5.82505	13.08703	2.27067
8498.604	17.05038	5.83009	13.05230	2.29869
8502.593	17.04818	5.84203	13.10231	2.33442
8506.601	17.04199	5.84639	13.15176	2.32999
8510.601	17.04308	5.84417	13.24663	2.32095
8514.600	17.01170	5.80020	13.25359	2.29635
8518.598	16.98657	5.77140	13.37200	2.41976
8522.597	16.97860	5.76981	13.46726	2.41996
8526.596	16.94743	5.79377	13.44507	2.42477
8530.596	16.87832	5.77126	13.48512	2.50584
8534.595	16.79877	5.77179	13.54485	2.57050
8538.595	16.75207	5.73871	13.54187	2.36699
8542.612	16.75582	5.71924	13.55144	2.40374
8546.600	16.73393	5.74503	13.56331	2.45797
8550.606	16.70641	5.71117	13.57473	2.26084
8554.603	16.67744	5.73474	13.52520	2.31638
8558.602	16.53229	5.79965	13.47629	2.63777
8562.595	15.26781	5.89386	11.27503	3.08430
8566.600	12.88621	6.10819	10.17954	3.43694
8570.592	11.93524	6.67963	7.99710	4.06423
8574.599	11.65944	6.66177	7.82511	4.69684
8578.595	11.80657	6.63692	7.91300	4.53634
8582.598	12.18241	6.51279	8.71303	4.39473
8586.595	12.58666	6.50011	8.79288	4.20611
8590.599	12.60349	6.55441	9.83995	4.42886
8594.596	12.66885	6.63342	9.53591	4.36535
8598.605	12.21122	6.73943	9.52012	4.53147
8602.595	12.49100	6.84559	9.56813	4.56976
8606.599	12.38599	6.90441	9.13961	4.46490
8610.590	12.53251	6.88438	9.16625	4.40985
8614.601	12.52736	6.92244	8.97264	4.32310
8618.612	12.47745	6.88340	9.05008	4.24109
8622.599	12.48379	6.93242	8.86808	4.01253
8626.600	12.41757	6.96408	8.92929	3.99889
8630.596	12.32660	6.95196	8.91338	3.89792
8634.604	12.19714	6.97758	8.86890	3.83504
8638.593	12.26043	6.96023	8.93861	3.77412
8642.600	12.26349	6.98096	8.88501	3.70871
8646.601	12.28457	6.96675	8.92890	3.70157
8651.099	12.21383	6.89584	8.97043	3.67597
8654.608	12.20646	6.92265	9.03246	3.67060
8658.598	12.16264	6.86161	9.13664	3.65158
8662.600	12.18663	6.82821	9.15171	3.69254
8666.594	12.06534	6.76291	9.25446	3.73829
8670.599	12.08717	6.72112	9.33437	3.77155
8674.591	12.19586	6.70324	9.42605	3.80080
8678.623	12.19270	6.66565	9.52092	3.85494
8682.613	12.18872	6.67860	9.53467	3.90562
8686.632	12.36449	6.65081	9.56134	3.99647
8690.597	12.19726	6.62960	9.56286	4.08786
8694.593	12.35775	6.68441	9.54756	4.03277
8698.597	12.09296	6.70751	9.43361	4.06416
8702.590	12.38723	6.68924	9.40330	4.11664
8706.598	12.06871	6.75544	8.80316	4.11151
8710.593	12.56183	6.81214	8.82482	4.07316
8714.597	12.16968	7.00029	8.91028	4.02766
8718.599	12.44030	7.01213	8.91260	4.04598
8722.597	12.56325	7.06872	8.87757	4.01771
8726.588	12.65973	6.98634	8.93493	3.98075
8730.599	12.36286	6.99073	9.02430	3.91532
8734.593	12.36727	7.03732	9.03011	3.88826
8738.596	12.34124	6.94393	9.29106	3.91312
8742.588	12.46069	6.88422	9.55410	3.95698
8746.610	12.29865	6.79537	9.67355	3.90292
8750.599	12.36191	6.76685	9.36124	3.93457
8754.599	12.42278	6.73147	9.44419	3.89162
8758.600	12.46699	6.68378	9.63903	3.88142
8762.597	12.33717	6.63145	9.60425	3.84729
8766.593	12.45151	6.62876	9.61300	3.82543
8770.592	12.41734	6.65670	9.69096	3.77582
8774.594	12.43544	6.65024	9.56578	3.87746
8778.592	12.49938	6.67850	9.61677	3.89707
8782.592	12.53641	6.72356	9.51730	3.94465
8786.590	12.51799	6.74973	9.44457	4.11700
8790.594	12.54696	6.95583	9.41383	4.08207
8794.596	12.53334	7.05300	9.42076	4.30678
8798.592	12.60077	7.08831	9.45484	4.40435
8802.613	12.63655	7.15744	9.44068	4.40221
8806.593	12.70319	7.21343	9.44752	4.44594
8810.593	12.72985	7.20865	9.45877	4.47042
8814.592	12.61013	7.13967	9.54235	4.52503
8818.594	12.57254	7.13113	9.58731	4.57503
8822.596	12.45717	7.12351	9.59476	4.53228
8826.591	12.32004	6.99799	9.63937	4.52435
8830.596	12.28394	6.96571	9.57377	4.37839
8834.592	12.26958	6.80028	9.45756	4.25996
8838.588	12.24348	6.90676	9.41306	4.17944
8842.596	12.39509	6.88226	9.35848	4.17178
8846.595	12.51652	6.77900	9.14310	4.11412
8850.595	12.40773	6.61909	9.00755	4.13849
8854.642	12.29690	6.53600	8.91432	4.12019
8858.607	12.36371	6.40180	8.88067	4.04081
8862.592	12.34908	6.24182	9.18006	3.83809
8866.595	10.31955	5.95638	8.20000	2.01891
8870.599	8.60211	3.89992	7.19696	1.45086
8874.592	7.80375	1.99506	5.64309	-0.00040
8878.596	7.12205	0.22761	4.92201	-0.66793
8882.587	6.73331	-0.04422	4.19198	-1.43430
8886.601	6.55442	-0.23798	4.22508	-2.56128
8890.593	5.79917	-0.73482	3.27682	-3.22923
8894.595	5.38641	-0.65698	2.64015	-3.35980
8898.588	5.40538	-0.54510	2.76250	-3.03684
8902.591	5.42036	-0.37878	2.77181	-2.68917
8906.594	5.47353	-0.28518	3.00106	-2.61578
8910.591	5.33049	-0.39784	3.01772	-2.78856
8914.623	5.27592	-0.51567	2.96661	-2.82213
8918.592	5.04385	-0.47554	2.86584	-2.75875
8922.588	5.04602	-0.74009	2.89574	-2.76863
8926.596	4.78464	-0.73860	2.78339	-2.79082
8930.607	4.77195	-0.91648	2.76881	-2.79249
8934.593	4.86396	-0.88979	2.72835	-2.75930
8938.588	4.98201	-0.96336	2.79142	-2.71290
8942.585	5.04642	-0.91395	2.82538	-2.74345
8946.594	5.25323	-1.10863	2.83766	-2.75233
8950.589	5.34538	-1.09199	2.80251	-2.80563
8954.601	5.18355	-1.05262	2.73902	-2.83205
8958.595	5.47237	-1.05853	2.72934	-2.86401
8962.589	5.40557	-1.09329	2.67771	-2.94232
8966.600	5.44166	-1.03989	2.60909	-3.07042
8970.593	5.42368	-1.00334	2.50677	-3.15564
8974.592	5.47146	-0.95650	2.49248	-3.13973
8978.584	5.48664	-0.93993	2.41447	-3.16635
8982.593	5.54678	-0.83650	2.42411	-3.21682
8986.590	5.52950	-0.78413	2.36279	-3.22122
8990.469	5.49234	-0.65498	2.36651	-3.23588
8994.465	5.46583	-0.66965	2.36824	-3.25113
8998.462	5.47112	-0.70981	2.39118	-3.25520
9002.463	5.44884	-0.66952	2.41796	-3.24198
9006.465	5.43878	-0.70505	2.46236	-3.21999
9010.464	5.45735	-0.68997	2.59470	-3.17245
9014.463	5.49935	-0.68873	2.67145	-3.10556
9018.469	5.54685	-0.65984	2.76047	-3.10253
9022.463	5.54749	-0.74929	2.83818	-3.06513
9026.467	5.53387	-0.78331	2.92916	-3.07526
9030.459	5.52524	-0.84976	2.98252	-3.03188
9034.469	5.52401	-0.91727	3.06184	-3.03277
9038.463	5.52711	-0.94454	3.16678	-3.02861
9042.467	5.56126	-0.98897	3.22426	-3.06122
9046.458	5.57134	-0.91839	3.16955	-3.10057
9050.468	5.59042	-0.94390	3.21184	-3.10198
9054.475	5.60920	-1.00824	3.21223	-3.11952
9058.475	5.63417	-0.92538	3.18418	-3.15196
9062.463	5.62795	-0.95234	3.17952	-3.15259
9066.465	5.65233	-0.96164	3.18113	-3.16228
9070.466	5.70382	-0.95009	3.16688	-3.14788
9074.464	5.69411	-0.91278	3.12148	-3.15269
9078.462	5.74320	-0.86415	3.10732	-3.03804
9082.463	5.74433	-0.81286	3.00413	-2.93914
9086.462	5.74052	-0.74931	2.97492	-2.82449
9090.462	5.75325	-0.78511	2.97284	-2.71749
9094.462	5.72861	-0.74715	2.92438	-2.57492
9098.470	5.56205	-0.69707	2.92579	-2.57672
9102.467	5.39123	-0.64742	2.90020	-2.60435
9106.462	5.43524	-0.63597	2.82987	-2.66073
9110.467	5.32164	-0.60049	2.80981	-2.63162
9114.463	5.31416	-0.57155	2.77681	-2.65778
9118.462	5.18845	-0.56484	2.75896	-2.63141
9122.466	5.14613	-0.56829	2.75992	-2.88981
9126.461	5.09379	-0.61675	2.67150	-2.93630
9130.467	4.96768	-0.65627	2.67006	-2.99215
9134.461	4.76012	-0.65336	2.65617	-3.12040
9138.469	4.87404	-0.66882	2.63175	-3.19990
9142.460	4.83203	-0.73952	2.58965	-3.26078
9146.473	4.79662	-0.83680	2.57494	-3.32420
9150.466	4.72058	-0.86257	2.60550	-3.34755
9154.477	4.74538	-0.91059	2.54816	-3.39706
9158.463	4.73650	-0.94673	2.52267	-3.44093
9162.461	4.70379	-1.02137	2.51975	-3.47344
9166.462	4.75420	-1.11868	2.53010	-3.46918
9170.461	4.73286	-1.14466	2.53194	-3.50069
9174.459	4.78043	-1.18636	2.58296	-3.52123
9178.485	4.86175	-1.24274	2.63898	-3.52438
9182.472	4.88505	-1.28074	2.70820	-3.51788
9186.459	4.90319	-1.31854	2.80115	-3.50089
9190.468	4.95413	-1.34076	2.85668	-3.49768
9194.462	5.01514	-1.35560	2.90141	-3.50973
9198.466	5.06092	-1.39432	3.01358	-3.49331
9202.461	5.15121	-1.42867	3.13311	-3.49168
9206.461	5.16568	-1.44477	3.07966	-3.50123
9210.459	5.24348	-1.41370	3.10366	-3.49111
9214.460	5.26681	-1.42705	3.15097	-3.45190
9218.462	5.27966	-1.40766	3.08656	-3.36134
9222.463	5.19812	-1.35420	3.01272	-3.30976
9226.460	4.35926	-0.34576	2.14912	-2.61814
9230.460	2.53915	0.95102	1.09475	-2.29335
9234.463	2.18867	2.09547	0.11374	-0.49831
9238.459	2.41945	2.26401	-1.12906	0.72308
9242.459	2.65171	2.61228	-0.98596	0.97507
9246.462	2.54452	2.77189	-0.52508	1.09579
9250.459	2.56971	2.60179	-0.68084	1.06983
9254.464	2.52270	2.36012	-0.97755	0.68754
9258.462	2.42086	2.29016	-0.75454	0.43906
9262.467	2.35434	2.27602	-0.61198	0.40938
9266.468	2.30045	2.41970	-0.70553	0.42255
9270.461	2.14300	2.44742	-0.79786	0.54435
9274.460	2.12035	2.46838	-0.85721	0.68302
9278.459	2.09071	2.47896	-0.83873	0.73904
9282.463	2.04654	2.50756	-0.83233	0.67266
9286.461	1.99178	2.49287	-0.80168	0.61699
9290.463	1.89124	2.51173	-0.79399	0.58895
9294.458	1.80908	2.51901	-0.79707	0.56738
9298.463	1.74863	2.56582	-0.72704	0.51306
9302.460	1.65862	2.59762	-0.73332	0.57035
9306.468	1.59663	2.62063	-0.74049	0.58712
9310.468	1.52027	2.63374	-0.75516	0.57660
9314.459	1.44617	2.64513	-0.69387	0.57117
9318.463	1.38490	2.65429	-0.65449	0.53093
9322.455	1.40065	2.68348	-0.63962	0.49910
9326.465	1.33703	2.68100	-0.57677	0.45953
9330.520	1.30878	2.67027	-0.53128	0.42803
9334.466	1.34953	2.63609	-0.48622	0.41911
9338.455	1.38731	2.59842	-0.43872	0.39802
9342.459	1.37473	2.55378	-0.40941	0.42242
9346.461	1.39954	2.51537	-0.39817	0.39827
9350.458	1.53485	2.50863	-0.33886	0.39653
9354.476	1.67080	2.48354	-0.33486	0.39750
9358.460	1.71620	2.46762	-0.28349	0.37253
9362.458	1.76663	2.49857	-0.24602	0.35660
9366.459	1.92044	2.64431	-0.18650	0.31578
9370.454	1.98918	2.81646	-0.16481	0.24819
9374.462	2.06485	2.89916	-0.12337	0.17302
9378.457	2.04193	2.82031	-0.06381	0.01603
9382.462	2.10538	2.81269	0.00114	0.11286
9386.453	2.12478	2.78553	0.03400	0.02408
9390.467	2.14858	2.81306	0.05430	0.06799
9394.459	2.18401	2.79404	0.08977	0.27801
9398.502	2.15494	2.77418	0.11781	0.65360
9402.466	2.14848	2.66552	0.12471	0.74551
9406.456	2.16964	2.48255	0.09359	0.66734
9410.460	2.10283	2.37609	0.06177	0.66148
9414.459	2.01605	2.26351	-0.02479	0.78186
9418.456	1.93869	2.24175	-0.62384	0.80752
9422.459	-0.17576	2.35015	-0.99201	0.73501
9426.455	-1.87837	2.29826	-3.30809	0.84330
9430.468	-4.35674	2.64585	-5.26991	1.44933
9434.460	-5.16132	3.24308	-7.47065	0.90885
9438.452	-6.91787	3.04826	-8.13955	1.13772
9442.461	-7.52520	2.82644	-9.16903	0.96714
9446.457	-7.80704	3.01006	-10.31818	0.89221
9450.461	-9.10427	3.00331	-10.76817	1.00543
9454.473	-9.14530	3.22524	-10.98843	1.04712
9458.459	-9.11111	3.25634	-11.09203	1.53757
9462.459	-9.05921	3.23964	-10.99712	1.79682
9466.481	-8.69203	3.35827	-10.88455	1.52604
9470.459	-9.01041	3.33355	-10.72062	1.48452
9474.468	-9.16518	3.37521	-10.92047	1.43476
9478.461	-9.08539	3.36966	-11.05017	1.24681
9482.456	-9.18061	3.42821	-11.06994	1.28933
9486.460	-9.30662	3.45149	-11.15976	1.40472
9490.453	-9.36066	3.46408	-11.15303	1.51941
9494.457	-9.17752	3.28195	-11.10276	1.54852
9498.457	-9.31189	3.31096	-11.15771	1.63895
9502.455	-9.18538	3.22515	-11.34676	1.69011
9506.455	-9.31905	3.33462	-11.07467	1.52674
9510.458	-9.38938	3.32960	-11.03731	1.46773
9514.465	-9.47855	3.33230	-11.24101	1.54737
9518.455	-9.47555	3.38939	-11.27894	1.56677
9522.461	-9.27075	3.28539	-11.29204	1.59767
9526.458	-9.31148	3.31578	-11.22883	1.54904
9530.460	-9.39892	3.42945	-11.22883	1.50781
9534.906	-9.52321	3.44015	-11.30381	1.56359
9538.475	-9.57355	3.45532	-11.40303	1.63358
9542.463	-9.60917	3.51389	-11.26834	1.61612
9546.455	-9.29783	3.55448	-11.23050	1.58771
9550.459	-9.22770	3.58146	-11.35854	1.61553
9554.534	-9.32891	3.63523	-11.25908	1.62722
9558.464	-9.45677	3.70478	-11.26946	1.65660
9562.454	-9.49171	3.76108	-11.20610	1.66693
9566.455	-9.38946	3.72591	-11.21840	1.68276
9570.453	-9.51940	3.73913	-11.21286	1.78975
9574.453	-9.54718	3.72182	-11.24877	1.86892
9578.456	-9.41153	3.66757	-11.29510	1.87422
9582.454	-9.25040	3.65033	-11.15272	1.83744
9586.452	-9.29384	3.74754	-11.21873	1.84160
9590.457	-9.36155	3.82789	-11.26977	1.89113
9594.454	-9.36201	3.85651	-11.20108	1.97680
9598.457	-9.45351	3.86750	-11.24578	2.03694
9602.456	-9.51307	3.94587	-11.16000	1.86874
9606.453	-9.56600	3.70375	-11.07898	1.85849
9610.460	-9.33343	3.68595	-11.09088	1.79664
9614.453	-9.25364	3.50851	-11.13633	1.78386
9618.454	-9.38477	3.49818	-11.12873	1.69466
9622.452	-9.40634	3.56122	-11.11361	1.85243
9626.456	-9.48374	3.50172	-11.14995	1.73850
9630.453	-9.54819	3.63617	-10.97066	1.77290
9634.452	-9.49308	3.58195	-11.00568	1.71650
9638.457	-9.57119	3.57830	-11.08500	1.73063
9642.456	-9.59940	3.52319	-11.16189	1.71743
9646.461	-9.60384	3.54980	-11.25030	1.79962
9650.452	-9.66740	3.57524	-11.19201	1.87014
9654.466	-9.73029	3.54559	-11.25299	1.96135
9658.459	-9.71300	3.58439	-11.19848	1.92420
9662.456	-9.57611	3.59248	-11.08223	1.90266
9666.457	-9.47502	3.56522	-11.03970	1.81379
9670.454	-9.40820	3.55692	-11.08149	1.77104
9674.457	-9.42873	3.54277	-11.08242	1.81681
9678.455	-9.50315	3.52443	-11.15472	1.88007
9682.457	-9.52784	3.50254	-11.20899	1.89129
9686.456	-9.34585	3.41571	-11.08347	1.89456
9690.447	-9.49880	3.40289	-11.13573	1.91366
9694.459	-9.56781	3.40557	-11.18269	1.86107
9698.451	-9.61761	3.39331	-11.23115	1.84756
9702.456	-9.35283	3.42385	-11.35341	1.81630
9706.451	-9.53221	3.42932	-11.48208	1.78074
9710.458	-9.54394	3.44654	-11.33125	1.76891
9714.454	-9.60541	3.44506	-11.34327	1.77253
9718.457	-9.69294	3.49213	-11.39680	1.68059
9722.456	-9.66272	3.64971	-11.40949	1.72785
9726.463	-9.68537	3.76981	-11.40930	1.74002
9730.454	-9.65450	3.79011	-11.50746	1.69940
9734.454	-9.64369	3.83950	-11.53946	1.63053
9738.458	-9.58895	3.82802	-11.62040	1.60545
9742.451	-9.56617	3.85243	-11.53467	1.71531
9746.455	-9.57807	3.76115	-11.49162	1.69249
9750.455	-9.58844	3.75184	-11.32602	1.70309
9754.471	-9.58692	3.75552	-11.40613	1.67969
9758.457	-9.55324	3.83630	-11.37142	1.67799
9762.457	-9.50136	3.82480	-11.41054	1.67382
9766.455	-9.42151	3.73990	-11.31922	1.63229
9770.456	-9.36493	3.77639	-11.31464	1.57478
9774.485	-9.33408	3.77748	-11.35768	1.51648
9778.453	-9.20770	3.72367	-9.75304	1.51247
9782.445	-9.15381	3.74856	-11.10025	1.49047
9786.455	-6.88531	4.06914	-9.71310	1.91192
9790.450	-5.36639	4.71462	-7.36169	1.90903
9794.453	-3.53135	5.02901	-5.11962	3.57709
9798.448	-2.33133	5.40368	-4.92494	4.29788
9802.454	-2.34570	5.45530	-4.93361	4.37352
9806.455	-2.61290	5.60124	-4.90659	4.29768
9810.450	-3.61246	5.54000	-5.12080	3.50529
9814.453	-3.74110	5.30784	-5.55393	3.50341
9818.450	-4.12614	5.30933	-5.56296	3.49626
9822.453	-3.72452	5.41811	-5.54867	3.51835
9826.447	-2.54427	5.34724	-5.11273	3.70145
9830.454	-2.40035	5.45973	-5.05220	3.95068
9834.451	-2.70822	5.51244	-5.05548	3.93194
9838.447	-2.39056	5.43694	-5.02607	3.91893
9842.449	-2.61318	5.42690	-5.19340	3.80745
9846.325	-2.95817	5.42354	-5.00642	3.76565
9850.332	-3.09131	5.39062	-5.04206	3.73941
9854.370	-2.79117	5.38426	-4.97758	3.76552
9858.332	-2.77545	5.39498	-5.00785	3.75694
9862.324	-2.85886	5.41130	-4.90575	3.73466
9866.324	-2.76351	5.42815	-4.79378	3.75772
9870.332	-2.65235	5.41630	-4.78370	3.74236
9874.324	-2.78018	5.47702	-4.77624	3.66631
9878.333	-2.76552	5.49310	-4.79883	3.63050
9882.324	-2.88433	5.55118	-4.70562	3.51845
9886.327	-2.83098	5.64232	-4.70619	3.42061
9890.325	-2.80533	5.69233	-4.64278	3.36956
9894.330	-2.77250	5.78250	-4.62764	3.18793
9898.325	-2.87537	5.97882	-4.56908	3.13476
9902.323	-2.76668	6.03466	-4.51539	3.02868
9906.327	-2.84697	6.15679	-4.51028	2.96837
9910.323	-2.83633	6.19315	-4.52367	3.09356
9914.323	-2.75205	6.26603	-4.49795	3.08821
9918.327	-2.77547	6.31041	-4.48557	3.36432
9922.325	-2.96671	6.39454	-4.48061	3.50564
9926.327	-2.92995	6.49341	-4.48108	3.80523
9930.357	-2.90225	6.51539	-4.33638	3.63091
9934.339	-2.93290	6.55027	-4.28809	3.81773
9938.319	-2.97421	6.56392	-4.33463	3.91984
9942.325	-2.88453	6.56040	-4.37169	3.92477
9946.326	-3.01180	6.57807	-4.45999	4.02197
9950.327	-2.95302	6.41200	-4.47358	4.00123
9954.340	-2.93049	6.37095	-4.59134	4.06188
9958.326	-2.97735	6.27326	-4.67902	4.03329
9962.329	-2.99769	6.00166	-4.60261	3.87891
9966.325	-2.89564	5.71899	-4.47476	3.62061
9970.355	-2.86420	5.64270	-4.53347	3.47461
9974.320	-2.87319	5.57184	-4.50624	3.10803
9978.327	-2.70738	5.51923	-4.54437	3.46444
9982.327	-2.74826	5.56117	-4.58017	3.30644
9986.325	-2.61756	5.55782	-4.62964	3.28804
9990.320	-2.60669	5.52871	-4.67562	3.23843
9994.331	-2.56077	5.50923	-4.65239	3.33251
9998.329	-2.52612	5.52288	-4.74745	3.33482
10002.321	-2.46231	5.48915	-4.76128	3.41432
10006.326	-2.44950	5.51555	-4.76549	3.55461
10010.319	-2.57095	5.57200	-4.74994	3.76417
10014.326	-2.72087	5.64869	-4.79916	3.87624
10018.325	-2.76733	5.69367	-4.78462	3.89932
10022.326	-2.92975	5.75909	-4.81796	3.92605
10026.317	-2.92832	5.80503	-4.83910	3.98551
10030.326	-3.16839	5.85868	-4.68136	3.93698
10034.321	-3.00190	5.91250	-4.39010	3.96941
10038.324	-3.30329	6.01784	-4.29910	3.90865
10042.319	-3.24630	6.05859	-4.19326	3.86392
10046.325	-3.25921	6.14800	-4.17359	3.91380
10050.321	-3.24358	6.19535	-4.13488	3.85959
10054.323	-3.33735	6.27821	-4.29288	3.70207
10058.332	-3.30055	6.35631	-4.16697	3.58589
10062.335	-3.27393	6.39254	-4.16529	3.60861
10066.317	-3.23883	6.49100	-4.13053	3.56865
10070.325	-3.25045	6.51977	-4.10436	3.57585
10074.322	-3.26154	6.59463	-4.08923	3.56222
10078.323	-3.20429	6.62447	-4.06488	3.63760
10082.322	-3.10391	6.59991	-4.17630	3.54822
10086.320	-2.15388	6.51498	-3.59560	3.47098
10090.327	0.56228	6.09549	-1.28147	3.36121
10094.320	2.01979	4.10268	-0.18253	2.75222
10098.324	4.00057	2.21401	2.16934	0.06650
10102.320	4.86349	1.00026	3.14249	-2.14219
10106.332	4.94529	1.14915	2.69163	-2.57897
10110.321	4.94817	0.12316	2.74380	-3.60706
10114.325	4.90686	-0.59019	2.54759	-4.08419
10118.324	4.88621	-0.43805	2.60760	-3.72810
10122.322	5.11194	-0.05700	2.60386	-3.31579
10126.319	5.29312	0.04805	2.71780	-2.96765
10130.319	5.48019	0.28594	2.79602	-3.15408
10134.321	5.62478	0.01563	2.82063	-3.31569
10138.323	5.89156	0.02138	2.98799	-3.28028
10142.324	5.72745	-0.09035	2.98544	-3.57004
10146.349	5.64066	-0.20886	3.01660	-3.73100
10150.324	5.78239	-0.26411	3.07691	-3.82566
10154.338	5.80162	-0.34061	3.14724	-3.72738
10158.324	5.86457	-0.23518	3.17970	-3.71473
10162.320	5.88854	-0.26821	3.25186	-3.67773
10166.319	5.94568	-0.41887	3.30339	-3.51438
10170.320	5.95930	-0.52997	3.32565	-3.50533
10174.319	5.96814	-0.43739	3.34455	-3.44595
10178.319	5.96844	-0.45980	3.37964	-3.39995
10182.322	5.92240	-0.48416	3.36738	-3.39631
10186.322	5.90742	-0.54631	3.46607	-3.39495
10190.319	5.91128	-0.56726	3.43244	-3.44663
10194.323	5.88795	-0.52880	3.45771	-3.37622
10198.321	5.88793	-0.46521	3.47853	-3.32819
10202.322	5.85495	-0.48135	3.49092	-3.29084
10206.317	5.85472	-0.44484	3.46394	-3.23509
10210.318	5.86305	-0.38037	3.45794	-3.27595
10214.361	5.82366	-0.29494	3.45465	-3.31398
10218.332	5.81842	-0.32308	3.40838	-3.41591
10222.318	5.79506	-0.28252	3.29609	-3.44491
10226.324	5.77978	-0.26060	3.22547	-3.44930
10230.321	5.74097	-0.24462	3.21931	-3.46418
10234.319	5.68376	-0.22269	3.11504	-3.41706
10238.313	5.72991	-0.28483	3.03356	-3.37580
10242.326	5.69669	-0.72452	2.96703	-3.30735
10246.324	5.74755	-1.65463	2.90252	-3.24313
10250.314	5.75443	-1.65710	2.84118	-3.18477
10254.321	5.76588	-1.73315	2.80231	-3.26813
10258.323	5.71772	-1.63769	2.76356	-3.19393
10262.316	5.73507	-1.69550	2.72342	-3.07189
10266.322	5.69345	-1.54985	2.73137	-3.00635
10270.325	5.67610	-1.45432	2.82967	-3.01130
10274.318	5.63203	-1.48636	3.04504	-3.02129
10278.316	5.64221	-1.36618	3.37356	-3.03229
10282.316	5.58941	-1.42424	3.53763	-3.05319
10286.321	5.50786	-1.34966	3.50212	-3.07202
10290.321	5.48796	-1.25833	3.66861	-3.10146
10294.316	5.39610	-1.21263	3.61920	-3.10808
10298.322	5.31283	-1.12986	3.69407	-3.10599
10302.318	5.26280	-1.06982	3.65265	-3.04306
10306.315	5.21710	-1.00449	3.68031	-3.05365
10310.331	5.17156	-0.92020	3.72753	-3.02745
10314.319	5.11610	-0.86780	3.68947	-2.97461
10318.320	5.07651	-0.83422	3.67541	-2.91688
10322.316	5.06035	-0.78420	3.64219	-2.89287
10326.316	5.03514	-0.73521	3.56027	-2.82851
10330.319	5.08448	-0.66363	3.50914	-2.75669
10334.318	5.07715	-0.61122	3.44594	-2.67198
10338.312	5.22382	-0.58525	3.32573	-2.66343
10342.321	5.21429	-0.55467	3.31083	-2.61485
10346.316	5.28027	-0.51062	3.25379	-2.55488
10350.379	5.37987	-0.46606	3.19764	-2.49438
10354.316	5.48410	-0.43670	3.15651	-2.44445
10358.325	5.59155	-0.44557	3.09607	-2.37061
10362.314	5.59890	-0.49772	3.08953	-2.35802
10366.320	5.74333	-0.65487	3.03596	-2.34002
10370.318	5.80931	-0.67282	3.05865	-2.34050
10374.318	5.86892	-0.85022	3.08060	-2.39011
10378.318	5.87506	-0.94147	3.08382	-2.42166
10382.317	5.88316	-0.95868	3.16703	-2.46503
10386.320	5.95304	-1.09571	3.15540	-2.46538
10390.311	5.97347	-1.09135	3.15498	-2.43671
10394.325	5.99495	-0.99555	3.10898	-2.37395
10398.344	5.89112	-1.05358	3.16851	-2.36524
10402.319	6.18142	-1.07907	3.93532	-2.53591
10406.310	8.06930	-1.23828	6.86259	-3.14143
10410.313	9.17515	-3.98889	7.47841	-4.01666
10414.317	9.84982	-4.46024	9.12795	-6.47995
10418.318	10.71516	-5.03866	10.58040	-7.07833
10422.318	12.92378	-5.75608	10.84446	-9.28796
10426.312	12.59410	-7.46913	12.59474	-9.97730
10430.319	13.79524	-8.19610	12.88329	-10.09437
10434.322	13.97080	-8.54526	13.19484	-10.82871
10438.310	15.06422	-8.38350	13.58306	-10.95231
10442.319	15.86822	-7.30284	15.21747	-10.85496
10446.314	16.08239	-7.21128	15.28667	-10.73111
10450.317	15.84844	-7.05311	15.28912	-10.84201
10454.331	15.51728	-7.07725	15.06989	-10.78953
10458.318	15.39912	-7.47566	15.03126	-10.81047
10462.314	15.81213	-7.32432	14.71812	-10.72399
10466.313	15.84991	-7.29879	14.87202	-10.82936
10470.313	15.82736	-7.28746	14.83383	-10.72497
10474.336	15.71393	-7.31166	14.69592	-10.51914
10478.318	15.63246	-7.30556	14.25986	-10.35700
10482.312	15.73640	-7.25933	13.83950	-10.31993
10486.318	15.68624	-7.31305	13.63646	-10.21984
10490.320	15.58212	-7.39039	14.17392	-10.17052
10494.326	15.52711	-7.52569	13.73931	-10.29457
10498.315	15.54658	-7.64799	13.54164	-10.21627
10502.319	15.58587	-7.68637	13.81949	-10.17780
10506.316	15.57875	-7.78387	13.91315	-10.14403
10510.321	15.47238	-7.87990	13.74711	-10.11748
10514.310	15.46353	-7.95635	13.80247	-10.11446
10518.323	15.48006	-8.04799	13.80507	-10.14068
10522.313	15.49059	-8.16311	13.89040	-10.13586
10526.318	15.45650	-8.20879	13.91659	-10.14594
10530.310	15.46692	-8.28625	13.88226	-10.17237
10534.312	15.49075	-8.34524	13.97349	-10.17528
10538.316	15.52439	-8.37535	14.12270	-10.11511
10542.313	15.47464	-8.37809	14.13458	-10.03276
10546.312	15.43323	-8.38926	14.22990	-10.02307
10550.312	15.26252	-8.44027	14.22559	-10.00628
10554.382	15.20873	-8.48608	14.24007	-9.98460
10558.320	15.21929	-8.45336	14.17504	-10.00354
10562.319	15.19371	-8.41654	14.08099	-9.99684
10566.317	15.25716	-8.37265	14.07137	-9.99678
10570.314	15.26547	-8.30291	14.08005	-9.97270
10574.311	15.32163	-8.23730	14.11843	-9.92949
10578.312	15.24140	-8.18632	14.10011	-9.89398
10582.316	15.21090	-8.12873	14.08643	-9.88034
10586.313	15.27097	-8.09046	14.07057	-9.88234
10590.311	15.25549	-8.04849	14.01356	-9.86344
10594.312	15.34933	-7.96899	13.97519	-9.73828
10598.315	15.39967	-7.88230	14.00221	-9.67209
10602.318	15.38431	-7.79585	13.97510	-9.54798
10606.315	15.40706	-7.42933	13.93999	-9.61975
10610.312	15.34381	-7.46207	13.99823	-9.52818
10614.314	15.42242	-7.22446	13.96982	-9.52695
10618.313	15.37683	-7.21546	13.87796	-9.51837
10622.315	15.30018	-7.21985	13.83456	-9.50920
10626.313	15.37847	-7.08909	13.80973	-9.48755
10630.308	15.33193	-6.98219	13.79468	-9.46671
10634.310	15.26614	-7.05568	13.71062	-9.44609
10638.310	15.18560	-7.01619	13.68429	-9.46585
10642.315	15.15101	-6.98980	13.62312	-9.45597
10646.316	15.01357	-7.03855	13.60639	-9.49155
10650.326	14.96369	-7.15098	13.61731	-9.45630
10654.312	14.93295	-7.14587	13.63566	-9.39048
10658.316	14.88530	-7.29103	13.59849	-9.30595
10662.312	14.87536	-7.35836	13.65793	-9.25347
10666.311	14.78976	-7.47804	13.56981	-9.22984
10670.315	14.81317	-7.55271	13.57682	-9.12225
10674.310	14.77950	-7.58062	13.58099	-9.06133
10678.314	14.78804	-7.58545	13.48514	-9.08975
10682.329	14.81639	-7.59264	13.31821	-9.03899
10686.320	14.87054	-7.61381	13.36897	-9.01637
10690.340	15.01429	-7.51788	13.18405	-8.96974
10694.323	15.05390	-7.47673	13.09235	-8.94030
10698.309	15.30561	-7.34711	13.00843	-8.94761
10702.187	15.43231	-7.19656	13.16280	-8.92231
10706.188	15.55040	-7.17390	13.05946	-8.89732
10710.185	15.64678	-7.01300	12.99828	-8.85415
10714.185	15.57601	-6.96710	12.95654	-8.84680
10718.185	15.41185	-7.10946	12.92573	-8.82947
10722.187	15.35697	-7.20440	12.92448	-8.79837
10726.186	15.42484	-7.18340	12.97688	-8.74797
10730.190	15.32932	-7.08584	13.00815	-8.72526
10734.191	15.34633	-7.14503	13.04398	-8.71073
10738.184	15.08745	-7.26417	13.07373	-8.71963
10742.189	15.01779	-7.28870	13.20004	-8.70077
10746.192	15.04908	-7.55864	13.17995	-8.70433
10750.187	15.16856	-7.52519	13.21900	-8.68937
10754.183	15.09620	-7.55586	13.18409	-8.71594
10758.202	15.01922	-7.64427	13.22467	-8.70428
10762.189	15.03483	-7.65817	13.24174	-8.72896
10766.185	15.05980	-7.62690	13.21220	-8.70145
10770.188	14.98979	-7.56487	13.25425	-8.68059
10774.184	14.98741	-7.71174	13.26848	-8.69357
10778.189	15.01589	-7.69986	13.32698	-8.68952
10782.183	15.02476	-7.72422	13.34298	-8.65781
10786.189	15.03168	-7.70212	13.21745	-8.65328
10790.181	14.86931	-7.64762	12.47193	-8.63419
10794.204	12.15965	-7.49101	10.52919	-8.48711
10798.190	9.04430	-7.29483	7.90991	-7.64572
10802.188	6.76875	-6.18881	6.79572	-6.33151
10806.188	5.69802	-5.67837	3.98370	-5.89911
10810.186	4.37557	-4.50780	3.33451	-4.11333
10814.188	2.73818	-3.14988	0.44378	-3.19636
10818.183	2.22852	-2.24379	0.17293	-2.37912
10822.183	0.27696	-0.28772	-1.28008	-2.19021
10826.182	-1.23613	-0.91177	-3.02987	-0.52511
10830.185	-3.36933	-0.52293	-3.95671	-0.49440
10834.187	-3.57540	0.41588	-5.44163	-0.02414
10838.184	-4.13019	1.43550	-6.62052	1.22207
10842.223	-4.39762	1.73221	-6.61283	1.34724
10846.184	-4.33468	1.25597	-5.62621	0.98082
10850.180	-4.09221	0.80816	-5.67499	0.82972
10854.188	-4.12396	0.94922	-5.42734	1.11291
10858.191	-4.18815	0.70355	-5.63014	1.01666
10862.180	-4.31408	0.76408	-5.76723	0.97608
10866.185	-4.34065	1.96323	-5.86138	1.04946
10870.186	-4.31911	2.46524	-5.94367	0.97958
10874.180	-4.26262	2.57694	-6.03051	1.14548
10878.182	-4.24737	2.48417	-6.00386	1.11174
10882.184	-4.24961	2.29932	-5.99490	1.03545
10886.182	-4.30240	1.35269	-6.07440	1.00993
10890.179	-4.23747	2.27214	-6.09270	0.86857
10894.201	-4.39997	2.38078	-6.02600	0.96407
10898.191	-4.56254	2.25087	-6.18610	0.97961
10902.185	-4.57665	1.58346	-6.14697	0.85608
10906.182	-4.50693	2.47935	-6.19844	0.83222
10910.180	-4.59268	2.29791	-6.14970	0.83338
10914.180	-4.41921	1.55692	-6.20602	0.91455
10918.183	-4.21377	2.40660	-6.27736	0.84303
10922.182	-4.44386	1.86741	-6.20771	0.81133
10926.179	-4.46739	2.04764	-6.36692	0.86893
10930.186	-4.77168	2.01372	-6.23518	0.66191
10934.216	-4.42711	2.38554	-6.27721	0.79922
10938.200	-4.72640	1.92755	-6.33037	0.64577
10942.184	-4.54918	2.36445	-6.28614	0.57282
10946.183	-4.46241	2.21257	-6.55403	0.69213
10950.179	-4.56294	2.21641	-6.35437	0.66702
10954.183	-4.64342	2.14813	-6.60933	0.69443
10958.179	-4.55717	2.11418	-6.47948	0.60235
10962.202	-4.84253	1.99575	-6.52297	0.51311
10966.188	-4.70895	2.42008	-6.47752	0.65622
10970.182	-4.62705	1.90118	-6.45635	0.59519
10974.185	-4.33369	2.25921	-6.25902	0.62662
10978.176	-4.74846	2.20404	-6.33694	0.63499
10982.189	-4.83033	2.37596	-6.63666	0.57842
10986.182	-4.73973	2.02118	-6.66460	0.80900
10990.184	-4.74838	2.38052	-6.45013	0.45918
10994.187	-4.55029	1.93575	-6.42861	0.66421
10998.185	-4.61038	2.29110	-6.59687	0.63533
11002.180	-4.82924	2.02586	-6.48882	0.60066
11006.180	-4.81153	2.45895	-6.46860	0.58459
11010.181	-4.80290	2.17592	-6.62574	0.71343
11014.184	-4.72130	2.17573	-6.57007	0.28149
11018.186	-4.55948	2.33647	-6.53752	0.65748
11022.184	-4.67145	2.09662	-6.61249	0.46972
11026.185	-4.60991	2.10311	-6.52596	0.62204
11030.234	-4.77279	2.17218	-6.65825	0.49320
11034.190	-4.71590	1.84426	-6.53992	0.60238
11038.210	-4.54368	2.19565	-6.58707	0.57312
11042.179	-4.45757	2.27093	-6.42155	0.35108
11046.178	-4.45239	2.21455	-6.56799	0.44409
11050.183	-4.54804	1.73851	-6.49396	0.46472
11054.184	-4.46924	2.15958	-6.64425	0.37203
11058.184	-4.42947	2.25088	-6.62471	0.20058
11062.184	-4.35425	2.09219	-6.62015	0.51614
11066.186	-4.37828	1.90517	-6.32137	0.36733
11070.182	-4.50306	1.64503	-6.23641	0.32080
11074.184	-4.41035	1.79968	-6.23003	0.34403
11078.179	-4.33929	2.06714	-6.39030	0.19324
11082.181	-4.37554	2.00548	-6.30090	0.18215
11086.176	-4.39291	2.17173	-6.55846	0.35659
11090.182	-4.33606	2.14673	-6.31230	0.27835
11094.179	-4.28806	2.18955	-6.44268	0.37534
11098.183	-4.36345	2.08489	-6.38062	0.22734
11102.181	-4.40993	2.02261	-6.68286	0.25544
11106.184	-4.56138	2.06395	-6.59784	0.19533
11110.178	-4.66970	2.14268	-6.49423	0.09375
11114.178	-4.49235	2.14705	-6.61095	0.12831
11118.181	-4.45693	2.24078	-6.53926	0.05305
11122.181	-4.32748	2.20512	-6.55114	0.04903
11126.177	-4.65550	2.14027	-6.74082	0.04884
11130.183	-4.72184	2.07065	-6.76608	0.00079
11134.178	-4.79410	2.12993	-6.70817	-0.03537
11138.178	-4.69001	1.97631	-6.73138	-0.07507
11142.178	-4.77919	1.46131	-6.60720	-0.03675
11146.195	-4.73734	1.47325	-6.63729	-0.06227
11150.180	-4.54508	1.70006	-6.62429	-0.12359
11154.195	-4.39508	1.97556	-6.55364	-0.10013
11158.182	-4.72105	1.81451	-6.64038	-0.12013
11162.180	-4.70914	1.26045	-6.69982	-0.13603
11166.183	-4.99982	1.56128	-6.71627	-0.08181
11170.182	-4.86110	1.55285	-6.68692	-0.16684
11174.183	-4.74543	1.55450	-6.58442	-0.20444
11178.176	-4.91255	1.41455	-6.48306	-0.21683
11182.177	-4.85775	1.75057	-6.57877	-0.16107
11186.178	-4.76332	1.29569	-6.53492	-0.24828
11190.183	-4.70207	1.48832	-6.65742	-0.29499
11194.176	-4.71065	2.03403	-6.64640	-0.13459
11198.181	-4.84361	1.22271	-6.69116	-0.09662
11202.178	-4.58740	1.49421	-6.61278	-0.23351
11206.177	-4.84366	1.97750	-6.52703	-0.20607
11210.176	-3.64301	1.87007	-6.16496	-0.30462
11214.195	-1.30273	3.53240	-2.87262	1.35758
11218.182	0.63208	4.76172	-2.13703	2.84087
11222.180	3.34705	4.80755	0.67583	5.75727
11226.173	4.28049	6.84670	1.08239	5.89268
11230.187	5.06668	5.84070	3.41924	5.88502
11234.177	6.08603	6.53102	3.81874	5.29785
11238.179	7.44540	6.61293	6.08048	5.46538
11242.188	8.23150	6.67777	5.81231	5.21830
11246.186	7.36081	6.73441	6.05810	5.51622
11250.178	7.86391	6.35427	5.87368	5.41442
11254.176	6.90424	6.74983	5.17897	5.57809
11258.209	6.77499	6.95365	5.49116	5.88977
11262.176	7.17436	6.56487	5.65110	5.61687
11266.176	7.38097	6.82557	5.45445	5.45998
11270.181	8.00569	7.06620	5.55499	5.65578
11274.184	7.82874	7.06076	5.72959	6.07105
11278.175	7.84730	6.82429	5.92090	5.77737
11282.179	7.60292	6.92041	5.59848	5.60405
11286.170	7.51881	7.01871	5.65014	5.79346
11290.180	7.86383	7.11917	5.84669	5.90840
11294.174	7.74920	7.04863	5.94980	5.77690
11298.179	7.94160	7.14862	5.57409	5.84767
11302.176	7.75926	6.88852	5.97357	5.60310
11306.178	7.87060	7.02277	6.07118	5.83048
11310.174	7.88578	7.07282	6.08392	5.72490
11314.174	7.95657	7.05467	6.02637	5.60790
11318.178	7.79247	7.04685	6.15848	5.56375
11322.176	7.84179	6.96881	6.01589	5.69654
11326.175	7.77247	7.02649	5.94457	6.03836
11330.174	7.74881	7.00425	6.07393	5.78933
11334.174	7.55418	7.02326	6.12617	5.70769
11338.177	7.74525	7.24091	5.93694	5.82456
11342.175	7.50212	7.04771	5.97894	6.02547
11346.174	7.80051	6.96005	6.02727	6.19648
11350.174	7.73767	6.85378	5.95314	5.81106
11354.197	7.79951	6.98096	5.87818	5.87080
11358.178	7.48185	6.92334	5.94563	5.65890
11362.175	7.43837	6.97453	6.01792	5.97086
11366.183	7.57100	6.90938	5.63867	6.02214
11370.177	7.64693	6.93397	5.83599	5.81969
11374.177	7.46133	6.93080	5.98039	5.78399
11378.175	7.50832	6.83889	5.94214	5.83354
11382.174	7.72247	6.85711	5.67823	5.88788
11386.178	7.76784	6.90809	5.73470	5.66417
11390.170	7.80029	6.88803	6.03324	5.64679
11394.177	7.65988	7.00234	6.12134	5.67846
11398.178	7.70626	7.13535	5.60880	5.61791
11402.179	7.89201	7.24716	5.85750	5.62207
11406.169	7.98410	7.19321	6.06195	5.49742
11410.172	7.79734	7.24121	6.19930	5.48880
11414.175	7.77122	7.28165	6.00487	5.59666
11418.173	7.92963	7.17376	6.05893	5.47253
11422.173	7.90830	7.18207	6.10043	5.57717
11426.173	8.00645	6.80891	6.26485	5.56214
11430.175	7.95823	6.69173	6.26959	5.50745
11434.169	7.93338	7.12426	6.14800	5.83969
11438.181	7.85344	7.18839	6.09746	5.78532
11442.178	7.96388	7.07915	6.19115	5.73055
11446.187	7.83385	7.08131	6.11184	5.80744
11450.181	7.82927	7.05671	5.91545	5.85192
11454.178	8.02832	6.93387	5.94737	5.64165
11458.176	8.02326	6.83854	5.95326	5.64174
11462.173	7.97118	7.01421	6.02507	5.84530
11466.172	7.94910	7.34735	6.04637	5.77982
11470.173	7.91219	7.20013	5.84276	6.08358
11474.175	7.99744	7.03825	5.34250	5.76330
11478.205	7.82750	6.84648	5.37832	5.05623
11482.176	7.32219	5.32463	5.19436	4.02265
11486.171	7.13502	6.13742	4.92070	3.27140
11490.173	6.50430	6.25810	4.81116	3.38547
11494.182	7.08182	6.05079	4.78986	4.35116
11498.180	7.12366	6.15802	4.95637	3.70162
11502.172	7.31303	6.14257	4.76458	3.68065
11506.175	7.44147	6.10395	4.70313	3.55478
11510.172	7.40023	6.13670	4.62971	4.27822
11514.173	6.77756	6.01116	4.62823	4.18751
11518.166	6.84815	5.99000	4.54200	4.42721
11522.180	6.77340	5.94628	4.62919	4.46342
11526.171	6.73892	5.94722	4.56925	3.84701
11530.175	6.74481	5.94238	4.71506	4.05471
11534.166	6.90926	5.97154	4.66092	4.13126
11538.170	6.96240	6.00874	4.73234	4.00898
11542.174	7.24256	5.98765	4.64690	4.02780
11546.171	7.19779	6.07223	4.57189	3.86606
11550.170	7.08722	6.20235	4.58821	3.84496
11554.060	7.09201	6.12470	4.70648	3.85453
11558.047	7.12569	6.23919	4.66233	3.59611
11562.186	7.25352	6.25543	4.78328	3.56801
11566.047	7.14257	6.22842	4.69539	3.70943
11570.054	7.11987	6.25611	4.76128	3.70735
11574.048	7.19974	6.25753	4.71644	3.67770
11578.044	7.22038	6.21060	4.70924	3.71917
11582.051	7.16161	6.20808	4.67355	3.84292
11586.045	7.13568	6.18840	4.68999	3.89776
11590.050	7.11968	6.11449	4.74772	3.97305
11594.041	7.15743	6.08498	4.83040	4.00224
11598.050	7.10274	6.04430	4.86625	4.04855
11602.045	7.07669	6.05083	4.93344	4.08433
11606.049	6.91481	5.99878	4.84694	4.07460
11610.045	6.85209	5.97960	4.85832	4.04002
11614.051	6.75331	5.93161	4.54617	4.08198
11618.044	6.71583	5.90760	4.55398	4.13570
11622.045	6.72871	5.91597	4.60865	4.15609
11626.046	6.85613	5.90138	4.60377	4.16380
11630.046	6.82146	5.88130	4.59983	4.15523
11634.046	6.72751	5.90778	4.57855	4.19120
11638.042	6.71052	5.92940	4.47582	4.20524
11642.047	6.77991	5.96746	4.47163	4.23949
11646.050	6.82075	5.93140	4.39447	4.29389
11650.050	6.78811	6.00353	4.39632	4.32483
11654.049	6.86638	6.00383	4.40382	4.39947
11658.050	6.95768	6.09949	4.44104	4.38944
11662.044	7.01098	6.12982	4.48083	4.38630
11666.048	7.09646	6.16967	4.52555	4.40886
11670.040	7.19793	6.21626	4.59152	4.40132
11674.049	7.22050	6.25941	4.70365	4.40151
11678.045	7.32973	6.28058	4.80497	4.33292
11682.066	7.44559	6.31702	4.91681	4.26233
11686.051	7.55176	6.31624	5.05442	4.13632
11690.082	7.59132	6.32085	4.75174	4.17152
11694.053	7.56578	6.26729	4.41613	4.10459
11698.043	7.35644	6.23369	4.16702	4.07897
11702.043	7.02577	6.17816	4.34638	4.05712
11706.048	6.89578	6.01854	4.52654	3.96650
11710.043	6.81588	5.91510	4.59060	3.85274
11714.044	6.72533	5.93066	4.95396	3.81524
11718.042	6.89869	5.67313	4.98980	3.77920
11722.043	7.42158	5.53185	5.23900	3.73981
11726.044	7.56700	5.42935	5.87170	3.86688
11730.046	9.81771	5.53861	7.81980	3.46436
11734.041	11.83769	5.17815	9.63913	2.44198
11738.050	12.52863	4.95943	10.65908	1.47962
11742.042	14.91819	4.72669	10.98140	0.96633
11746.042	14.37475	4.16951	12.30348	0.47451
11750.042	15.12860	4.10471	12.72797	0.27891
11754.059	15.45557	3.80598	12.29109	0.30563
11758.050	15.18915	3.87017	11.82837	0.49172
11762.045	14.90007	4.32254	11.68446	0.29228
11766.041	14.85827	4.33742	12.16197	0.34926
11770.041	15.20464	4.38953	12.50489	0.26324
11774.042	14.74625	4.42711	12.63837	0.31283
11778.047	15.07190	4.34588	12.79522	0.41262
11782.047	15.18150	4.43586	12.89664	0.34512
11786.040	15.28667	4.45138	12.71120	0.36183
11790.043	15.43983	4.35816	12.43599	0.18129
11794.044	15.55651	4.42199	12.52584	0.11993
11798.042	15.54027	4.46713	12.67955	-0.03115
11802.037	15.68028	4.50328	12.74138	0.09365
11806.057	15.72373	4.44605	12.67324	0.18205
11810.048	15.67209	4.22008	12.83331	0.13643
11814.038	15.61695	4.24966	12.71566	0.30840
11818.050	15.67370	4.05047	12.70808	0.38071
11822.042	15.65725	3.68754	12.66804	0.34720
11826.046	15.69433	3.91126	12.63972	0.44752
11830.037	15.29748	3.78244	12.65283	0.33968
11834.040	15.24736	3.84428	12.75375	0.38845
11838.044	15.25309	3.80599	12.73588	0.50038
11842.038	15.02399	3.76211	12.73014	0.53282
11846.039	15.12886	3.73141	12.76154	0.58662
11850.044	14.80217	3.76828	12.78536	0.65671
11854.042	14.75574	3.95987	12.76595	0.68601
11858.052	14.71090	4.07819	12.79149	0.69013
11862.045	14.94989	4.16085	12.81146	0.72823
11866.045	14.91838	4.27862	12.83345	0.68357
11870.062	14.86831	4.32927	12.80801	0.68769
11874.045	14.95869	4.47883	12.80438	0.67464
11878.044	14.96318	4.25317	12.62504	0.73333
11882.037	15.15378	4.40368	12.34823	0.65341
11886.039	15.11322	4.35830	12.61398	0.56987
11890.043	15.24450	4.29906	12.43622	0.51848
11894.041	15.26984	4.31155	12.16313	0.47338
11898.039	15.30649	4.11311	12.00782	0.41528
11902.044	15.37360	4.20029	11.95714	0.42578
11906.043	15.35614	4.00969	12.14421	0.41387
11910.040	15.31212	4.17001	12.22213	0.34102
11914.113	15.37527	4.46781	12.16204	0.38438
11918.044	15.33779	4.35155	12.43514	0.52229
11922.042	15.25621	4.31310	12.30692	0.52833
11926.034	14.89355	4.45035	12.47236	0.36258
11930.050	14.88308	4.39005	12.19771	0.71268
11934.039	15.01640	4.17697	12.51513	0.66958
11938.046	15.00945	4.54955	12.41521	0.58399
11942.046	15.36241	4.68377	12.29066	0.52107
11946.041	15.38186	4.86554	12.21523	0.52217
11950.037	15.35134	4.76330	12.26479	0.61934
11954.052	15.14058	4.64202	12.35898	0.53897
11958.048	15.03517	4.36018	12.24983	0.58713
11962.039	15.00376	4.36275	12.16842	0.54611
11966.043	14.85976	4.29020	12.30099	0.54421
11970.035	14.67093	4.21093	12.19787	0.47205
11974.043	14.66241	4.07653	12.21753	0.40276
11978.039	14.69283	4.19681	12.30140	0.47456
11982.043	14.97340	3.94488	12.22070	0.52728
11986.040	14.95862	4.36873	12.19356	0.53375
11990.043	15.43637	4.57764	12.18917	0.43994
11994.058	15.13973	4.71776	12.13830	0.56959
11998.040	15.25524	4.34971	12.15739	0.70411
12002.043	15.16821	4.12888	12.18697	0.82432
12006.039	15.04730	3.96695	12.31613	0.64883
12010.042	15.29175	4.26665	12.13882	0.66204
12014.034	15.24270	4.32181	12.09396	0.83529
12018.043	15.32057	4.34080	12.10796	0.91835
12022.040	15.25318	4.27461	12.20200	0.78199
12026.047	15.15612	4.36088	12.22682	0.83439
12030.035	15.22338	4.40571	12.09097	0.95499
12034.043	15.07794	4.46370	12.25469	0.83952
12038.037	14.93432	4.43268	12.29699	1.03201
12042.042	14.69773	4.45612	12.29647	1.04566
12046.033	14.66406	4.39814	11.79810	0.75109
12050.040	11.10768	4.25278	10.98820	0.78389
12054.040	9.80804	3.66005	7.42175	0.31947
12058.043	7.07796	2.01666	5.98098	-0.50541
12062.041	5.98962	1.43716	4.85216	-0.99026
12066.042	4.28851	0.75588	3.38370	-1.50564
12070.042	2.41492	0.10882	2.14317	-1.57759
12074.043	2.44066	-1.00575	1.32657	-2.66906
12078.037	0.28257	-1.54309	0.80414	-2.36389
12082.036	-0.34801	-1.71695	-1.48208	-2.64813
12086.037	-1.57585	-1.74942	-1.70636	-2.77134
12090.040	-2.42869	-1.94786	-3.02895	-2.88796
12094.041	-1.90656	-2.00072	-3.22559	-2.49280
12098.032	-1.97919	-2.13769	-3.14731	-2.27575
12102.042	-1.83729	-2.04709	-3.17905	-2.34840
12106.035	-1.43778	-2.16836	-2.53367	-2.74200
12110.074	-1.31652	-2.02120	-2.58685	-2.94036
12114.046	-1.81605	-1.97860	-2.98049	-2.90846
12118.038	-2.08201	-1.92444	-3.30950	-2.86612
12122.039	-2.28564	-1.90356	-3.30354	-3.00871
12126.039	-2.18927	-1.78157	-3.37225	-3.29652
12130.034	-1.63588	-1.22351	-3.18947	-3.07879
12134.040	-1.83109	-1.18605	-3.22104	-3.18786
12138.036	-1.99947	-2.12105	-3.10346	-3.07184
12142.040	-1.83647	-2.07680	-3.21161	-3.03167
12146.033	-1.48825	-1.71571	-2.93183	-3.15195
12150.038	-1.69959	-0.99288	-3.13328	-3.24054
12154.051	-1.76512	-1.23217	-3.22205	-3.26482
12158.043	-1.93351	-2.46931	-3.24657	-3.22057
12162.035	-1.56935	-2.04695	-3.20476	-3.04730
12166.034	-1.58998	-1.66458	-3.01094	-3.11521
12170.037	-1.72017	-1.54358	-3.00888	-3.00941
12174.039	-1.83224	-1.60846	-3.12957	-2.98200
12178.034	-1.80318	-1.66720	-3.07372	-3.05476
12182.042	-1.67839	-1.12022	-3.17717	-3.03514
12186.036	-1.76589	-1.61904	-3.04915	-3.10874
12190.038	-1.80858	-1.76070	-3.18544	-3.27406
12194.040	-1.86211	-2.09490	-3.09067	-2.92398
12198.037	-1.88489	-1.98108	-2.89762	-3.11338
12202.043	-1.93755	-1.94532	-2.97678	-2.92295
12206.034	-2.04059	-1.78068	-3.17074	-2.92972
12210.040	-1.62634	-1.80600	-3.01759	-3.30492
12214.034	-1.82343	-1.86901	-3.30740	-3.31172
12218.036	-1.93730	-1.75074	-3.09295	-2.99787
12222.038	-2.06406	-1.74862	-3.13952	-2.96525
12226.034	-1.46333	-1.78621	-2.90235	-3.22910
12230.038	-1.66376	-1.81019	-3.21137	-3.37397
12234.035	-1.83742	-1.81377	-3.06461	-2.89762
12238.039	-2.14907	-1.75391	-3.18398	-2.91013
12242.051	-1.35685	-1.71559	-3.03393	-3.21929
12246.039	-1.46035	-1.71581	-3.24041	-3.31565
12250.034	-1.88395	-1.70080	-3.19600	-3.20923
12254.069	-1.96427	-1.69263	-3.23326	-3.00583
12258.049	-1.15106	-1.60119	-3.08154	-3.18977
12262.033	-1.30915	-1.64344	-3.22685	-3.34116
12266.039	-1.87351	-1.58705	-3.14563	-2.90217
12270.032	-2.15133	-1.65472	-3.29468	-3.07560
12274.042	-1.07143	-1.59986	-3.18049	-3.23601
12278.038	-1.48124	-1.45449	-3.24889	-3.30212
12282.038	-1.81069	-1.35400	-3.18009	-2.78952
12286.030	-1.36000	-1.54836	-3.27786	-3.10514
12290.039	-1.77464	-1.58960	-3.17977	-3.41420
12294.034	-1.48620	-1.42490	-3.21562	-3.45012
12298.038	-1.47454	-1.59850	-3.19561	-2.84543
12302.032	-1.71947	-1.67355	-3.25550	-3.20847
12306.039	-1.75022	-2.85487	-3.25528	-3.31503
12310.038	-1.62195	-2.18367	-3.23440	-3.37839
12314.030	-1.64402	-1.96585	-3.18472	-3.35250
12318.043	-1.73985	-2.34109	-3.23136	-3.00779
12322.033	-1.74895	-2.10374	-3.37512	-2.91552
12326.072	-1.67675	-2.35612	-3.47581	-3.26427
12330.031	-1.44651	-2.24509	-3.34754	-3.29741
12334.032	-1.58780	-2.13703	-3.25491	-3.06110
12338.046	-1.76562	-2.18470	-3.28175	-2.96352
12342.040	-1.82780	-1.81651	-3.43163	-2.91322
12346.031	-1.71657	-1.97493	-3.32634	-3.28216
12350.031	-0.89991	-1.68450	-3.40309	-3.33809
12354.039	-1.58034	-1.62180	-3.26312	-3.20830
12358.039	-1.68163	-1.54078	-3.19580	-3.06801
12362.033	-1.70705	-1.57439	-3.36322	-3.14261
12366.034	-1.86104	-1.50926	-3.37044	-3.31623
12370.029	-1.03483	-1.52851	-3.19194	-3.07873
12374.037	-1.40968	-1.55210	-3.27338	-3.05204
12378.032	-1.51005	-1.78680	-3.39456	-3.27782
12382.036	-1.53396	-1.90378	-3.27106	-3.29262
12386.029	-1.60878	-1.28616	-3.19140	-3.24295
12390.468	-1.81002	-1.15972	-3.31027	-3.34150
12394.047	-1.96241	-1.79595	-3.23677	-3.18664
12398.039	-1.91526	-2.35802	-3.20295	-3.27514
12402.031	-1.96819	-2.12945	-3.23051	-3.38165
12406.040	-1.41174	-1.29236	-3.14068	-3.21479
12409.909	-1.65337	-1.76960	-3.44854	-3.05924
12413.911	-1.74523	-2.04600	-3.28115	-3.26989
12417.902	-1.77075	-2.30046	-3.17609	-3.13622
12421.911	-1.81922	-1.50262	-3.12737	-3.16665
12425.906	-1.99203	-1.40593	-3.20511	-3.34813
12429.911	-1.92996	-1.92526	-3.27005	-3.45686
12433.911	-1.96246	-1.84117	-3.31405	-3.53684
12437.907	-1.58264	-1.60125	-3.34346	-3.28091
12441.906	-1.42260	-1.61673	-3.31999	-3.19528
12445.911	-0.89170	-1.63759	-3.30985	-3.07083
12449.907	-1.11916	-1.67324	-3.24353	-3.02487
12453.921	-1.29387	-1.71416	-3.13311	-3.10155
12457.906	-1.36754	-1.64812	-3.08298	-3.03345
12461.915	-1.23201	-1.65533	-2.98277	-3.00528
12465.905	-0.92564	-1.67558	-2.95705	-2.94780
12469.905	-1.04630	-1.68555	-2.98732	-2.82067
12473.906	-1.06654	-1.67757	-2.97460	-2.77797
12477.915	-1.03201	-1.67324	-3.04244	-2.75700
12481.908	-1.14223	-1.69152	-3.11168	-2.71518
12485.905	-1.19316	-1.75893	-3.34846	-2.69587
12489.915	-1.28487	-1.87723	-3.29790	-2.69256
12493.910	-1.62614	-1.94463	-3.58502	-2.72494
12497.911	-1.69195	-1.89487	-3.40474	-2.84452
12501.904	-1.61111	-1.82897	-3.32944	-2.76559
12505.910	-1.61111	-1.84564	-3.34079	-2.83134
12509.903	-1.56211	-1.93390	-3.50205	-3.07771
12513.910	-1.37072	-1.88366	-3.54099	-3.26777
12517.905	-1.47174	-1.88043	-3.34640	-3.05395
12521.909	-1.58569	-2.07578	-3.41704	-3.16989
12525.906	-1.60719	-1.86351	-3.49873	-3.41201
12529.911	-1.73403	-1.62621	-3.19338	-3.25395
12533.908	-1.84503	-1.71054	-3.18786	-3.49353
12537.903	-1.92567	-1.72120	-3.19113	-3.64586
12541.910	-1.81143	-2.08817	-3.23138	-3.06771
12545.908	-1.75667	-1.75608	-3.24632	-3.28014
12549.941	-1.28291	-1.51916	-3.39728	-3.51593
12553.921	-1.52270	-1.67538	-3.30957	-3.16831
12557.910	-1.65230	-2.03278	-3.12140	-3.28108
12561.900	-1.65882	-1.68006	-3.26713	-3.30201
12565.907	-1.73256	-1.29241	-3.22027	-3.09077
12569.903	-1.85794	-1.37935	-3.37569	-3.01744
12573.913	-2.00356	-1.81180	-3.29461	-2.77839
12577.901	-1.99134	-1.15140	-3.32355	-2.80162
12581.909	-2.86195	0.60527	-3.97602	-2.52811
12585.903	0.55627	0.29074	-7.59100	-1.88229
12589.906	0.81699	0.68546	-3.38513	-1.60754
12593.908	-7.23240	2.04124	NaN	NaN
12597.904	NaN	NaN	NaN	NaN
12601.900	NaN	NaN	NaN	NaN
12605.908	NaN	NaN	NaN	NaN
12609.902	NaN	NaN	NaN	NaN
12613.925	NaN	NaN	NaN	NaN
12617.903	NaN	NaN	NaN	NaN
12622.020	NaN	NaN	NaN	NaN
12625.903	NaN	NaN	NaN	NaN
12629.918	NaN	NaN	NaN	NaN
12633.905	NaN	NaN	NaN	NaN
12637.985	NaN	NaN	NaN	NaN
12641.906	NaN	NaN	NaN	NaN
12645.905	NaN	NaN	NaN	NaN
12649.909	NaN	NaN	NaN	NaN
12653.918	NaN	NaN	NaN	NaN
12657.904	NaN	NaN	NaN	NaN
12662.721	NaN	NaN	NaN	NaN
12666.773	NaN	NaN	NaN	NaN
12670.078	NaN	NaN	NaN	NaN
12673.905	NaN	NaN	NaN	NaN
12677.901	NaN	NaN	NaN	NaN
12681.907	NaN	NaN	-9.93191	4.12683
12685.901	NaN	NaN	NaN	NaN
12689.905	NaN	NaN	-7.15166	-0.85682
12693.901	NaN	NaN	-10.12128	-0.92714
12697.904	-4.56047	-3.32139	-7.61348	-2.67031
12701.905	-5.89031	1.55892	-7.14272	-2.13851
12705.901	0.40422	-0.92359	-4.27738	-2.64870
12709.905	-0.55704	-1.39693	-5.87776	-2.02035
12713.897	0.12630	-3.15027	-6.60164	-2.18691
12717.907	-0.36050	-1.41820	-3.63952	-2.14005
12721.902	-0.43763	-1.64387	-7.25135	-2.18964
12725.905	-0.51220	-1.61351	-5.74534	-1.99242
12729.903	-0.40738	-1.39189	-4.00193	-2.31033
12733.904	-0.53533	-1.43656	-4.12409	-2.25487
12737.909	-0.18497	-1.43319	-4.07478	-2.39824
12741.902	-1.91387	-1.29541	-4.15981	-2.54846
12745.904	-1.15779	-1.32683	-4.02779	-2.53010
12749.905	-1.99820	-1.42434	-4.02080	-2.56224
12753.920	-2.38853	-1.30523	-4.02915	-2.57970
12757.904	-2.49981	-1.34678	-3.95908	-2.62470
12761.903	-3.73295	-1.40508	-3.97486	-2.82412
12765.905	-2.56290	-1.30881	-4.03226	-2.79633
12769.942	-2.70409	-1.30712	-4.04056	-2.80795
12773.900	-2.78221	-1.34906	-4.03270	-2.82058
12777.904	-2.62070	-1.32468	-4.16667	-2.92310
12781.901	-2.69128	-1.33626	-4.20879	-2.94581
12785.898	-2.62051	-1.38226	-4.17536	-2.88354
12789.902	-2.77228	-1.35949	-4.29177	-2.87278
12793.903	-2.61008	-1.39202	-4.24752	-2.80434
12797.902	-2.63311	-1.34587	-4.21479	-2.77096
12801.902	-2.43897	-1.35087	-4.20945	-2.78480
12805.906	-2.36170	-1.34700	-4.23189	-2.70348
12809.898	-2.46761	-1.38031	-4.22330	-2.71812
12813.903	-2.47534	-1.47920	-4.13828	-2.70531
12817.897	-2.48827	-1.50997	-4.13725	-2.69302
12821.907	-2.45577	-1.60937	-4.07174	-2.59057
12825.900	-2.44940	-1.68054	-4.00729	-2.60463
12829.903	-2.35650	-1.88943	-4.05068	-2.55049
12833.898	-2.30747	-1.98210	-4.03278	-2.70054
12837.902	-2.31748	-1.93606	-4.03725	-2.99640
12841.902	-2.21831	-2.06582	-4.04843	-3.01668
12845.896	-2.26148	-2.03752	-4.04446	-3.20336
12849.903	-2.30945	-2.04320	-4.02319	-3.44098
12853.914	-2.18587	-2.07152	-4.01080	-3.11307
12857.901	-2.08320	-2.08069	-4.10322	-3.26433
12861.902	-2.03328	-2.06329	-4.30374	-3.25117
12865.905	-1.85207	-2.03497	-4.32762	-3.20818
12869.903	-2.00269	-1.89211	-4.29542	-3.31455
12873.901	-2.07973	-1.93855	-4.18149	-3.40575
12877.895	-2.04148	-1.89340	-4.06843	-3.46250
12881.905	-2.14067	-1.99252	-4.07051	-3.28968
12885.898	-2.13423	-1.90656	-4.15757	-3.27712
12889.902	-2.07707	-1.99602	-4.24826	-3.24513
12893.894	-2.10570	-1.79834	-4.08841	-3.15972
12897.903	-2.13911	-1.80540	-4.12204	-3.20728
12901.911	-2.07326	-1.95984	-4.04841	-3.17130
12905.911	-2.18961	-1.98824	-4.02636	-3.14183
12909.898	-2.22981	-1.79648	-4.15147	-3.21830
12913.902	-2.18287	-1.82390	-4.14967	-3.24788
12917.898	-2.12446	-1.93381	-4.03579	-3.23288
12921.902	-2.08092	-2.12878	-4.03174	-3.24142
12925.894	-2.02277	-2.07675	-4.03621	-3.28377
12929.912	-2.15041	-2.06808	-3.94278	-3.24216
12933.903	-2.16411	-1.98996	-3.95095	-3.25693
12937.898	-2.18674	-1.91778	-3.99430	-3.10322
12941.902	-2.16164	-1.95993	-3.96180	-2.90649
12945.906	-2.20414	-1.94541	-4.01937	-2.90695
12949.899	-2.06726	-1.91761	-4.02794	-3.05369
12953.915	-2.06379	-1.97131	-4.10145	-3.25794
12957.901	-1.96613	-1.96818	-4.07826	-3.24400
12961.903	-1.90445	-2.05996	-4.10155	-3.28420
12965.899	-1.78644	-2.03901	-4.19879	-3.45830
12969.930	-1.79393	-2.02466	-4.22160	-3.51632
12973.892	-1.85175	-2.04476	-4.24912	-3.40743
12977.902	-1.80137	-2.07342	-4.33387	-3.54696
12981.898	-1.76314	-2.13721	-4.37216	-3.65991
12985.899	-1.80938	-2.20881	-4.36760	-3.46961
12989.902	-1.76043	-2.22699	-4.15359	-3.47023
12993.915	-1.79413	-2.21284	-3.97768	-3.42648
12997.902	-1.89739	-2.20783	-3.84135	-3.29217
13001.901	-2.08942	-2.25347	-4.03794	-3.28428
13005.899	-2.29364	-2.13021	-4.52552	-3.21039
13009.891	-2.82935	-1.89852	-4.79386	-3.09832
13013.901	-3.19259	-1.56561	-4.83198	-2.95992
13017.897	-3.23712	-1.72813	-4.94585	-2.80936
13021.900	-3.31061	-1.67169	-4.75280	-2.61220
13025.894	-2.64265	-1.53065	-4.81416	-2.40642
13029.904	-2.75571	-1.73253	-4.89015	-2.67499
13033.897	-2.89554	-1.65863	-4.84947	-2.64251
13037.899	-3.02826	-1.56687	-4.86973	-2.70625
13041.897	-3.22485	-1.35293	-4.74622	-2.69253
13045.901	-3.14367	-1.18261	-4.57231	-2.51626
13049.897	-3.04373	-1.16980	-4.65636	-2.44946
13053.912	-3.00084	-1.12400	-4.60148	-2.44018
13057.900	-2.99492	-1.17990	-4.48951	-2.49182
13061.896	-3.02165	-1.25537	-4.47217	-2.60148
13065.894	-3.02947	-1.27867	-4.43808	-2.65533
13069.901	-3.11282	-1.31347	-4.42311	-2.69184
13073.904	-3.18697	-1.25230	-4.45113	-2.70099
13077.897	-3.21861	-1.24566	-4.47180	-2.70623
13081.897	-3.32741	-1.18854	-4.56279	-2.68152
13085.894	-3.29263	-1.19536	-4.60182	-2.68224
13089.900	-3.41750	-1.18283	-4.64746	-2.67020
13093.896	-3.39342	-1.28100	-4.82952	-2.64753
13097.897	-3.34932	-1.36233	-4.81478	-2.62175
13101.895	-3.36186	-1.34243	-4.95260	-2.47563
13105.900	-3.25933	-1.27953	-4.79437	-2.59645
13109.895	-3.21213	-1.37771	-4.66980	-2.58821
13113.896	-3.24941	-1.32981	-4.94940	-2.62920
13117.910	-3.18551	-1.37309	-4.96408	-2.85316
13121.897	-3.14526	-1.33927	-4.93827	-2.77508
13125.892	-3.08421	-1.25924	-4.93681	-2.74664
13129.900	-3.07013	-1.37497	-4.99558	-2.85194
13133.895	-3.09557	-1.43193	-4.97361	-2.64388
13137.900	-3.04135	-1.51215	-4.88252	-2.82032
13141.894	-3.11873	-1.51204	-4.93368	-2.77947
13145.899	-3.05595	-1.57146	-4.89200	-2.77463
13149.897	-3.07622	-1.66952	-4.88254	-2.85334
13153.912	-3.09584	-1.70258	-4.92361	-2.82810
13157.900	-3.07412	-1.73898	-4.87951	-2.83557
13161.894	-3.12064	-1.78457	-4.85310	-2.73954
13165.894	-3.15582	-1.90725	-4.78481	-2.73310
13169.895	-3.18089	-1.78890	-4.75152	-2.77938
13173.896	-3.24687	-1.82453	-4.69243	-2.81569
13177.906	-3.18306	-1.83282	-4.65649	-2.98049
13181.903	-3.16255	-1.57277	-4.60587	-3.02175
13185.892	-3.14991	-1.60680	-4.61753	-2.82657
13189.896	-3.16592	-1.36441	-4.68563	-2.89999
13193.889	-3.14088	-1.34202	-4.75881	-2.93572
13197.906	-3.21193	-1.19558	-4.86640	-2.71093
13201.892	-3.21386	-1.14072	-4.74350	-2.81613
13205.896	-3.22920	-1.14065	-4.84058	-2.53748
13209.897	-3.16134	-1.07145	-4.84671	-2.59429
13213.893	-3.19026	-1.24981	-4.96598	-2.67659
13217.894	-3.20263	-1.45464	-5.05378	-2.69977
13221.891	-3.20001	-1.35256	-5.07931	-2.74312
13225.895	-3.18601	-1.24545	-5.04058	-2.74781
13229.892	-3.12588	-1.25388	-5.09788	-2.93316
13233.896	-3.07857	-1.34716	-5.01278	-2.86841
13237.893	-3.09411	-1.46293	-4.93351	-2.74919
13241.897	-3.04086	-1.56650	-4.81259	-2.66480
13245.891	-2.96824	-1.46654	-4.78528	-2.69260
13249.897	-2.97955	-1.55669	-4.77882	-2.80062
13253.910	-3.02522	-1.50369	-4.72016	-2.75250
13257.895	-3.01697	-1.52971	-4.72381	-2.74854
13261.771	-2.89500	-1.29649	-4.64601	-2.80585
13265.768	-2.86111	-1.36648	-4.64519	-2.81474
13269.769	-2.82563	-1.43188	-4.63595	-2.79108
13273.769	-2.80610	-1.36307	-4.62305	-2.65803
13277.766	-2.11239	-1.25316	-4.33130	-1.47044
13281.769	0.01075	0.90175	-2.35870	-1.90342
13285.774	2.11918	3.03465	-1.19564	0.55601
13289.770	2.35278	3.52742	-0.20494	2.93942
13293.766	2.75858	4.60969	0.20308	3.27104
13297.766	3.84644	5.37520	0.30426	3.68590
13301.769	2.74373	6.19869	0.57009	4.16205
13305.783	3.52709	6.64395	0.66809	4.42269
13309.770	3.66293	6.10107	0.47954	4.79954
13313.768	3.66496	6.09655	0.46984	5.00249
13317.766	3.17153	6.15642	0.46986	4.88279
13321.766	3.52158	6.41213	0.76015	5.04850
13325.775	3.55839	6.56454	0.92009	5.10748
13329.768	3.40413	6.67114	1.21896	5.42097
13333.767	3.59940	6.50711	1.49002	5.27498
13337.765	3.55765	6.45356	1.37268	5.22581
13341.765	3.57397	6.42115	1.43389	5.27561
13345.771	3.66402	6.31042	1.40204	5.31280
13349.766	3.73060	6.04981	1.35422	5.27916
13353.779	3.89920	5.77261	1.47337	5.25596
13357.773	3.93354	5.54450	1.61347	5.21953
13361.766	3.82086	6.07618	1.75500	5.26917
13365.776	3.66048	5.94803	1.90497	5.32552
13369.772	3.80950	6.11599	1.98737	5.23531
13373.767	3.83455	6.14854	1.84089	5.18132
13377.770	3.79013	6.32123	1.81572	5.13239
13381.764	3.79097	6.51588	1.76202	5.05957
13385.771	3.76772	6.22425	1.72979	5.05224
13389.766	3.85503	5.82977	1.51434	4.98548
13393.769	4.04238	5.81744	1.61433	5.02658
13397.778	3.83636	5.98699	1.53299	5.07095
13401.770	3.75640	6.26763	1.75572	5.15081
13405.764	3.82949	6.06454	2.11772	5.17831
13409.807	3.97701	5.81320	1.77660	5.20005
13413.777	3.90921	5.70463	1.64821	5.26611
13417.759	3.93604	5.74511	1.63375	5.67429
13421.770	4.01658	5.67407	1.45956	6.10310
