time (ms)	lx (deg)	ly (deg)	rx (deg)	ry (deg)
0.000	15.10064	1.99446	13.42549	1.44719
3.992	15.13977	2.09644	13.40824	1.43382
8.000	15.02739	2.07398	13.35663	1.45843
12.010	15.12585	2.08831	13.31650	1.38956
15.994	15.01186	2.11752	13.28862	1.45773
20.027	15.07068	2.18625	13.43449	1.22691
23.991	15.09770	2.26666	13.31723	1.60725
27.989	15.08530	2.28193	13.45641	1.50564
31.998	14.98993	2.17471	13.39189	1.57711
35.991	15.04059	2.10297	13.59863	1.35975
40.006	15.09525	2.18758	13.45512	1.55417
44.011	15.01985	2.11279	13.50051	1.50078
48.005	14.44169	1.72073	12.93875	1.38942
51.988	12.10879	-0.47977	10.79430	1.16454
55.993	9.83970	0.32930	8.37597	1.37829
59.989	7.80382	-1.39092	7.00837	1.18084
64.000	6.99702	-2.97069	5.61458	0.81989
67.991	6.51856	-2.97971	4.64855	-0.36526
71.989	5.45206	-2.88695	4.25344	0.09940
75.992	4.98191	-2.68043	3.04405	0.13836
79.989	5.20278	-2.80597	2.51485	0.15938
83.985	5.59322	-2.66389	4.00880	0.34222
88.025	5.87612	-2.71447	4.22412	0.58218
91.995	6.32115	-2.78836	3.99660	0.37554
96.005	5.55951	-2.84736	4.11142	0.08484
99.994	5.34577	-2.88566	3.92904	0.30604
103.983	5.08037	-3.02299	3.09686	0.17873
107.995	5.21508	-3.14415	2.93497	-0.07110
111.989	5.34255	-2.95896	2.94379	0.04010
115.998	5.26243	-3.12190	3.21008	0.20644
119.983	5.79381	-2.97765	2.84118	0.25948
123.999	5.45663	-3.01024	3.02608	0.10137
127.994	5.42331	-3.18287	3.13665	0.19852
131.997	5.42626	-3.16342	3.26386	0.17446
135.987	5.36484	-3.20636	2.94636	0.03072
139.987	5.36317	-3.24607	3.02492	0.14375
143.987	5.36550	-3.26345	3.17829	0.18794
147.991	5.39505	-3.27917	3.04048	0.07405
151.988	5.40208	-3.21381	3.14917	0.06022
156.335	5.36312	-3.19576	3.20310	0.09656
160.001	5.36031	-3.17316	3.12044	0.04972
163.983	5.31362	-3.19686	3.18987	0.01238
167.998	5.33293	-3.14064	3.25698	-0.02655
171.988	5.32006	-3.02308	3.05365	-0.03541
175.998	5.34644	-2.81369	3.12930	-0.05637
179.990	5.35979	-2.94869	3.17839	-0.03645
183.995	5.35256	-2.84631	3.21176	0.00526
187.985	5.39524	-2.73098	3.24838	-0.07882
191.989	5.36218	-2.79197	3.28659	-0.09871
195.990	5.38582	-2.74998	3.25340	-0.10705
199.991	5.50525	-2.67572	3.25555	-0.10015
203.987	5.41079	-2.75063	3.19326	-0.06619
207.986	5.41923	-2.76555	3.20800	-0.07872
211.986	5.40853	-2.89809	3.24845	-0.05929
215.992	5.47805	-2.97656	3.35580	-0.08948
220.007	5.39045	-3.04550	3.23996	-0.12824
224.024	5.34073	-3.05559	3.42490	-0.12886
227.990	5.39721	-3.05844	3.21090	-0.14561
231.990	5.38440	-3.10846	3.17198	-0.21459
235.995	5.36929	-3.26966	3.25191	-0.14754
239.990	5.30208	-3.29971	3.20845	-0.11194
243.986	5.32634	-3.30121	3.03484	-0.16233
247.987	5.33952	-3.41180	3.20822	-0.14313
251.990	5.47023	-3.26480	3.26787	-0.09834
255.993	5.47987	-3.15317	3.24449	-0.09346
259.982	5.45058	-3.17187	3.17327	-0.12800
264.001	5.41866	-3.07582	3.24885	-0.07532
267.991	5.33760	-3.03118	3.21735	-0.05838
271.990	5.41893	-2.81404	3.20602	-0.00206
275.983	5.47237	-2.73828	3.18885	-0.03620
279.986	5.51282	-2.80934	3.21161	-0.04972
283.992	5.55125	-2.62375	3.26381	-0.02478
287.981	5.47796	-2.65671	3.28565	-0.03255
292.019	5.39364	-2.60171	3.28207	-0.02057
296.013	5.47213	-2.52267	3.27722	-0.07457
299.999	5.44355	-2.59115	3.28167	-0.04093
303.986	5.40026	-2.53966	3.18658	-0.03677
307.988	5.37507	-2.61393	3.27007	-0.06760
311.984	5.42277	-2.56732	3.13504	-0.08362
315.997	5.30136	-2.67854	3.26441	-0.09799
319.996	5.45912	-2.80172	3.11858	-0.05868
323.985	5.21070	-2.83408	3.11156	-0.04419
327.983	5.20477	-2.68935	3.06808	-0.05166
331.985	5.10586	-2.68085	2.97893	0.08571
335.990	5.14020	-2.79437	2.88111	0.09671
339.987	5.02935	-2.79527	2.93200	0.09748
343.982	5.01152	-2.86032	2.92445	0.14324
347.988	4.94341	-2.91800	2.99195	0.15371
351.986	5.07707	-2.74639	2.86769	0.19676
355.983	5.02122	-2.58847	2.85826	0.18130
359.989	4.97953	-2.34145	2.77389	0.34673
363.984	4.89762	-2.36390	2.88450	0.37139
367.989	4.97019	-2.43314	2.85918	0.44724
371.984	4.91592	-2.13921	2.99467	0.44716
376.010	4.95452	-2.24109	2.97440	0.50834
379.984	4.94100	-2.22749	2.99351	0.52202
383.999	4.97682	-2.22905	2.95653	0.66090
387.982	5.05289	-2.15417	2.94460	0.59592
391.982	5.02834	-2.23179	3.04336	0.59127
395.994	5.04213	-2.22828	3.05546	0.41977
399.988	5.04481	-2.28299	3.08486	0.44581
403.985	5.04334	-2.27340	3.09292	0.46057
407.983	5.03275	-2.43024	3.07139	0.54174
411.983	5.08478	-2.55312	3.07315	0.50405
415.997	5.04546	-2.54695	3.07756	0.37267
419.986	5.12240	-2.72442	3.03519	0.32109
423.997	5.08069	-2.64559	3.05548	0.23399
427.985	5.07476	-2.70630	3.09906	0.22999
431.983	5.25995	-2.60916	3.11227	0.19406
435.987	4.99928	-2.62895	3.06721	0.19819
439.986	5.03994	-2.58996	3.08315	0.22582
443.981	5.02765	-2.41375	3.06021	0.33133
447.981	5.04947	-2.39996	3.12724	0.32987
451.983	5.13030	-2.32116	3.07276	0.36711
455.996	5.19773	-2.23688	3.09911	0.29862
459.985	5.07764	-2.14625	3.11903	0.32534
463.988	5.14222	-2.11297	3.17893	0.34010
467.996	5.08062	-2.03763	3.14380	0.42497
471.986	5.07796	-2.05346	3.11960	0.50747
475.979	5.08010	-2.02873	3.12361	0.51119
479.985	5.08276	-2.08142	3.16470	0.50909
483.991	5.09916	-2.17416	3.11151	0.56496
487.985	5.20189	-2.06801	3.19041	0.52689
491.979	5.17787	-2.18523	3.09681	0.52277
495.983	5.08131	-2.31375	3.12215	0.43679
499.984	5.14825	-2.42259	3.08305	0.36783
503.984	5.14485	-2.50486	3.06135	0.29315
507.990	5.05481	-2.43641	3.07434	0.34225
511.977	5.04228	-2.53602	3.04311	0.45173
515.996	5.07193	-2.48291	3.03561	0.31913
519.979	4.99443	-2.52111	3.08109	0.29304
523.987	5.09458	-2.45244	3.05761	0.41500
527.984	5.12203	-2.24728	3.09725	0.31132
531.981	5.09906	-2.34729	2.97495	0.39513
535.995	5.04344	-2.31028	3.04917	0.37148
539.982	5.06848	-2.34258	3.02437	0.40571
543.980	5.01834	-2.22819	2.97242	0.47437
547.991	5.04373	-2.21164	3.01185	0.49576
551.988	5.05548	-2.20233	3.06112	0.49974
555.980	5.09062	-2.20594	3.01145	0.46303
559.983	5.07010	-2.20139	2.98341	0.38868
564.032	5.11703	-2.19582	2.97460	0.33059
567.984	5.11923	-2.35389	2.97638	0.24689
571.992	5.03479	-2.27264	2.92896	0.28187
575.981	5.02703	-2.37619	2.91834	0.22928
579.980	5.06996	-2.35731	2.92200	0.17372
583.981	5.12137	-2.36757	2.95631	0.14051
587.993	5.05954	-2.37632	2.96841	0.17078
591.984	5.09872	-2.43790	2.98742	0.14197
596.044	5.10763	-2.43191	2.94262	0.13103
599.983	4.92910	-2.48457	2.93641	0.10128
603.978	5.01145	-2.50676	3.02534	0.08898
607.991	5.05351	-2.53034	2.92146	0.15257
611.980	4.85504	-2.55571	2.96443	0.19622
615.984	5.01081	-2.61673	2.98029	0.34034
619.988	5.13008	-2.54644	3.07120	0.28793
623.979	5.05944	-2.37007	3.02121	0.40611
627.990	5.07316	-2.38294	3.03388	0.51067
632.030	5.16295	-2.27651	3.02982	0.41536
635.982	5.06535	-2.04660	2.96782	0.44834
639.979	5.15569	-2.05074	2.99970	0.41810
643.979	5.16654	-2.28453	3.06659	0.40034
647.978	5.13033	-2.24157	2.99222	0.48141
651.977	5.25803	-2.37160	3.05167	0.40156
655.985	5.24466	-2.45892	3.07441	0.43217
659.978	5.15342	-2.15432	3.10411	0.28306
663.981	5.19864	-1.99078	3.06939	0.46065
667.977	5.25202	-1.99931	3.07382	0.41443
671.990	5.20676	-1.96367	3.08582	0.33644
675.980	5.22749	-1.94237	3.14531	0.28680
679.973	5.25778	-2.09639	3.12051	0.23911
683.995	5.22347	-2.35004	3.10968	0.16560
687.980	5.22323	-2.37181	3.09104	0.10905
691.985	5.17240	-2.36115	3.15805	-0.08828
695.980	5.11489	-2.38271	3.11868	0.22661
700.021	5.18043	-2.20746	3.12603	0.37141
704.047	5.15204	-2.25076	3.11240	0.43456
707.977	5.09369	-2.48229	3.12529	0.37992
711.980	5.00829	-2.44911	3.11680	0.25125
715.987	5.01960	-2.55884	3.11079	0.17592
719.981	5.02905	-2.54049	3.07305	0.43549
723.984	4.99723	-2.46598	3.06573	0.59816
727.976	5.06087	-2.59257	3.02170	0.23068
731.981	5.03888	-2.57213	3.08505	0.46779
735.987	5.07636	-2.60011	3.05432	0.56554
739.982	5.11999	-2.38771	3.07716	0.50065
743.982	5.16745	-2.36564	3.09933	0.50547
747.984	5.11359	-2.34474	3.19870	0.42891
751.984	5.12545	-2.41163	3.25283	0.41004
755.985	5.08840	-2.53599	3.24499	0.52540
759.982	5.09074	-2.35392	3.23722	0.47323
763.995	5.13838	-2.26118	3.20461	0.35466
767.978	5.17183	-2.37850	3.17918	0.35397
772.021	5.06801	-2.38005	3.15451	0.43715
775.978	4.81658	-2.43674	3.09730	0.45665
779.975	4.91807	-2.43140	3.17307	0.33075
783.975	5.25564	-2.36035	3.11453	0.24368
787.978	5.03671	-2.31786	2.99688	0.27413
791.982	5.06823	-2.34389	3.07879	0.23992
795.993	5.12947	-2.29364	3.06266	0.25280
799.984	5.13065	-2.18767	3.03954	0.18154
804.000	5.21272	-2.22848	2.97596	0.07529
807.980	5.11447	-2.20332	2.99188	0.16150
811.976	5.16602	-2.25550	3.10344	0.13503
815.978	5.16794	-2.13777	3.13296	0.18217
819.977	5.15416	-2.02620	3.31645	0.13786
823.981	5.20873	-1.95508	3.28701	0.13635
827.846	5.13316	-1.94016	3.24684	0.06041
831.855	5.11108	-1.95613	3.31959	0.06197
835.873	5.06390	-1.99904	3.32258	0.00310
839.853	4.98847	-1.98696	3.33562	0.02565
843.856	5.06877	-2.00896	3.36990	-0.02409
847.854	5.03176	-1.92388	3.37880	0.03088
851.849	5.06976	-2.01101	3.34628	0.13976
855.854	5.07267	-1.96623	3.34766	0.08561
859.850	5.12708	-1.99585	3.34138	0.05872
863.849	5.08522	-2.00911	3.29456	0.11727
867.848	5.11039	-2.05783	3.31066	0.15314
871.850	5.10027	-2.04206	3.29698	0.15862
875.876	5.16487	-1.92610	3.28803	0.19348
879.858	5.17688	-1.88565	3.30307	0.20633
883.854	5.22522	-1.88928	3.25805	0.24794
887.856	5.24518	-1.98470	3.23722	0.38576
891.853	5.18961	-2.08335	3.19454	0.28388
895.853	5.23113	-2.16817	3.25889	0.20887
899.850	5.23743	-2.17452	3.18175	0.17725
903.889	5.20413	-2.15741	3.21577	0.12043
907.853	5.18527	-2.11112	3.11720	0.11677
911.850	5.16733	-2.01533	3.08409	0.05764
915.849	5.12339	-1.94178	3.10294	0.03727
919.850	5.07412	-2.01362	3.22826	0.10785
923.850	5.15615	-2.07216	3.22116	0.09579
927.859	5.11447	-2.15559	3.17082	0.06744
931.847	5.09441	-2.19375	3.15352	0.05627
935.848	5.03647	-2.29599	3.14729	0.03943
939.849	4.96231	-2.31069	3.07313	0.12484
943.857	4.90673	-2.24120	3.23677	0.12410
947.849	4.94265	-2.23616	3.16646	0.25089
951.849	4.98689	-2.26651	3.13155	0.28938
955.867	4.98327	-2.19934	3.23682	0.28940
959.857	4.95046	-2.28188	3.24301	0.41009
963.848	4.99046	-2.26603	3.17574	0.43165
967.853	5.01019	-2.11206	3.17294	0.44448
971.891	4.99864	-2.14933	3.19865	0.39453
975.854	5.03041	-1.97583	3.19093	0.40741
979.848	5.04235	-1.95683	3.26708	0.41574
983.850	5.06503	-1.88486	3.27823	0.55522
987.848	4.99169	-1.95777	3.16062	0.61790
991.849	4.81914	-1.62161	2.78409	0.66333
995.852	3.67722	-0.44985	2.17286	1.52785
999.853	4.03935	0.11824	2.13668	1.80054
1003.850	4.45044	0.12313	2.31606	2.15834
1007.847	4.23313	-0.08986	2.37803	1.16913
1011.869	4.34492	-0.21006	2.29753	1.16075
1015.843	4.12609	-0.20596	2.28427	1.71403
1019.847	4.07626	-0.02313	2.21469	1.55141
1023.846	3.91694	0.11429	2.21754	1.71850
1027.859	3.78091	0.19055	2.15576	1.90492
1031.847	3.75311	0.15175	2.05972	1.93314
1035.846	3.81659	0.18095	2.13403	1.95977
1039.868	3.85190	0.14539	2.13490	1.95361
1043.882	3.83972	0.21072	2.16468	1.93978
1047.933	3.68807	0.06933	2.15698	1.92710
1051.854	3.82704	0.04793	2.12867	2.00147
1055.865	3.68441	-0.01225	2.08897	2.08869
1059.852	3.74973	-0.05056	2.15299	2.29064
1063.853	3.68273	-0.04952	2.09266	2.29003
1067.849	3.67267	-0.29633	2.04971	2.38540
1071.843	3.84241	-0.49513	2.08493	2.27790
1075.858	3.76020	-0.53128	2.06364	2.36443
1079.854	3.78850	-0.48488	2.01434	2.36234
1083.846	3.73735	-0.52091	2.09489	2.51112
1087.845	3.61382	-0.52914	2.07321	2.47393
1091.847	3.71787	-0.53500	2.00869	2.50315
1095.848	3.76480	-0.55907	2.04540	2.50317
1099.855	3.89496	-0.50428	2.06580	2.40944
1103.849	3.75963	-0.37195	2.00133	2.28327
1107.880	3.83267	-0.34401	2.01246	2.18030
1111.847	3.82035	-0.19017	2.08062	2.08550
1115.847	3.78355	-0.20265	2.04007	2.14128
1119.844	3.76559	-0.04681	2.03764	1.94054
1123.845	3.69019	-0.09741	2.02051	1.85470
1127.890	3.83090	-0.04096	2.05618	1.73392
1131.843	3.78491	0.04272	2.06562	1.68853
1135.862	3.68952	0.12773	2.00661	1.62708
1139.845	3.75534	0.13925	2.13061	1.52122
1143.848	3.78341	0.16263	2.14268	1.41148
1147.850	3.77483	0.12794	2.11125	1.42833
1151.873	3.66985	0.11747	2.04272	1.43663
1155.844	3.82954	0.04537	2.04570	1.46351
1159.852	3.71837	0.06819	1.96457	1.59198
1163.847	3.65028	0.05200	2.01573	1.43658
1167.849	3.73225	0.05535	2.12610	1.60500
1171.846	3.70850	0.05483	2.13631	1.52444
1175.875	3.63742	0.05553	2.06476	1.78519
1179.848	3.70168	0.03749	2.10625	1.81007
1183.856	3.76386	0.01684	2.10803	1.90900
1187.847	3.62862	0.00618	1.97780	1.87068
1191.843	3.63100	-0.01039	2.06550	1.97228
1195.847	3.65119	-0.07497	2.06332	1.84054
1199.844	3.59733	-0.06661	2.12533	1.93802
1203.855	3.59184	-0.10240	2.12699	1.84925
1207.848	3.54912	-0.09144	2.16942	2.00883
1211.838	3.55661	-0.27849	2.12429	1.95745
1215.854	3.64948	-0.47813	2.01823	1.78911
1219.847	3.56307	-0.54035	2.06359	1.81928
1223.851	3.65119	-0.51949	2.22379	1.73365
1227.839	3.64284	-0.59659	2.12384	1.42405
1231.852	3.56739	-0.54432	2.22490	1.45071
1235.843	3.49342	-0.51591	2.13514	1.44742
1239.842	3.51179	-0.40269	2.17346	1.50865
1243.849	3.62640	0.55338	2.25608	1.85970
1247.849	5.94087	-0.24992	2.88175	3.43242
1251.843	6.13164	2.79373	4.37502	4.79150
1255.844	6.96907	4.79351	5.05693	6.01468
1259.847	7.42578	4.82422	6.05977	6.40837
1263.858	8.30529	4.36598	6.31627	6.59596
1267.840	7.93357	3.78193	6.33079	6.65808
1271.851	7.91098	4.13260	6.26679	6.69094
1275.844	7.76328	3.95294	6.04603	6.67332
1279.844	7.84172	3.74887	5.79322	6.81692
1283.849	7.97873	3.61725	6.21904	6.75552
1287.843	7.90194	3.89479	6.11056	6.87640
1291.846	7.85599	4.13758	6.30573	6.77619
1295.863	8.18830	4.09256	6.39467	6.75287
1299.861	7.89084	4.12575	6.45003	6.85729
1303.853	8.00267	4.02540	6.38837	6.87785
1307.842	7.89228	4.08704	6.40459	6.81142
1311.840	7.84484	4.05785	6.42648	6.82340
1315.852	7.74803	4.03874	6.46287	6.79981
1319.846	7.86539	4.05539	6.46782	6.80486
1323.841	7.86379	4.06827	6.54212	6.73757
1327.847	7.84048	4.08187	6.49915	6.82679
1331.841	7.80889	4.09501	6.50486	6.88432
1335.843	7.94586	4.05693	6.41430	7.00221
1339.847	7.92846	3.97790	6.33797	7.08495
1343.848	7.94358	3.96612	6.23653	7.21346
1347.843	7.84676	3.93483	6.17330	7.19514
1351.842	7.82494	3.85351	6.22419	7.16627
1355.842	8.31654	3.84355	6.20693	7.20426
1359.845	8.03015	3.87036	6.21021	7.13929
1363.868	8.04640	3.96750	6.13927	7.18975
1367.840	7.96872	4.11449	6.13932	7.05756
1371.841	7.93211	4.23195	6.14074	7.23319
1375.844	8.04402	4.22406	6.15662	7.09989
1379.869	8.02859	4.25618	6.23962	6.99789
1383.848	7.94628	4.36165	6.35001	6.89910
1387.851	7.92315	4.49675	6.37143	6.90086
1391.842	7.92982	4.56790	6.42082	6.78260
1395.886	7.94652	4.56761	6.39055	6.77418
1399.856	7.81680	4.63036	6.36957	6.71247
1403.844	7.15242	4.70629	6.39726	6.64064
1407.837	7.79003	4.69862	6.40197	6.65091
1411.839	7.80523	4.74288	6.40065	6.62668
1415.848	7.86849	4.74649	6.38746	6.60078
1419.840	7.85711	4.74146	6.35064	6.56111
1423.848	7.89189	4.75960	6.23261	6.57380
1427.845	7.87823	4.77215	6.20818	6.58585
1431.842	7.98812	4.69878	6.09947	6.64675
1435.849	8.11693	4.58885	6.14555	6.69034
1439.845	8.24594	4.19432	6.14602	6.71912
1443.843	8.34669	4.05807	6.24769	6.76632
1447.933	8.37555	4.07734	6.28180	6.81303
1451.856	8.36389	3.93853	6.36667	6.88021
1455.856	8.46672	3.90749	6.40714	6.87755
1459.844	8.42498	3.90865	6.40734	6.95764
1463.836	8.50656	3.86420	6.42072	6.99181
1467.849	8.45917	3.81002	6.43535	7.05145
1471.846	8.47398	3.74786	6.48703	7.03714
1475.851	8.47541	3.71772	6.52980	7.03859
1479.836	8.43642	3.67090	6.55187	7.03198
1483.846	8.38401	3.65555	6.54501	7.03432
1487.839	8.37390	3.61522	6.51569	7.01537
1491.851	8.36676	3.89291	6.49131	7.02689
1495.844	8.60562	4.01709	6.50957	6.92304
1499.843	10.19878	3.65016	8.18915	5.63870
1503.836	11.56612	2.37657	10.27417	2.59574
1507.858	12.33058	1.16984	11.29092	1.80604
1511.842	12.90095	0.48169	12.18735	1.29701
1515.844	13.05190	-0.00300	12.42752	-0.24779
1519.894	13.29309	-0.61919	12.55228	-1.19934
1523.839	13.36335	-1.14305	12.40690	-0.94036
1527.843	13.42657	-0.95637	12.09360	-0.84287
1531.834	13.41056	-0.64345	12.22189	-0.86240
1535.857	13.45655	-0.55227	12.25661	-0.70307
1539.847	13.50619	-0.75777	12.38031	-0.71102
1543.844	13.47162	-0.92036	12.37605	-0.76602
1547.837	13.44322	-1.00259	12.46777	-0.74459
1551.879	13.52749	-0.87184	12.49126	-0.69330
1555.842	13.54800	-0.92460	12.51617	-0.69803
1559.845	13.59785	-0.94175	12.48842	-0.72899
1563.851	13.58247	-0.94157	12.38905	-0.67530
1567.837	13.59434	-0.89699	12.39348	-0.63226
1571.851	13.58660	-0.89000	12.38384	-0.61457
1575.839	13.59502	-0.85350	12.40422	-0.56053
1579.842	13.61042	-0.80443	12.38962	-0.58152
1583.881	13.62116	-0.74854	12.31492	-0.60431
1587.840	13.64572	-0.68526	12.25616	-0.59025
1591.846	13.66939	-0.63589	12.17174	-0.56508
1595.854	13.66067	-0.56812	12.16570	-0.56866
1599.840	13.66826	-0.55400	12.15597	-0.56518
1603.839	13.64295	-0.49765	12.15462	-0.55149
1607.843	13.64033	-0.42679	12.15384	-0.55469
1611.846	13.63086	-0.41579	12.18571	-0.63766
1615.836	13.61729	-0.37580	12.21620	-0.69014
1619.839	13.58704	-0.35542	12.26574	-0.71368
1623.843	13.61694	-0.36535	12.27242	-0.76574
1627.851	13.63168	-0.37467	12.31353	-0.75523
1631.845	13.65821	-0.34766	12.38296	-0.80446
1635.850	13.66269	-0.36994	12.40865	-0.87909
1639.845	13.68705	-0.38047	12.45023	-0.91128
1643.835	13.69757	-0.36648	12.49420	-0.94523
1647.836	13.74966	-0.39473	12.55668	-0.98521
1651.844	13.81277	-0.41265	12.58758	-1.03229
1655.845	13.84027	-0.43545	12.61824	-1.06067
1659.835	13.88659	-0.44289	12.62934	-1.07214
1663.837	13.91039	-0.48030	12.64104	-1.08557
1667.833	13.95825	-0.46896	12.63849	-1.09203
1671.841	14.01195	-0.48170	12.64274	-1.14187
1675.847	13.97926	-0.47215	12.61859	-1.13705
1679.839	13.96912	-0.44355	12.61145	-1.12407
1683.715	14.00833	-0.39605	12.57254	-1.12834
1687.723	14.00971	-0.41336	12.58822	-1.12461
1691.723	14.01309	-0.36154	12.59793	-0.96643
1695.717	14.05504	-0.36811	12.57082	-0.94910
1699.718	14.08799	-0.32308	12.57018	-0.93930
1703.709	14.05666	-0.34072	12.59651	-0.89811
1707.726	14.08482	-0.28259	12.57697	-0.88703
1711.715	14.09217	-0.24981	12.61046	-0.83178
1715.712	14.05593	-0.28097	12.61372	-0.78362
1719.716	14.07333	-0.22028	12.63891	-0.75426
1723.773	14.07870	-0.22235	12.69188	-0.70352
1727.716	14.08846	-0.23391	12.68248	-0.67538
1731.708	14.07697	-0.19682	12.67575	-0.65758
1735.707	14.05610	-0.22861	12.63660	-0.67632
1739.709	14.04236	-0.20898	12.61866	-0.62601
1743.715	13.99464	-0.29377	12.60216	-0.56305
1747.708	13.98363	-0.34346	12.60876	-0.49379
1751.729	13.91806	-0.65091	12.57498	-0.54109
1755.702	13.87410	-0.82993	12.54985	-0.49414
1759.724	13.83510	-0.91101	12.53790	-0.46050
1763.723	13.81986	-0.77959	12.41329	-0.45531
1767.712	13.76078	-0.92044	12.30114	-0.57747
1771.718	13.74435	-0.85132	12.23711	-0.71968
1775.715	13.73671	-0.86976	12.18891	-0.87618
1779.709	13.71580	-0.93375	12.16989	-0.89050
1783.710	13.68031	-0.98554	12.16090	-0.88693
1787.739	13.70259	-0.94929	12.07889	-0.97371
1791.710	13.67286	-0.91941	12.12708	-1.04458
1795.729	13.68096	-0.83803	12.09695	-1.13432
1799.713	13.70495	-0.77082	12.09429	-1.14448
1803.709	13.72100	-0.70099	12.09263	-1.23263
1807.711	13.73730	-0.65366	12.16095	-1.24564
1811.722	13.74643	-0.63175	12.21215	-1.27296
1815.711	13.75388	-0.62285	12.20890	-1.27972
1819.710	13.74641	-0.58012	12.24855	-1.22472
1823.714	13.75062	-0.56720	12.27683	-1.19217
1827.708	13.74922	-0.56327	12.27012	-1.17186
1831.709	13.70587	-0.53588	12.26003	-1.13690
1835.718	13.69565	-0.55801	12.22575	-1.14149
1839.718	13.69678	-0.52564	12.20930	-1.09026
1843.709	13.70273	-0.53526	12.15981	-1.08789
1847.712	13.66948	-0.55301	12.13116	-1.05568
1851.711	13.64729	-0.54871	12.08105	-1.05236
1855.711	13.64891	-0.57008	12.05998	-1.01231
1859.710	13.65235	-0.53284	12.05452	-0.99304
1863.719	13.62894	-0.56534	12.02677	-1.00102
1867.711	13.60268	-0.54449	12.00371	-1.01053
1871.720	13.57558	-0.54352	11.98260	-1.04553
1875.707	13.53179	-0.60626	11.98094	-1.05888
1879.716	13.40645	-0.62231	11.91405	-0.85683
1883.707	13.26382	-0.69003	11.39041	-0.93160
1887.719	9.95745	-1.04166	8.98988	-0.91789
1891.712	8.02752	-1.88574	6.47260	-0.88401
1895.712	5.75406	-2.63949	6.12315	-0.85941
1899.711	5.12920	-3.06933	4.68969	-0.94659
1903.710	2.31145	-3.07895	2.72117	-0.96927
1907.711	1.86895	-3.46141	1.47670	-1.15522
1911.703	0.24619	-3.51882	0.24368	-1.30782
1915.726	-0.48426	-3.50720	-1.27634	-1.17665
1919.740	-0.50374	-3.56531	-1.51107	-1.43623
1923.709	-0.58990	-3.31416	-1.54790	-1.51653
1927.708	-0.34114	-3.09773	-1.28279	-1.45218
1931.722	0.08880	-3.16046	-1.28809	-1.55131
1935.711	-0.29498	-3.63569	-1.35675	-1.56271
1939.705	-0.66305	-3.60082	-1.52947	-1.62581
1943.714	-0.66858	-3.62354	-1.59608	-1.66599
1947.705	-0.71111	-3.55517	-1.77102	-1.68969
1951.716	-0.74580	-3.48445	-1.83038	-1.70790
1955.712	-0.69742	-3.82361	-1.99235	-1.67583
1959.704	-0.60449	-3.96463	-1.75505	-1.67479
1963.711	-0.59369	-3.98999	-1.77325	-1.65554
1967.717	-0.58163	-3.90191	-1.77737	-1.62337
1971.718	-0.64511	-3.86919	-1.80038	-1.62695
1975.709	-0.64069	-4.06410	-1.82130	-1.60936
1979.717	-0.64595	-4.11502	-1.80685	-1.60270
1983.714	-0.60774	-4.09187	-1.78171	-1.61357
1987.706	-0.58285	-4.21438	-1.87976	-1.61335
1991.710	-0.51408	-4.15084	-1.85390	-1.62849
1995.720	-0.43981	-4.19740	-1.90202	-1.63708
1999.710	-0.41904	-4.16859	-1.78924	-1.60996
2003.714	-0.43629	-4.16322	-1.76646	-1.61115
2007.709	-0.39162	-4.08293	-1.79730	-1.64512
2011.705	-0.35658	-4.01834	-1.81451	-1.65322
2015.710	-0.31459	-4.07552	-1.83424	-1.69005
2019.711	-0.26421	-3.94127	-1.84674	-1.75153
2023.708	-0.21293	-3.80924	-1.88873	-1.71727
2027.703	-0.21152	-3.71955	-1.86741	-1.54286
2031.709	-0.16283	-3.57949	-1.86387	-1.54254
2035.715	-0.13258	-3.48399	-1.81084	-1.56155
2039.716	-0.16007	-3.33101	-1.74526	-1.53964
2043.704	-0.16000	-3.32408	-1.74434	-1.55897
2047.704	-0.14915	-3.24071	-1.76991	-1.55756
2051.706	-0.18430	-3.21051	-1.77950	-1.57962
2055.718	-0.25373	-3.25362	-1.85837	-1.52334
2059.716	-0.26805	-3.24604	-1.89853	-1.46423
2063.718	-0.35047	-3.23541	-1.73083	-1.44657
2067.714	-0.38345	-3.43290	-1.68761	-1.43374
2071.714	-0.36236	-3.48943	-1.66517	-1.47844
2075.705	-0.39286	-3.44787	-1.69366	-1.51133
2079.704	-0.48195	-3.59707	-1.61520	-1.50876
2083.706	-0.48880	-3.82390	-1.63903	-1.48218
2087.710	-0.53307	-3.81405	-1.78374	-1.46279
2091.706	-0.52552	-3.87078	-1.91120	-1.45752
2095.714	-0.55845	-3.88523	-1.75818	-1.46881
2099.696	-0.47053	-3.94956	-1.88730	-1.51676
2103.718	-0.47483	-3.99444	-1.71714	-1.55165
2107.704	-0.55471	-3.98037	-1.69483	-1.57142
2111.708	-0.39129	-4.05541	-1.76971	-1.57737
2115.732	-0.45175	-4.02690	-1.84443	-1.57177
2119.711	-0.43150	-4.06132	-1.74861	-1.54849
2123.708	-0.48316	-4.01585	-1.71965	-1.55048
2127.709	-0.48798	-3.97418	-1.67067	-1.59611
2131.703	-0.54950	-3.89493	-1.80583	-1.56021
2135.716	-0.45748	-3.92424	-1.72932	-1.56792
2139.709	-0.41594	-3.92120	-1.66780	-1.47871
2143.709	-0.48728	-3.90261	-1.64888	-1.41374
2147.698	-0.48319	-3.97203	-1.69964	-1.46196
2151.715	-0.42323	-4.01348	-1.72872	-1.47621
2155.702	-0.56069	-3.94473	-1.69589	-1.52774
2159.707	-0.50125	-3.97907	-1.64702	-1.50951
2163.701	-0.58126	-3.96863	-1.74878	-1.54802
2167.739	-0.46984	-4.07547	-1.76046	-1.47752
2171.714	-0.61697	-4.11129	-1.85559	-1.46573
2175.702	-0.46855	-4.13952	-1.80152	-1.46779
2179.713	-0.48172	-4.16626	-1.81081	-1.57909
2183.709	-0.49535	-4.20080	-1.80355	-1.53626
2187.707	-0.55895	-4.21433	-1.79306	-1.54044
2191.703	-0.45688	-4.24277	-1.83082	-1.55475
2195.724	-0.45966	-4.25062	-1.87314	-1.56603
2199.750	-0.44472	-4.28271	-1.86590	-1.56013
2203.701	-0.50051	-4.24820	-1.86605	-1.58646
2207.704	-0.45507	-4.24430	-1.86873	-1.63597
2211.701	-0.39956	-4.23370	-1.91457	-1.70317
2215.722	-0.32605	-4.19990	-1.85207	-1.69457
2219.712	-0.41782	-3.97580	-1.84691	-1.69384
2223.713	-0.49475	-1.97751	-1.88569	-1.45151
2227.703	-0.56389	-1.59865	-1.91405	1.23196
2231.702	-1.23176	1.74419	-1.99741	2.15917
2235.708	-1.09371	2.69247	-2.89539	4.65718
2239.703	-2.73117	4.51146	-2.30194	5.51294
2243.702	-3.24914	5.59779	-4.39577	7.54857
2247.718	-3.51792	5.24830	-3.57768	7.25570
2251.757	-3.58789	5.08193	-3.78815	7.30253
2255.701	-3.28184	4.90235	-3.36832	7.10539
2259.705	-3.00240	4.75286	-3.70032	7.08370
2263.739	-3.02418	4.66283	-3.31309	6.84296
2267.704	-3.99200	5.02814	-3.56405	6.33237
2271.708	-3.49569	5.47010	-3.49923	6.60132
2275.702	-3.91262	6.08494	-3.58717	6.74708
2279.705	-4.25665	6.33042	-3.68275	6.89787
2283.700	-3.65512	5.20215	-4.27262	7.13699
2287.710	-3.51508	5.08012	-3.85590	7.16347
2291.705	-3.84718	5.40501	-3.85311	7.28340
2295.716	-3.77451	5.54902	-3.85096	7.05370
2299.704	-4.20052	5.76270	-3.95881	7.32146
2303.705	-4.28012	5.81435	-3.92816	7.33214
2307.712	-4.23957	6.19738	-3.78370	7.37820
2311.744	-3.97271	5.44496	-3.95550	7.46996
2315.715	-3.93132	5.43007	-4.03678	7.50921
2319.729	-4.19047	5.60051	-3.97459	7.49835
2323.703	-4.19862	5.80934	-4.02599	7.52164
2327.703	-4.14586	6.03154	-3.93203	7.32550
2331.704	-4.07308	5.96658	-3.98788	7.35978
2335.699	-4.02233	5.37022	-4.09125	7.39701
2339.706	-4.26223	5.81338	-4.09468	7.47747
2343.702	-3.96654	5.93881	-4.02552	7.55634
2347.708	-3.95691	6.17000	-3.88537	7.29903
2351.700	-3.87131	5.68674	-4.16228	7.33453
2355.705	-4.02581	5.74437	-4.08488	7.27347
2359.699	-4.03621	5.93613	-3.90886	7.20722
2363.703	-4.08888	6.24176	-4.16998	7.45528
2367.698	-3.99939	5.67694	-4.21812	7.30371
2371.705	-4.00914	5.86897	-4.17635	7.30351
2375.701	-3.88861	5.94324	-3.88223	7.08288
2379.698	-4.05905	6.03967	-4.14438	7.23357
2383.715	-3.88268	5.81382	-4.00482	7.32815
2387.719	-3.73920	5.84576	-3.90600	7.01051
2391.703	-4.10209	6.02275	-4.22409	7.12089
2395.707	-4.01796	5.79321	-3.80391	7.17444
2399.705	-3.95589	6.06121	-4.19074	7.72413
2403.827	-3.92499	5.61268	-3.98205	7.08300
2407.705	-4.15912	5.89395	-3.70905	7.07425
2411.699	-3.81155	5.93482	-4.00205	7.23005
2415.702	-4.08300	5.71741	-3.74842	7.07484
2419.702	-4.10604	5.82699	-3.77918	6.99588
2423.708	-3.83048	5.44725	-3.90459	6.98627
2427.701	-4.66859	5.84791	-3.62739	7.17615
2431.704	-4.17924	5.99538	-3.62734	6.85572
2435.699	-3.85014	5.43602	-3.45838	6.85493
2439.705	-4.49383	5.76236	-3.45747	6.89640
2443.703	-4.18679	5.87442	-3.67220	7.02946
2447.697	-3.69434	5.19661	-3.59555	7.20672
2451.715	-4.51090	5.74241	-3.58341	7.07526
2455.707	-3.71827	5.86921	-3.55355	6.71797
2459.697	-4.06295	5.99902	-3.56344	6.88064
2463.698	-4.12011	5.36608	-3.43128	7.07496
2467.701	-4.01250	5.90444	-3.51132	6.97739
2471.757	-3.79934	5.96559	-3.77090	7.04128
2475.700	-4.38447	6.12861	-3.55070	7.37749
2479.696	-3.24432	5.19235	-3.74076	7.30197
2483.696	-3.43959	5.69840	-3.64518	6.88210
2487.714	-3.60566	5.78138	-3.59214	6.99988
2491.698	-4.13586	6.09257	-3.46347	7.00294
2495.692	-3.62032	5.75407	-3.74199	7.03699
2499.717	-3.53377	5.32292	-3.83922	7.03538
2503.700	-3.45566	5.71071	-3.56237	7.26605
2507.703	-3.93191	5.91323	-3.64457	7.15324
2511.698	-4.28881	6.15539	-3.57004	6.94150
2515.700	-3.40539	5.55454	-3.96288	7.10464
2519.701	-3.51236	5.39575	-3.65994	7.00346
2523.729	-3.49480	5.69070	-3.50286	7.01799
2527.696	-3.87900	5.84697	-3.55110	7.17404
2531.695	-4.46152	6.20396	-3.74483	7.31009
2535.588	-3.99267	6.06484	-3.68142	7.11840
2539.628	-3.57397	5.50087	-3.71627	7.28407
2543.571	-3.52479	5.47089	-3.62959	7.15832
2547.571	-3.64953	5.65193	-3.57634	6.95083
2551.572	-3.65079	5.56448	-3.55795	6.77728
2555.577	-4.09999	5.72188	-4.04759	7.20611
2559.575	-4.23290	5.87692	-3.57399	7.04731
2563.573	-4.60742	6.10321	-3.49569	7.11986
2567.579	-3.87084	6.04005	-3.56578	7.24440
2571.576	-3.67141	5.52004	-3.65705	7.25044
2575.570	-3.63675	5.17475	-3.59130	7.29257
2579.574	-3.61426	5.44485	-3.52583	7.21695
2583.585	-3.64617	5.48641	-3.64822	7.24231
2587.575	-3.62096	5.57440	-3.50400	7.14866
2591.582	-3.71921	5.64727	-3.45556	7.20311
2595.574	-3.94745	5.73372	-3.50333	7.24976
2599.574	-4.29648	5.77987	-3.47653	7.17353
2603.577	-4.50984	5.82358	-3.41206	7.11640
2607.573	-4.83006	5.92304	-3.44797	7.08270
2611.571	-5.33017	6.24752	-3.56658	7.03063
2615.581	-4.91225	6.11674	-3.42322	6.83312
2619.578	-5.10177	6.30665	-3.31578	6.72416
2623.571	-3.67853	6.26060	-3.18180	7.06763
2627.582	-0.56741	5.92746	-2.09140	7.31770
2631.568	0.94706	6.44728	-0.70650	9.73474
2635.585	2.36547	6.83579	2.04126	10.64834
2639.571	6.02296	6.94490	4.12196	10.50178
2643.574	6.30007	7.24091	4.64263	10.34054
2647.577	6.68367	7.29649	5.88609	10.10438
2651.576	7.86335	6.96052	7.04103	9.65953
2655.575	8.66469	7.08684	7.59561	9.87055
2659.570	8.28029	7.27837	6.73079	10.05037
2663.576	7.66009	7.27613	6.57730	10.13202
2667.574	6.89886	7.18360	6.42594	10.20135
2671.570	7.49117	7.24632	6.35167	10.26768
2675.570	7.60934	7.31232	7.11985	10.20111
2679.570	7.80275	7.26360	6.92833	10.18202
2683.580	8.48763	7.20826	7.05305	10.07820
2687.575	8.59636	7.10720	7.27113	9.85120
2691.572	8.21945	7.69538	7.45767	9.91514
2695.572	8.10450	8.29759	7.55354	9.90631
2699.572	8.00637	8.38526	7.53605	9.79098
2703.571	7.85149	8.37030	7.33169	10.01792
2707.575	8.21322	7.84590	7.18794	9.77175
2711.581	8.26986	7.69876	7.41575	9.71378
2715.606	8.23320	7.78340	7.53193	9.56464
2719.564	8.31470	7.71397	7.52642	9.61656
2723.566	8.37242	7.30756	7.58810	9.60161
2727.574	8.44963	7.07599	7.34406	9.82407
2731.579	8.36093	7.97687	7.38907	9.82780
2735.564	8.37704	8.05434	7.39537	9.72995
2739.594	8.35925	7.85098	7.39130	9.40886
2743.566	8.36188	7.70035	7.44396	9.27012
2747.578	8.37220	7.64911	7.38561	9.61593
2751.570	8.33707	7.24616	7.29621	9.79200
2755.573	8.54991	7.35009	7.23120	9.88163
2759.570	8.29331	7.97544	7.27143	9.79038
2763.578	8.24111	7.97392	7.32573	9.48934
2767.574	7.99897	8.04650	7.36701	9.65308
2771.572	7.85217	7.71810	7.33154	9.52621
2775.567	8.25897	7.77198	7.40418	9.17738
2779.572	8.54571	7.69660	7.49551	9.06062
2783.562	8.59716	7.66527	7.37663	9.44320
2787.573	8.41636	7.56978	7.29103	9.59671
2791.567	8.07100	7.83699	7.33789	9.60828
2795.587	8.41179	7.58859	7.34065	10.01736
2799.570	8.45485	7.56430	7.41063	9.58890
2803.565	8.51447	7.63546	7.20248	9.92107
2807.630	8.71414	7.54715	7.35251	9.59601
2811.571	8.62486	7.57034	7.26278	9.60857
2815.573	8.60038	7.54528	7.21464	9.65896
2819.580	8.40009	7.49003	7.31938	9.98817
2823.568	8.20248	7.54537	7.34677	9.75848
2827.571	8.52282	7.49361	7.29074	9.88367
2831.573	8.49850	7.68485	7.42034	9.77204
2835.566	8.48258	7.80693	7.45987	9.51086
2839.580	8.30891	7.94744	7.31228	9.52805
2843.577	8.67643	7.38834	7.41604	9.53835
2847.572	8.67396	7.13388	7.36152	9.55657
2851.571	8.73664	7.07697	7.55786	9.49239
2855.573	8.70762	7.01196	7.56483	9.65705
2859.572	8.78360	7.37695	7.56525	9.67916
2863.567	8.87173	7.87857	7.57283	9.56452
2867.568	8.62200	8.20004	7.46180	9.75969
2871.568	8.92549	6.92967	7.50534	9.30603
2875.619	8.91810	6.84640	7.25460	9.65704
2879.579	8.84680	6.86554	7.19583	9.69421
2883.567	8.80384	6.94803	7.46324	9.63228
2887.570	8.91175	7.34319	7.42524	9.84096
2891.574	8.90548	7.45429	7.40738	9.88727
2895.575	8.87593	7.82384	7.38273	9.98426
2899.569	8.71683	8.14719	7.40543	9.78825
2903.591	8.59111	8.04213	7.47204	9.36675
2907.565	8.66445	7.29066	7.28241	9.53266
2911.565	8.77873	7.24153	7.39735	9.45000
2915.568	8.78956	7.13861	7.39884	9.55010
2919.565	8.68916	7.26810	7.41926	9.71261
2923.565	8.86592	7.72007	7.50381	9.91419
2927.570	8.85860	7.52945	7.49549	9.96966
2931.565	9.02065	6.88619	7.55220	9.06107
2935.585	9.30653	5.90414	7.78718	6.93994
2939.575	9.92203	3.07616	9.25093	4.13453
2943.564	11.16337	0.22726	10.49311	2.40803
2947.578	11.27970	-1.37479	10.34542	-0.45504
2951.566	11.10280	-1.48363	10.51815	-0.89361
2955.569	11.16538	-2.43816	10.72905	-1.54657
2959.565	10.74877	-4.44971	10.23971	-2.38510
2963.564	10.52861	-5.00990	8.64112	-4.26865
2967.579	10.41177	-5.01037	8.53409	-3.74297
2971.569	10.91078	-4.20237	8.57100	-2.76008
2975.570	11.06992	-3.84531	9.53605	-2.60126
2979.567	11.24378	-3.36634	9.66241	-2.77790
2983.562	11.29083	-4.22821	9.31852	-3.49868
2987.570	11.23996	-5.18350	8.95513	-3.68906
2991.577	11.07475	-5.01158	9.06768	-3.60636
2995.568	11.13059	-4.98498	9.22934	-3.67952
2999.567	11.01967	-4.69500	9.08174	-3.53502
3003.559	11.13449	-4.60710	9.05582	-3.38970
3007.570	11.28488	-4.41206	8.98247	-3.52092
3011.582	11.20880	-4.77876	9.00958	-3.61087
3015.569	11.25760	-4.94321	9.03871	-3.73769
3019.570	11.27393	-4.94603	8.94784	-3.70023
3023.571	11.21505	-4.71227	9.22030	-3.57376
3027.559	11.20930	-4.73411	9.13565	-3.57381
3031.569	11.19342	-5.00667	9.16518	-3.57124
3035.564	11.18296	-4.93386	9.34241	-3.55997
3039.568	11.19650	-4.88877	9.16160	-3.53352
3043.558	11.26825	-4.81545	9.07649	-3.64217
3047.568	11.29653	-5.14169	9.06664	-3.68939
3051.564	11.27300	-4.90470	9.08803	-3.75106
3055.568	11.29524	-4.76102	8.93186	-3.76370
3059.584	11.29598	-4.87985	9.06272	-3.62386
3063.623	11.23650	-5.09573	9.15289	-3.67614
3067.572	11.25037	-4.80849	9.15756	-3.66815
3071.581	11.37221	-4.76456	9.07924	-3.69319
3075.560	11.24915	-5.03394	9.18245	-3.71621
3079.563	11.30882	-4.88774	9.10879	-3.69330
3083.562	11.28171	-4.65731	8.97721	-3.70299
3087.593	11.30767	-4.57881	9.03667	-3.68515
3091.574	11.26989	-4.77482	8.92726	-3.69687
3095.567	11.19079	-5.03524	8.76341	-3.69274
3099.555	11.24325	-4.92154	9.01009	-3.62954
3103.564	11.31765	-4.75835	9.22799	-3.63405
3107.573	11.33581	-4.59555	8.98726	-3.60237
3111.588	11.33893	-4.66981	8.94905	-3.63942
3115.562	11.23303	-4.61085	8.65356	-3.65264
3119.572	11.31357	-4.51618	9.29033	-3.54496
3123.557	11.27577	-4.44861	9.07847	-3.51654
3127.566	11.29075	-4.46044	9.07886	-3.51155
3131.569	11.17118	-4.56673	8.85892	-3.45122
3135.573	11.24523	-4.85422	9.03399	-3.39846
3139.561	11.18680	-4.71607	9.21326	-3.36745
3143.570	11.28410	-4.56393	9.16712	-3.42338
3147.595	11.10390	-4.78326	9.03648	-3.43656
3151.563	11.09437	-4.95660	9.08595	-3.43132
3155.562	11.03370	-5.15101	9.15444	-3.39091
3159.563	11.09712	-5.03763	9.22255	-3.37081
3163.558	11.04164	-4.67938	9.04916	-3.38624
3167.567	10.95971	-5.14388	8.93813	-3.44759
3171.561	11.08340	-5.27271	9.04754	-3.48826
3175.564	11.05323	-5.23516	9.13095	-3.57666
3179.556	11.21630	-4.70824	9.01835	-3.59030
3183.580	11.04190	-4.67536	8.97106	-3.65641
3187.565	11.01536	-4.88612	8.99762	-3.57694
3191.567	11.16421	-4.37658	8.94835	-3.55769
3195.561	11.17426	-4.54546	8.98189	-3.63127
3199.569	11.33063	-4.42790	8.98494	-3.61281
3203.566	11.36682	-4.29183	9.11300	-3.51630
3207.560	11.31569	-4.40951	9.02174	-3.52795
3211.561	11.44573	-4.19182	8.81193	-3.63209
3216.044	11.36305	-4.24026	8.97516	-3.45345
3219.564	11.44215	-4.23591	9.08810	-3.51112
3223.562	11.34683	-4.43044	9.14201	-3.48334
3227.567	11.30145	-4.48735	8.99053	-3.53625
3231.575	11.19413	-4.69949	9.07571	-3.50222
3235.572	11.33294	-4.81914	9.06567	-3.45672
3239.559	11.28956	-4.95442	8.80767	-3.46592
3243.559	11.30114	-4.84505	8.90575	-3.41118
3247.562	11.26798	-4.77422	9.06511	-3.46037
3251.561	11.20242	-4.79474	8.92735	-3.46763
3255.575	11.20763	-4.78437	8.98850	-3.42156
3259.558	11.30398	-4.55146	9.08123	-3.47850
3263.564	11.27281	-4.68253	9.04984	-3.44856
3267.561	11.06251	-4.80248	8.70243	-3.47803
3271.562	8.07136	-4.93554	6.33995	-3.47802
3275.573	6.27189	-4.86731	4.25731	-3.47626
3279.562	3.24256	-4.90123	3.01856	-3.36319
3283.563	1.38972	-5.09239	1.27683	-3.09238
3287.562	0.97254	-5.01535	0.90999	-2.91604
3291.558	-0.05703	-5.21609	-1.62778	-2.79658
3295.605	-1.37975	-5.06417	-1.73437	-2.76634
3299.570	-0.44165	-5.31646	-2.45663	-2.62194
3303.558	-0.08061	-5.42551	-1.81716	-2.60972
3307.558	-0.19028	-5.41793	-1.99637	-2.52726
3311.602	-0.06954	-5.43329	-1.91489	-2.40275
3315.587	-0.39536	-5.49884	-1.90329	-2.37700
3319.576	-0.69424	-5.40480	-2.08349	-2.39053
3323.557	-0.53235	-5.51109	-2.14639	-2.52856
3327.561	-0.64754	-5.57789	-2.20748	-2.46714
3331.556	-0.95157	-5.53854	-2.39190	-2.46474
3335.563	-0.64389	-5.46911	-2.22443	-2.41036
3339.562	-0.56893	-5.49934	-2.38690	-2.46760
3343.567	-0.57853	-5.33833	-2.30491	-2.45892
3347.554	-0.72342	-5.08369	-2.35955	-2.35067
3351.569	-0.60982	-5.16057	-2.29314	-2.37527
3355.633	-0.64191	-4.76025	-2.30950	-2.41654
3359.557	-0.76243	-4.46014	-2.27127	-2.44352
3363.561	-0.58463	-4.40772	-2.25712	-2.34387
3367.553	-0.69141	-4.20827	-2.25087	-2.30038
3371.564	-0.71265	-4.24040	-2.28720	-2.28012
3375.559	-0.48058	-4.48922	-2.34191	-2.25886
3379.555	-0.40549	-4.36221	-2.58586	-2.28995
3383.558	-0.53389	-4.37886	-2.29270	-2.25276
3387.556	-0.62084	-4.38837	-2.26908	-2.26770
3391.433	-0.56193	-4.41979	-2.41489	-2.26271
3395.454	-0.66871	-4.45322	-2.36388	-2.26004
3399.440	-0.69042	-4.84417	-2.35546	-2.23211
3403.435	-0.81627	-4.81090	-2.36061	-2.22764
3407.438	-0.66481	-4.89938	-2.35937	-2.20682
3411.441	-0.70188	-5.02563	-2.36376	-2.20153
3415.431	-0.65764	-4.94990	-2.39009	-2.20295
3419.433	-0.64605	-5.05473	-2.44497	-2.18474
3423.433	-0.61811	-5.11434	-2.41043	-2.16526
3427.435	-0.57925	-5.08556	-2.54019	-2.20404
3431.429	-0.56332	-5.14484	-2.57910	-2.24262
3435.439	-0.48823	-5.07412	-2.62006	-2.30309
3439.437	-0.40643	-5.04400	-2.79315	-2.31845
3443.438	-0.44135	-4.87553	-2.82199	-2.39119
3447.432	-0.39705	-4.88427	-2.74608	-2.47157
3451.434	-0.36678	-4.90910	-2.84677	-2.58139
3455.435	-0.35985	-4.84566	-2.83581	-2.64209
3459.438	-0.38814	-4.80271	-2.82982	-2.71541
3463.429	-0.43157	-4.79449	-2.76656	-2.66124
3467.430	-0.52510	-4.80166	-2.69544	-2.66123
3471.432	-0.57193	-4.82602	-2.69606	-2.67576
3475.437	-0.51679	-4.81602	-2.66399	-2.58758
3479.435	-0.61208	-4.89220	-2.63041	-2.56592
3483.441	-0.60406	-4.89776	-2.59938	-2.52986
3487.454	-0.71471	-4.95169	-2.57295	-2.53415
3491.438	-0.56128	-4.91511	-2.50581	-2.57588
3495.453	-0.55885	-4.81893	-2.51854	-2.56379
3499.438	-0.52922	-4.84170	-2.47895	-2.58201
3503.429	-0.73635	-4.74925	-2.48641	-2.60293
3507.432	-0.76563	-4.66914	-2.46583	-2.64263
3511.443	-0.73139	-4.60711	-2.45520	-2.69294
3515.457	-0.74632	-4.53511	-2.42986	-2.71823
3519.435	-0.80335	-4.45079	-2.42047	-2.76480
3523.438	-0.80784	-4.44656	-2.38935	-2.80164
3527.440	-0.79493	-4.42988	-2.35397	-2.83772
3531.428	-0.82307	-4.38877	-2.31007	-2.84983
3535.430	-0.81379	-4.35714	-2.31344	-2.85232
3539.432	-0.87471	-4.37295	-2.23038	-2.83886
3543.438	-0.82367	-4.39648	-2.28185	-2.84178
3547.435	-0.83163	-4.57765	-2.26475	-2.83595
3551.433	-0.82248	-4.64528	-2.29882	-2.82077
3555.458	-0.80565	-4.87500	-2.35900	-2.85243
3559.432	-0.78412	-5.06738	-2.34000	-2.82730
3563.431	-0.76523	-5.23046	-2.36740	-2.79953
3567.435	-0.73446	-5.42106	-2.40251	-2.75695
3571.431	-0.71245	-5.37954	-2.42436	-2.72991
3575.428	-0.68042	-5.19781	-2.39963	-2.75233
3579.435	-0.76925	-5.03394	-2.42753	-2.73459
3583.429	-0.83019	-5.15818	-2.42859	-2.73154
3587.432	-0.77605	-5.11755	-2.41051	-2.68498
3591.427	-0.30647	-5.28878	-2.16860	-2.43266
3595.451	2.07950	-3.95867	-0.66573	-1.96251
3599.431	3.00490	-2.24659	1.50108	0.07723
3603.429	4.12858	-1.58950	2.42089	0.73692
3607.437	4.61018	-0.88630	2.54655	1.13099
3611.439	4.60897	-1.00417	1.73259	0.82674
3615.429	4.02073	-1.22295	1.41422	0.46334
3619.427	2.94458	-1.34438	1.27324	0.36730
3623.446	2.87866	-1.24283	1.52962	0.34848
3627.457	3.06075	-1.11633	1.77050	0.52512
3631.431	3.46513	-1.06549	2.07264	0.69566
3635.432	3.88011	-2.01299	2.10848	0.56944
3639.424	4.19225	-1.96549	2.06840	0.27127
3643.428	4.23688	-1.61640	2.22884	0.48120
3647.442	4.37347	-1.73407	2.09551	0.58273
3651.430	4.31751	-1.41138	2.21291	0.51666
3655.423	4.23315	-1.53385	2.26192	0.61086
3659.446	4.28049	-1.37014	2.30382	0.77298
3663.437	4.22157	-1.08858	2.29381	0.56130
3667.430	4.25282	-1.06443	2.32241	0.46367
3671.434	4.18512	-1.97172	2.35841	0.28614
3675.427	4.22962	-2.05148	2.35610	0.34277
3679.434	4.15784	-1.86427	2.37662	0.29068
3683.427	4.08760	-1.63689	2.38930	0.40950
3687.448	3.99726	-1.38086	2.38011	0.50101
3691.437	3.88698	-1.18392	2.37008	0.49848
3695.435	3.76470	-1.21453	2.33053	0.71954
3699.466	3.64311	-1.04632	2.33628	0.62990
3703.429	3.66199	-1.04536	2.30677	0.62189
3707.422	3.71142	-1.04820	2.30273	0.78691
3711.438	3.67825	-1.16405	2.30697	0.79964
3715.430	3.67689	-1.13657	2.26886	0.77012
3719.438	3.64578	-1.08299	2.16875	0.76367
3723.422	3.62393	-0.98226	2.06607	0.75515
3727.431	3.83164	-0.94135	2.01764	0.71520
3731.425	3.73075	-0.96858	1.92627	0.62818
3735.440	3.65648	-1.07437	2.04406	0.75231
3739.423	3.77108	-1.18493	2.00827	0.60493
3743.430	3.78000	-1.55487	1.94912	0.66301
3747.428	3.82600	-1.26913	1.93854	0.63570
3751.433	3.84609	-1.26866	2.03241	0.59367
3755.430	4.00798	-1.41008	1.88405	0.64476
3759.431	4.13243	-1.36681	1.92478	0.55468
3763.436	3.89765	-1.60378	1.95160	0.61387
3767.427	3.98734	-1.43642	2.03647	0.60718
3771.432	4.22148	-1.46351	2.07727	0.50779
3775.425	4.63617	-1.55140	2.08327	0.59251
3779.427	4.78240	-1.62832	2.07313	0.68588
3783.432	4.08473	-1.89789	2.11291	0.69177
3787.426	4.12431	-1.46003	2.03876	0.65173
3791.423	4.58567	-1.50352	2.12399	0.59982
3795.477	4.65089	-1.47021	2.09445	0.58431
3799.437	4.11562	-1.56387	2.12813	0.55282
3803.427	3.99603	-1.81480	2.08000	0.63132
3807.427	4.08918	-1.91855	2.09745	0.60760
3811.429	3.93994	-1.41609	1.97237	0.63211
3815.434	4.06920	-1.49109	1.96705	0.61475
3819.433	4.10784	-1.55695	2.03110	0.58585
3823.435	4.09364	-1.42784	1.97463	0.52620
3827.424	3.85115	-1.47622	1.92054	0.45974
3831.429	3.72197	-1.37462	1.94042	0.43520
3835.429	3.70633	-1.32180	1.91023	0.41402
3839.430	3.71518	-1.39609	1.95777	0.36045
3843.425	3.73903	-1.24135	1.89865	0.33910
3847.424	3.79161	-1.14879	1.96236	0.27839
3851.432	3.90360	-1.12732	2.01444	0.27198
3855.438	4.01534	-1.10442	2.08166	0.26851
3859.424	3.92551	-1.18815	2.14920	0.30364
3863.423	3.73344	-1.17219	2.24366	0.38978
3867.428	3.80065	-1.57586	2.29914	0.51730
3871.433	3.78435	-1.78335	2.36710	0.53642
3875.428	3.85839	-1.87560	2.30197	0.59416
3879.425	3.92699	-2.30935	2.33432	0.65865
3883.426	4.05683	-2.33121	2.28888	0.67051
3887.442	4.06959	-2.31707	2.25199	0.62264
3891.426	4.23893	-2.35281	2.32882	0.66409
3895.455	4.15576	-2.28158	2.32498	0.65257
3899.433	4.04658	-2.30723	2.28006	0.63318
3903.427	4.08794	-2.34874	2.25045	0.67286
3907.442	3.99442	-2.20667	2.05184	0.60241
3911.426	1.91486	-1.33086	1.86724	0.66016
3915.422	0.24075	0.48663	-1.77139	1.13668
3919.441	-2.83482	3.20581	-3.24100	4.41301
3923.430	-5.42139	3.19947	-5.55182	5.07465
3927.428	-5.69067	3.63759	-6.77303	5.34837
3931.423	-6.53000	4.32306	-7.91628	5.72076
3935.425	-9.39629	5.27875	-9.69991	6.42272
3939.441	-11.19187	6.10446	-11.26292	6.55468
3943.425	-11.34933	6.24725	-11.07683	7.27131
3947.422	-8.44373	5.65741	-10.17870	7.43686
3951.425	-9.16073	5.63331	-9.73195	7.13085
3955.422	-8.91858	5.55195	-8.18799	6.81897
3959.435	-10.01296	5.78308	-8.42180	7.19784
3963.425	-11.07302	5.90993	-8.74328	6.79255
3967.428	-11.06896	5.97382	-9.62068	6.75721
3971.432	-10.83395	5.86343	-10.66323	7.80550
3975.427	-11.08416	6.00535	-10.90782	7.66243
3979.432	-9.44158	5.76959	-10.97628	7.57519
3983.423	-10.12397	5.74159	-9.77165	7.37945
3987.420	-11.26376	6.46238	-9.69771	7.28772
3991.455	-10.83685	5.95445	-9.62372	7.21968
3995.434	-10.77529	6.02064	-9.87488	7.43312
3999.417	-10.74321	5.96091	-10.07909	7.16636
4003.424	-10.77263	5.91483	-10.17796	7.45304
4007.420	-10.03229	6.04282	-10.79785	7.60330
4011.435	-9.87307	5.80910	-9.94537	7.46566
4015.425	-10.09773	5.63481	-9.69067	7.29809
4019.421	-10.99984	6.31598	-9.90019	7.47414
4023.436	-10.11743	5.76239	-9.87678	7.28314
4027.423	-9.85910	5.77270	-9.89181	7.30241
4031.469	-9.60121	5.80841	-10.26232	7.38047
4035.425	-10.21781	5.85462	-10.15312	7.09931
4039.421	-10.41059	5.85745	-10.49846	7.54455
4043.432	-9.65527	5.93684	-10.23704	7.19023
4047.423	-9.33894	5.69567	-10.18865	7.21459
4051.421	-10.13967	6.39944	-10.16057	7.36141
4055.426	-10.04189	5.91839	-10.10692	7.25532
4059.422	-9.52203	5.69561	-9.85040	6.81137
4063.429	-10.20498	5.79130	-10.17618	7.41371
4067.427	-10.44074	6.34456	-10.04056	7.52768
4071.435	-10.24250	6.11184	-10.02124	7.35171
4075.422	-10.12387	5.91467	-9.94209	7.47474
4079.432	-9.88779	5.78473	-9.73513	7.40734
4083.421	-9.37276	5.64006	-9.70162	7.28306
4087.425	-9.06678	5.46708	-9.81084	7.16408
4091.427	-9.62844	5.56679	-10.04764	7.30746
4095.422	-9.62731	5.64053	-10.17005	7.21676
4099.458	-10.04340	5.66399	-9.95861	7.26809
4103.428	-9.56142	5.74585	-9.84197	6.92571
4107.439	-9.59086	5.82624	-10.14398	7.28416
4111.452	-9.90539	5.55853	-9.87495	7.18791
4115.425	-9.72474	5.68218	-9.73277	7.15967
4119.421	-9.89511	5.87206	-10.59524	7.27590
4123.425	-10.00170	5.74179	-9.95374	6.89074
4127.422	-9.93270	5.69729	-10.18772	7.39257
4131.422	-9.92068	5.95484	-9.47642	6.72942
4135.419	-9.83214	5.86789	-9.71842	7.34180
4139.422	-7.07190	5.80270	-7.19249	6.86674
4143.429	-4.37006	5.80265	-4.30203	7.45195
4147.432	-1.04161	5.66455	-2.01952	7.44686
4151.418	1.19145	4.38764	1.07366	6.79242
4155.422	4.13209	3.40120	2.37684	6.58838
4159.420	6.60549	2.79088	4.22520	5.26707
4163.432	7.27990	2.66156	6.29967	3.51139
4167.426	8.97448	2.98185	8.84038	4.23834
4171.421	10.57958	2.54732	8.72883	4.21335
4175.421	11.58841	2.36192	8.99024	4.08807
4179.425	12.78174	2.87885	11.01079	4.39072
4183.415	12.74582	3.87042	11.07185	4.38152
4187.425	12.52901	3.52154	11.20182	3.52569
4191.426	12.28180	3.60859	11.21458	4.24261
4195.419	12.20638	3.56297	10.92196	4.22112
4199.427	12.30606	3.44277	10.84461	4.04167
4203.419	12.54417	3.50474	11.16194	4.01077
4207.419	13.03263	3.37898	11.41371	4.00564
4211.423	12.95869	3.39128	11.71527	3.66518
4215.414	13.03861	2.96181	11.41199	3.97522
4219.424	12.94761	3.54530	11.32910	4.05949
4223.419	12.78361	3.65541	11.28519	3.89889
4227.441	12.56458	3.46850	11.19311	3.86574
4231.423	12.92361	3.19738	11.23621	3.95852
4235.436	12.85345	3.23238	11.38158	3.87604
4239.414	12.79661	3.82302	11.36801	3.82717
4243.291	12.92048	3.44777	11.38421	3.86994
4247.290	13.08230	3.18832	11.43045	4.05899
4251.312	12.91725	3.45980	11.42799	3.96416
4255.295	12.99875	3.83970	11.40918	3.79700
4259.296	13.04092	3.52258	11.38256	3.70434
4263.298	12.91951	2.97823	11.30744	3.85425
4267.292	12.87629	3.29354	11.26340	3.95119
4271.295	12.98155	3.69550	11.11960	4.02375
4275.307	13.00040	3.56138	11.22711	3.94622
4279.304	12.98263	3.07928	11.24266	4.04897
4283.289	12.93488	3.80192	11.23430	4.19117
4287.297	13.03220	3.28974	11.24631	3.99663
4291.293	13.04794	3.02292	11.27474	3.77015
4295.290	12.99154	3.40459	11.20873	3.92731
4299.302	12.94587	3.33860	11.09157	3.89362
4303.294	12.76642	3.30499	11.06910	3.96246
4307.297	12.96743	3.18874	11.13666	4.11155
4311.301	13.08847	3.06483	11.23053	4.09905
4315.290	12.84612	3.26478	11.35558	4.12499
4319.301	12.86584	3.18749	11.21873	3.94292
4323.291	12.68042	3.45841	11.23038	4.11270
4327.291	12.80138	3.40007	11.20696	3.97954
4331.291	12.94594	3.44756	11.23712	4.03178
4335.294	13.06487	3.54575	11.36288	4.08887
4339.291	13.09129	3.54918	11.40379	4.05513
4343.292	13.13519	3.57186	11.42215	4.07775
4347.297	12.78701	3.61561	11.29054	4.08525
4351.291	12.74659	3.67245	11.18133	4.06794
4355.308	12.83411	3.74866	11.23657	4.06339
4359.302	13.07964	3.80221	11.31180	3.96100
4363.293	13.21949	3.77873	11.23604	3.92902
4367.291	13.19698	3.79243	11.34862	3.97494
4371.305	13.00530	3.75873	11.39496	3.87453
4375.296	13.11561	3.70932	11.28861	3.95285
4379.294	12.97603	3.74678	11.18888	3.97862
4383.292	12.95577	3.76145	11.16619	4.06881
4387.289	12.98855	3.73625	11.19480	4.12465
4391.293	13.00547	3.19988	11.23774	4.04312
4395.296	13.07785	3.18054	11.26080	4.00007
4399.299	13.03748	3.34794	11.19351	3.98149
4403.296	12.92672	3.50113	11.09329	4.04787
4407.292	12.92743	3.57943	11.12503	4.12018
4411.294	12.87067	4.00165	11.12964	4.06884
4415.291	12.97834	3.30655	11.16024	3.99881
4419.292	12.94775	2.99460	11.26576	4.02119
4423.290	12.95475	3.14607	11.28245	4.07237
4427.289	12.81651	3.24645	11.17431	3.99677
4431.289	12.87202	3.28811	11.10861	3.99901
4435.289	13.04794	2.86898	11.08280	3.97262
4439.328	13.08522	3.17895	11.19041	4.11121
4443.302	13.25428	3.47902	11.10782	4.05497
4447.292	13.16922	3.71010	11.30402	3.99328
4451.291	13.07441	3.11386	11.40653	4.02453
4455.284	12.99986	2.93313	11.16975	3.99727
4459.311	13.01442	3.41503	11.10880	4.08904
4463.299	12.91121	3.51532	11.17954	4.03811
4467.291	12.82594	3.87600	11.23103	4.00271
4471.288	13.18835	3.19404	11.34967	4.03139
4475.291	13.16739	3.15562	11.33271	3.98542
4479.290	13.33488	3.47974	11.55521	3.89817
4483.299	13.13757	3.87072	11.36327	3.93226
4487.290	12.94219	3.55423	11.40677	3.93132
4491.306	13.19736	3.21015	11.29324	3.93040
4495.303	13.00144	3.21396	11.26004	3.81912
4499.290	13.00257	3.62379	11.39403	3.95368
4503.303	13.05929	4.03432	11.38666	3.98457
4507.301	12.91128	3.79637	11.49419	3.77075
4511.303	13.07907	3.05322	11.45786	3.94857
4515.309	12.98739	3.17757	11.38795	4.00152
4519.287	12.89364	3.23659	11.37593	4.01623
4523.290	13.06968	2.90386	11.47851	3.78310
4527.293	13.72631	1.83057	11.88596	2.81323
4531.312	13.31579	0.06911	12.11650	0.59580
4535.287	13.54642	-0.58057	12.80806	-0.12741
4539.294	13.75779	-1.08019	12.89388	-0.52043
4543.290	14.13738	-0.89090	12.64796	-0.04995
4547.293	14.27107	-0.72915	12.15298	0.15127
4551.291	14.41275	0.07011	12.21561	0.39263
4555.286	14.67088	0.54254	12.44193	0.72094
4559.291	14.86428	0.49290	12.48322	0.71687
4563.295	14.84274	-0.15954	12.60656	-0.19267
4567.295	14.96240	0.01426	12.66767	-0.36604
4571.287	14.77296	-0.36606	12.69906	-0.80185
4575.355	14.85435	-0.34971	12.77370	-0.48150
4579.311	14.71442	-0.15043	12.81393	-0.39904
4583.301	14.57248	-0.23530	12.80794	-0.39794
4587.285	14.54735	-0.16103	12.84350	-0.60491
4591.282	14.53826	-0.10622	12.72997	0.06484
4595.303	14.49695	-0.23026	12.78026	-0.18570
4599.294	14.33392	-0.31385	12.72532	0.10573
4603.287	14.39455	-0.32170	12.72773	-0.19359
4607.289	14.34972	-0.33238	12.74268	-0.23975
4611.292	14.29035	-0.38959	12.73710	-0.09031
4615.288	14.34068	-0.36861	12.79036	0.01001
4619.290	14.25900	-0.39345	12.76161	0.03054
4623.353	14.29280	-0.41944	12.73113	-0.05926
4627.289	14.31615	-0.43447	12.75101	-0.01442
4631.313	14.37024	-0.46246	12.73108	0.18431
4635.291	14.41636	-0.50274	12.76897	0.10990
4639.291	14.42090	-0.51163	12.78982	0.13035
4643.299	14.46638	-0.57105	12.79928	-0.00528
4647.289	14.50742	-0.59748	12.76938	0.04069
4651.297	14.52735	-0.65147	12.73382	0.01025
4655.287	14.57111	-0.71033	12.65744	0.04791
4659.291	14.57022	-0.78915	12.56999	0.01598
4663.284	14.57850	-0.89357	12.50238	-0.04898
4667.292	14.57346	-0.93136	12.44704	-0.05067
4671.287	14.61443	-0.79976	12.47404	-0.07842
4675.309	14.65679	-0.84184	12.45132	-0.19645
4679.290	14.68103	-0.62885	12.41942	-0.32642
4683.291	14.69824	-0.72515	12.40392	0.03439
4687.283	14.55095	-0.16887	12.37361	-0.07097
4691.299	8.60912	0.01194	12.51548	0.11052
4695.292	14.43778	1.77738	15.82733	2.95728
4699.285	NaN	NaN	15.55245	5.94942
4703.287	NaN	NaN	NaN	NaN
4707.317	NaN	NaN	NaN	NaN
4712.751	NaN	NaN	NaN	NaN
4719.288	NaN	NaN	NaN	NaN
4723.307	NaN	NaN	NaN	NaN
4727.558	NaN	NaN	NaN	NaN
4731.567	NaN	NaN	NaN	NaN
4735.478	NaN	NaN	NaN	NaN
4739.294	NaN	NaN	NaN	NaN
4743.298	NaN	NaN	NaN	NaN
4747.292	NaN	NaN	NaN	NaN
4751.288	NaN	NaN	NaN	NaN
4755.291	NaN	NaN	NaN	NaN
4759.286	NaN	NaN	NaN	NaN
4763.296	NaN	NaN	NaN	NaN
4767.284	NaN	NaN	NaN	NaN
4771.292	NaN	NaN	NaN	NaN
4775.318	NaN	NaN	NaN	NaN
4779.977	NaN	NaN	NaN	NaN
4783.285	NaN	NaN	NaN	NaN
4787.284	NaN	NaN	-0.37013	0.14410
4791.282	NaN	NaN	-2.05601	0.65966
4795.289	-0.40189	13.34271	-0.36280	-2.48839
4799.286	NaN	NaN	-2.47212	-2.50249
4803.286	NaN	NaN	-0.75821	-2.46960
4807.288	8.28507	-4.25867	2.31775	-2.05852
4811.287	7.46428	-4.51663	2.46565	-1.77259
4815.286	2.77191	-2.62277	2.77235	-1.61590
4819.293	4.72529	-4.83329	2.81944	-1.83140
4823.283	4.92733	-4.71491	2.79129	-1.91393
4827.291	4.79903	-4.45995	2.95943	-1.98768
4831.283	5.00425	-3.79694	2.87930	-1.97028
4835.284	5.53269	-3.99919	2.97443	-1.94612
4839.288	4.85711	-3.93893	3.03135	-1.80482
4843.284	4.93073	-3.61628	2.97752	-1.72486
4847.286	4.76657	-3.51678	2.95381	-1.78115
4851.282	5.02300	-3.95288	3.07374	-1.88338
4855.283	5.03314	-3.84389	3.09453	-1.89774
4859.291	4.85738	-4.39021	3.02932	-2.00121
4863.284	4.96682	-4.17817	3.05551	-2.01913
4867.300	5.09655	-4.10446	3.05135	-1.95986
4871.288	5.01489	-3.91195	3.03291	-2.04056
4875.293	5.02135	-3.90181	3.00831	-2.00983
4879.290	4.84428	-3.85563	2.97567	-1.99702
4883.280	5.02149	-4.05627	2.91448	-1.99109
4887.295	5.22402	-4.17230	2.87121	-2.02760
4891.288	5.07153	-4.42297	2.82526	-2.02721
4895.280	5.12949	-4.53233	2.80340	-2.10186
4899.302	5.05346	-4.44145	2.80422	-2.09628
4903.316	5.32444	-4.35356	2.82432	-2.07974
4907.283	5.39436	-4.36098	2.87331	-2.05841
4911.279	5.21661	-4.23981	2.91859	-2.08950
4915.291	5.11004	-4.27732	2.94797	-2.06853
4919.282	5.02071	-4.18689	2.93720	-2.03172
4923.287	4.94216	-4.05496	2.92134	-2.00163
4927.281	5.09699	-4.19179	2.95564	-2.08113
4931.285	5.10743	-4.32031	2.96745	-2.11273
4935.277	5.09030	-4.25419	3.01767	-2.15176
4939.297	4.91282	-4.16280	2.93505	-2.10409
4943.299	4.95152	-4.30849	2.90896	-2.13148
4947.280	4.96251	-4.67669	2.98819	-2.11351
4951.282	4.88801	-4.44408	2.96651	-2.13920
4955.293	4.93031	-4.40580	2.99388	-2.15193
4959.287	4.91775	-4.46121	2.94866	-2.17432
4963.279	5.12218	-4.38079	2.93965	-2.17466
4967.282	5.23472	-4.57862	3.01089	-2.17646
4971.289	5.24868	-4.48195	2.89438	-2.23323
4975.281	5.23263	-4.30777	3.04845	-2.24467
4979.285	5.19207	-4.27182	3.09171	-2.22812
4983.348	5.26475	-4.37002	3.02205	-2.21088
4987.288	5.30995	-4.67755	3.05865	-2.26442
4991.280	5.23512	-4.58024	2.88480	-2.24651
4995.285	5.28104	-4.50370	2.93819	-2.27777
4999.336	5.32466	-4.51383	2.98376	-2.32991
5003.295	5.32336	-4.53051	2.83531	-2.29146
5007.289	5.26502	-4.51796	2.77416	-2.34470
5011.281	5.17297	-4.47929	2.85096	-2.38313
5015.284	5.19613	-4.41133	2.91067	-2.26222
5019.281	5.20585	-4.45468	2.94027	-2.38445
5023.283	5.24331	-4.49763	2.93488	-2.31554
5027.285	5.25591	-4.58552	2.91176	-2.33982
5031.279	5.19672	-4.41246	2.96314	-2.29834
5035.278	5.21159	-4.32519	2.93344	-2.28351
5039.286	5.21821	-4.17960	2.76386	-2.27482
5043.275	5.18111	-3.98412	2.78325	-2.24921
5047.284	5.10613	-4.11228	2.97376	-2.28513
5051.318	5.21233	-4.15852	2.91101	-2.36670
5055.285	5.23155	-4.27975	2.88616	-2.44174
5059.278	5.24051	-4.21807	2.83870	-2.44494
5063.278	5.23841	-4.16487	2.78022	-2.41543
5067.287	5.19165	-4.18320	2.72025	-2.43733
5071.298	5.13860	-4.30014	2.70037	-2.43945
5075.290	5.12085	-4.43523	2.67075	-2.40777
5079.280	4.93957	-4.45806	2.67390	-2.43908
5083.283	5.07500	-4.58414	2.80578	-2.47766
5087.276	5.06676	-4.56829	3.01556	-2.48089
5091.285	5.10893	-4.52251	2.97317	-2.47244
5095.168	5.11140	-4.47249	3.01113	-2.39391
5099.156	5.04723	-4.38659	2.92089	-2.25791
5103.148	5.02531	-4.28797	2.98401	-2.07322
5107.197	4.77128	-1.88921	2.48396	0.55608
5111.149	4.41001	0.19503	2.22178	2.00943
5115.157	4.10737	0.51587	1.82951	3.73082
5119.160	3.98491	1.72814	1.13665	4.14424
5123.161	4.51568	2.16971	1.20415	4.20975
5127.155	3.89199	2.34935	1.95909	4.12769
5131.149	3.75435	2.41277	2.72687	3.28518
5135.158	3.72734	0.91487	2.42086	2.64418
5139.152	3.93638	0.87162	2.22850	2.46466
5143.153	4.15811	0.77152	1.67960	2.71534
5147.157	3.67393	1.62555	1.25371	3.47042
5151.152	3.25075	1.93768	1.85693	3.89510
5155.158	3.67801	1.98362	1.98675	3.85497
5159.148	3.83905	1.95876	1.90071	3.89604
5163.156	3.83159	2.10495	1.63182	3.90436
5167.152	3.25943	2.50748	1.23809	3.83777
5171.169	3.56742	2.26573	2.22862	3.87999
5175.151	4.04177	1.62148	2.15554	3.76720
5179.165	4.21303	1.43252	1.81183	3.85623
5183.152	3.51599	1.80303	1.38490	3.92120
5187.161	3.41266	1.74480	1.95202	3.97507
5191.195	3.71031	1.90540	2.25776	3.97167
5195.151	3.93137	1.79577	2.14731	3.92142
5199.166	3.66108	1.89389	1.64546	3.96701
5203.155	3.44570	2.14949	1.06227	3.96118
5207.154	3.39174	1.93160	2.26896	3.99341
5211.157	3.57137	1.76284	2.34032	3.93529
5215.151	3.64449	1.38009	2.09680	3.97419
5219.156	3.72531	1.65328	1.75079	4.03244
5223.148	3.40927	1.74649	1.19244	4.11872
5227.159	3.39329	1.72766	2.14389	4.02391
5231.168	4.18250	1.67938	2.08890	4.12543
5235.155	3.41209	1.81200	1.80092	4.24429
5239.183	3.74031	1.51437	1.63440	4.31442
5243.162	3.20419	1.45687	1.83754	3.96720
5247.169	3.56910	1.38390	1.91595	4.20203
5251.159	3.67230	1.37046	1.92533	4.33782
5255.167	3.95688	1.53121	1.73313	4.36599
5259.168	3.84728	1.57434	1.70246	4.28621
5263.156	3.20813	1.61501	1.66676	4.26910
5267.151	3.52215	1.63799	1.83536	4.41355
5271.153	3.68905	1.62076	1.71298	4.46317
5275.148	3.65621	1.34919	1.64751	4.38887
5279.162	3.77790	1.04877	1.84649	4.40256
5283.153	3.70922	1.01707	1.85995	4.39870
5287.155	4.07142	1.01470	1.58453	4.52525
5291.147	3.74782	1.22883	1.52789	4.27672
5295.158	3.62711	1.66788	2.02654	4.34864
5299.155	3.92168	1.62570	1.73182	4.22832
5303.155	3.87364	1.63452	1.26001	4.26367
5307.163	3.51639	1.83569	2.18322	4.16556
5311.188	3.97906	1.72575	1.98207	3.93925
5315.155	4.31699	1.57971	2.06354	4.09909
5319.152	3.49859	2.07722	1.57503	4.10459
5323.189	3.21503	2.09861	2.00014	4.39448
5327.175	3.70769	1.78744	1.98638	4.07816
5331.156	3.50900	1.44226	1.74871	4.04744
5335.151	3.30512	2.15966	2.23481	3.99157
5339.146	2.94997	2.01199	2.10577	4.14628
5343.155	3.90686	2.05963	2.05732	4.02416
5347.152	3.49970	2.05284	2.17192	4.31310
5351.160	3.37890	1.70852	2.09504	3.93411
5355.145	3.84424	1.25186	2.07140	4.13279
5359.153	3.35696	1.90300	1.60494	4.09853
5363.151	4.23628	1.72359	1.86722	4.14323
5367.160	3.91860	1.51369	2.01818	4.15607
5371.148	3.29580	1.53225	1.85829	4.09257
5375.153	3.06919	1.59651	2.04686	4.15289
5379.151	3.86645	1.77731	2.04371	4.18698
5383.150	3.92408	1.83016	2.05231	4.05956
5387.150	4.04093	1.66673	1.99431	4.47490
5391.155	3.57800	1.54176	1.99890	3.98669
5395.155	3.54843	1.97161	1.89347	4.27638
5399.151	3.44058	1.73300	1.72339	4.12751
5403.150	3.62825	1.74320	2.04894	4.22362
5407.152	3.62316	1.75929	2.12439	4.11249
5411.148	3.55533	1.86309	2.15799	4.21827
5415.154	3.66587	1.65681	1.93725	4.24658
5419.148	3.62867	1.85221	1.97004	4.27797
5423.152	3.43378	1.74766	2.18491	4.37955
5427.146	3.57753	1.56689	2.07665	3.87464
5431.156	3.52163	1.87237	1.73616	4.23711
5435.149	3.48212	1.64740	1.92064	4.07120
5439.149	3.38127	1.76577	2.21653	3.91608
5443.152	3.44354	1.77029	1.99270	4.04028
5447.154	3.37487	1.81849	1.85289	3.97833
5451.147	3.59945	1.77698	1.87116	4.20270
5455.148	3.47846	1.53219	1.89359	4.03953
5459.151	3.44572	1.83385	2.19085	4.10547
5463.154	3.49710	1.75998	2.10684	4.16382
5467.145	3.33636	1.84800	1.31535	3.93778
5471.147	2.86356	2.04660	2.00319	3.95932
5475.200	NaN	NaN	NaN	NaN
5483.154	2.77022	1.91342	2.13076	3.91884
5487.155	3.20874	1.70849	2.09782	3.88237
5491.164	3.63406	1.47418	2.22976	3.97226
5495.163	3.15181	1.87771	2.18830	3.83626
5499.150	3.43595	1.79833	2.06919	3.75729
5503.143	3.51159	1.70103	2.25588	3.76549
5507.159	3.31603	1.75144	2.03063	3.71426
5511.173	3.33260	1.68345	1.94897	3.65620
5515.147	3.12272	1.48456	2.14535	3.75407
5519.152	3.42104	1.40863	1.97813	3.68542
5523.149	3.20770	1.60255	1.99126	3.77340
5527.175	3.11346	1.65979	1.87974	3.70047
5531.150	3.37242	1.64305	2.08491	3.78666
5535.156	3.42955	1.67037	1.87210	3.71263
5539.145	3.37776	1.60460	1.77298	3.83611
5543.150	3.15914	1.69621	1.85737	3.77906
5547.200	3.14964	1.75351	1.83409	3.78737
5551.152	2.95921	1.78593	1.98013	3.58378
5555.144	3.05746	1.83239	2.01583	3.26001
5559.145	3.24011	1.66251	1.88073	3.55076
5563.165	3.27185	1.68040	1.58354	3.67124
5567.150	3.36592	1.67648	1.46365	3.68802
5571.160	3.37222	1.73729	1.72966	3.61543
5575.151	3.27173	1.63113	1.83519	3.56038
5579.148	3.08468	1.68698	2.17489	3.59430
5583.148	3.16866	1.85709	1.86146	3.99759
5587.150	3.22220	1.68059	2.01258	3.38864
5591.144	3.31689	1.67797	1.75939	3.93590
5595.177	3.32622	1.71853	1.65252	3.70889
5599.150	3.36723	1.75100	1.77348	3.76949
5603.165	3.57122	1.53265	1.42858	4.05803
5607.152	3.35105	1.62564	1.71704	3.86617
5611.145	3.38998	1.78712	1.87056	3.71738
5615.149	3.52868	1.57994	1.62453	3.87016
5619.158	3.30537	2.14710	1.68156	3.95121
5623.150	3.05509	1.63873	1.59283	3.90842
5627.164	1.46678	1.58147	1.42742	2.20878
5631.144	-1.04994	0.31968	-1.26602	2.28830
5635.161	-1.72562	0.40932	-1.56890	1.64851
5639.146	-2.09688	-1.55672	-1.64727	1.46235
5643.142	-2.79137	-0.16984	-2.25414	0.29167
5647.155	-2.18558	-1.79544	-2.76948	1.25550
5651.148	-2.29671	-0.82455	-2.70617	0.02743
5655.161	-1.92309	-1.80023	-2.03491	0.32579
5659.146	-1.83025	-1.01548	-1.89483	0.64731
5663.153	-2.08087	-1.03541	-2.14805	0.13841
5667.196	-1.77328	-1.60516	-2.55948	0.88993
5671.145	-2.29696	-1.00213	-2.94941	0.42150
5675.146	-2.40828	-2.00596	-2.77089	0.28471
5679.149	-2.26708	-1.22903	-3.00212	0.22867
5683.153	-2.41578	-1.94294	-3.01737	-0.15077
5687.149	-2.16748	-1.44992	-2.68135	0.33800
5691.158	-2.29728	-1.14502	-2.69252	-0.23079
5695.148	-1.80990	-1.69099	-2.17227	0.12505
5699.175	-2.06307	-1.43468	-2.69445	0.07263
5703.142	-2.20580	-1.41874	-3.05058	-0.08700
5707.149	-2.06287	-1.65878	-2.94267	0.39584
5711.146	-2.18900	-1.23495	-2.82231	0.45547
5715.138	-2.30271	-1.30390	-2.57768	-0.18196
5719.148	-2.14605	-1.04878	-2.86631	0.02117
5723.146	-2.10937	-1.27145	-2.80875	0.19878
5727.144	-1.81411	-1.63443	-2.70859	0.52947
5731.152	-2.00004	-1.68443	-2.75304	-0.16394
5735.152	-1.95745	-1.67606	-2.69911	-0.20897
5739.144	-1.90239	-1.75532	-2.76822	-0.02758
5743.151	-1.97654	-1.73140	-2.92396	-0.10639
5747.144	-2.12994	-1.94970	-2.91809	0.13751
5751.149	-2.17167	-2.03100	-2.78976	0.10218
5755.145	-1.95777	-1.56010	-2.58957	0.00638
5759.145	-2.09757	-1.63493	-2.82739	0.07351
5763.142	-2.43263	-1.00630	-3.01640	0.08333
5767.160	-3.09951	-0.47667	-3.02324	0.07961
5771.147	-13.25101	5.43690	-1.29444	0.19295
5775.153	-2.38757	-1.63904	-9.44827	2.56979
5779.153	-1.03940	13.36257	NaN	NaN
5783.148	NaN	NaN	NaN	NaN
5787.151	NaN	NaN	NaN	NaN
5791.142	NaN	NaN	NaN	NaN
5795.142	NaN	NaN	NaN	NaN
5799.466	NaN	NaN	NaN	NaN
5803.598	NaN	NaN	NaN	NaN
5807.572	NaN	NaN	NaN	NaN
5811.515	NaN	NaN	NaN	NaN
5815.558	NaN	NaN	NaN	NaN
5819.473	NaN	NaN	NaN	NaN
5823.556	NaN	NaN	NaN	NaN
5827.152	NaN	NaN	NaN	NaN
5831.371	NaN	NaN	-19.91794	0.53910
5835.146	NaN	NaN	-19.95444	-12.08035
5839.138	NaN	NaN	-19.95470	-12.08033
5843.142	-0.47733	13.35615	-13.50971	2.73119
5847.143	NaN	NaN	-2.00760	1.27953
5851.137	NaN	NaN	-2.67078	0.86965
5855.181	-8.65094	0.78667	-1.85177	-0.77400
5859.153	-8.26641	0.73292	-1.50497	-0.75968
5863.146	-8.47847	1.21869	-5.55624	-0.40504
5867.148	-0.91837	-1.96971	-5.68639	-0.52133
5871.158	-13.10775	4.42924	-5.77030	-0.35534
5875.151	-0.24850	-0.75546	-5.92881	-0.48005
5879.143	-3.29023	-1.59865	-7.30681	-0.45821
5883.140	-0.18360	-3.15467	-6.21887	-0.47312
5887.168	-0.32136	-3.64533	-6.01819	-0.55472
5891.143	-6.98861	-1.22569	-5.62503	-0.58557
5895.141	-3.95137	-1.72053	-5.47832	-0.79344
5899.135	-4.37031	-1.59594	-5.42658	-0.75161
5903.184	-4.26933	-1.61056	-5.44601	-0.68380
5907.147	-4.23367	-1.97169	-5.28091	-0.68299
5911.145	-4.63935	-1.60384	-5.08926	-0.90206
5915.140	-4.25652	-2.23712	-5.09190	-0.80535
5919.142	-4.10031	-1.86713	-5.40737	-0.92136
5923.140	-4.29589	-1.73110	-5.24257	-1.06353
5927.145	-4.20180	-2.26504	-5.05676	-1.10442
5931.140	-4.26864	-1.99133	-5.01994	-0.99320
5935.144	-3.94636	-2.01350	-5.06122	-0.93404
5939.141	-4.38440	-1.83466	-4.89345	-1.03230
5943.150	-4.08797	-2.33919	-4.97187	-0.88240
5947.164	-4.05374	-2.21426	-5.05624	-0.69873
5951.022	-4.17127	-1.97962	-5.11337	-0.77045
5955.015	-3.98190	-2.02146	-5.03395	-0.95821
5959.018	-3.98783	-2.07317	-4.97083	-0.95397
5963.145	-4.09972	-2.06751	-4.97457	-0.86549
5967.013	-4.09868	-2.09370	-4.94748	-0.78954
5971.016	-4.11303	-1.97266	-4.97457	-0.78943
5975.016	-4.05959	-2.03565	-5.02327	-0.85783
5979.015	-4.20553	-1.95065	-4.93088	-1.00373
5983.014	-4.16618	-2.19667	-4.92622	-1.00940
5987.017	-3.89246	-2.17102	-4.94750	-1.03179
5991.020	-3.99245	-2.03275	-4.83789	-1.06699
5995.018	-3.93035	-1.93099	-4.94164	-1.04254
5999.030	-4.00806	-1.91206	-4.98076	-0.99442
6003.051	-4.07636	-2.57015	-4.99733	-1.01236
6007.017	-4.13352	-2.27365	-5.00135	-0.95417
6011.029	-4.02436	-2.19630	-5.02585	-0.92865
6015.017	-4.08290	-1.90864	-5.06072	-0.89316
6019.012	-4.05782	-1.94215	-5.02437	-1.06008
6023.020	-3.95466	-2.17705	-5.11324	-1.36717
6027.021	-3.92084	-2.52486	-5.13833	-1.19895
6031.011	-3.89854	-2.34893	-5.15362	-1.25906
6035.018	-3.94673	-2.08218	-5.15037	-1.27265
6039.012	-3.87554	-2.00080	-5.16595	-1.20447
6043.017	-4.01369	-1.91893	-5.08628	-1.17394
6047.009	-3.96330	-2.12128	-5.13730	-1.00566
6051.019	-4.01423	-2.28146	-5.11908	-1.00007
6055.013	-3.98314	-2.16284	-5.13114	-1.03588
6059.030	-4.01107	-2.09856	-5.09849	-0.93587
6063.016	-4.01712	-2.06133	-5.13400	-0.86946
6067.020	-3.89476	-1.96940	-5.09121	-0.85761
6071.045	-4.04604	-1.95087	-4.99709	-1.01494
6075.028	-4.16048	-1.85523	-4.98251	-0.92277
6079.014	-4.12382	-1.79126	-5.02248	-0.80073
6083.028	-4.09945	-1.70915	-4.96125	-0.66905
6087.016	-4.07999	-1.77861	-4.91656	-0.66499
6091.041	-4.01512	-1.76815	-4.82237	-0.70014
6095.017	-3.93129	-1.87319	-4.74979	-0.75835
6099.011	-3.99242	-1.92564	-4.87192	-0.87631
6103.028	-3.92186	-1.85723	-4.84437	-0.86496
6107.017	-4.06735	-1.75642	-4.85290	-0.94473
6111.011	-4.11384	-1.50027	-4.89952	-0.84888
6115.015	-3.97985	-1.13564	-4.93881	-0.19823
6119.015	-4.02648	-0.67281	-4.91314	0.02013
6123.026	-3.87206	-0.53446	-5.02066	0.26199
6127.011	-4.06698	-0.70281	-5.12440	-0.17506
6131.021	-4.08594	-0.83587	-5.17196	-0.31796
6135.011	-4.01072	-0.99666	-5.29546	-0.12005
6139.061	-4.01095	-0.82205	-5.32855	-0.16532
6143.021	-4.25388	-0.81687	-5.29595	0.12946
6147.024	-4.15823	-0.69215	-5.33935	0.15619
6151.009	-3.98627	-0.70722	-5.34272	0.25053
6155.015	-4.11693	-0.68242	-5.25030	0.43090
6159.014	-3.92200	-0.86702	-5.25101	0.27405
6163.018	-3.99010	-0.91049	-5.31903	0.04021
6167.009	-3.95846	-0.90971	-5.32786	0.30573
6171.014	-4.05651	-0.75075	-5.42065	0.44184
6175.007	-4.02690	-0.70443	-5.49092	0.27592
6179.017	-4.18736	-0.73155	-5.50560	0.37880
6183.009	-4.22256	-0.88132	-5.22234	0.30823
6187.013	-4.26896	-0.90445	-5.23445	0.54901
6191.011	-4.05431	-0.81871	-5.37849	0.51962
6195.014	-4.17556	-0.59990	-5.63159	0.34180
6199.009	-4.13214	-0.72310	-5.60649	0.32156
6203.028	-4.03554	-0.67409	-5.47478	0.33254
6207.533	-3.97639	-0.84977	-5.34464	0.57145
6211.028	-4.00302	-0.87807	-5.43566	0.54747
6215.011	-4.06105	-0.77243	-5.57262	0.46601
6219.012	-4.12806	-0.82106	-5.34417	0.44689
6223.020	-3.99373	-0.62416	-5.33704	0.33569
6227.010	-3.90365	-0.66974	-5.33768	0.34400
6231.022	-3.92220	-0.80444	-5.38516	0.39558
6235.011	-3.94438	-0.80469	-5.40862	0.41681
6239.013	-3.85659	-1.06805	-5.28241	0.54506
6243.015	-3.88460	-1.14638	-5.19423	0.38914
6247.021	-3.80337	-1.11375	-5.37898	0.36943
6251.016	-3.88189	-0.72293	-5.35350	0.59410
6255.010	-3.90997	-0.97398	-5.27466	0.56852
6259.021	-3.99035	-1.00957	-5.21754	0.65147
6263.019	-4.00336	-1.06893	-5.53557	0.58049
6267.009	-3.99702	-0.52630	-5.19834	0.53061
6271.013	-4.14211	-0.79280	-5.46500	0.53421
6275.023	-3.91810	-1.24860	-5.52775	1.10805
6279.007	-3.73601	-1.12546	-5.40302	0.78474
6283.026	-3.77093	-1.01913	-5.18744	0.43644
6287.009	-3.67549	-0.77811	-5.46802	0.79089
6291.008	-3.83752	-1.08828	-5.30279	0.83800
6295.012	-3.79710	-0.69369	-5.19709	0.76743
6299.013	-3.78568	-0.48275	-5.49136	0.50144
6303.007	-3.55639	-0.82017	-5.31054	0.67395
6307.010	-3.62845	-0.83578	-5.24656	0.91653
6311.009	-3.67173	-1.15402	-5.25165	0.51483
6315.023	-3.73156	-1.03973	-5.20863	0.78531
6319.011	-3.60002	-1.11624	-5.25798	0.71177
6323.009	-3.84162	-0.95091	-5.19908	0.56560
6327.014	-3.96516	-0.97947	-5.10898	0.47426
6331.016	-3.93507	-1.39588	-5.33359	0.36988
6335.010	-3.87233	-1.06603	-5.15374	0.41612
6339.004	-3.97331	-1.12916	-5.24316	0.29360
6343.071	-3.94550	-1.31517	-5.37785	0.24980
6347.034	-3.99526	-1.33835	-5.18934	0.20837
6351.012	-4.01813	-1.31138	-5.26177	0.21015
6355.005	-3.98654	-1.32907	-5.26408	0.06802
6359.011	-4.02473	-1.33880	-5.33153	-0.03095
6363.010	-4.01653	-1.28837	-5.34068	0.13187
6367.016	-4.00907	-1.38899	-5.22677	-0.03410
6371.006	-3.90889	-1.32174	-5.41074	0.08978
6375.041	-3.93189	-1.28570	-5.08734	0.43151
6379.016	-3.92317	-1.22629	-5.27496	0.23615
6383.022	-3.91815	-1.20754	-5.43425	0.62103
6387.008	-3.85955	-1.24383	-5.34156	0.64072
6391.008	-3.87712	-1.22599	-5.38304	0.50611
6395.009	-3.89372	-1.22958	-5.31450	0.28570
6399.012	-3.92497	-1.12395	-5.34277	0.47606
6403.011	-3.89335	-1.16156	-5.18237	0.45765
6407.017	-4.04749	-1.17304	-5.09990	0.25513
6411.036	-3.79445	-1.37098	-5.23216	0.53323
6415.010	-3.82884	-1.26313	-5.19266	0.76808
6419.030	-3.96120	-1.11196	-5.40115	0.64063
6423.003	-5.15327	0.08150	-5.67764	1.11291
6427.005	-9.33144	3.64539	-8.01978	3.64721
6431.018	-11.28768	5.20063	-11.69414	6.54144
6435.006	-15.73541	8.44163	-14.32866	8.62985
6439.002	-17.13674	9.36586	-16.59232	9.16348
6443.017	-20.11671	10.55288	-18.41737	11.13417
6447.007	-20.61828	11.29003	-18.84479	10.97792
6451.021	-23.44909	11.84429	-21.16497	11.08041
6455.009	-20.19350	-12.06248	-19.85764	-12.08752
6459.005	-20.13336	-12.06699	-22.63689	12.34789
6463.006	-20.10029	-12.06947	-20.68769	11.48806
6467.015	-20.07924	-12.07104	-20.48008	11.69912
6471.005	-20.06455	-12.07214	-20.73626	11.93019
6475.009	-20.05368	-12.07295	-20.51235	12.23302
6479.034	-20.04527	-12.07358	-20.60234	12.27408
6483.008	-20.03859	-12.07408	-21.42488	12.00841
6487.001	-20.02595	-12.07502	-21.10633	11.89981
6491.019	NaN	NaN	-21.02533	11.99473
6495.007	NaN	NaN	-21.57946	12.59920
6499.021	NaN	NaN	-21.92677	12.57199
6503.001	NaN	NaN	-22.18657	12.70553
6507.013	NaN	NaN	-21.23148	12.62754
6511.022	NaN	NaN	-20.58512	12.55855
6515.005	NaN	NaN	-21.12573	12.53768
6519.007	NaN	NaN	-21.42996	12.15504
6523.011	NaN	NaN	-21.09374	12.02285
6527.006	NaN	NaN	-21.00464	11.99551
6531.006	NaN	NaN	-20.23196	11.85513
6535.014	NaN	NaN	-20.64256	12.13042
6539.014	NaN	NaN	-20.86264	11.89197
6543.004	NaN	NaN	-20.89758	11.72778
6547.037	NaN	NaN	-21.22409	12.00558
6551.006	NaN	NaN	-21.22764	11.90057
6555.002	-22.93298	11.60246	-20.75425	12.12033
6559.005	-19.99374	-12.07742	-20.84389	11.96743
6563.029	NaN	NaN	-21.05880	11.98322
6567.001	NaN	NaN	-21.35300	11.98894
6571.013	NaN	NaN	-21.38539	12.37156
6575.010	NaN	NaN	-21.33696	12.18450
6579.005	NaN	NaN	-21.11713	12.45270
6583.006	NaN	NaN	-21.30741	12.30618
6587.020	NaN	NaN	-21.77654	12.49207
6591.007	NaN	NaN	-21.51447	12.62210
6595.002	NaN	NaN	-21.36053	12.58450
6599.004	NaN	NaN	-21.50996	12.53831
6603.007	NaN	NaN	-21.67594	12.83740
6607.011	NaN	NaN	-21.66789	12.71984
6611.005	NaN	NaN	-21.78803	12.83139
6615.089	NaN	NaN	-22.07119	12.86386
6619.020	NaN	NaN	-21.85171	12.90684
6623.012	NaN	NaN	-21.89721	12.89951
6627.019	NaN	NaN	-21.97662	12.95521
6631.005	NaN	NaN	-21.32587	12.59794
6635.003	NaN	NaN	-21.05279	12.21075
6639.005	NaN	NaN	-21.47281	12.65028
6643.009	NaN	NaN	-21.85282	12.00987
6647.005	NaN	NaN	-22.04015	10.99355
6651.019	NaN	NaN	-21.95677	9.07102
6655.001	NaN	NaN	-21.55273	8.12636
6659.019	NaN	NaN	-21.29009	7.36204
6663.002	NaN	NaN	-21.51056	7.81751
6667.003	NaN	NaN	-21.12966	7.79619
6671.004	NaN	NaN	-21.18118	8.53414
6675.006	NaN	NaN	-21.04717	8.67405
6679.000	NaN	NaN	-21.43828	8.77847
6683.065	NaN	NaN	-21.25390	8.81200
6687.003	NaN	NaN	-21.18027	8.50202
6691.016	NaN	NaN	-21.08449	8.02979
6694.998	NaN	NaN	-21.07823	7.82353
6699.011	NaN	NaN	-21.02899	7.93801
6703.007	NaN	NaN	-21.07060	8.01232
6707.010	NaN	NaN	-20.98841	8.44759
6711.007	NaN	NaN	-21.01947	8.65438
6715.001	NaN	NaN	-20.96282	8.48218
6719.005	NaN	NaN	-20.98268	8.16374
6722.999	NaN	NaN	-20.83418	7.95989
6727.021	NaN	NaN	-20.83361	8.05175
6731.005	NaN	NaN	-20.81000	7.93158
6735.001	NaN	NaN	-20.41476	7.78771
6739.004	NaN	NaN	-20.71036	7.95966
6743.007	NaN	NaN	-20.63663	7.87776
6747.004	NaN	NaN	-20.67255	7.80638
6751.016	NaN	NaN	-20.72897	7.99350
6754.996	NaN	NaN	-20.60397	7.83848
6759.009	NaN	NaN	-20.81000	7.82715
6763.005	NaN	NaN	-20.57572	7.70549
6767.001	NaN	NaN	-20.75664	7.86616
6771.007	NaN	NaN	-20.52990	7.87430
6775.007	NaN	NaN	-20.60291	7.96049
6779.005	NaN	NaN	-20.83225	8.41911
6783.005	NaN	NaN	-20.97811	8.53223
6787.008	NaN	NaN	-20.77831	8.42521
6791.007	NaN	NaN	-20.87893	8.08777
6795.006	NaN	NaN	-20.87050	8.25954
6798.999	NaN	NaN	-20.72017	8.35189
6802.897	NaN	NaN	-20.71459	8.30081
6806.869	NaN	NaN	-20.54648	8.66984
6810.898	NaN	NaN	-22.38703	9.93737
6814.889	NaN	NaN	-20.44244	-12.04366
6818.903	NaN	NaN	-20.35172	-12.05054
6822.885	NaN	NaN	-20.27371	-12.05644
