time (ms)	lx (deg)	ly (deg)	rx (deg)	ry (deg)
0.000	7.58512	-5.97896	5.13178	-2.46408
3.994	7.56074	-5.90226	5.15379	-2.45187
8.000	7.56610	-5.87494	5.09249	-2.47530
11.992	7.52325	-5.85524	5.16334	-2.43841
16.005	7.48383	-5.78817	4.96475	-2.37175
20.000	7.22786	-2.80025	4.14463	-1.69051
24.615	5.97452	-2.30642	2.94342	0.79985
28.006	5.52770	-1.77696	2.17514	1.42874
32.008	5.27653	-1.76447	2.48857	1.30806
36.004	5.66403	-2.09850	2.76455	1.05491
39.994	5.65449	-2.58413	3.17767	0.06486
43.996	5.43634	-3.09312	3.75706	-0.35274
47.998	5.40683	-3.09762	3.49448	-0.29272
51.990	5.28955	-2.95517	3.15330	0.29873
55.993	5.20580	-2.66236	3.02423	0.39057
60.004	5.25197	-2.92329	2.99492	0.41528
63.997	5.16991	-2.86248	2.91923	0.46484
68.001	5.17816	-2.86980	2.89341	0.25989
71.998	5.14141	-2.85342	3.03044	0.16534
75.997	5.17565	-2.89190	3.09958	0.16054
79.997	5.10938	-2.95150	3.10337	0.14478
83.992	5.08266	-2.95105	3.11878	0.16475
87.994	5.09079	-2.89127	3.12821	0.20807
91.994	5.14990	-2.85985	3.16750	0.19201
96.003	5.21191	-2.84755	3.22235	0.19329
99.993	5.28205	-2.83000	3.29859	0.25902
103.999	5.32885	-2.79425	3.38578	0.29710
107.995	5.45494	-2.72474	3.43941	0.31114
112.037	5.51563	-2.69324	3.43514	0.19471
116.002	5.63650	-2.62401	3.43771	0.18556
119.999	5.71650	-2.59039	3.43400	0.26221
123.995	5.73846	-2.53951	3.47784	0.28925
127.996	5.82353	-2.52780	3.52966	0.33272
131.994	5.84829	-2.58029	3.57978	0.36447
135.991	5.81373	-2.58299	3.58608	0.41451
139.991	5.81314	-2.58738	3.55711	0.45234
143.992	5.80506	-2.62936	3.57461	0.39093
147.997	5.79821	-2.63186	3.59327	0.31208
152.013	5.79337	-2.68425	3.60262	0.26838
156.016	5.73539	-2.76645	3.63216	0.25674
160.013	5.66029	-2.85069	3.65821	0.23358
163.998	5.64604	-2.88090	3.71209	0.18171
167.995	5.62879	-2.89391	3.66844	0.14472
171.986	5.64837	-2.93227	3.69293	0.14720
175.991	5.59860	-2.96981	3.66693	0.10227
180.003	5.52777	-2.95510	3.65727	0.05632
183.992	5.53594	-2.95074	3.61411	0.03782
187.997	5.52507	-2.92588	3.53533	0.04435
191.866	5.58938	-2.90785	3.45109	0.06719
195.867	5.51759	-2.87736	3.44965	0.09817
199.882	5.54260	-2.86799	3.40096	0.10292
203.870	5.63159	-2.86847	3.28739	0.21901
207.867	5.70490	-2.84391	3.29322	0.26966
211.868	5.69291	-2.84628	3.28603	0.33233
215.871	5.83736	-2.82374	3.30228	0.37082
219.863	5.89048	-2.81856	3.32632	0.41286
223.880	6.02553	-2.82438	3.34638	0.47238
227.878	5.98393	-2.83051	3.38182	0.51235
231.869	5.96976	-2.83803	3.35610	0.58881
235.873	5.98557	-2.83943	3.43835	0.59248
239.866	5.96441	-2.81614	3.48870	0.62229
243.874	5.96500	-2.80568	3.49045	0.64168
247.862	5.90318	-2.81825	3.49305	0.57531
251.874	5.86109	-2.78821	3.50212	0.54884
255.869	5.84957	-2.73196	3.49972	0.46343
259.869	5.83382	-2.71830	3.51028	0.41447
263.862	5.76431	-2.70630	3.47537	0.42991
267.873	5.63171	-2.65742	3.44572	0.40857
271.865	5.62355	-2.61773	3.42967	0.37234
275.869	5.61750	-2.54940	3.46842	0.36840
279.883	5.60752	-2.51313	3.47356	0.33055
283.871	5.57591	-2.58398	3.41718	0.34483
287.874	5.57454	-2.58939	3.36300	0.34813
291.865	5.53166	-2.53708	3.29251	0.41158
295.894	5.43895	-2.52626	3.19120	0.41798
299.929	5.42658	-2.53757	3.19229	0.51488
303.866	5.41426	-2.55804	3.21020	0.48138
307.867	5.37313	-2.55427	3.21114	0.46396
311.862	5.38211	-2.56001	3.22584	0.39583
315.874	5.39320	-2.57159	3.23524	0.29019
319.867	5.30355	-2.46496	3.04197	0.28566
323.869	5.27183	-2.50068	3.03455	0.19482
327.910	5.23829	-2.39280	3.06437	0.16042
331.877	5.27799	-2.27353	3.06786	0.07705
335.864	5.29838	-2.24003	3.02633	0.03926
339.862	5.32875	-2.27448	3.13670	-0.00134
343.863	5.40744	-2.24151	3.10176	-0.05382
347.878	5.36624	-2.26100	3.05043	-0.03437
351.870	5.39524	-2.22354	3.00527	0.05755
355.862	5.37574	-2.25625	2.94478	0.13847
359.864	5.39020	-2.23737	2.91775	0.32907
363.868	5.42806	-2.28186	2.90906	0.44777
367.869	5.44603	-2.37887	2.93396	0.52746
371.861	5.49032	-2.45304	2.96557	0.52566
375.878	5.55322	-2.52687	2.96559	0.63824
379.865	5.53163	-2.54747	3.00314	0.65233
383.875	5.59268	-2.61064	2.99643	0.72786
387.863	5.56903	-2.63569	3.02487	0.66517
391.870	5.57999	-2.67565	3.04506	0.69285
395.866	5.53163	-2.65817	3.09448	0.56438
399.863	5.55283	-2.61792	3.12165	0.54444
403.888	5.49271	-2.65477	3.15313	0.43558
407.866	5.37724	-2.73550	3.12940	0.41966
411.880	5.41396	-2.72714	3.15595	0.37619
415.864	5.36285	-2.77666	3.11789	0.32576
419.870	5.34491	-2.73802	3.05919	0.24240
423.854	5.33131	-2.82037	3.04719	0.22859
427.868	5.30365	-2.83395	3.00123	0.19088
431.863	5.30665	-2.86617	2.98621	0.20634
435.877	5.27014	-2.86422	2.97069	0.20595
439.868	5.31462	-2.84518	2.98856	0.21535
443.869	5.23713	-3.02662	3.02106	0.20465
447.867	5.20543	-3.05976	3.09787	0.16979
451.868	5.18518	-3.10418	3.21050	0.12805
455.865	5.09500	-3.16586	3.31403	0.11813
459.867	5.06986	-3.15752	3.32966	0.08075
463.863	4.99448	-3.20774	3.35491	0.08920
467.862	5.03881	-3.16959	3.40383	0.10168
471.872	5.02243	-3.16252	3.42636	0.11896
475.870	5.04260	-3.16057	3.34430	0.05115
479.861	5.00627	-3.11249	3.19061	0.02320
483.867	4.96278	-3.09920	3.26727	0.04069
487.865	4.93910	-3.00347	3.23247	0.07651
491.875	4.86224	-2.88025	3.16876	0.10187
495.858	4.83602	-2.81967	3.06437	0.10853
499.862	4.80867	-2.76225	3.07293	0.10925
503.863	4.94204	-2.69783	3.05902	0.14732
507.889	4.92435	-2.59167	3.06969	0.25741
511.860	4.85317	-2.52510	2.97329	0.32245
515.860	4.78836	-2.52050	2.97633	0.33357
519.874	4.76665	-2.49062	2.99118	0.38907
523.861	4.79883	-2.49931	3.03902	0.48674
527.856	4.77769	-2.50072	3.03232	0.49367
531.880	4.82375	-2.48992	3.03816	0.44997
535.867	4.95415	-2.47886	3.02212	0.44583
539.863	4.95457	-2.52260	3.03667	0.47099
543.867	5.01965	-2.55666	3.05543	0.49703
547.862	5.00893	-2.58514	3.04261	0.50508
551.861	5.05324	-2.61979	3.02383	0.44750
555.868	4.98115	-2.68752	3.02351	0.41162
559.860	4.99487	-2.71397	3.00920	0.38460
563.862	4.96576	-2.74121	2.98331	0.35942
567.869	4.97445	-2.75458	3.02155	0.30509
571.923	4.97696	-2.80169	3.03143	0.28588
575.866	4.99243	-2.81099	3.06070	0.29794
579.861	4.94913	-2.85607	3.12620	0.30752
583.858	4.89594	-2.83918	3.16448	0.30828
587.879	4.87350	-2.82112	3.13885	0.26730
591.869	4.88170	-2.84240	3.15557	0.25834
595.869	4.91183	-2.83417	3.13501	0.27504
599.859	4.91558	-2.74164	3.12757	0.31065
603.861	4.95100	-2.71397	3.12472	0.30588
607.864	4.96411	-2.61172	3.13915	0.37972
611.865	5.02152	-2.51683	3.10208	0.43756
615.866	5.04794	-2.42867	3.10826	0.26805
619.879	5.05294	-2.33142	3.11260	0.25348
623.851	5.10517	-2.30346	3.07419	0.12982
627.870	5.14434	-2.23573	3.04754	0.15241
631.858	5.16666	-2.30746	3.04350	0.31983
635.884	5.19928	-2.78705	3.10148	0.28584
639.861	5.15677	-3.19519	3.28805	0.23183
643.860	5.19697	-3.06178	3.15520	0.29533
647.858	5.20821	-3.06695	3.13781	0.22316
651.857	5.23263	-3.40455	3.37311	0.17411
655.862	5.26593	-3.18546	3.47656	0.14827
659.866	5.30163	-3.31582	3.27813	0.23985
663.864	5.27597	-3.20786	3.36856	0.34240
667.859	5.13208	-3.10056	3.41929	0.36160
671.877	5.17991	-3.36917	3.38306	0.33492
675.867	5.06732	-3.45313	3.44382	0.31714
679.865	5.00982	-3.47366	3.46140	0.28167
683.859	5.06518	-3.18770	3.36376	0.24819
687.864	5.08446	-3.11627	3.41867	0.30215
691.855	5.20487	-3.04121	3.19432	0.19533
695.863	5.18306	-2.98949	2.90940	0.24457
699.873	5.07136	-2.88109	3.02826	0.22544
703.862	5.08444	-2.70873	3.03791	0.13750
707.875	4.95004	-2.59310	3.11544	0.18790
711.885	4.99948	-2.79421	3.12809	0.23688
715.862	5.06016	-2.74091	2.99774	0.21564
719.854	5.16551	-2.79315	2.98101	0.30535
723.864	5.20088	-2.73260	2.94631	0.31911
727.868	5.21353	-3.01627	3.07186	0.34128
731.859	5.24353	-2.76777	2.90230	0.46988
735.858	5.20487	-2.67658	2.91683	0.46449
739.863	4.97679	-2.48533	2.92426	0.46888
743.866	5.11920	-2.57539	2.98567	0.45245
747.865	5.10354	-2.72235	3.09003	0.39819
751.861	5.17181	-2.93803	2.99091	0.46503
755.859	5.15519	-2.72759	3.00230	0.54338
759.871	5.20282	-2.73566	3.09480	0.43109
763.858	5.18584	-2.68259	2.89829	0.46904
767.857	5.05038	-2.72606	2.70418	0.47691
771.895	5.01019	-2.82183	2.89106	0.34295
775.860	5.08448	-2.60154	2.98416	0.36716
779.873	5.08000	-2.60192	2.88562	0.52227
783.866	5.17159	-2.79964	2.93163	0.44585
787.857	5.25101	-2.96177	3.00846	0.28604
791.859	5.28955	-2.49880	3.04615	0.18940
795.861	5.34481	-2.78452	2.98225	0.60664
799.857	5.25018	-2.78635	3.06167	0.53251
803.856	5.26903	-2.77840	3.13261	0.20415
807.858	5.31120	-2.71864	3.11351	0.15093
811.878	5.24028	-2.63843	3.15048	0.53644
815.861	5.31691	-2.62245	3.20580	0.66355
819.860	5.22997	-2.50003	3.32973	0.32708
823.857	5.19606	-2.56601	3.39243	0.00005
827.853	5.10054	-2.59851	3.35753	0.39214
831.872	5.05989	-2.69112	3.30797	0.42602
835.854	5.08601	-2.72154	3.39119	0.59928
839.902	5.00342	-2.61330	3.40516	0.61926
843.860	4.96578	-2.41808	3.46632	0.26131
847.872	4.93435	-2.54162	3.35664	0.39873
851.855	4.91780	-2.79172	3.32533	0.72654
855.860	4.93171	-2.84545	3.37841	0.79024
859.853	5.10615	-2.47930	3.35424	0.67538
863.875	5.07259	-1.70702	3.34687	0.63932
867.864	5.25456	-2.61064	3.35486	0.59293
871.856	5.33628	-1.79134	3.47811	0.60153
875.859	5.49736	-1.80070	3.50284	0.49976
879.862	5.23125	-2.07318	3.50143	0.51861
883.855	5.37810	-2.73207	3.42846	0.64549
887.860	5.26713	-2.56066	3.25790	0.77863
891.851	5.22483	-2.73188	3.28321	0.72384
895.876	5.20666	-2.64680	3.34573	0.72630
899.859	5.35084	-2.63206	3.31516	0.50165
903.854	5.72451	-2.72521	3.75351	0.57500
907.886	7.07559	-0.99732	6.56868	0.85704
912.090	10.30093	-1.04660	7.10697	1.52931
915.857	11.08273	-0.65970	8.83561	3.52251
919.857	11.41182	0.49721	9.30244	3.46632
923.855	12.27853	1.11422	9.45414	2.64322
927.854	11.89262	1.13207	9.91847	1.68642
931.855	12.01293	1.10222	10.17822	2.21167
935.858	11.63747	1.04025	10.36012	2.38656
939.854	11.12763	0.98484	10.12755	2.56293
943.869	10.67993	0.99911	9.86770	2.25994
947.857	11.00936	0.95322	10.01149	2.35604
951.856	11.33337	1.05044	10.19255	2.28747
955.866	11.66465	1.15828	10.30612	2.25887
959.856	11.74872	1.25065	10.27693	2.29196
963.858	11.88176	1.24387	10.27722	2.33302
967.856	11.93714	1.17934	10.34309	2.31950
971.853	11.86322	1.20944	10.33644	2.46165
975.884	11.80364	1.19935	10.25295	2.44788
979.858	11.81432	1.25551	10.20765	2.57632
983.850	11.90676	1.33193	10.18353	2.59753
987.854	11.91792	1.41493	10.21767	2.62832
991.861	11.99669	1.38044	10.26482	2.76880
995.855	12.03161	1.33275	10.27121	2.79826
999.854	12.03804	1.06572	10.24084	2.80431
1003.853	12.02081	0.84544	10.36444	2.76051
1007.857	11.96907	0.93447	10.49171	2.76867
1011.854	12.06695	0.99948	10.52401	2.81528
1015.858	12.11892	1.27787	10.40641	2.89911
1019.872	12.19237	1.36508	10.30790	2.92907
1023.858	12.26180	1.32606	10.18659	3.00912
1027.892	12.41241	0.86927	10.44012	2.63603
1031.868	12.36468	0.77435	10.41390	2.18962
1035.855	12.43528	0.72093	10.31158	2.48269
1039.852	12.33349	0.92451	10.35452	2.38077
1043.735	12.29225	1.09366	10.21053	2.36327
1047.728	12.26180	1.22850	10.04781	2.72708
1051.732	12.44837	1.15811	10.08200	2.81173
1055.727	12.46271	1.15069	10.16968	2.42313
1059.731	12.41414	0.85352	10.25843	2.36870
1063.724	12.37929	0.74943	10.27532	2.47516
1067.736	12.31533	0.83537	10.33233	2.34714
1071.728	12.43559	0.81592	10.33017	2.60902
1075.727	12.39525	0.89595	10.45447	2.55609
1079.734	12.43895	0.99070	10.60653	2.67667
1083.738	12.50997	1.02996	10.59896	2.69811
1087.728	12.46509	1.06701	10.73114	2.65253
1091.749	12.57609	0.84159	10.89963	2.57103
1095.725	12.68583	0.64832	10.81444	2.55461
1099.751	12.69724	0.73777	10.83417	2.46422
1103.731	12.72544	0.76937	10.71763	2.46022
1107.725	12.78493	0.84667	10.69443	2.49824
1111.751	12.81047	0.99377	10.70490	2.57274
1115.756	12.83956	1.09477	10.69745	2.49314
1119.734	12.83078	1.34546	10.72501	2.50727
1123.722	12.81667	1.33227	10.70073	2.49718
1127.743	12.80945	1.34834	10.79399	2.39033
1131.733	12.85220	1.54451	10.61668	2.43732
1135.725	12.84602	1.53767	10.59239	2.45055
1139.726	12.81002	1.31956	10.61730	2.46028
1143.729	12.84083	1.02906	10.57730	2.51209
1147.731	12.85600	0.32078	10.55524	2.42364
1151.755	12.86562	0.40070	10.61581	2.37423
1155.727	12.85652	0.69821	10.64381	2.41684
1159.727	12.77202	1.04538	10.26999	2.56852
1163.730	11.35606	1.72406	9.48724	3.65508
1167.730	9.38757	4.06563	6.73796	5.47181
1171.728	8.98477	4.56639	6.35878	6.79142
1175.726	9.05681	4.88622	6.39342	7.16952
1179.738	9.78893	4.18710	6.67762	7.09339
1183.723	10.36619	2.72340	7.18821	6.93900
1187.726	10.27311	2.50136	7.39361	6.95199
1191.737	10.12840	2.21282	7.45919	6.82823
1195.728	10.12787	2.40774	7.23838	6.42682
1199.732	9.94972	2.61199	7.39064	6.73457
1203.729	9.79455	2.86100	7.25304	6.85555
1207.726	9.74776	3.07392	7.24940	6.74962
1211.735	9.97161	3.37516	7.06569	6.89651
1215.726	9.94378	3.25555	6.94650	6.67283
1219.735	9.86560	3.24120	7.07403	6.79841
1223.726	9.62543	3.55150	7.16637	6.88475
1227.729	9.56798	3.27446	7.28864	6.80950
1231.726	9.54375	3.33663	7.40604	6.85094
1235.739	9.59052	3.29573	7.54423	6.14699
1239.723	9.62176	3.15903	7.42671	6.48244
1243.721	9.48306	3.22660	7.72451	6.30921
1247.745	9.41798	3.22606	7.71606	6.47969
1251.726	9.27194	3.23822	7.60802	6.60292
1255.731	9.27245	3.17446	7.74079	6.67995
1259.734	9.32328	3.23244	7.69234	6.89164
1263.720	9.33178	3.20318	7.68410	6.75523
1267.729	9.38545	3.18795	7.71126	6.72221
1271.725	9.26621	3.28797	7.66568	6.88265
1275.743	9.22980	3.30149	7.62194	6.62886
1279.728	9.12427	3.41213	7.58251	6.63634
1283.726	9.07438	3.48184	7.54874	6.79592
1287.729	9.15904	3.63322	7.49773	6.80670
1291.734	9.31052	3.80364	7.42251	6.95475
1295.725	9.57486	3.82747	7.37372	7.07762
1299.723	9.58750	3.88011	7.35808	7.02949
1303.728	9.63942	3.85440	7.35812	7.06126
1307.729	9.76293	3.89111	7.36188	7.09205
1311.724	9.65592	3.90149	7.39366	7.01720
1315.726	9.76382	3.80926	7.45401	6.95326
1319.735	9.84238	3.67276	7.53181	6.85224
1323.753	9.93174	3.48176	7.66178	6.75886
1327.721	9.97443	3.32728	7.84893	6.47656
1331.729	9.95969	3.08040	7.93871	6.29546
1335.720	9.88675	3.75303	7.83176	6.41146
1339.738	9.90874	4.09339	7.83337	6.35885
1343.722	9.89015	4.05151	7.90555	6.23118
1347.734	9.85662	3.98809	7.81040	6.38682
1351.722	9.93494	4.01104	7.71138	6.27284
1355.723	9.92916	3.67226	7.70767	6.21924
1359.727	9.99604	3.60358	7.60792	6.09359
1363.721	9.94423	3.40600	7.63306	6.02392
1367.721	9.92422	3.68438	7.60753	5.91532
1371.729	9.99907	3.66355	7.59424	5.81225
1375.744	9.98506	3.55253	7.54574	5.93939
1379.729	9.83467	3.36661	7.45433	5.98211
1383.726	9.73306	3.35238	7.41060	5.93619
1387.727	9.72566	3.23460	7.32937	5.90670
1391.725	9.52060	3.23893	7.26940	5.91451
1395.723	9.56171	3.14400	7.25138	5.89716
1399.721	9.45121	3.10765	7.19627	5.91665
1403.761	9.52519	3.11133	7.23047	5.89306
1407.743	9.70097	3.11028	7.20736	5.99111
1411.736	9.67695	3.10603	7.25233	6.09290
1415.721	9.67601	3.07558	7.32509	6.11873
1419.726	9.65729	3.10179	7.48890	6.18513
1423.717	9.72122	3.13839	7.69848	6.17215
1427.732	9.77517	3.16352	7.81373	6.17765
1431.722	9.80125	3.21429	7.88424	6.22639
1435.720	9.87993	3.26873	7.95835	6.25626
1439.720	9.88071	3.27919	7.89203	6.30140
1443.727	9.69959	3.30870	7.55713	6.34928
1447.721	7.99026	3.36941	6.24143	6.47616
1452.255	6.73373	3.73176	4.70858	7.23950
1455.743	3.26082	5.51202	1.66740	8.06521
1459.726	0.71151	6.13882	1.14166	8.64935
1463.725	0.85069	6.23680	-1.39478	9.16951
1467.722	-0.50041	6.39525	-0.21001	8.96586
1471.722	-1.41544	6.39013	-1.45041	8.90098
1475.725	-1.03898	5.91633	-2.13138	8.81654
1479.724	-1.29360	6.24069	-2.81622	8.87000
1483.718	-1.42332	6.20203	-3.02311	9.15491
1487.735	-1.36370	6.22230	-2.71565	9.12424
1491.724	-1.46638	6.24284	-2.39274	9.06387
1495.740	-1.48944	6.29874	-2.29230	9.10566
1499.719	-1.56084	6.32066	-2.29414	9.07873
1503.722	-1.65587	6.34039	-2.36547	9.05625
1507.722	-1.68141	6.30638	-2.49899	9.06871
1511.753	-1.82948	6.27033	-2.40501	9.04689
1515.717	-1.80000	6.16321	-2.48312	9.11447
1519.749	-1.88251	6.22439	-2.43721	9.15988
1523.737	-1.88690	6.19544	-2.40944	9.21117
1527.725	-1.89878	6.20961	-2.31596	9.19015
1531.720	-1.87369	6.06074	-2.32803	9.21751
1535.727	-1.83214	5.77132	-2.35412	9.20236
1539.720	-1.76093	5.78529	-2.39916	9.12011
1543.724	-1.98871	5.91745	-2.76193	9.21216
1547.722	-2.02780	5.89792	-2.87673	9.28247
1551.714	-2.03001	5.95530	-2.80919	9.28989
1555.735	-1.95505	5.95882	-2.79459	9.28304
1559.728	-2.07886	6.00155	-3.21382	9.25044
1563.719	-2.10595	5.98779	-2.71260	9.12588
1567.717	-1.89193	6.03990	-2.87316	9.07594
1571.720	-1.61371	5.84888	-2.58910	8.94567
1575.719	-1.60479	5.74739	-2.72484	8.99459
1579.723	-1.67873	5.81243	-2.88720	9.05810
1583.720	-2.11955	6.00274	-2.88628	9.15048
1587.761	-2.20604	6.09235	-2.81154	9.19161
1591.727	-2.25466	6.14544	-2.84819	8.92773
1595.717	-1.85765	6.02236	-2.92790	8.93372
1599.717	-1.85489	6.01883	-2.86764	8.99700
1603.721	-1.93913	6.08775	-2.90884	9.04730
1607.719	-1.79591	6.02163	-2.95252	9.07679
1611.738	-1.75778	6.19112	-3.03351	9.10466
1615.722	-1.65793	6.17543	-2.95398	9.10947
1619.722	-1.64446	6.23257	-2.96156	9.06704
1623.713	-1.66829	6.24939	-2.93411	9.00852
1627.730	-1.56134	6.22170	-2.91641	8.94749
1631.717	-1.62428	6.22890	-2.89698	8.86636
1635.718	-1.52270	6.15442	-3.05192	9.14294
1639.724	-1.45227	6.12004	-3.14305	9.32400
1643.727	-1.46023	6.00887	-3.13083	9.32222
1647.714	-1.45713	6.00526	-3.25107	9.44219
1651.728	-1.39557	5.91858	-3.21503	9.32904
1655.761	-1.36241	5.79385	-3.07959	9.32946
1659.732	-1.34182	5.68104	-3.10047	9.36964
1663.735	-1.42360	5.69152	-3.06694	9.30390
1667.714	-1.36067	5.58573	-3.09540	9.44260
1671.716	-1.48632	5.60017	-3.07545	9.32681
1675.716	-1.39445	5.50833	-3.07558	9.38894
1679.722	-1.42992	5.48220	-3.09470	9.37059
1683.714	-1.45152	5.44501	-3.04930	9.33919
1687.717	-1.44247	5.43806	-3.04704	9.31760
1691.725	-1.48667	5.44187	-2.93772	9.31298
1695.727	-1.67987	5.52421	-2.85155	9.20252
1699.716	-1.85405	5.59775	-2.71146	9.12782
1703.720	-1.93130	5.68216	-2.65706	9.11424
1707.719	-1.95009	5.77435	-2.54960	9.08058
1711.726	-2.19140	6.08588	-2.42609	9.01609
1715.722	-2.46308	6.35335	-2.42609	9.09355
1719.717	-2.54452	6.56066	-2.47885	9.15791
1723.758	-2.48106	6.37535	-2.50638	9.24885
1727.777	-2.42309	6.36190	-2.46976	9.42573
1731.716	-2.34300	6.54080	-2.58405	9.62910
1735.721	-2.07886	5.92722	-2.76742	10.01751
1739.717	-2.17931	6.11981	-3.04741	10.17269
1743.728	-2.24711	6.09461	-2.49654	9.42150
1747.721	-2.10159	6.06607	-2.63995	9.52197
1751.725	-2.75041	6.25169	-3.01720	9.51582
1755.715	-3.07179	5.93844	-3.72212	8.60991
1759.719	-6.03334	5.81958	-6.26937	9.21642
1763.720	-6.90591	5.66273	-6.63884	8.35086
1767.715	-5.24850	3.31507	-6.93190	8.26665
1771.716	-4.69874	3.34323	-7.03919	8.55883
1775.715	-4.50984	3.29975	-7.00223	8.59710
1779.732	-4.23616	3.26113	-6.88683	8.67453
1783.720	-4.76347	3.38894	-6.59821	8.63839
1787.722	-4.67503	3.33441	-6.64160	8.52366
1791.732	-4.86936	3.34536	-6.74557	8.53126
1795.724	-5.08633	3.34793	-6.81615	8.37008
1799.725	-5.57353	3.38321	-6.90050	8.46233
1803.720	-5.70156	3.38762	-6.93462	8.63268
1807.716	-5.65865	3.35998	-6.93621	8.62988
1811.717	-5.96522	3.38374	-6.95567	8.72686
1815.713	-6.04185	3.33832	-6.94161	8.76170
1819.727	-6.19822	3.36443	-6.87594	8.65602
1823.719	-6.18151	3.35540	-6.98428	8.72085
1827.727	-6.20496	3.29796	-7.00780	8.66667
1831.714	-6.35035	3.25333	-7.04929	8.64036
1835.714	-6.38229	3.19311	-7.11767	8.67177
1839.724	-6.45233	3.19715	-7.12779	8.62874
1843.717	-6.56995	3.17561	-7.16659	8.70883
1847.728	-3.80540	3.12384	-7.21757	8.63976
1851.714	-3.76475	3.12980	-7.31501	8.65844
1855.720	-3.68166	3.05443	-7.21029	8.53874
1859.745	-3.58756	3.01978	-7.04086	8.39709
1863.725	-3.66661	3.02004	-6.75507	8.30761
1867.719	-3.83260	3.09247	-6.80732	8.27621
1871.719	-3.84765	3.08006	-6.35623	8.22347
1875.722	-4.04352	3.25955	-6.14138	8.17317
1879.713	-3.99284	3.24876	-6.53659	8.30651
1883.717	-4.15816	3.38323	-6.22051	8.15245
1887.714	-4.43650	3.65811	-6.74244	8.38824
1891.721	-4.71491	3.76076	-6.78994	8.53935
1895.713	-5.13284	3.92831	-6.93186	8.58089
1899.591	-5.99686	4.27445	-6.75766	8.44507
1903.597	-5.96358	4.26021	-6.20249	8.21101
1907.587	-6.35839	4.45500	-6.30909	8.23270
1911.598	-6.53387	4.58566	-6.20698	8.22127
1915.619	-6.22910	3.49956	-6.22020	8.09958
1919.599	-6.36743	3.53649	-6.45682	8.24923
1923.589	-6.52375	3.49303	-6.53945	8.23007
1927.587	-6.49942	3.36414	-6.51763	8.03856
1931.594	-6.56721	3.15443	-6.43155	7.85346
1935.591	-6.62336	3.02757	-6.53399	7.92829
1939.597	-6.68190	2.98397	-6.59679	7.87087
1943.593	-6.74472	3.01255	-6.67872	7.76440
1947.584	-5.79612	4.90376	-6.79464	7.76629
1951.592	-4.88806	4.20807	-6.89986	7.89024
1955.596	-5.29770	4.37106	-6.81475	8.05903
1959.604	-4.91932	4.22093	-6.73072	8.16331
1963.593	-4.83294	4.33279	-6.85461	8.31647
1967.588	-4.77471	4.25195	-6.39038	8.19015
1971.588	-4.72992	4.28039	-6.19864	8.22544
1975.603	-4.71888	4.24384	-6.17151	8.27582
1979.592	-4.70754	4.27403	-6.06043	8.19973
1983.586	-4.73490	4.25736	-6.15019	8.24155
1987.585	-4.72364	4.19302	-5.95216	8.26486
1991.591	-4.68375	4.13904	-5.87806	8.21952
1995.592	-4.72433	4.11197	-5.94673	8.23144
1999.605	-5.00408	4.15937	-5.90804	8.15941
2003.587	-4.95709	4.15777	-5.85784	8.11804
2007.593	-4.99866	4.14268	-5.90661	8.10392
2011.592	-4.99760	4.15922	-5.99232	8.12435
2015.587	-5.46723	4.30384	-6.19304	8.16957
2019.595	-6.05866	4.52153	-6.44194	8.20919
2023.591	-5.62734	4.44234	-6.37425	8.26793
2027.590	-6.01913	4.75126	-6.49041	8.37973
2031.585	-6.55770	5.09644	-6.51038	8.07363
2035.585	-6.63328	5.37855	-6.49372	8.25475
2039.602	-6.72156	5.44265	-6.55013	8.27194
2043.596	-5.64319	3.76806	-6.46789	8.19589
2047.590	-5.62190	3.67352	-6.38158	8.24170
2051.585	-5.78470	3.71581	-6.32260	8.36282
2055.586	-5.85556	3.91131	-6.33816	8.26210
2059.589	-5.98297	3.90303	-6.33611	8.21801
2063.586	-5.86435	3.74728	-6.00565	8.06180
2067.591	-6.06588	3.74300	-6.11012	7.84772
2071.586	-6.49519	3.96732	-5.89358	7.66579
2075.585	-6.48036	4.04835	-5.87673	7.78478
2079.593	-6.38052	3.97684	-5.83075	7.74857
2083.593	-6.26726	3.93297	-5.82658	7.66881
2087.621	-6.48987	4.07264	-5.82068	7.63256
2091.594	-6.41395	4.12600	-5.88311	7.78702
2095.592	-6.54746	4.14885	-5.95329	7.77496
2099.585	-6.63083	4.15899	-5.89706	7.81572
2103.592	-6.78373	4.20822	-5.86909	7.75987
2107.593	-6.76290	4.24664	-5.91413	7.82881
2111.594	-6.82143	4.26239	-5.95628	7.97850
2115.589	-6.84583	4.20780	-6.00079	7.92468
2119.617	-6.80945	4.12617	-6.05962	8.08049
2123.588	-6.64474	4.02116	-6.11748	8.12985
2127.590	-6.53894	4.74362	-6.17492	8.20417
2132.003	-6.31980	4.70545	-6.16444	8.20801
2135.589	-6.28928	4.85236	-6.18907	8.15765
2139.591	-6.22152	5.00548	-6.19815	8.14609
2143.589	-6.16196	5.07485	-6.24850	8.14604
2147.584	-6.12433	5.16288	-6.24038	8.11852
2151.586	-6.10178	5.16886	-6.25585	8.09083
2155.587	-6.00511	5.17677	-6.24543	8.04544
2159.586	-5.93190	5.19993	-6.21769	8.02806
2163.581	-5.87391	5.21293	-6.18588	8.03968
2167.592	-5.85509	5.24107	-6.19179	8.04838
2171.591	-5.82695	5.22758	-6.17474	8.04438
2175.593	-5.87231	5.26959	-6.16672	8.05990
2179.582	-5.79858	5.28281	-6.11807	8.03931
2183.587	-5.84721	5.30750	-6.07525	8.02531
2187.580	-5.93917	5.36011	-6.07589	8.14323
2191.591	-5.96367	5.39398	-6.06657	8.08712
2195.581	-5.88211	5.38881	-6.08755	8.00618
2199.583	-5.90028	5.38318	-6.11110	7.98820
2203.586	-5.93596	5.39652	-6.12715	8.04090
2207.599	-5.91538	5.41059	-6.18686	7.98485
2211.582	-6.00047	5.45489	-6.07604	7.83750
2215.586	-5.90875	5.37207	-5.98943	7.68877
2219.591	-5.90185	5.30992	-5.82366	7.69315
2223.589	-5.99085	5.40628	-6.14555	8.17051
2227.590	-6.29774	5.87737	-6.67613	10.03984
2231.583	-6.66800	7.51710	-8.37645	11.59692
2235.597	-7.33806	8.15104	-8.64264	11.92220
2239.588	-7.79517	8.45683	-8.38206	11.85669
2243.588	-7.85300	8.32622	-8.72643	12.05064
2247.587	-7.10413	7.54102	-8.22499	11.58539
2251.588	-6.63482	7.17376	-7.82820	10.55366
2255.582	-7.00714	7.46612	-7.10582	9.71187
2259.582	-7.09113	7.44641	-7.62431	10.62498
2263.583	-7.53515	7.73251	-7.92067	11.58845
2267.583	-7.41397	7.56778	-7.96329	11.40952
2271.586	-7.27990	7.56084	-7.75095	11.21151
2275.582	-7.28022	7.56018	-7.44459	10.73886
2279.585	-7.25404	7.46469	-7.37306	10.42052
2283.577	-7.34113	7.46507	-7.43881	10.49854
2287.587	-7.44877	7.41884	-7.26466	10.60112
2291.588	-7.44735	7.46584	-7.37526	10.67705
2295.585	-7.36459	7.52367	-7.35991	10.51066
2299.587	-7.36362	7.66846	-7.47536	10.61688
2303.581	-7.40228	7.64454	-7.60461	10.62313
2307.599	-7.30373	7.49057	-7.50737	10.44132
2311.583	-7.28984	5.27101	-7.12777	6.66665
2315.592	-6.78292	3.19169	-5.92857	3.48100
2319.585	-6.69140	-0.00392	-5.28256	1.47217
2323.584	-5.48922	-1.61263	-5.37554	-0.75064
2327.608	-5.02999	-3.46970	-5.27432	-2.57572
2331.591	-6.54822	-4.71181	-5.29585	-3.57274
2335.580	-6.30953	-6.65991	-5.96485	-5.82080
2339.582	-6.54692	-7.63276	-7.32690	-6.21079
2343.581	-6.71189	-8.94597	-6.47926	-6.82939
2347.584	-6.92469	-9.25234	-6.61993	-7.39848
2351.579	-6.83408	-9.40536	-6.94389	-7.44937
2355.583	-6.50036	-9.49383	-6.85172	-7.07516
2359.583	-6.44844	-9.44509	-6.87631	-6.94108
2363.590	-6.75495	-9.22629	-6.87073	-6.91851
2367.590	-7.01485	-9.32446	-6.93929	-7.05310
2371.575	-6.87374	-9.42774	-6.88130	-6.99762
2375.589	-6.85402	-9.56485	-6.95611	-7.04033
2379.582	-6.85948	-9.60744	-6.96362	-7.08388
2383.596	-6.94631	-9.62156	-6.95550	-7.09733
2387.581	-6.93408	-9.70041	-6.98255	-7.04451
2391.579	-6.85388	-9.76970	-6.99419	-7.10350
2395.583	-6.81551	-9.80833	-6.96817	-7.09666
2399.577	-6.82731	-9.72355	-6.93120	-7.12250
2403.600	-6.84091	-9.68468	-6.96284	-7.18450
2407.585	-6.74594	-9.70212	-7.01829	-7.23968
2411.580	-6.71077	-9.69650	-7.01780	-7.26372
2415.600	-6.67816	-9.58295	-7.09548	-7.33639
2419.582	-6.67192	-9.52165	-7.23684	-7.38486
2423.582	-6.68487	-9.44040	-7.37914	-7.35469
2427.582	-6.63252	-9.37832	-7.32173	-7.36355
2431.586	-6.56762	-9.42862	-7.53164	-7.40974
2435.580	-6.62295	-9.46061	-7.57973	-7.44228
2439.579	-6.60414	-9.43930	-7.80998	-7.44455
2443.581	-6.68119	-9.52561	-7.83478	-7.51185
2447.583	-6.69907	-9.53803	-7.84238	-7.53835
2451.578	-6.73576	-9.53582	-7.69807	-7.59164
2455.588	-6.72041	-9.62264	-7.76645	-7.64511
2459.589	-6.58398	-9.60803	-7.79800	-7.64106
2463.583	-6.60612	-9.64170	-7.78138	-7.68150
2467.600	-6.47230	-9.69563	-7.76279	-7.71738
2471.579	-6.49577	-9.74259	-7.75585	-7.75222
2475.578	-6.65693	-9.75773	-7.37287	-7.77453
2479.576	-6.67231	-9.73955	-7.26591	-7.75789
2483.591	-6.87734	-9.70265	-7.23035	-7.74213
2487.583	-6.66783	-9.65124	-7.22988	-7.71343
2491.576	-6.68773	-9.61372	-7.02709	-7.69302
2495.593	-6.60228	-9.59225	-6.90894	-7.67650
2499.575	-6.51060	-9.53288	-6.88174	-7.64383
2503.590	-6.67627	-9.49557	-6.84079	-7.62691
2507.582	-6.54087	-9.60013	-6.77678	-7.56386
2511.585	-6.62385	-9.55188	-6.77621	-7.52158
2515.579	-6.65627	-9.49636	-6.71676	-7.43375
2519.584	-6.62525	-9.40534	-6.71801	-7.34405
2523.569	-6.62848	-9.35908	-6.75174	-7.35335
2527.581	-6.28077	-9.43982	-6.76990	-7.40644
2531.590	-5.58909	-9.92059	-5.80951	-7.58195
2535.576	-2.80714	-11.31221	-4.40406	-8.07978
2539.963	-1.66559	-12.73864	-0.39963	-8.48420
2543.588	-1.55782	-13.48246	-1.81498	-10.71064
2547.583	-1.41861	-14.13326	-1.60823	-11.39225
2551.578	-19.99372	-12.17575	-1.50616	-11.74688
2555.581	-19.99372	-12.14995	-1.62904	-12.34361
2559.578	-19.99372	-12.13473	-1.17140	-12.57694
2563.584	2.13418	-14.85030	-1.09095	-12.66247
2567.580	2.14994	-14.88486	-0.95668	-12.67966
2571.576	-19.99372	-12.12803	-0.73216	-12.48980
2575.577	-19.99372	-12.12310	-0.67039	-12.45653
2579.582	-19.99372	-12.15236	-0.65077	-12.48520
2583.579	1.79492	-15.03952	-0.54267	-12.60644
2587.578	-19.99372	-12.09337	-0.34665	-12.48893
2591.581	-19.99372	-12.08059	-0.44671	-12.58889
2595.578	-19.99372	-12.08048	-0.47959	-12.60765
2599.578	1.91833	-15.14041	-0.49766	-12.55294
2603.576	-19.99372	-12.08222	-0.56568	-12.52061
2607.577	1.56868	-15.13939	-0.62541	-12.49023
2611.578	-19.99372	-12.08066	-0.89272	-12.48262
2615.576	1.53483	-15.19263	-0.63039	-12.46260
2619.593	1.50127	-15.20995	-0.46033	-12.45455
2623.583	1.49433	-15.19966	-0.26257	-12.39590
2627.579	-19.99372	-12.08408	-0.16156	-12.31638
2631.588	1.47275	-15.20829	-0.22055	-12.30320
2635.582	1.49450	-15.19626	-0.10002	-12.22499
2639.574	1.48367	-15.20454	-0.02782	-12.14331
2643.587	1.50695	-15.19363	0.07083	-12.09254
2647.587	1.67772	-15.18866	0.23587	-11.96476
2651.578	1.66559	-15.19386	-0.19383	-12.02960
2655.586	-19.99372	-12.11058	-0.23361	-12.05938
2659.576	1.74161	-15.17953	-0.06944	-12.01388
2663.591	1.84565	-15.14106	-0.04055	-12.00052
2667.585	1.90968	-15.11942	-0.09247	-12.02892
2671.575	1.87039	-15.11503	-0.29870	-12.05673
2675.606	1.90691	-15.12005	-0.23433	-12.04875
2679.582	1.97808	-15.10930	-0.40013	-12.10006
2683.576	2.03784	-15.08539	-0.54366	-12.13561
2687.571	2.03350	-15.10275	-0.59980	-12.16193
2691.576	-19.99372	-12.13067	-0.57600	-12.18560
2695.586	-19.99372	-12.11000	-0.64158	-12.20618
2699.575	2.04369	-15.08013	-0.58426	-12.17903
2703.582	-19.99372	-12.10839	-0.61106	-12.21048
2707.580	-19.99372	-12.09658	-0.58858	-12.19270
2711.576	-19.99372	-12.08964	-0.61960	-12.17670
2715.601	-19.99372	-12.08560	-0.54220	-12.16549
2719.631	2.06054	-15.12301	-0.50483	-12.13609
2723.577	2.01466	-15.16484	-0.46614	-12.10480
2727.569	-19.99372	-12.08164	-0.40735	-12.07427
2731.583	-19.99372	-12.08033	-0.33824	-12.02345
2735.582	1.86798	-15.19712	-0.35546	-11.98297
2739.574	1.81689	-15.16663	-0.32151	-11.92389
2743.580	1.73971	-15.21549	-0.25736	-11.83924
2747.579	1.75862	-15.22001	-0.26848	-11.81042
2751.588	1.77543	-15.19994	-0.28116	-11.77715
2755.452	1.85046	-15.13361	-0.28585	-11.75707
2759.452	1.86280	-15.10516	-0.24822	-11.70841
2763.445	1.94932	-14.90779	-0.30945	-11.70695
2767.463	2.18830	-14.52797	-0.31178	-11.69451
2771.452	2.21271	-14.44572	-0.32010	-11.67593
2775.460	2.29585	-14.51932	-0.33876	-11.67958
2779.447	2.25922	-14.46854	-0.33203	-11.68991
2783.450	2.32550	-14.49194	-0.31863	-11.69193
2787.454	3.24405	-14.66454	1.38423	-11.67752
2791.462	6.80301	-13.80801	6.61499	-11.05525
2795.455	9.67191	-11.22764	8.35891	-10.82693
2799.448	11.73811	-9.59603	9.63551	-10.07876
2803.450	12.75696	-8.72505	10.78587	-10.09134
2807.454	13.50136	-8.29362	11.66501	-10.28802
2811.452	14.20493	-8.06409	13.36396	-10.35997
2815.449	14.66487	-7.83713	14.24993	-10.49703
2819.469	15.49578	-7.16211	15.67354	-10.60278
2823.447	16.57155	-5.80447	16.38541	-10.36372
2827.460	16.33678	-5.95059	16.72218	-10.23297
2831.448	16.10159	-6.08534	16.64036	-10.20400
2835.456	16.17622	-6.09531	16.64920	-10.07092
2839.460	15.88468	-6.40308	16.18526	-10.19232
2843.451	16.01018	-6.23122	16.12948	-10.25817
2847.447	16.22030	-5.99963	16.12747	-10.27529
2851.452	16.29253	-5.88883	16.24347	-10.25628
2855.448	16.33194	-5.82965	16.14675	-10.24447
2859.469	16.33667	-5.79972	16.33427	-10.16081
2863.450	16.37908	-5.74712	16.30711	-10.06438
2867.447	16.37437	-5.74846	16.28405	-10.01357
2871.448	16.35984	-5.77895	16.26447	-9.96497
2875.453	16.35465	-5.79848	16.26737	-9.92182
2879.456	16.41656	-5.73927	16.17390	-9.89103
2883.454	16.42279	-5.75044	16.17468	-9.88851
2887.453	16.46441	-5.69353	16.12447	-9.84155
2891.453	16.44076	-5.74474	16.05404	-9.83635
2895.442	16.42051	-5.76490	16.06552	-9.77200
2899.451	16.42441	-5.77389	15.97097	-9.71027
2903.450	16.43697	-5.78758	15.85216	-9.67728
2907.466	16.43339	-5.82975	15.99700	-9.67227
2911.451	16.43882	-5.85055	15.91337	-9.55325
2915.446	16.39125	-5.93052	15.83119	-9.42744
2919.457	16.34666	-6.05333	15.61881	-9.29585
2923.453	16.34158	-6.06775	15.81300	-9.09668
2927.447	16.30206	-6.16510	15.74366	-9.01745
2931.451	16.25479	-6.26008	15.75948	-8.98594
2935.445	16.25109	-6.25237	15.75320	-8.81597
2939.459	16.20966	-6.31568	15.75780	-8.76047
2943.452	16.14906	-6.40431	15.74352	-8.66561
2947.444	16.10042	-6.45767	15.66684	-8.62192
2951.447	16.02768	-6.51719	15.65916	-8.59966
2955.445	15.95667	-6.59838	15.70174	-8.58592
2959.448	15.93446	-6.61922	15.75116	-8.59472
2963.455	15.98076	-6.57062	15.74741	-8.72315
2967.449	15.92450	-6.62805	15.70190	-8.94477
2971.441	15.98789	-6.57581	15.67572	-9.04865
2975.449	16.00477	-6.54455	15.72465	-8.96886
2979.447	16.03843	-6.51455	15.72975	-8.95370
2983.439	16.11031	-6.42505	15.72023	-9.02426
2987.464	16.13555	-6.34970	15.74056	-9.01763
2991.437	16.20229	-6.24023	15.79432	-9.04250
2995.456	16.27643	-6.10997	15.80627	-9.04627
2999.443	16.35849	-5.93118	15.81810	-8.97982
3003.452	16.35550	-5.92729	15.79698	-8.95937
3007.458	16.41179	-5.76961	15.83423	-8.81986
3011.448	16.46991	-5.72657	15.84860	-8.69609
3015.474	16.49378	-5.68244	15.84877	-8.63116
3019.479	16.50119	-5.64051	15.84612	-8.55459
3023.444	16.52122	-5.59963	15.84870	-8.47471
3027.444	16.54152	-5.53587	15.85269	-8.40840
3031.458	16.56401	-5.50630	15.86344	-8.35396
3035.445	16.56538	-5.49791	15.86479	-8.32597
3039.446	16.56262	-5.48796	15.86006	-8.27785
3043.452	16.56572	-5.50148	15.84748	-8.25223
3047.451	16.59811	-5.49089	15.83220	-8.22597
3051.439	16.59465	-5.52725	15.81647	-8.22651
3055.454	16.60848	-5.53644	15.80124	-8.23297
3059.443	16.62585	-5.54311	15.79437	-8.24697
3063.446	16.63405	-5.58172	15.76481	-8.26776
3067.456	16.62051	-5.60409	15.71582	-8.29929
3071.445	16.59734	-5.65073	15.66514	-8.35787
3075.460	16.55470	-5.70858	15.65076	-8.39730
3079.446	16.51862	-5.76665	15.60178	-8.45410
3083.442	16.45873	-5.84196	15.55909	-8.54402
3087.473	16.39324	-5.93011	15.53147	-8.59314
3091.447	16.28345	-6.07553	15.55103	-8.57878
3095.453	16.22611	-6.10110	15.50612	-8.62157
3099.443	16.13697	-6.21027	15.45541	-8.63907
3103.443	16.05280	-6.28565	15.46201	-8.64597
3107.444	16.02926	-6.32624	15.43623	-8.66142
3111.459	15.93754	-6.41064	15.42827	-8.66107
3115.444	16.01612	-6.34447	15.46892	-8.63992
3119.446	16.00126	-6.37318	15.49442	-8.60905
3123.461	15.98737	-6.39627	15.51928	-8.58577
3127.461	16.05473	-6.35332	15.55556	-8.54646
3131.445	16.02699	-6.36274	15.55349	-8.49346
3135.442	16.01670	-6.37300	15.53048	-8.45355
3139.437	16.06767	-6.33893	15.58262	-8.41050
3143.450	16.15058	-6.25926	15.57986	-8.35523
3147.441	16.12062	-6.26928	15.56484	-8.28053
3151.454	16.11602	-6.27089	15.60634	-8.19610
3155.449	16.14531	-6.24641	15.58278	-8.09000
3159.441	16.17120	-6.21208	15.56084	-7.99367
3163.447	16.19558	-6.15584	15.55365	-7.90422
3167.442	16.21824	-6.10004	15.44308	-7.81137
3171.465	16.23299	-6.05314	15.28120	-7.80929
3175.447	16.26481	-5.99594	15.11775	-7.70140
3179.441	16.35762	-5.79004	15.07759	-7.63692
3183.438	16.49268	-4.66344	14.97289	-7.30932
3187.444	16.57315	-3.38802	14.79950	-5.21198
3191.446	16.53762	-3.53356	14.89420	-4.38653
3195.440	16.60269	-3.17599	15.00688	-4.08702
3199.447	16.64669	-3.18493	14.85496	-4.21722
3203.441	16.62179	-3.32435	14.86462	-4.28805
3207.449	16.63831	-3.40151	14.78906	-4.49980
3211.450	16.53603	-3.73621	14.82980	-4.56360
3215.444	16.61621	-3.51791	14.86724	-4.62297
3219.471	16.65820	-3.47092	14.91478	-4.58724
3223.471	16.66198	-3.37850	14.93631	-4.50605
3227.441	16.64697	-3.27655	14.93186	-4.35578
3231.442	16.62193	-3.26827	14.99116	-4.02737
3235.443	16.63933	-3.20679	15.00371	-3.91157
3239.443	16.67633	-3.22065	15.01570	-3.85734
3243.441	16.68412	-3.24979	15.06008	-3.78685
3247.446	16.71533	-3.18153	15.07429	-3.73308
3251.445	16.73368	-3.17760	15.09969	-3.75660
3255.458	16.75819	-3.16163	15.14278	-3.64794
3259.438	16.77880	-3.12960	15.16458	-3.63608
3263.451	16.77916	-3.13846	15.17540	-3.63128
3267.440	16.79752	-3.12737	15.21176	-3.60852
3271.443	16.81535	-3.14242	15.28000	-3.80419
3275.446	16.83170	-3.15611	15.34450	-3.84157
3279.449	16.84496	-3.17500	15.36237	-3.91573
3283.440	16.82724	-3.19135	15.37813	-4.00653
3287.450	16.82013	-3.19610	15.40034	-4.05232
3291.442	16.81387	-3.21069	15.41453	-4.10186
3295.451	16.81703	-3.19235	15.44497	-4.04354
3299.440	16.84955	-3.12566	15.44603	-4.08890
3303.444	16.85228	-3.08312	15.45147	-4.13025
3307.440	16.84273	-3.08021	15.43498	-4.15445
3311.445	16.85596	-3.02508	15.37573	-4.24734
3315.441	16.83434	-3.00517	15.31043	-4.25698
3319.456	16.87480	-2.88350	15.21090	-4.25570
3323.438	16.89268	-2.84499	15.26302	-4.29577
3327.438	16.93199	-2.76240	15.20926	-4.34360
3331.451	16.96957	-2.62821	15.15203	-4.39923
3335.470	16.95049	-2.70281	15.10510	-4.34217
3339.439	16.96684	-2.63541	15.03663	-4.39560
3343.451	16.93628	-2.67709	15.03566	-4.43572
3347.442	16.97601	-2.54122	14.98051	-4.45939
3351.435	16.99728	-2.50711	14.97777	-4.51055
3355.443	16.97136	-2.49341	14.95741	-4.51837
3359.443	16.97486	-2.44640	14.98030	-4.52648
3363.446	16.94389	-2.46025	14.95735	-4.54552
3367.437	16.90361	-2.46868	14.92053	-4.57543
3371.441	16.89302	-2.45016	14.91432	-4.61307
3375.434	16.87846	-2.41836	14.93596	-4.63505
3379.447	16.83973	-2.45876	14.98706	-4.68088
3383.437	16.81308	-2.45440	14.99399	-4.72281
3387.436	16.84343	-2.42659	15.05341	-4.77141
3391.439	16.78872	-2.50176	15.11849	-4.75308
3395.443	16.74360	-2.57965	15.06093	-4.71192
3399.440	16.68414	-2.71661	15.05457	-4.70992
3403.445	16.66057	-2.79762	15.16844	-4.66854
3407.474	16.67651	-2.81893	15.16569	-4.63723
3411.436	16.67640	-2.85232	15.19824	-4.60824
3415.443	16.63637	-2.81515	15.19017	-4.52849
3419.445	16.60244	-2.42253	15.03670	-3.23204
3424.016	16.44014	-1.59998	14.45551	-1.03845
3427.445	15.21069	-0.95299	13.21154	0.49342
3431.441	14.57701	1.01689	12.34062	1.98046
3435.432	14.48446	1.83125	12.00626	2.40319
3439.436	14.43324	2.06697	12.02363	2.76421
3443.449	14.43454	2.02310	12.35673	2.94048
3447.447	14.51560	2.04596	12.41379	2.89876
3451.436	14.61950	1.93781	12.57723	2.77091
3455.437	14.58554	1.72146	12.36286	2.81219
3459.447	14.58294	1.45756	12.38384	2.33157
3463.446	14.52000	1.52065	12.14274	2.50095
3467.438	14.43875	1.56956	12.09975	2.54876
3471.441	14.40242	1.76706	11.95099	2.55694
3475.435	14.40405	1.86322	11.93598	2.72532
3479.452	14.35358	1.75922	11.91205	2.72918
3483.436	14.31715	1.69879	11.88394	2.74475
3487.436	14.46361	1.75434	11.89473	2.70267
3491.494	14.44881	1.66547	11.92831	2.65867
3495.445	14.44322	1.70502	11.89561	2.63885
3499.436	14.43398	1.74668	11.91745	2.63466
3503.444	14.48201	1.82349	11.90409	2.69571
3507.436	14.46673	1.85205	11.97035	2.72656
3511.438	14.57420	1.86924	11.99946	2.72667
3515.445	14.58069	1.85208	12.07925	2.74558
3519.441	14.56299	1.86614	12.16619	2.70324
3523.463	14.53979	1.91425	12.23192	2.69205
3527.462	14.55507	1.90513	12.28187	2.62719
3531.445	14.50214	1.88345	12.38881	2.60304
3535.434	14.50837	1.88172	12.51525	2.53503
3539.439	14.47845	1.83231	12.67433	2.49891
3543.442	14.43508	1.88419	12.78585	2.47304
3547.451	14.41636	1.86026	12.66939	2.45484
3551.444	14.41499	1.82603	12.77728	2.40372
3555.435	14.36942	1.85848	12.81193	2.34788
3559.469	14.38337	1.96505	12.85003	2.31775
3563.435	14.43282	1.97218	12.92727	2.19410
3567.439	14.47124	2.02202	12.98181	2.12908
3571.436	14.44795	2.08234	13.02134	2.18498
3575.434	14.46028	2.13004	13.00033	2.22111
3579.434	14.41073	2.22268	12.99482	2.19551
3583.440	14.38384	2.24576	12.90501	2.25797
3587.437	14.34152	2.23181	12.86289	2.20085
3591.458	14.30456	2.26718	12.78533	2.15664
3595.442	14.33432	2.34810	12.75514	2.10588
3599.438	14.29030	2.43300	12.72301	2.15749
3603.430	14.27692	2.49649	12.67825	2.16532
3607.314	14.25718	2.54742	12.64413	2.19048
3611.309	14.20975	2.56096	12.53036	2.18847
3615.311	14.17220	2.53898	12.41992	2.19306
3619.312	14.16826	2.52327	12.38301	2.16313
3623.310	14.19867	2.52089	12.29697	2.16129
3627.343	14.19993	2.48368	12.23002	2.20663
3631.364	14.21822	2.53180	12.20366	2.22838
3635.315	14.22363	2.56383	12.21357	2.22687
3639.306	14.22750	2.59369	12.20219	2.22682
3643.313	14.20597	2.55569	12.18618	2.24187
3647.312	14.20285	2.55676	12.24841	2.18957
3651.330	14.16709	2.57996	12.21829	2.22040
3655.317	14.18519	2.65152	12.27327	2.19429
3659.308	14.21118	2.66773	12.39670	2.16880
3663.313	14.20576	2.77515	12.40545	2.16796
3667.306	14.19683	2.80728	12.47165	2.16220
3671.315	14.23902	2.88006	12.56219	2.13090
3675.314	14.23128	2.91148	12.59484	2.10505
3679.312	14.23965	2.97405	12.59328	2.12458
3683.315	14.21141	2.99722	12.62365	2.15329
3687.309	14.22598	3.06515	12.64973	2.18990
3691.312	14.23410	3.07536	12.61271	2.20256
3695.364	14.24266	3.10894	12.61746	2.21814
3699.308	14.24424	3.07756	12.60734	2.22433
3703.307	14.22999	3.06485	12.57174	2.22050
3707.311	14.24972	3.02919	12.57462	2.21376
3711.302	14.24429	2.99662	12.55084	2.19706
3715.325	14.23198	2.97809	12.52544	2.22894
3719.322	14.22769	2.90786	12.48786	2.24702
3723.339	14.21153	2.82557	12.48405	2.22661
3727.306	14.20630	2.81675	12.46623	2.21227
3731.311	14.20318	2.79384	12.42662	2.21498
3735.312	14.15864	2.81005	12.47113	2.23333
3739.306	14.06448	2.77226	12.39393	2.29760
3743.308	12.63445	2.78810	10.57476	3.59048
3747.309	11.74147	3.26562	11.29424	4.28514
3751.308	11.53272	4.09650	10.71597	4.55108
3755.311	11.77341	3.88615	11.53401	4.62484
3759.312	12.33051	3.30100	11.74492	4.13805
3763.334	12.67249	2.96968	11.64970	3.12121
3767.364	12.59235	3.09740	11.47250	3.23075
3771.328	12.29083	3.44965	11.45281	3.64824
3775.311	12.34337	3.34889	11.31185	4.19034
3779.313	12.25640	3.57955	11.11896	4.34589
3783.305	12.30654	3.73594	11.21446	4.46634
3787.310	12.36973	3.83944	11.23585	4.60429
3791.311	12.36449	3.92161	11.32435	4.60714
3795.306	12.39149	3.89384	11.33862	4.62545
3799.323	12.41722	3.90877	11.34590	4.64760
3803.308	12.42408	4.11084	11.35196	4.55303
3807.317	12.43241	4.10866	11.35978	4.53215
3811.305	12.38985	4.15986	11.32650	4.57491
3815.309	12.41312	4.24701	11.29450	4.64640
3819.304	12.41431	4.31710	11.33597	4.66988
3823.317	12.40846	4.35988	11.36238	4.64758
3827.303	12.44387	4.39673	11.38473	4.62713
3831.309	12.43767	4.43191	11.40357	4.59998
3835.357	12.47196	4.46092	11.41020	4.59896
3839.309	12.50378	4.53625	11.40405	4.58405
3843.313	12.56909	4.54942	11.40512	4.56295
3847.314	12.63556	4.56304	11.40787	4.53660
3851.303	12.66393	4.57985	11.39003	4.53903
3855.315	12.71297	4.57900	11.34387	4.50255
3859.311	12.75228	4.59414	11.37972	4.42799
3863.301	12.78934	4.59359	11.34447	4.36283
3867.314	12.86968	4.60000	11.31424	4.36968
3871.309	12.90428	4.58603	11.25390	4.35618
3875.318	12.90053	4.57387	11.19170	4.32762
3879.304	12.93170	4.57403	11.10092	4.28998
3883.309	12.93545	4.50354	11.06738	4.27262
3887.315	12.93757	4.49419	10.99126	4.22920
3891.303	12.90968	4.43806	10.93291	4.22091
3895.309	12.90138	4.37411	10.96999	4.17649
3899.307	12.90715	4.37266	10.89327	4.14905
3903.314	12.86919	4.32335	10.88707	3.99865
3907.328	12.85765	4.28787	10.84257	4.12923
3911.310	12.81700	4.26444	10.82689	3.94121
3915.304	12.77674	4.24974	10.81683	3.91834
3919.310	12.77077	4.22969	10.94552	3.88933
3923.297	12.72799	4.20352	10.91301	3.79233
3927.318	12.70555	4.21106	10.92531	3.77915
3931.301	12.67345	4.23239	10.95882	3.70509
3935.333	12.67067	4.27917	10.97782	3.73870
3939.305	12.64416	4.28180	11.08024	3.68266
3943.321	12.59153	4.31639	11.04520	3.64623
3947.306	12.61060	4.36133	11.06655	3.70469
3951.302	12.62081	4.47105	11.10441	3.67918
3955.304	12.66379	4.50922	11.08560	3.69969
3959.314	12.66960	4.59242	11.19836	3.74181
3963.303	12.71321	4.46438	11.25349	3.79708
3967.310	12.74707	4.49185	11.35704	3.83653
3971.310	12.78340	4.52904	11.25421	3.92999
3975.320	12.87440	4.47543	11.39649	4.04908
3979.304	12.92418	4.45613	11.46316	4.10129
3983.307	12.93420	4.41885	11.39775	4.14016
3987.302	12.98730	4.34240	11.49486	4.22727
3991.307	12.95056	4.32305	11.54411	4.31406
3995.297	12.96673	4.25342	11.58996	4.28913
3999.309	12.93835	4.18143	11.60654	4.33491
4003.302	12.93356	4.14583	11.60294	4.38804
4007.311	12.96406	4.13593	11.57948	4.38893
4011.297	12.95850	4.18253	11.57291	4.40840
4015.308	12.80360	4.10436	11.63401	4.33971
4019.338	12.68647	4.07015	11.63354	4.30993
4023.311	12.74950	4.06866	11.59794	4.43648
4027.306	12.75653	4.01214	11.53008	4.30728
4031.301	12.77683	3.67308	11.44697	3.79606
4035.338	12.54171	1.18167	11.14894	3.49410
4039.328	12.23327	0.41556	10.74947	2.50309
4043.304	12.19740	0.54950	10.49495	1.90879
4047.312	12.46812	0.55529	10.45392	1.42183
4051.304	12.58555	0.51406	10.54840	1.71913
4055.306	12.60788	0.66069	10.50074	1.57458
4059.302	12.70681	0.82121	10.39364	1.66790
4063.310	12.86329	1.33570	10.28837	1.78317
4067.301	12.97521	1.28793	10.23142	1.87102
4071.303	12.92979	1.26369	10.19582	1.78863
4075.310	12.95195	1.22534	10.15300	1.70199
4079.297	12.87348	1.31223	10.15511	1.62793
4083.306	12.87725	1.33580	10.11967	1.57226
4087.303	12.92151	1.32055	10.09600	1.55369
4091.318	12.91387	1.30406	10.13621	1.53113
4095.312	12.87473	1.34719	10.08969	1.50776
4099.301	12.84777	1.33164	10.15420	1.52394
4103.364	12.82587	1.26511	10.19176	1.43535
4107.307	12.81242	1.16261	10.22118	1.46318
4111.308	12.72636	1.10253	10.24882	1.50450
4115.300	12.71958	1.01916	10.24978	1.60709
4119.312	12.71314	0.89266	10.36062	1.54847
4123.313	12.73392	0.81170	10.38620	1.50394
4127.302	12.77133	0.47789	10.49452	1.58374
4131.307	12.71890	0.18795	10.50170	1.60990
4135.302	12.69197	0.17917	10.55651	1.69480
4139.309	12.70421	0.04429	10.56850	1.74728
4143.335	12.70085	0.01644	10.56519	1.74886
4147.302	12.69493	-0.07796	10.58939	1.79870
4151.304	12.69724	-0.19059	10.59541	1.97948
4155.299	12.67934	-0.20095	10.61325	2.07550
4159.302	12.66729	-0.17252	10.64276	2.12384
4163.311	12.66318	-0.26873	10.63144	2.19447
4167.299	12.69419	-0.27119	10.61248	2.26911
4171.317	12.73512	-0.26930	10.55788	2.32410
4175.307	12.76640	-0.24123	10.53684	2.31647
4179.301	12.78269	-0.22738	10.49471	2.28486
4183.299	12.81098	-0.24906	10.45977	2.23654
4187.328	12.80077	-0.26182	10.39607	2.24746
4191.300	12.77797	-0.27973	10.25367	2.16229
4195.303	12.76699	-0.33591	10.25108	1.91897
4199.295	12.83512	-0.26246	10.26321	1.93221
4203.304	12.85055	-0.24648	10.20762	1.81096
4207.300	12.89574	-0.20727	10.29152	1.74771
4211.317	12.86824	-0.07582	10.47844	1.70260
4215.302	12.80806	0.01195	10.55373	1.69867
4219.301	12.74829	-0.00019	10.50568	1.70877
4223.309	12.65826	0.13977	10.59167	1.63088
4227.306	12.65496	-0.13660	10.60721	1.61660
4231.299	12.60639	-0.03902	10.86052	1.54355
4235.299	12.61876	0.00048	10.92878	1.49348
4239.400	12.62476	0.05306	10.89741	1.51732
4243.329	12.61772	-0.24763	10.93610	1.50086
4247.302	12.68016	-0.20456	10.95818	1.47466
4251.293	12.66219	-0.21592	10.96925	1.44279
4255.308	12.62225	-0.31489	10.92456	1.40841
4259.302	12.75261	-0.30123	10.91643	1.31915
4263.304	12.77167	0.20313	10.89836	1.23884
4267.294	12.76173	0.34680	10.88975	1.28578
4271.303	12.80058	0.45271	10.89540	1.25090
4275.309	12.86386	0.60910	10.86861	1.34114
4279.300	12.86355	0.35788	10.85179	1.42119
4283.311	12.19678	-0.29364	10.66256	1.38923
4287.298	10.24935	0.19604	7.81768	2.50916
4291.303	6.23560	1.31044	4.65128	4.43325
4295.308	4.56331	2.83382	2.73516	6.62197
4299.303	0.94720	5.56168	0.85496	6.68464
4303.300	0.14429	5.51414	0.26954	6.94152
4307.321	-0.68072	5.30935	-1.75446	7.13651
4311.301	-1.33192	5.24497	-2.31150	7.28778
4315.296	-1.77591	5.44742	-3.01428	7.66691
4319.308	-1.66254	5.43506	-3.34116	8.35197
4323.298	-1.76720	5.52179	-3.00720	8.10162
4327.310	-0.88312	5.47028	-2.42483	7.71843
4331.300	-1.28460	5.48019	-1.92032	7.77840
4335.298	-1.46675	5.48928	-2.18186	7.98100
4339.305	-1.68518	5.52833	-2.50142	7.99756
4343.322	-1.97785	5.59700	-2.89960	8.08546
4347.321	-2.02458	5.50097	-2.93035	8.04384
4351.299	-2.32697	5.58712	-2.90814	8.04203
4355.293	-2.19809	5.62846	-2.93139	8.14437
4359.301	-2.42510	5.64663	-2.96005	8.20879
4363.306	-1.74702	5.59190	-2.87066	8.19358
4367.306	-2.13901	5.51012	-2.84195	8.28946
4371.293	-2.20079	5.47270	-2.88772	8.32332
4375.331	-2.34287	5.42258	-2.82561	8.34272
4379.347	-2.04510	5.50664	-2.91096	8.38624
4383.306	-2.13450	5.47532	-2.92579	8.46777
4387.297	-2.20181	5.68442	-2.88279	8.60137
4391.298	-2.25394	5.94415	-2.99893	9.18351
4395.294	-2.23573	6.00413	-2.98034	8.99423
4399.311	-2.37790	6.45439	-3.06348	9.05759
4403.308	-2.36995	6.24997	-3.17497	9.21612
4407.300	-2.39765	6.35834	-3.20706	9.20975
4411.298	-2.50541	6.37781	-3.28857	9.27981
4415.296	-2.67826	6.40943	-3.28993	9.23555
4419.301	-2.99039	6.56377	-3.50096	9.33737
4423.306	-2.51205	6.50676	-3.47406	9.27355
4427.296	-2.32295	6.27513	-3.53357	9.29949
4431.309	-2.32843	6.23352	-3.49305	8.99912
4435.300	-2.36938	6.11663	-3.54247	9.01352
4439.295	-2.58177	5.99900	-3.45551	8.77723
4443.297	-2.33745	5.87723	-3.47082	8.73907
4447.295	-2.33202	5.78341	-3.37534	8.81795
4451.296	-2.19167	5.72893	-3.34897	8.86233
4455.296	-2.05970	5.54435	-3.42403	9.02325
4459.298	-2.06411	5.49641	-3.42759	9.05835
4463.168	-2.08000	5.42627	-3.30139	8.87864
4467.197	-2.09908	5.35739	-3.30755	8.96669
4471.172	-2.18689	5.34765	-3.24024	8.97556
4475.179	-2.12783	5.40149	-3.19202	8.95197
4479.168	-2.09591	5.39205	-3.19212	9.00493
4483.176	-2.01620	5.37785	-3.23786	9.02885
4487.181	-2.03219	5.36943	-3.24773	9.02250
4491.170	-2.01731	5.38427	-3.29901	9.01723
4495.168	-2.14104	5.57390	-3.36958	8.91051
4499.179	-2.26247	5.94397	-3.41572	8.85481
4503.166	-2.31450	6.11325	-3.42401	8.79881
4507.174	-2.51356	6.27781	-3.54722	8.74527
4511.223	-2.53355	6.08520	-3.46471	8.73973
4515.171	-3.17737	6.43017	-3.48593	8.34757
4519.186	-6.03083	6.11209	-4.58099	8.07272
4523.172	-7.53101	5.15976	-7.12310	7.30126
4527.175	-7.85163	2.06084	-6.82789	3.64415
4531.171	-9.86572	1.77213	-8.35590	1.70678
4535.184	-10.18103	0.47406	-8.76222	0.69880
4539.175	-10.24824	-0.69873	-9.96629	0.32208
4543.167	-11.03824	-0.86920	-10.00613	-0.33141
4547.172	-12.81344	-0.85408	-9.99072	-0.08007
4551.188	-12.98268	-0.54790	-10.93650	0.10940
4555.175	-11.04917	-0.46030	-10.53934	0.50989
4559.172	-10.65134	-0.45617	-10.47196	0.61098
4563.167	-11.31603	-0.12363	-10.43836	0.63665
4567.171	-11.54597	-0.27355	-10.59354	0.48796
4571.168	-12.07868	-0.28954	-10.92141	0.41629
4575.167	-12.25069	-0.27362	-11.11602	0.24992
4579.229	-12.69835	-0.40124	-11.19693	0.02306
4583.170	-12.77438	-0.25976	-11.20443	0.12882
4587.170	-12.63575	-0.27026	-11.11057	0.15686
4591.188	-12.30874	-0.20966	-11.14808	0.09160
4595.175	-11.61944	-0.25058	-11.22415	0.13274
4599.172	-11.56133	-0.28437	-11.29157	0.04986
4603.167	-11.91189	-0.29014	-11.36644	0.07489
4607.157	-12.07334	-0.30739	-11.42453	-0.01228
4611.170	-12.04149	-0.32959	-11.42914	-0.04465
4615.163	-11.92802	-0.30488	-11.45755	-0.07900
4619.175	-11.79751	-0.28483	-11.45310	-0.13982
4623.182	-11.49090	-0.27872	-11.42494	-0.15118
4627.168	-11.78122	-0.27609	-11.41190	-0.25371
4631.167	-11.80576	-0.20962	-11.42565	-0.29089
4635.180	-11.78017	-0.02819	-11.40510	-0.44943
4639.168	-11.85846	0.11328	-11.38643	-0.55437
4643.166	-11.91833	0.05125	-11.38812	-0.57697
4647.186	-11.86498	-0.03704	-11.32402	-0.69453
4651.174	-11.81845	-0.07983	-11.30021	-0.72977
4655.171	-11.74094	-0.09685	-11.28768	-0.75567
4659.168	-11.84703	-0.02259	-11.20775	-0.84140
4663.167	-11.64818	-0.17997	-11.14686	-0.75609
4667.167	-11.69431	-0.22937	-11.08378	-0.66326
4671.169	-11.62721	-0.23718	-11.08529	-0.75476
4675.165	-11.65075	-0.20553	-11.10555	-0.63483
4679.170	-11.55650	-0.21553	-11.10472	-0.60899
4683.185	-11.49381	-0.29116	-11.16136	-0.55829
4687.174	-11.50401	-0.35869	-11.05390	-0.57335
4691.169	-11.51089	-0.36857	-11.06181	-0.43519
4695.164	-11.40844	-0.28657	-11.08471	-0.33881
4699.170	-11.50151	-0.11807	-11.07558	-0.23881
4703.171	-11.32860	-0.12507	-11.14507	-0.15733
4707.170	-11.34881	-0.09680	-11.17049	-0.18805
4711.164	-11.45419	0.08429	-11.30741	-0.11469
4715.219	-11.56724	0.24030	-11.37803	-0.15284
4719.179	-11.69574	0.33159	-11.41802	-0.22353
4723.170	-11.79693	0.36469	-11.50236	-0.23904
4727.166	-11.68143	0.32805	-11.50229	-0.32653
4731.197	-11.89602	0.41691	-11.57841	-0.34689
4735.164	-12.08447	0.48518	-11.78083	-0.37325
4739.170	-12.08468	0.46346	-11.77729	-0.45260
4743.164	-12.01865	0.41745	-11.86298	-0.41727
4747.180	-12.01803	0.33158	-11.89611	-0.57220
4751.167	-12.05542	0.30558	-11.94717	-0.58821
4755.175	-12.05537	0.23081	-11.98149	-0.62566
4759.170	-12.09126	0.15045	-11.97750	-0.61172
4763.172	-11.92816	0.00248	-12.01407	-0.59681
4767.164	-12.00315	0.03291	-12.00436	-0.61829
4771.185	-11.91892	0.02062	-12.05274	-0.60532
4775.168	-11.61554	-0.05725	-12.04282	-0.54350
4779.160	-11.54971	-0.10035	-12.05409	-0.51036
4783.253	-11.42694	-0.14777	-12.06052	-0.50707
4787.165	-11.37989	-0.16256	-12.02883	-0.49896
4791.177	-11.39744	-0.11130	-11.91303	-0.50406
4795.165	-11.04044	-0.07953	-12.01340	-0.48247
4799.166	-10.99525	-0.07296	-12.04932	-0.48447
4803.168	-10.98760	0.03235	-11.87814	-0.50099
4807.174	-10.77584	-0.07038	-11.77548	-0.52502
4811.165	-10.67543	-0.02171	-11.77503	-0.52750
4815.164	-10.72112	0.05833	-11.85369	-0.54911
4819.183	-10.69271	0.01629	-11.79981	-0.59633
4823.168	-10.72719	0.08575	-11.61913	-0.57784
4827.169	-10.72925	0.14278	-11.50434	-0.58469
4831.164	-10.72743	0.13042	-11.49357	-0.59300
4835.165	-10.59366	0.08908	-11.40827	-0.58029
4839.173	-10.63787	0.11031	-11.35477	-0.60232
4843.169	-10.72477	0.09549	-11.24812	-0.59743
4847.170	-10.65194	0.04230	-11.14679	-0.55929
4851.206	-10.71921	0.11680	-11.08789	-0.48079
4855.172	-10.71353	0.07484	-10.96746	-0.42789
4859.167	-10.67584	0.04276	-10.88623	-0.32864
4863.165	-10.65585	0.06511	-10.69786	-0.23895
4867.159	-10.65896	0.06623	-10.82924	-0.01696
4871.169	-10.65966	-0.00293	-10.81022	0.02702
4875.163	-10.59958	-0.01280	-10.74724	0.00395
4879.167	-10.68708	0.00811	-10.73900	0.05513
4883.161	-10.73037	0.06387	-10.72036	0.07618
4887.170	-10.69479	0.11120	-10.67564	0.12708
4891.180	-10.83762	0.11058	-10.68377	0.13865
4895.163	-10.84932	0.08100	-10.67699	0.11440
4899.168	-10.76954	0.09896	-10.66893	0.07983
4903.165	-10.80678	0.10203	-10.69319	0.04371
4907.159	-10.83572	0.08122	-10.72980	-0.04697
4911.174	-10.83012	0.01381	-10.76935	-0.08197
4915.168	-10.78934	0.05307	-10.95928	0.05828
4919.173	-10.74479	0.01174	-10.96767	0.02698
4923.170	-10.61207	-0.14808	-10.89666	0.08387
4927.173	-10.63116	-0.03910	-10.80491	0.16307
4931.175	-9.62719	0.42488	-9.10736	0.49885
4935.164	-6.21772	2.70672	-8.64160	3.72427
4939.190	-5.50078	3.89160	-6.87582	6.40891
4943.161	-4.23510	4.91131	-4.98029	7.17724
4947.162	-3.64343	6.55057	-4.89720	9.95741
4951.163	-3.93527	7.14425	-4.29485	9.42474
4955.162	-3.94824	8.24043	-3.23799	9.61930
4959.161	-3.85881	7.97254	-4.38793	9.41974
4963.166	-4.23611	7.86023	-3.77528	9.11416
4967.183	-5.63894	7.96911	-6.22140	9.16321
4971.164	-5.74772	7.74103	-5.25886	9.07577
4975.174	-4.89333	7.58596	-4.57283	9.11537
4979.161	-4.22491	7.67612	-4.48401	9.41685
4983.160	-3.91375	7.63076	-4.21740	9.75072
4987.181	-3.85743	7.74410	-4.04085	9.89041
4991.163	-3.91793	7.81583	-4.08547	9.67847
4995.162	-4.04204	7.88886	-4.11597	9.83949
4999.161	-3.87201	7.76042	-4.08392	9.51557
5003.155	-3.93939	7.77543	-4.01791	9.61296
5007.177	-3.92754	7.77189	-4.08051	9.53246
5011.157	-4.22177	7.83965	-4.13352	9.46903
5015.177	-3.95631	7.84302	-4.57818	9.84260
5019.165	-3.99568	7.86301	-4.58772	9.99919
5023.159	-4.03653	7.86897	-4.26131	9.91534
5027.171	-4.14233	7.94996	-4.64561	10.05289
5031.168	-4.15564	7.94389	-4.67683	10.29364
5035.165	-4.39674	7.93977	-4.50387	10.08531
5039.158	-4.20518	7.73280	-4.46877	9.79073
5043.166	-4.31733	7.82798	-4.30522	9.78130
5047.159	-4.19563	7.65822	-4.39792	9.56276
5051.162	-4.32054	7.84252	-4.36330	9.40690
5055.201	-4.19193	7.71553	-4.13033	9.30210
5059.162	-4.19052	7.71532	-3.89829	9.28895
5063.166	-4.21765	7.76620	-3.75487	9.32612
5067.160	-4.32363	7.76857	-3.92433	9.40747
5071.164	-4.19620	7.70836	-3.78509	9.35205
5075.155	-4.10683	7.70099	-3.93720	9.50065
5079.167	-4.08540	7.65436	-4.07434	9.62907
5083.159	-3.99889	7.66077	-4.02194	9.71308
5087.163	-4.07661	7.67616	-4.22449	10.34845
5091.162	-4.12949	7.72592	-4.38497	10.35677
5095.170	-4.05666	7.68764	-4.36930	10.27882
5099.164	-4.03421	7.68695	-4.59916	10.25719
5103.161	-4.18447	7.76271	-4.52338	10.11021
5107.177	-4.24677	7.80917	-4.45318	9.97018
5111.165	-4.29145	7.84644	-4.33150	9.93187
5115.166	-4.36224	7.83900	-4.33359	10.02520
5119.158	-4.33071	7.83687	-4.38874	10.01340
5123.174	-4.26978	7.86409	-4.57270	10.23142
5127.164	-4.19743	7.82389	-4.47654	9.95031
5131.165	-4.24974	7.83635	-4.32210	9.88799
5135.162	-4.17820	7.82198	-4.31114	9.89302
5139.163	-3.86375	7.69560	-4.06634	9.82539
5143.161	-3.94530	7.73201	-3.99168	9.83852
5147.179	-3.72380	7.49329	-4.10676	9.84843
5151.165	-3.81778	7.43497	-3.96612	9.85639
5155.173	-3.67736	7.35640	-3.95416	9.84040
5159.160	-3.60027	7.28466	-4.44899	9.85413
5163.177	-3.47131	7.11770	-4.37497	9.83137
5167.159	-3.52126	7.07705	-4.26311	9.75774
5171.166	-3.53219	7.03754	-4.21775	9.67276
5175.149	-3.80290	7.12580	-4.29628	9.68725
5179.177	-3.62484	7.04534	-4.18398	9.57288
5183.157	-3.81078	7.14087	-4.15650	9.53467
5187.160	-3.69083	7.10551	-4.09476	9.50794
5191.231	-2.55108	6.76940	-1.81129	8.76525
5195.172	1.32595	3.21435	-0.41735	6.19598
5199.161	1.42077	2.33465	0.51006	3.47725
5203.155	1.54058	-0.40854	1.03516	1.52836
5207.156	1.64045	-3.11630	1.00216	-0.90862
5211.160	1.72780	-2.77044	1.13906	-1.01150
5215.165	2.05596	-3.45108	1.19519	-1.41995
5219.166	2.14389	-3.66894	1.26557	-1.87913
5223.163	2.08496	-4.00274	1.23717	-1.53148
5227.161	2.09591	-3.74165	1.26691	-1.14221
5231.163	2.21836	-3.59711	1.26532	-1.00353
5235.158	2.42146	-3.52628	1.29700	-0.77984
5239.161	2.56971	-3.58741	1.37374	-0.92340
5243.157	2.70205	-3.71615	1.53004	-1.19072
5247.162	2.79421	-3.79949	1.53059	-1.42062
5251.156	2.71406	-4.10461	1.46814	-1.60376
5255.161	2.84019	-4.17525	1.48327	-1.73845
5259.243	2.90079	-3.80463	1.56528	-1.67907
5263.163	2.81437	-3.89620	1.44416	-1.54862
5267.164	2.92851	-4.04153	1.49455	-1.60007
5271.155	2.95898	-4.00421	1.45703	-1.68228
5275.156	3.11490	-3.47471	1.47955	-1.73470
5279.180	3.19437	-3.37783	1.44341	-1.77697
5283.155	3.29995	-3.03843	1.50549	-1.78335
5287.166	3.27534	-3.06399	1.50006	-1.80440
5291.156	3.30527	-3.26353	1.49530	-1.79190
5295.156	3.37804	-3.22766	1.52784	-1.77750
5299.159	3.27828	-3.31762	1.58217	-1.75874
5303.177	3.25914	-3.52215	1.51730	-1.71884
5307.162	3.14738	-3.96818	1.59849	-1.70344
5311.160	3.28568	-4.62499	1.45973	-1.73077
5315.164	3.33409	-4.75130	1.51911	-1.71430
5319.032	3.31665	-4.82511	1.46090	-1.66791
5323.059	3.20533	-4.80815	1.18118	-1.62905
5327.033	3.12925	-4.42612	1.18408	-1.56145
5331.033	3.08943	-4.55168	1.32089	-1.52549
5335.033	3.06830	-4.54450	1.15064	-1.48560
5339.036	2.94552	-4.68735	1.08247	-1.46994
5343.033	2.93983	-4.58187	1.05123	-1.42504
5347.064	2.93401	-4.52774	1.09688	-1.37958
5351.056	2.98930	-4.38636	1.06240	-1.43978
5355.033	3.04915	-4.39907	1.07091	-1.37644
5359.035	3.15520	-4.35420	1.04540	-1.42469
5363.033	3.08609	-4.33485	1.03446	-1.71100
5367.030	3.27000	-4.05322	1.16654	-1.55935
5371.029	3.31657	-4.20920	1.24716	-1.42199
5375.031	3.30089	-4.06176	1.26750	-1.36343
5379.029	3.41887	-4.27963	1.31332	-1.47125
5383.026	3.44268	-4.10781	1.36789	-1.32784
5387.029	3.47670	-4.08558	1.36184	-1.37723
5391.037	3.44837	-4.06349	1.40480	-1.41070
5395.046	3.43991	-4.22842	1.36504	-1.31665
5399.035	3.30168	-4.30915	1.36811	-1.32194
5403.053	3.20474	-4.27451	1.34867	-1.30109
5407.040	3.02479	-4.27706	1.48081	-1.40020
5411.028	3.08656	-4.34704	1.44073	-1.33766
5415.034	2.94616	-4.43061	1.41926	-1.33427
5419.027	2.88507	-4.48779	1.37213	-1.39197
5423.042	2.86569	-4.51366	1.33448	-1.40647
5427.027	2.86012	-4.57497	1.34953	-1.41763
5431.034	2.84643	-4.59438	1.36702	-1.38636
5435.037	2.92629	-4.62683	1.36318	-1.42247
5439.039	3.01710	-4.56811	1.43530	-1.47418
5443.027	3.19593	-4.43878	1.55477	-1.44685
5447.030	3.12774	-4.31440	1.62966	-1.45690
5451.041	3.24177	-4.57747	1.44443	-1.38247
5455.030	3.28800	-4.54642	1.35735	-1.40844
5459.028	3.18153	-4.62435	1.56159	-1.42899
5463.085	3.30910	-4.35493	1.55174	-1.41756
5467.042	3.39428	-4.53893	1.71516	-1.48965
5471.028	3.37366	-4.39454	1.44158	-1.53944
5475.037	3.34059	-4.32280	1.33703	-1.57071
5479.028	3.25810	-4.32604	1.60320	-1.55792
5483.037	3.16282	-4.40054	1.41070	-1.44885
5487.036	2.99797	-4.51577	1.48895	-1.43771
5491.024	3.00287	-4.72067	1.44329	-1.49687
5495.032	3.02247	-4.49145	1.58882	-1.45655
5499.029	2.96230	-4.54590	1.58006	-1.51125
5503.029	2.94819	-4.48822	1.44604	-1.51779
5507.022	3.02479	-4.44764	1.24831	-1.42593
5511.032	2.96096	-4.33626	1.22732	-1.41346
5515.045	2.94339	-4.31735	1.13243	-1.40854
5519.023	2.99685	-3.99634	1.25034	-1.38052
5523.037	3.04388	-4.20367	1.26240	-1.36068
5527.025	3.08208	-3.84160	1.23451	-1.42383
5531.088	3.28029	-3.82930	1.30298	-1.53315
5535.046	3.21122	-3.89373	1.14176	-1.55951
5539.032	3.19548	-3.79914	1.14608	-1.60725
5543.024	3.19053	-3.98270	1.06659	-1.56079
5547.025	3.15392	-3.69617	1.08264	-1.61542
5551.029	3.13605	-4.02242	1.12348	-1.63481
5555.035	3.07728	-4.09182	1.13305	-1.64705
5559.038	3.12903	-4.03064	0.97871	-1.71055
5563.025	3.04271	-4.83982	1.11489	-1.77576
5567.025	3.13160	-4.48453	1.05751	-1.75288
5571.035	2.95829	-4.63325	1.18319	-1.70751
5575.022	3.04563	-4.34698	1.26200	-1.69095
5579.028	3.03954	-4.47345	1.33490	-1.67246
5583.024	3.03056	-4.77282	1.32451	-1.61002
5587.035	2.93780	-4.66455	1.53952	-1.53247
5591.029	2.91723	-4.50068	1.62914	-0.64631
5595.032	2.88631	-4.25000	1.48032	-0.13153
5599.480	4.24253	-3.85161	-2.09477	-0.10482
5603.063	6.74592	-3.11412	1.14627	-0.73659
5607.028	6.22939	-1.00697	1.39428	0.80581
5611.023	NaN	NaN	NaN	NaN
5615.028	-9.90460	2.14041	-21.30644	13.79017
5619.046	NaN	NaN	-21.68225	6.23529
5623.026	NaN	NaN	-20.06790	-12.07189
5627.026	NaN	NaN	-20.04363	-12.07370
5631.027	NaN	NaN	-20.03106	-12.07464
5635.020	NaN	NaN	-20.02335	-12.07522
5639.089	NaN	NaN	-20.01809	-12.07561
5643.062	NaN	NaN	-20.01423	-12.07590
5647.180	NaN	NaN	-20.01130	-12.07611
5651.276	NaN	NaN	-20.00897	-12.07629
5655.396	NaN	NaN	-20.00825	-12.07634
5659.524	NaN	NaN	-19.99594	-12.07726
5663.544	NaN	NaN	NaN	NaN
5668.419	NaN	NaN	NaN	NaN
5672.562	NaN	NaN	NaN	NaN
5676.687	NaN	NaN	NaN	NaN
5680.837	NaN	NaN	NaN	NaN
5684.887	NaN	NaN	NaN	NaN
5688.959	NaN	NaN	NaN	NaN
5693.145	NaN	NaN	NaN	NaN
5697.281	NaN	NaN	NaN	NaN
5701.361	NaN	NaN	NaN	NaN
5705.558	NaN	NaN	NaN	NaN
5709.504	NaN	NaN	NaN	NaN
5712.967	NaN	NaN	NaN	NaN
5716.024	NaN	NaN	NaN	NaN
5719.107	NaN	NaN	NaN	NaN
5723.154	NaN	NaN	NaN	NaN
5727.336	NaN	NaN	NaN	NaN
5731.028	NaN	NaN	NaN	NaN
5735.024	NaN	NaN	NaN	NaN
5739.084	NaN	NaN	NaN	NaN
5743.060	NaN	NaN	NaN	NaN
5747.023	NaN	NaN	-5.98803	15.09416
5751.019	NaN	NaN	4.91745	-0.64137
5755.024	NaN	NaN	2.65493	-1.21200
5759.023	-2.07450	-4.46414	3.23328	-2.66627
5763.038	7.30629	-3.58147	3.21567	-1.53718
5767.033	7.35930	-3.83071	3.92168	-1.36548
5771.023	7.15963	-4.17818	2.41244	-1.47463
5775.019	7.13976	-4.56491	1.39540	-1.38794
5779.035	7.16293	-3.86274	1.14186	-1.48572
5783.028	7.18968	-4.44587	2.63140	-1.48103
5787.023	7.15921	-4.23088	3.56133	-1.49301
5791.024	6.83878	-4.11610	2.66454	-1.56513
5795.056	6.28523	-4.34890	2.79307	-1.59058
5799.031	6.66665	-4.25973	3.11519	-1.49860
5803.021	4.83863	-4.11602	2.60376	-1.50334
5807.059	6.01748	-4.22683	2.41583	-1.51797
5811.027	5.00489	-4.30039	2.37419	-1.64903
5815.020	4.29981	-4.29078	2.77423	-1.67326
5819.035	4.79223	-4.26831	2.82905	-1.82702
5823.024	5.03139	-4.34110	2.84687	-1.86829
5827.025	4.98820	-4.32423	2.76772	-1.94483
5831.028	5.17819	-4.37096	2.70235	-2.02635
5835.021	4.98701	-4.38271	2.65785	-2.02826
5839.027	4.83471	-4.47640	2.68517	-2.08013
5843.025	4.77532	-4.50652	2.58053	-2.14486
5847.025	4.95502	-4.59307	2.66654	-2.09109
5851.032	4.89878	-4.72458	2.71097	-2.12197
5855.022	4.93489	-4.69380	2.78562	-2.02101
5859.037	5.00034	-4.79355	2.87381	-2.04386
5863.026	4.98610	-4.87278	2.85173	-1.98329
5867.021	5.03578	-4.92828	3.05311	-1.91534
5871.025	5.03696	-4.98196	3.06320	-1.83226
5875.028	4.98642	-5.06444	3.03888	-1.75317
5879.030	5.02684	-5.02092	3.09488	-1.78412
5883.027	5.04346	-5.01615	3.20387	-1.74296
5887.022	5.10736	-4.96850	3.22621	-1.71129
5891.025	5.09374	-4.82531	3.27902	-1.73405
5895.025	5.10133	-4.71762	3.29068	-1.70670
5899.027	5.13456	-4.60373	3.33374	-1.72533
5903.024	5.08604	-4.58254	3.31917	-1.73418
5907.022	5.10918	-4.50847	3.33030	-1.77843
5911.023	5.07259	-4.51258	3.30158	-1.79603
5915.041	5.03462	-4.48547	3.34843	-1.82622
5919.019	5.09002	-4.39334	3.38303	-1.86162
5923.030	5.11095	-4.34662	3.44033	-1.88624
5927.018	5.11012	-4.29383	3.44987	-1.88555
5931.042	5.08894	-4.25304	3.48489	-1.91580
5935.019	5.14993	-4.24976	3.47928	-1.95469
5939.020	5.11002	-4.27503	3.54902	-1.99519
5943.053	5.11733	-4.34768	3.56047	-2.05202
5947.079	5.10775	-4.44688	3.55011	-2.05417
5951.022	5.11977	-4.40886	3.50405	-1.98479
5955.024	5.16642	-4.06496	3.38667	-1.91637
5959.020	5.24398	-3.80650	3.40022	-1.23090
5963.020	5.29600	0.12240	3.48224	2.99183
5967.025	5.54501	2.76339	3.55651	6.29094
5971.029	5.16058	6.90168	3.40648	8.80287
5975.023	5.17479	7.39091	3.05714	11.72584
5979.018	4.35509	10.19354	1.69091	13.96710
5983.023	3.05573	10.71318	1.94275	13.82778
5987.023	4.87084	8.46952	NaN	NaN
5991.018	2.55688	9.31394	NaN	NaN
5995.021	0.18067	10.64942	NaN	NaN
5999.039	-0.22584	12.85164	NaN	NaN
6003.025	0.78565	11.40305	0.51863	14.41537
6007.035	1.19780	11.13005	0.74605	14.24471
6011.044	1.11742	11.50053	NaN	NaN
6015.078	1.54564	11.31802	0.23299	14.81787
6019.024	0.61223	11.94041	NaN	NaN
6023.017	0.69119	11.99105	NaN	NaN
6027.026	0.98995	11.85287	NaN	NaN
6031.025	1.13357	11.97100	NaN	NaN
6035.025	0.53423	11.96374	NaN	NaN
6039.020	0.92339	12.21967	NaN	NaN
6043.016	1.00372	11.94622	NaN	NaN
6047.017	1.32701	11.60903	NaN	NaN
6051.025	0.88912	12.22233	NaN	NaN
6055.021	0.43209	12.23573	NaN	NaN
6059.018	1.20115	11.71135	NaN	NaN
6063.018	1.12898	11.86670	NaN	NaN
6067.024	0.70059	12.25073	NaN	NaN
6071.018	1.03677	11.97844	NaN	NaN
6075.022	0.82903	11.82323	NaN	NaN
6079.048	1.09147	11.58815	NaN	NaN
6083.021	1.10137	11.72111	NaN	NaN
6087.020	0.70054	11.62938	NaN	NaN
6091.022	0.59315	11.86482	0.47555	14.91371
6095.021	0.96643	11.87794	NaN	NaN
6099.023	1.12132	11.83301	NaN	NaN
6103.031	1.30456	11.77772	NaN	NaN
6107.017	1.05327	11.88579	NaN	NaN
6111.020	1.17220	11.80927	NaN	NaN
6115.014	1.19319	11.82237	NaN	NaN
6119.053	1.13290	11.79398	NaN	NaN
6123.019	1.16200	11.83211	NaN	NaN
6127.018	1.13839	11.82942	NaN	NaN
6131.020	1.14245	11.81760	NaN	NaN
6135.030	1.25113	11.78729	NaN	NaN
6139.022	1.23672	11.72652	NaN	NaN
6143.023	1.34569	11.62198	NaN	NaN
6147.023	1.22754	11.62563	NaN	NaN
6151.053	1.28603	11.50127	NaN	NaN
6155.035	1.34182	11.39246	NaN	NaN
6159.019	1.38004	11.34417	NaN	NaN
6163.021	1.65004	11.01558	NaN	NaN
6167.018	1.79691	11.00034	NaN	NaN
6171.016	1.61436	11.24682	NaN	NaN
6174.894	1.29350	11.59896	NaN	NaN
6178.891	0.90552	12.30370	NaN	NaN
6182.909	1.02164	12.46847	NaN	NaN
6186.895	0.57558	12.18095	NaN	NaN
6190.906	1.01605	11.53319	NaN	NaN
6194.889	0.42725	12.28339	NaN	NaN
6198.894	0.06887	12.30224	NaN	NaN
6202.895	-3.41078	12.52678	NaN	NaN
6206.893	-4.80184	12.48743	NaN	NaN
6210.889	-5.27872	12.15367	NaN	NaN
6214.937	-3.43432	11.51294	NaN	NaN
6218.901	-2.76314	11.54521	NaN	NaN
6222.905	-0.30704	11.23682	NaN	NaN
6226.896	-0.38090	11.21543	NaN	NaN
6230.895	-0.43609	10.98611	NaN	NaN
6234.890	-3.02051	12.16944	NaN	NaN
6238.897	-4.27691	12.59519	NaN	NaN
6242.889	-3.98185	12.68268	NaN	NaN
6246.894	-2.93361	12.19776	NaN	NaN
6250.885	-2.77864	12.13909	NaN	NaN
6254.896	-2.52820	11.59735	NaN	NaN
6258.891	-2.79298	11.32869	NaN	NaN
6262.890	-2.92975	11.74686	NaN	NaN
6266.893	-2.56691	11.21404	NaN	NaN
6270.903	-2.66771	11.77109	NaN	NaN
6274.897	-3.72741	12.76299	NaN	NaN
6278.890	-3.46666	12.75873	NaN	NaN
6282.895	-2.48272	11.83181	NaN	NaN
6286.896	-2.35561	11.41998	NaN	NaN
6290.890	-2.28189	11.35289	-3.18561	15.18080
6294.911	-2.41279	11.32120	NaN	NaN
6298.896	-2.75938	11.59303	NaN	NaN
6302.895	-2.79642	11.72240	NaN	NaN
6306.888	-3.20862	11.47574	NaN	NaN
6310.904	-1.18644	11.31205	NaN	NaN
6314.888	-6.64241	13.95369	NaN	NaN
6318.897	-1.90961	10.78657	-3.77419	14.44072
6322.885	NaN	NaN	NaN	NaN
6326.898	NaN	NaN	NaN	NaN
6330.887	NaN	NaN	NaN	NaN
6334.891	NaN	NaN	NaN	NaN
6338.898	NaN	NaN	NaN	NaN
6343.000	NaN	NaN	NaN	NaN
6346.908	NaN	NaN	NaN	NaN
6351.361	NaN	NaN	NaN	NaN
6355.342	NaN	NaN	NaN	NaN
6359.485	NaN	NaN	NaN	NaN
6363.721	NaN	NaN	NaN	NaN
6367.706	NaN	NaN	NaN	NaN
6371.754	NaN	NaN	NaN	NaN
6375.590	NaN	NaN	NaN	NaN
6379.531	NaN	NaN	NaN	NaN
6383.607	NaN	NaN	NaN	NaN
6387.542	NaN	NaN	NaN	NaN
6391.432	NaN	NaN	NaN	NaN
6395.377	NaN	NaN	NaN	NaN
6399.162	NaN	NaN	NaN	NaN
6402.971	NaN	NaN	NaN	NaN
6406.909	NaN	NaN	NaN	NaN
6410.908	NaN	NaN	NaN	NaN
6414.887	NaN	NaN	NaN	NaN
6419.513	NaN	NaN	NaN	NaN
6423.098	NaN	NaN	NaN	NaN
6426.894	NaN	NaN	NaN	NaN
6430.888	-0.26592	13.29879	-5.57930	11.29817
6434.894	NaN	NaN	2.16372	1.24383
6438.894	NaN	NaN	2.28425	-1.87928
6442.894	NaN	NaN	2.69708	-3.84722
6446.887	5.14259	-3.45176	1.83288	-4.06253
6450.886	5.85824	-3.48257	3.17492	-3.73420
6454.902	7.69473	-3.83509	2.18134	-3.55604
6458.896	5.91248	-5.32286	2.32384	-3.74874
6462.890	6.38001	-6.35355	5.03526	-3.67403
6466.897	5.90313	-7.03112	5.75028	-3.54151
6470.893	5.76023	-7.03406	5.93141	-3.62479
6474.889	5.63481	-7.05626	5.50751	-3.62856
6478.895	5.79155	-6.98097	5.47055	-3.56903
6482.887	5.70394	-6.88996	5.69320	-3.55524
6486.920	5.82596	-6.96642	5.79401	-3.51671
6490.944	7.12378	-6.78407	5.58862	-3.59175
6494.886	6.76782	-6.88491	5.15773	-3.72785
6498.888	6.51366	-6.70235	5.23435	-3.61978
6502.883	6.64168	-6.78818	5.23654	-3.66684
6506.903	6.88289	-6.83098	5.26760	-3.84903
6510.895	6.52870	-6.79348	5.18092	-3.74346
6514.889	7.04836	-6.77197	4.98824	-3.81524
6518.897	7.19102	-6.71841	5.15377	-3.84164
6522.888	6.98367	-6.73474	5.19022	-3.93530
6526.886	7.18604	-6.65199	5.22254	-3.95280
6530.926	7.38805	-6.60973	5.18747	-3.82611
6534.889	7.20695	-6.60525	5.26135	-3.79943
6538.883	7.29457	-6.65444	5.39451	-3.81324
6542.893	7.23767	-6.73839	5.35069	-3.84565
6546.892	7.30791	-6.83298	5.38319	-4.03182
6550.884	7.29899	-6.80210	5.42611	-3.83759
6555.246	7.30881	-6.84854	5.44820	-3.84336
6558.898	7.40179	-6.83050	5.47355	-3.82094
6562.887	7.25164	-6.96922	5.53372	-3.75195
6566.888	7.34536	-6.92409	5.69492	-3.63693
6570.885	7.30139	-6.98866	5.55767	-3.78878
6574.899	7.30253	-7.02465	5.49699	-3.82190
6578.894	7.37104	-7.01006	5.56438	-3.76616
6582.889	7.40350	-6.95752	5.42759	-3.57882
6586.885	7.50798	-6.98110	5.46800	-3.89041
6590.888	7.41131	-6.97590	5.47611	-3.78999
6594.887	7.44711	-7.02738	5.58292	-3.73536
6598.888	7.42029	-6.97964	5.55234	-3.63168
6602.887	7.35749	-6.97698	5.62945	-3.68416
6606.892	7.32561	-7.00705	5.52571	-3.69493
6610.892	7.22607	-7.02153	5.43054	-3.51244
6614.894	7.23372	-7.05092	5.56387	-3.34208
6618.898	7.17380	-7.05818	5.37217	-3.72852
6622.885	7.19517	-7.06392	5.37458	-3.88641
6626.877	7.17575	-6.96712	5.34826	-3.83983
6630.896	7.09944	-6.98047	5.55175	-3.65339
6634.880	7.02323	-6.90729	5.42542	-3.66293
6638.887	7.18562	-6.91452	5.31556	-3.82952
6642.890	7.19036	-6.94176	5.19042	-3.86660
6646.902	7.06640	-6.97695	5.21151	-3.45117
6650.884	7.24852	-6.92234	5.14316	-3.63714
6654.889	7.13177	-6.90420	5.22466	-3.80583
6658.884	7.22102	-6.91506	5.04890	-3.87908
6662.914	7.20507	-6.91022	5.14064	-4.07133
6666.893	7.17900	-6.89433	5.06607	-3.93234
6670.886	7.04614	-6.88253	5.23620	-3.78632
6674.886	7.31733	-6.73626	5.08924	-3.92804
6678.890	7.28117	-6.78636	5.11802	-3.60984
6682.883	7.27709	-6.87958	5.14192	-3.84479
6686.890	7.19581	-6.93468	5.09556	-3.72277
6690.891	7.24192	-6.94076	5.24833	-3.70260
6694.888	7.19896	-6.93791	5.14818	-3.58177
6698.886	7.24500	-6.99613	5.23059	-3.67836
6702.881	7.20563	-7.01267	5.24961	-3.76732
6706.887	7.13392	-6.99819	5.27538	-3.73819
6710.892	7.22373	-6.97897	5.33027	-3.61397
6714.893	7.20656	-7.00389	5.31115	-3.68749
6718.889	7.17981	-6.98618	5.41263	-3.52462
6722.884	7.17008	-6.97620	5.39832	-3.38263
6726.880	7.15948	-6.96436	5.46812	-3.08023
6730.900	7.19236	-6.80487	5.48029	-3.04256
6734.881	7.14277	-6.84216	5.39677	-3.60412
6738.905	7.18850	-6.86736	5.35588	-3.55571
6742.882	7.17602	-6.82983	5.41859	-3.26301
6746.883	7.16876	-6.89113	5.21491	-3.40750
6750.879	7.16911	-6.88410	5.13971	-3.49441
6754.886	7.12119	-6.88190	5.12989	-3.27459
6758.911	7.18017	-6.82969	5.04523	-3.34721
6762.880	7.23338	-6.81072	4.97347	-3.20483
6766.895	7.17182	-6.82649	4.84989	-3.72368
6770.890	5.93750	-7.34562	3.11005	-3.78863
6774.898	3.77980	-7.75146	2.96893	-4.40832
6778.879	0.99355	-8.84429	-0.71642	-6.79295
6782.888	0.56381	-11.17995	-1.51090	-7.31757
6786.881	0.82704	-11.54307	-1.47573	-7.73568
6790.880	0.57441	-11.78747	-1.31960	-7.82645
6794.885	0.94157	-11.60574	-1.11197	-7.39980
6798.880	1.10122	-11.56916	-0.49535	-7.39932
6802.877	1.25416	-11.46485	-0.14027	-7.15076
6806.882	1.08810	-11.56565	-0.94974	-7.26800
6810.902	1.30794	-10.54775	-0.73233	-7.40068
6814.884	1.33443	-10.83678	-0.93093	-7.37541
6818.882	1.33512	-11.17424	-0.89170	-7.34707
6822.880	1.19810	-10.92503	-0.85878	-7.41638
6826.881	1.00601	-10.79401	-0.98402	-7.47742
6830.894	1.25093	-11.32162	-0.83942	-7.41930
6834.884	1.30940	-10.84772	-0.86036	-7.37638
6838.879	1.42417	-10.89870	-0.89731	-7.37585
6842.892	1.15652	-10.69433	-0.87741	-7.44207
6846.890	1.02620	-10.57296	-0.95130	-7.53871
6850.884	1.35013	-10.97377	-1.07813	-7.58054
6854.881	1.28911	-10.80975	-1.01025	-7.55567
