time (ms)	lx (deg)	ly (deg)	rx (deg)	ry (deg)
0.000	-2.85955	-1.85888	-4.67236	-3.09279
4.006	-2.83937	-1.74999	-4.67244	-3.05772
8.001	-2.82704	-1.68970	-4.81776	-3.10856
12.017	-2.83826	-1.69457	-4.65535	-3.09242
16.012	-2.90668	-1.65177	-4.70503	-3.07111
20.000	-2.95807	-1.59025	-4.76638	-3.09296
24.000	-3.06459	-1.63624	-4.70111	-3.12842
28.000	-3.01673	-1.58553	-4.70685	-3.16637
32.002	-3.17849	-1.59796	-4.72598	-3.22111
36.002	-3.13823	-1.58768	-4.67512	-3.21836
39.995	-3.17656	-1.58048	-4.64394	-3.22934
44.006	-3.21137	-1.50674	-4.58175	-3.29764
48.000	-3.18400	-1.46570	-4.40552	-3.43939
52.004	-1.72284	0.05127	-3.66058	-3.13232
56.013	-0.52148	0.37316	-2.04039	-1.29189
60.006	1.40800	0.35411	-0.89962	-0.36777
64.003	1.57508	0.53620	-0.25587	-0.15769
68.001	1.53927	0.50183	-0.23247	-0.35295
72.005	0.96628	0.17606	-0.43688	-0.47976
76.002	-0.17526	0.13227	-0.99690	-0.87846
80.000	-0.65307	0.21227	-1.31404	-0.76265
84.000	0.19015	0.37397	-1.22402	-0.63532
87.999	0.74429	0.38423	-1.03781	-0.50916
92.003	0.90542	0.39584	-0.88478	-0.41025
95.999	0.92510	0.44461	-0.83997	-0.36290
100.050	0.99350	0.55259	-0.96633	-0.23790
104.012	0.72503	0.46891	-1.11869	-0.27117
107.996	0.58560	0.61727	-1.12377	-0.25195
112.005	0.22291	0.42503	-1.19815	-0.19815
115.998	0.29332	0.40958	-1.25081	-0.27124
120.011	0.68628	0.47052	-1.19889	-0.26732
124.001	0.86280	0.70091	-1.22273	-0.30826
128.004	0.89902	0.83261	-1.27512	-0.33622
131.996	0.86096	0.88985	-1.39073	-0.43132
136.004	0.85123	0.81178	-1.43558	-0.58720
140.006	0.82091	1.19666	-1.53642	-0.76806
144.005	0.88987	1.27296	-1.62329	-0.89973
147.995	0.94549	1.33122	-1.66705	-0.80040
152.001	1.08559	1.37422	-1.60499	-0.77698
155.998	1.11293	1.38563	-1.60920	-0.79543
159.998	1.09879	1.39574	-1.66730	-0.83191
163.999	1.07599	1.44658	-1.66160	-0.85337
168.043	0.99928	1.44559	-1.61853	-0.86978
172.007	0.92465	1.39301	-1.60270	-0.87284
175.995	0.83875	1.44680	-1.52345	-0.89475
180.005	0.74032	1.44065	-1.45135	-0.94060
184.007	0.86595	1.51614	-1.33941	-1.02715
188.002	0.71089	1.44471	-1.28177	-1.04890
191.998	0.73265	1.39469	-1.27601	-1.21087
196.003	0.73268	1.35508	-1.21494	-1.30826
199.999	0.83875	1.35242	-1.21234	-1.37850
204.033	1.23082	1.32854	-1.21690	-1.35447
208.000	1.25381	1.40838	-1.23838	-1.42149
212.009	1.24979	1.43713	-1.39458	-1.32383
216.001	1.13930	1.52056	-1.60908	-1.33423
220.000	1.11752	1.64144	-1.38989	-1.38883
223.997	0.97777	1.75424	-1.64089	-1.25851
228.002	0.90148	1.84557	-1.33230	-1.21414
231.997	1.08076	1.50234	-1.38565	-1.24006
236.042	0.95887	1.49244	-1.15548	-1.11528
240.009	1.40963	1.55408	-1.11375	-0.95195
243.998	1.24215	1.57440	-1.19276	-0.69813
247.998	0.97797	1.38728	-1.14583	-0.65762
252.000	1.04377	1.09566	-1.10599	-0.44699
255.996	1.03883	0.82554	-0.92545	-0.59342
260.001	0.95135	1.07351	-1.01156	-0.48378
264.003	1.00958	1.05677	-0.91959	-0.48692
268.001	1.05220	0.75112	-0.89857	-0.68018
271.995	1.11894	0.70746	-0.91254	-0.69483
275.996	1.09053	0.65269	-0.90656	-0.71148
280.000	1.08934	0.71646	-0.94681	-0.72620
283.996	1.05868	0.62281	-0.97551	-0.66325
287.995	1.01687	0.59241	-1.01987	-0.77063
291.996	1.07336	0.60723	-0.99581	-0.83033
296.000	1.08887	0.64328	-1.04059	-0.88032
299.997	1.03925	0.63877	-1.03811	-0.91007
304.037	1.15240	0.67784	-1.03419	-0.91012
308.013	1.13065	0.72306	-1.01705	-0.95479
312.006	1.08118	0.74210	-1.03064	-0.94286
315.999	1.13665	0.78602	-1.00390	-0.91329
319.995	1.12526	0.81089	-0.99367	-0.45178
323.996	1.22578	0.88237	-0.97581	-0.68973
327.996	1.28214	0.90990	-0.91619	-0.72758
331.998	2.01843	0.89608	-0.81379	-0.57707
335.995	1.94193	0.89125	-0.73069	-0.64935
339.994	1.79038	0.88189	-0.66953	-0.62158
343.997	1.67722	0.92888	-0.58883	-0.55252
348.007	1.79609	1.01620	-0.59312	-0.61426
352.000	1.68352	1.12218	-0.61749	-0.50017
355.996	1.66636	1.20651	-0.73744	-0.59656
359.996	1.58589	1.35391	-0.82756	-0.52037
363.994	1.64402	1.58298	-0.99630	-0.60665
367.995	1.67085	1.37545	-1.21437	-0.61312
371.995	1.68421	1.17087	-1.22238	-0.57041
376.003	1.45733	0.93948	-1.00238	-0.64709
379.996	1.34559	0.57034	-0.85994	-0.62486
383.994	1.23811	0.52920	-0.95884	-0.76257
387.995	1.29238	0.99078	-1.10088	-0.79351
392.002	1.15253	0.94029	-1.07738	-0.64929
395.997	0.97611	1.29192	-1.13970	-0.72253
399.989	0.92634	1.26927	-0.90495	-0.73819
404.001	1.32557	1.13595	-0.78642	-0.74129
407.994	1.32208	0.95662	-0.60570	-0.72383
411.997	1.30856	1.03237	-0.61828	-0.68333
416.000	1.40938	0.76637	-0.57940	-0.55243
419.995	1.38267	0.63396	-0.71077	-0.53875
424.034	1.31253	0.92210	-0.65345	-0.31444
427.994	1.44086	1.04692	-0.73511	-0.67864
431.994	1.62490	0.96183	-0.72548	-0.66863
436.000	1.89248	1.02361	-0.66821	-0.92064
440.014	2.05177	0.97002	-0.63908	-1.05384
444.004	2.01194	0.97079	-0.69548	-1.10425
447.992	1.88075	0.93799	-0.71724	-1.15944
451.997	2.00849	1.07774	-0.75933	-1.09795
455.989	1.95093	1.16164	-0.82898	-1.21827
459.994	1.90958	1.27449	-0.86049	-1.18257
463.996	1.89409	1.33117	-0.83585	-1.08606
467.994	1.68699	1.16883	-0.85061	-1.02361
471.996	1.57796	1.17190	-0.83699	-0.72739
475.997	1.62681	0.78353	-0.82793	-0.51948
479.996	1.65210	0.65271	-0.78412	-0.56095
483.994	1.81287	0.98840	-0.79124	-0.52492
487.991	1.86677	0.91697	-0.73891	-0.70378
492.011	1.93346	0.81652	-0.68097	-0.51453
496.000	2.05281	0.89703	-0.74362	-0.83870
499.993	2.07554	0.93976	-0.73154	-0.83962
503.998	1.99285	1.03440	-0.69575	-0.67067
507.993	1.58743	0.91472	-0.66312	-0.55836
511.996	1.46802	0.79667	-0.63759	-0.50549
516.005	1.83206	0.15942	-0.64511	-0.43718
519.991	1.75111	0.51877	-0.62804	-0.34739
523.992	1.71459	0.65132	-0.65580	-0.25692
527.994	1.87354	0.78010	-0.67494	-1.10232
531.993	2.04812	0.83791	-0.71312	-1.06344
535.990	1.99072	0.85426	-0.77069	-1.04514
539.992	1.98199	0.94056	-0.71814	-0.81334
543.995	1.66621	0.94577	-0.73188	-0.56374
547.993	1.71089	0.83326	-0.75570	-0.32286
551.884	1.66552	0.76183	-0.76883	-0.26489
555.872	1.71273	0.79603	-0.78811	-0.21592
559.867	1.67412	0.39326	-0.69300	-0.57907
563.872	1.72319	0.72776	-0.78729	-1.12455
567.867	1.65828	0.80348	-0.77635	-1.07162
571.870	1.67499	0.78808	-0.79667	-1.05127
575.869	1.62371	0.78410	-0.79139	-1.10435
579.873	1.63390	0.84250	-0.79992	-0.89190
583.869	1.69919	0.72102	-0.82657	-0.65833
587.869	1.69279	0.75839	-0.83630	-0.58887
591.867	1.50626	0.75397	-0.80878	-0.81427
595.868	1.47789	0.78050	-0.81873	-0.84241
599.869	1.39068	0.84367	-0.83816	-0.77097
603.875	1.59492	0.86524	-0.86361	-0.66377
607.866	1.58326	0.88472	-0.83570	-0.54549
611.883	1.67529	0.89469	-0.81888	-0.52480
615.867	1.70336	0.93234	-0.82458	-0.44989
619.875	1.73043	0.97402	-0.81927	-0.42514
623.868	1.54639	0.92449	-0.77878	-0.34793
627.867	1.48647	0.92112	-0.75456	-0.31613
631.871	1.43126	1.10046	-0.70141	-0.34982
635.903	1.41033	1.09131	-0.70759	-0.38540
639.868	1.33646	1.12415	-0.66737	-0.37045
643.873	1.35846	1.23710	-0.60466	-0.41458
647.870	1.48897	1.42408	-0.54213	-0.45742
651.863	1.49815	1.65542	-0.49542	-0.45548
655.866	1.35368	1.33937	-0.38576	-0.52817
659.863	1.27924	1.65721	-0.63821	-0.56310
663.864	1.27150	1.28059	-0.67590	-0.64635
667.864	1.21370	1.25882	-0.64821	-0.67421
671.870	1.26887	1.31322	-0.73154	-0.69541
675.913	1.28202	1.25035	-0.78670	-0.68850
679.864	1.30541	0.95385	-0.71446	-0.66436
683.869	1.33716	0.82101	-0.77828	-0.63499
687.869	1.34276	0.67965	-0.83612	-0.63970
691.869	1.33115	0.75740	-0.89699	-0.57569
695.860	1.32853	0.60748	-0.85433	-0.57043
699.868	1.33678	0.29150	-0.86932	-0.49257
703.864	1.34239	0.18719	-0.77885	-0.54227
707.868	1.34787	0.18371	-0.76176	-0.54296
711.902	1.37707	0.15732	-0.74461	-0.55810
715.872	1.38939	-0.07085	-0.69734	-0.59922
719.863	1.36928	0.13380	-0.66280	-0.66007
723.868	1.36248	0.08397	-0.68950	-0.56814
727.867	1.38232	0.28106	-0.70608	-0.55845
731.864	1.35179	0.38107	-0.68913	-0.56879
735.864	1.28809	0.02949	-0.73191	-0.55929
739.889	1.32892	0.24256	-0.79610	-0.61101
743.863	1.28631	0.18592	-0.86500	-0.66791
747.870	1.32451	0.30166	-0.94013	-0.64875
751.862	1.36504	0.46938	-0.92589	-0.64301
755.869	1.40452	0.37689	-0.90835	-0.60297
759.859	1.41995	0.49697	-0.89240	-0.54138
763.870	1.50219	0.55187	-0.92745	-0.37534
767.863	1.50757	0.58771	-0.92507	-0.41326
771.880	1.50410	0.61890	-0.85287	-0.43060
775.866	1.53252	0.73014	-0.85845	-0.55113
779.862	1.56657	0.88378	-0.80203	-0.65876
783.868	1.52325	1.02714	-0.74863	-0.65536
787.859	1.55231	1.20553	-0.73568	-0.55345
791.870	1.58525	1.44201	-0.66953	-0.60474
795.863	1.58180	0.89227	-0.65717	-0.57761
799.868	1.54048	0.38333	-0.66598	-0.40543
803.863	1.49277	0.48769	-0.66891	-0.44712
807.866	1.43389	0.32785	-0.67208	-0.38843
811.868	1.35375	0.44298	-0.66144	-0.44687
815.870	1.30871	0.22843	-0.67853	-0.40031
819.863	1.24840	0.05702	-0.71104	-0.36930
823.868	1.24012	0.10747	-0.76729	-0.32157
827.860	1.21415	0.00422	-0.82841	-0.28509
831.868	1.15816	-0.04291	-0.88575	-0.31112
835.864	1.11899	-0.02407	-0.91041	-0.29159
839.867	1.07654	-0.00656	-1.02382	-0.29404
843.859	1.08175	-0.03280	-1.08780	-0.29843
847.864	1.13687	0.00683	-1.23945	-0.32527
851.869	1.20581	0.01068	-1.40829	-0.35826
855.873	1.19743	0.00748	-1.53096	-0.37243
859.899	1.29777	-0.00176	-1.63690	-0.37750
863.862	1.33971	0.01697	-1.38674	-0.41125
867.861	1.43508	0.07559	-0.60270	-0.41294
871.860	1.49966	0.33674	-1.48421	-0.33637
875.865	-0.19914	2.90026	-2.68995	-0.20446
879.857	-2.70557	3.19270	-5.12511	1.81274
883.866	-3.82551	5.13963	-5.75409	3.06105
887.862	-4.99095	6.25364	-7.24691	5.93402
891.864	-6.91219	6.99212	-9.26872	6.09009
895.863	-7.68476	7.28342	-9.62142	6.13526
899.861	-7.78723	6.32027	-9.89210	6.16375
903.863	-8.19912	7.09708	-10.29483	6.28057
907.856	-7.77895	7.28566	-9.90024	6.18857
911.879	-7.17797	6.97846	-9.84207	6.26036
915.871	-7.77890	7.01181	-9.35070	6.21219
919.861	-8.06699	7.07515	-9.69733	6.36716
923.865	-8.31926	7.24342	-9.79681	6.40206
927.861	-8.54656	7.25386	-9.97430	6.51373
931.859	-8.50387	7.54709	-10.05053	6.64555
935.870	-8.75208	7.59601	-10.05361	6.79554
939.864	-8.41051	7.62764	-10.08693	6.96446
943.860	-8.65179	7.77224	-10.13513	7.07246
947.860	-8.44222	7.59367	-10.24216	7.40101
951.859	-8.39698	7.49219	-10.11574	7.39443
955.861	-8.33792	7.47233	-10.20471	7.59861
959.863	-8.57027	7.62870	-10.16733	7.51719
963.859	-8.33506	7.60294	-10.20041	7.34595
967.859	-8.51345	7.67169	-10.24923	7.36189
971.863	-8.32454	7.66196	-10.23449	7.38029
975.858	-8.26011	7.59945	-10.18764	7.46431
979.869	-8.24815	7.58837	-10.22945	7.41874
983.859	-8.29450	7.66655	-10.22207	7.40676
987.876	-8.24001	7.62203	-10.22615	7.45709
991.868	-8.38636	7.66433	-10.24545	7.48285
995.864	-8.46716	7.72136	-10.28075	7.44457
999.864	-8.69634	7.80680	-10.27845	7.47311
1003.855	-8.71094	7.84987	-10.29733	7.50122
1007.865	-8.96484	7.92933	-10.30949	7.54887
1011.862	-8.65531	7.86830	-10.36058	7.56274
1015.863	-8.35814	7.86958	-10.33889	7.49777
1019.863	-8.54433	7.94305	-10.42552	7.46782
1023.860	-8.61302	7.92264	-10.42382	7.45460
1027.860	-8.61026	7.86885	-10.40941	7.03763
1031.862	-8.80333	7.91298	-10.46189	6.98364
1035.859	-8.62513	7.96312	-10.40240	7.20588
1039.859	-8.63401	8.01013	-10.43764	7.10167
1043.859	-8.46604	8.02521	-10.52214	7.28103
1047.862	-8.44951	8.05642	-10.51556	7.44197
1051.862	-8.40864	8.03856	-10.55332	7.41556
1055.855	-8.41850	8.12161	-10.51244	7.80867
1059.867	-8.35418	8.07524	-10.54802	7.56191
1063.863	-8.39224	8.10193	-10.54473	7.82177
1067.862	-8.43484	8.09975	-10.60548	7.83204
1071.854	-8.45366	8.13362	-10.62866	7.85882
1075.863	-8.41939	8.12742	-10.69048	7.93937
1079.859	-8.44727	8.11366	-10.70462	7.96343
1083.862	-8.50748	8.09634	-10.76341	7.99796
1087.856	-8.57488	8.05126	-10.78781	8.06613
1091.859	-8.62411	8.01742	-10.73758	7.89056
1095.859	-8.67517	8.01454	-10.77617	7.82536
1099.860	-8.74959	7.98192	-10.78592	7.58096
1103.856	-8.77553	8.00346	-10.81109	7.71882
1107.867	-8.85410	7.99908	-10.81082	7.63605
1111.875	-8.86449	8.02517	-10.76717	7.40097
1115.868	-8.92067	8.05293	-10.67313	7.20956
1119.859	-8.93670	8.03867	-10.59932	7.20598
1123.861	-8.96600	8.04492	-10.62953	7.20751
1127.861	-8.91437	7.88930	-10.52569	7.08237
1131.863	-8.89451	7.82410	-10.51909	7.14382
1135.859	-8.76273	7.79750	-10.50462	7.11013
1139.861	-8.70946	7.73853	-10.49431	7.06778
1143.860	-8.77107	7.68428	-10.47724	7.03351
1147.860	-8.69355	7.67160	-10.50968	6.98972
1151.857	-8.59757	7.66955	-10.44912	6.89343
1155.861	-8.45597	7.58896	-10.33786	6.82130
1159.853	-8.53782	7.57753	-10.37090	6.86635
1163.856	-8.46512	7.53703	-10.39928	6.87414
1167.859	-8.44565	7.49940	-10.35536	6.85524
1171.857	-8.46378	7.50758	-10.31972	6.84403
1175.862	-8.49250	7.51635	-10.33745	6.78282
1179.856	-8.53782	7.49216	-10.39806	6.73090
1183.856	-8.68196	7.45196	-10.38713	6.86371
1187.861	-8.63515	7.41990	-10.32971	7.26992
1191.856	-8.41789	7.42949	-10.14766	7.25748
1195.879	-7.56815	7.35239	-8.97031	6.56372
1199.867	-4.70325	6.39119	-6.32652	5.51671
1203.862	-3.34927	4.93654	-4.63962	3.37012
1207.858	-2.52958	4.18048	-3.04675	1.05750
1211.858	-1.12117	2.06946	-2.73031	0.04038
1215.855	-0.38224	0.01056	-1.78810	-1.71037
1219.855	0.77124	1.06313	-1.05796	-1.92471
1223.859	2.06647	-0.02997	-0.60677	-2.25047
1227.862	2.59502	-0.04781	-0.29937	-2.32026
1231.857	2.45022	0.02033	-0.17717	-2.25416
1235.857	2.60297	0.07544	-0.32531	-2.17853
1239.874	2.47853	0.14868	-0.29034	-2.09626
1243.859	2.46944	0.15673	-0.29617	-2.03779
1247.862	2.48946	0.09600	-0.11764	-2.05940
1251.857	2.48383	0.09300	-0.04363	-2.25757
1255.860	2.47368	-0.10236	-0.06224	-2.31967
1259.862	2.48054	-0.14881	-0.04877	-2.39310
1263.855	2.51282	-0.70540	-0.03028	-2.45704
1267.871	2.53716	-0.48904	-0.05559	-2.41428
1271.869	2.54301	-0.53076	-0.02631	-2.43968
1275.853	2.52664	-0.66863	-0.05013	-2.53070
1279.856	2.48212	-0.54230	0.00186	-2.65517
1283.853	2.49800	-0.66532	0.07713	-2.76084
1287.854	2.47826	-0.63651	0.09624	-2.76775
1291.854	2.38063	-0.84354	0.02323	-2.84408
1295.857	2.33004	-0.85640	-0.00742	-2.86054
1299.854	2.35633	-0.99156	-0.05068	-2.89693
1303.901	2.38650	-1.28258	-0.07607	-2.91554
1307.856	2.34971	-1.54593	-0.09264	-2.92577
1311.857	2.24079	-1.71337	-0.06227	-2.95299
1315.864	2.16659	-1.68949	-0.06572	-2.99358
1319.852	2.14290	-1.44247	-0.08495	-2.99244
1323.857	2.24094	-1.61311	-0.08699	-2.59367
1327.855	2.36381	-1.74036	-0.05753	-2.30287
1331.856	2.39468	-1.71764	-0.00221	-2.39074
1335.852	2.34124	-1.73272	0.01633	-2.49197
1339.853	2.39267	-1.75337	0.03003	-2.41572
1343.852	2.28995	-1.76768	-0.00154	-2.35455
1347.857	2.18758	-1.80504	-0.02410	-2.32116
1351.854	2.19579	-1.58939	-0.06966	-2.34646
1355.862	2.23667	-1.65160	-0.03182	-2.31376
1359.853	2.27805	-1.48514	-0.10468	-2.31924
1363.854	2.33182	-1.55111	-0.18730	-2.30499
1367.853	2.32040	-1.12663	-0.35893	-2.31761
1371.854	2.28583	-0.64144	-0.39400	-2.40842
1375.854	2.18317	-0.18613	-0.27386	-2.41678
1379.852	2.14947	-0.23421	-0.17457	-2.33747
1383.858	2.10612	-0.39677	-0.21328	-2.31325
1387.855	2.01308	-0.45574	-0.19345	-2.36843
1391.856	1.91519	-0.51403	-0.15268	-2.40502
1395.857	2.16042	-0.34356	-0.10610	-2.42995
1399.858	2.10872	-0.25453	-0.07222	-2.42390
1403.854	2.10919	-0.40004	-0.03770	-2.45766
1407.731	2.13378	-0.33808	-0.03268	-2.51964
1411.764	2.25206	-0.42208	0.01263	-2.62799
1415.737	2.29845	-0.44406	0.07371	-2.43298
1419.726	2.58893	-0.54787	0.14235	-2.20087
1423.726	2.60121	-0.61441	0.12290	-2.30969
1427.730	2.77428	-0.76037	0.12873	-2.28694
1431.732	2.63539	-0.85494	0.14119	-2.23116
1435.723	2.68138	-0.95940	0.15263	-2.17124
1439.737	2.67969	-0.99377	0.16035	-2.14680
1443.730	2.68948	-1.06004	0.15662	-2.16928
1447.731	2.66347	-1.13180	0.14833	-2.11620
1451.723	2.70825	-1.22180	0.14968	-2.04461
1455.732	2.68754	-1.37921	0.13972	-2.01786
1459.726	2.66266	-1.45653	0.04343	-1.98470
1463.731	2.61290	-1.59225	-0.00189	-2.02618
1467.726	2.54405	-1.59807	-0.04385	-2.02955
1471.728	2.54053	-0.91615	-0.14126	-2.10256
1475.728	2.51933	-0.58471	-0.23999	-2.18527
1479.731	2.53860	-0.29613	-0.26485	-2.36593
1483.731	2.52542	-0.38041	-0.28994	-2.39542
1487.733	2.53320	-0.51160	-0.18993	-2.30745
1491.732	2.52404	-0.80133	-0.10801	-2.44895
1495.726	2.52307	-1.19245	-0.21075	-2.34317
1499.725	2.55155	-0.75653	-0.08860	-2.26967
1503.724	2.88002	-0.87900	1.24004	-2.27755
1507.725	4.18282	-1.26692	1.45209	-2.47034
1511.743	6.19295	-1.25388	3.67403	-2.87723
1515.728	7.56742	-1.06377	5.41468	-3.93134
1519.725	8.69367	-1.75732	5.76291	-4.46499
1523.731	8.76806	-2.33270	6.08163	-4.58648
1527.757	9.08578	-3.99370	6.58513	-4.47927
1531.730	10.08637	-2.15859	7.71306	-4.64752
1535.723	10.20863	-1.64755	7.92451	-4.69967
1539.725	9.68076	-2.01210	7.89342	-4.59525
1543.724	9.81356	-2.21733	7.98912	-4.62027
1547.724	9.73214	-2.25343	7.85760	-4.57072
1551.733	9.88550	-2.31479	7.97167	-4.58937
1555.730	9.78165	-2.57657	8.04519	-4.64963
1559.724	9.76719	-2.53262	8.12313	-4.66489
1563.726	9.97960	-2.70734	8.12036	-4.60619
1567.730	10.08770	-2.62946	8.12349	-4.58328
1571.723	10.02928	-2.69283	8.14290	-4.51232
1575.725	9.96484	-2.17188	8.19722	-4.51085
1579.727	9.95996	-2.01906	8.14969	-4.60371
1583.725	10.02023	-2.00182	7.81639	-4.70623
1587.724	10.11000	-1.91848	7.54925	-4.72324
1591.724	10.19469	-1.95010	7.42361	-4.77063
1595.763	10.27816	-1.88828	7.43117	-4.86792
1599.733	10.38058	-1.75071	7.75027	-4.86973
1603.722	10.46407	-1.75207	7.62935	-4.82993
1607.728	10.50729	-1.77318	7.59012	-4.86444
1611.735	10.33725	-1.73737	7.61799	-4.88452
1615.729	10.40797	-1.70497	7.61780	-4.81187
1619.732	10.41909	-1.78919	7.60780	-4.79496
1623.726	10.41518	-1.85599	7.68876	-4.74751
1627.724	10.44235	-1.91419	7.85404	-4.71526
1631.723	10.18998	-2.02478	8.00815	-4.70439
1635.726	9.76298	-1.95376	7.96753	-4.74631
1639.724	9.96988	-1.95786	7.61577	-4.70564
1643.719	9.87635	-1.97522	7.56481	-4.73550
1647.734	9.97426	-1.93774	7.71667	-4.81821
1651.726	9.96263	-2.00501	7.52898	-4.85253
1655.727	10.00704	-1.99992	7.40067	-4.81742
1659.719	9.98432	-2.10037	7.45972	-4.87830
1663.741	10.10100	-2.16499	7.75280	-4.92421
1667.730	10.21067	-2.18080	7.83149	-4.89526
1671.723	9.95967	-2.26776	7.58610	-4.93789
1675.729	9.98343	-2.18994	7.69612	-4.98883
1679.740	10.02971	-2.41204	7.53627	-4.91613
1683.727	10.19423	-2.39150	7.64015	-4.92551
1687.724	10.05062	-2.40273	7.76350	-4.93552
1691.728	10.03722	-2.28159	7.70667	-4.86928
1695.727	10.12205	-2.19792	7.83561	-4.86735
1699.726	10.11235	-2.34573	7.79753	-4.80064
1703.723	10.21832	-2.42747	7.86688	-4.82737
1707.722	10.06879	-2.46543	7.93703	-4.81214
1711.766	9.96090	-2.43911	7.86839	-4.77407
1715.728	9.93058	-2.45514	7.87998	-4.79510
1719.718	9.94789	-2.36730	7.86588	-4.72885
1723.726	9.75880	-2.33770	7.83902	-4.74695
1727.721	9.70603	-2.28462	7.80704	-4.77144
1731.741	9.65153	-2.27361	7.81042	-4.76681
1735.728	9.64897	-2.35865	7.88568	-4.81909
1739.755	9.50049	-2.50940	7.82136	-4.81215
1743.721	9.46184	-2.57250	7.77943	-4.83207
1747.726	9.45380	-2.73008	7.75310	-4.83130
1751.722	9.45513	-2.83827	7.68613	-4.83213
1755.731	9.48099	-2.84048	7.66141	-4.85080
1759.729	9.53161	-2.82960	7.67808	-4.84802
1763.721	9.63139	-2.85194	7.65485	-4.86188
1767.722	9.73169	-2.75120	7.69293	-4.82105
1771.724	9.82578	-2.53874	7.73270	-4.76255
1775.725	9.98694	-2.41504	7.76233	-4.69732
1779.720	10.20762	-2.15926	7.75539	-4.62989
1783.722	10.31131	-2.02730	7.78019	-4.58062
1787.723	10.44787	-1.78016	7.81205	-4.48136
1791.721	10.46837	-1.66120	7.87920	-4.42383
1795.720	10.51895	-1.58601	7.92269	-4.38752
1799.752	10.42298	-1.67585	7.94487	-4.32599
1803.728	10.38492	-2.01869	7.97344	-4.26407
1807.726	10.30831	-2.05183	7.99859	-4.21009
1811.756	10.27753	-1.95442	8.02810	-4.19109
1815.733	10.18887	-2.02425	8.07107	-4.17117
1819.722	10.23413	-2.50641	8.06090	-4.15186
1823.721	10.17437	-2.77301	8.06141	-4.15543
1827.720	10.19974	-2.70639	8.06630	-4.13553
1831.723	10.06520	-2.54550	8.07302	-4.15776
1835.720	9.94327	-2.82592	8.07171	-4.15613
1839.716	9.87052	-2.92220	8.08654	-4.15092
1843.725	9.85500	-3.03621	8.14132	-4.14370
1847.720	9.83293	-3.07394	8.16977	-4.15402
1851.724	9.96790	-3.04706	8.17877	-4.17783
1855.721	9.99614	-2.94639	8.14278	-4.32364
1859.722	10.10492	-2.86051	8.13544	-4.46514
1863.736	10.26696	-2.60354	8.05212	-4.54145
1867.720	10.18666	-2.59085	7.96176	-4.59745
1871.728	10.20952	-2.45488	7.93126	-4.61395
1875.721	10.30836	-2.28615	7.93033	-4.55363
1879.721	10.30235	-2.58919	7.94185	-4.50951
1883.720	10.31732	-2.55596	7.85609	-4.51758
1887.720	10.38713	-2.34965	7.83371	-4.41139
1891.723	10.43997	-2.48177	7.83894	-4.30088
1895.726	10.35553	-2.41883	7.85421	-4.42681
1899.731	8.75662	-2.23565	7.47143	-4.07983
1903.722	7.60451	-2.27467	5.42997	-4.21672
1907.725	5.08222	-2.05300	3.93574	-4.10889
1911.735	4.25714	-2.26466	2.87084	-3.89520
1915.724	1.26624	-1.96836	1.26557	-3.79323
1919.720	0.55049	-2.43178	-0.60776	-3.66011
1923.719	-0.33861	-1.90239	-0.89694	-3.54568
1927.724	-0.91808	-1.55699	-2.33494	-3.17247
1931.722	-2.30286	-1.11429	-2.73937	-3.08284
1935.723	-2.23779	-1.03958	-2.97480	-2.64194
1939.735	-2.23558	-1.15507	-2.92544	-2.27609
1943.722	-1.80092	-1.26459	-3.02984	-2.61439
1947.716	-1.52486	-1.08443	-3.08760	-2.71104
1951.722	-1.70901	-0.90532	-3.13227	-2.57036
1955.718	-1.88261	-0.87226	-3.17299	-2.41150
1959.721	-1.81714	-0.80860	-3.25983	-2.14227
1963.717	-1.92590	-0.75939	-3.41822	-2.27062
1967.721	-1.93294	-0.87234	-3.42389	-2.37588
1971.718	-1.98693	-0.73870	-3.47149	-2.28979
1975.718	-1.96395	-0.85030	-3.65949	-2.23641
1979.716	-1.98303	-0.92810	-3.65529	-2.42868
1983.724	-1.95334	-1.03306	-3.52017	-2.46021
1987.741	-2.02368	-0.94342	-3.40507	-2.41057
1991.717	-2.05583	-0.91602	-3.70191	-2.55258
1995.726	-2.05298	-0.72042	-3.60378	-2.68947
1999.714	-1.97800	-0.56422	-3.53043	-2.68852
2003.718	-2.10000	-0.50861	-3.41936	-2.65104
2007.719	-2.09157	-0.68160	-3.56410	-2.62779
2011.730	-2.08265	-0.79077	-3.66078	-2.69123
2015.725	-2.04857	-0.86349	-3.69990	-2.66548
2019.716	-2.15113	-0.89943	-3.63928	-2.56776
2023.727	-2.14597	-0.65915	-3.59137	-2.51054
2027.720	-2.16362	-0.57272	-3.90392	-2.55280
2031.719	-2.04022	-0.49035	-3.88441	-2.45643
2035.718	-1.95978	-0.38424	-3.74071	-2.47884
2039.723	-2.15014	-0.53918	-3.86289	-2.58648
2043.717	-2.17618	-0.78988	-3.72548	-2.64576
2047.721	-2.14659	-0.75129	-3.61295	-2.55457
2051.722	-2.20493	-0.66126	-3.62645	-2.50035
2055.717	-2.24827	-0.56094	-3.90118	-2.66817
2059.719	-2.27374	-0.47632	-3.81170	-2.60002
2063.720	-2.16942	-0.37805	-3.69261	-2.42786
2067.731	-2.13960	-0.92483	-3.76376	-2.61392
2071.717	-2.05759	-0.92764	-4.14468	-2.51771
2075.722	-2.12446	-0.73673	-3.84767	-2.51147
2079.715	-1.87178	-0.65785	-3.80436	-2.49420
2083.721	-1.97292	-0.58096	-3.93683	-2.56606
2087.713	-1.93591	-0.69981	-3.67351	-2.70569
2091.723	-2.02673	-0.86742	-3.65074	-2.66520
2095.716	-1.88398	-0.72487	-3.46664	-2.55975
2099.720	-1.96707	-0.96597	-3.74231	-2.61673
2103.713	-1.90272	-1.04223	-3.72704	-2.63452
2107.727	-1.80211	-1.15170	-3.68137	-2.57920
2111.740	-1.73222	-0.94849	-3.62276	-2.53075
2115.725	-1.87319	-0.78156	-3.91687	-2.67344
2119.746	-1.78528	-0.65021	-4.24515	-2.58629
2123.715	-1.92840	-0.85672	-3.73030	-2.62228
2127.715	-1.90512	-0.72980	-3.69172	-2.60743
2131.714	-1.97989	-1.01013	-3.84219	-2.68483
2135.717	-1.96348	-0.86979	-3.58247	-2.72549
2139.717	-1.94523	-0.78352	-3.48731	-2.67073
2143.716	-1.87609	-0.55941	-3.65687	-2.64987
2147.718	-1.84604	-0.39914	-3.81461	-2.63373
2151.715	-1.90792	-0.57072	-3.83233	-2.68009
2155.714	-2.05980	-0.58135	-3.80577	-2.65321
2159.716	-1.98259	-0.59928	-3.62380	-2.61285
2163.714	-2.01744	-0.97183	-3.82556	-2.68464
2167.714	-1.98876	-0.71968	-3.94416	-2.64951
2171.719	-2.17403	-0.75232	-3.96960	-2.63612
2175.716	-2.13353	-0.63699	-3.93124	-2.54779
2179.720	-2.15658	-0.51462	-4.02112	-2.48760
2183.720	-2.14486	-0.49752	-4.09937	-2.52590
2187.714	-2.08106	-0.41795	-4.02900	-2.54650
2191.724	-2.20458	-0.48732	-3.66644	-2.67308
2195.710	-2.25853	-0.58338	-3.44043	-2.62727
2199.717	-2.10540	-0.60033	-3.60158	-2.59182
2203.716	-0.72360	-0.82986	-3.04959	-2.58981
2207.714	1.71737	-0.77378	-0.85662	-2.70012
2211.731	3.78121	-1.01567	2.32640	-2.98248
2215.714	5.06806	-1.44101	3.92650	-3.59834
2219.719	6.29521	-2.88705	5.69490	-4.68239
2223.714	8.86447	-4.33270	6.22069	-6.10361
2227.718	9.27948	-5.06151	8.92742	-7.05503
2231.714	11.15996	-5.79117	9.28105	-7.94686
2235.723	11.16024	-5.82374	10.34852	-8.11658
2239.727	12.81332	-5.55543	12.38997	-8.17530
2243.717	13.42357	-5.50159	12.57321	-8.21735
2247.718	13.25813	-5.55209	12.41563	-8.17284
2251.712	13.21002	-5.40031	12.00991	-8.25040
2255.718	13.01717	-5.48113	11.92797	-8.06879
2259.709	13.02716	-5.64569	11.93581	-8.11774
2263.593	13.10278	-5.68321	12.05606	-8.02338
2267.588	13.18609	-5.66522	12.40995	-7.93817
2271.592	13.40711	-5.67677	12.28735	-8.09426
2275.590	13.37185	-5.77386	12.43447	-8.03648
2279.597	13.27250	-6.12115	12.56311	-8.13417
2283.591	13.44559	-5.96926	12.23737	-8.08770
2287.589	13.24607	-5.91417	12.27166	-8.04846
2291.584	13.20917	-5.62925	12.50169	-8.17980
2295.587	13.24560	-5.56392	12.12395	-7.97513
2299.636	13.29843	-5.97180	12.17120	-7.98812
2303.590	13.51506	-5.94978	12.19247	-7.94487
2307.589	13.37009	-5.72247	12.38502	-7.94259
2311.604	13.38475	-5.85471	12.24033	-7.89483
2315.592	13.26112	-5.68542	12.30279	-7.96386
2319.598	13.12858	-6.10928	12.08781	-8.00095
2323.590	13.24125	-6.03375	12.09258	-7.97015
2327.589	13.22361	-5.70586	12.04085	-7.92935
2331.587	13.26359	-5.45071	12.11918	-7.80774
2335.587	13.42636	-5.16705	11.96520	-7.75108
2339.590	13.32592	-5.67474	12.01186	-7.83874
2343.589	13.42218	-5.83644	12.07040	-7.90787
2347.626	13.29288	-5.58354	11.98864	-7.82865
2351.588	13.09482	-5.52858	12.00341	-7.93197
2355.589	13.09791	-5.50973	11.99046	-7.84324
2359.582	13.32388	-5.51183	11.97823	-7.62819
2363.604	13.48620	-5.59101	11.98809	-7.75756
2367.593	13.36077	-5.62339	11.94465	-7.72662
2371.583	12.99189	-5.64961	11.97360	-7.79549
2375.590	13.23292	-5.75055	11.92282	-7.84306
2379.586	13.08858	-5.74002	11.95111	-7.82531
2383.589	13.16139	-5.84845	12.00531	-7.77914
2387.581	13.31004	-5.96004	11.97802	-7.60854
2391.591	13.07262	-5.97668	11.85300	-7.72492
2395.586	13.09230	-5.80227	11.87006	-7.69373
2399.589	13.29384	-5.82564	11.90455	-7.75226
2403.586	13.56716	-5.81679	11.91020	-7.77149
2407.595	13.46726	-5.75513	11.92054	-7.72371
2411.600	13.35905	-5.88842	11.86571	-7.69738
2415.590	13.22714	-5.79556	11.85533	-7.60563
2419.584	13.29264	-5.87059	11.78450	-7.61207
2423.586	13.35842	-5.91783	11.77132	-7.59147
2427.587	13.26516	-5.71567	11.77510	-7.63357
2431.585	13.50455	-5.77947	11.82247	-7.65449
2435.585	13.71411	-6.24231	12.22502	-8.34500
2439.588	13.67513	-7.16881	12.51544	-7.59115
2443.591	14.06240	-11.01880	11.52131	-8.58518
2447.583	13.97975	-13.42524	12.20985	-10.75594
2451.590	-19.99372	-12.20341	12.59169	-12.01626
2455.586	13.71587	-14.62500	11.60980	-10.35820
2459.599	-19.99372	-12.15526	11.55800	-10.80100
2463.587	-19.99372	-12.13252	12.03031	-10.75781
2467.585	-19.99372	-12.11978	13.26133	-10.65409
2471.587	16.23762	-14.17809	13.14967	-10.57853
2475.584	16.23908	-14.39124	14.44432	-10.75125
2479.588	14.75586	-13.75734	15.50421	-11.31251
2483.583	15.22643	-14.44251	15.90348	-10.25624
2487.590	15.18523	-14.32351	15.86202	-10.43904
2491.591	-19.99372	-12.13906	12.15452	-10.24367
2495.583	-19.99372	-12.13674	13.74540	-10.38751
2499.590	-19.99372	-12.12549	12.84395	-10.49449
2503.585	-19.99372	-12.12346	13.18941	-10.45119
2507.588	14.80101	-14.43801	13.27445	-10.49973
2511.601	-19.99372	-12.12962	13.35421	-10.66028
2515.588	-19.99372	-12.11560	13.49263	-9.73844
2519.584	15.30203	-14.33480	15.71276	-9.96740
2523.584	-19.99372	-12.08892	15.71542	-10.02105
2527.592	-19.99372	-12.08640	14.35330	-10.06605
2531.587	-19.99372	-12.08216	15.95204	-10.26369
2535.585	-19.99372	-12.08202	15.21860	-10.32615
2539.583	-19.99372	-12.08189	15.34444	-10.30003
2543.583	-19.99372	-12.08173	15.41716	-10.48398
2547.585	-19.99372	-12.08158	15.39501	-8.72159
2551.588	14.37387	-14.60812	13.16266	-8.17256
2555.583	-19.99372	-12.08086	13.07142	-8.15907
2559.609	-19.99372	-12.08073	12.78104	-8.12056
2563.583	-19.99372	-12.07807	12.79581	-8.05629
2567.583	-19.99372	-12.07807	12.94945	-7.99382
2571.585	-19.99372	-12.07805	15.23784	-7.99239
2575.582	-19.99372	-12.07805	15.24651	-8.05983
2579.584	-19.99372	-12.07803	15.26841	-8.13978
2583.582	-19.99372	-12.07800	15.23831	-8.06205
2587.582	-19.99372	-12.07798	15.35681	-8.10720
2591.582	-19.99372	-12.07796	15.56151	-8.13301
2595.584	NaN	NaN	14.88563	-10.59986
2599.587	NaN	NaN	14.90417	-10.68752
2603.581	NaN	NaN	14.90512	-10.45074
2607.586	NaN	NaN	14.94136	-10.49732
2611.606	NaN	NaN	14.83859	-10.51792
2615.588	NaN	NaN	14.82358	-10.51173
2619.587	NaN	NaN	14.76015	-10.44669
2623.581	NaN	NaN	14.76006	-10.46470
2627.582	NaN	NaN	14.67623	-10.48865
2631.585	NaN	NaN	15.31233	-8.44528
2635.583	NaN	NaN	15.58359	-8.36546
2639.582	NaN	NaN	15.55425	-8.48079
2643.582	NaN	NaN	15.87988	-8.85605
2647.584	NaN	NaN	15.86319	-8.77279
2651.586	NaN	NaN	15.82449	-9.04404
2655.585	NaN	NaN	14.61373	-8.73171
2659.581	NaN	NaN	14.50218	-8.68364
2663.584	NaN	NaN	14.34275	-8.63967
2667.582	NaN	NaN	14.15710	-8.74718
2671.579	NaN	NaN	13.87955	-8.74412
2675.595	NaN	NaN	16.55630	-8.79090
2679.588	NaN	NaN	16.54212	-8.90871
2683.587	NaN	NaN	16.57463	-8.98646
2687.584	NaN	NaN	16.73723	-8.98553
2691.581	NaN	NaN	16.66779	-9.00381
2695.585	NaN	NaN	16.56414	-8.96835
2699.585	NaN	NaN	16.29701	-9.02311
2703.581	NaN	NaN	16.42001	-9.07199
2707.578	NaN	NaN	16.47253	-9.14840
2711.592	NaN	NaN	16.23727	-9.17438
2715.587	NaN	NaN	15.96750	-9.20460
2719.577	NaN	NaN	15.96200	-9.21963
2723.582	NaN	NaN	16.12147	-9.18914
2727.584	NaN	NaN	16.07432	-9.19412
2731.577	NaN	NaN	15.81470	-9.17603
2735.584	NaN	NaN	15.84252	-9.19436
2739.596	NaN	NaN	15.79216	-9.22356
2743.584	NaN	NaN	15.86064	-9.25163
2747.585	NaN	NaN	15.85327	-9.27145
2751.582	NaN	NaN	15.73663	-9.27609
2755.582	NaN	NaN	16.65724	-9.30117
2759.582	NaN	NaN	17.08703	-9.38926
2763.584	NaN	NaN	17.20688	-9.50707
2767.582	NaN	NaN	17.26117	-9.66537
2771.629	NaN	NaN	17.35966	-9.68975
2775.587	NaN	NaN	17.39155	-9.78744
2779.587	NaN	NaN	17.45332	-10.00893
2783.611	14.91265	-14.37982	17.62988	-10.15514
2787.584	14.90039	-14.56286	17.58149	-10.21626
2791.581	-19.99372	-12.08053	17.75373	-10.27936
2795.578	-19.99372	-12.08048	17.69845	-10.37363
2799.577	-19.99372	-12.08044	17.76205	-10.47433
2803.579	14.75911	-14.62156	16.15234	-10.53030
2807.582	-19.99372	-12.08178	17.83113	-10.58687
2811.597	11.68077	-14.81941	-19.99372	-11.52484
2815.582	-19.99372	-12.08343	-19.99372	-11.74493
2819.587	-19.99372	-12.08321	9.25598	-10.95692
2823.578	-19.99372	-12.08296	9.52348	-10.88421
2827.579	-19.99372	-12.08046	4.27960	-10.75665
2831.581	-19.99372	-12.07925	3.25689	-10.71769
2835.579	-19.99372	-12.07919	-0.83116	-10.72980
2839.577	-19.99372	-12.07912	-19.99372	-11.93699
2843.578	-19.99372	-12.07903	-19.99372	-12.00300
2847.579	-19.99372	-12.07818	-19.99372	-12.02854
2851.589	-19.99372	-12.07814	-8.69389	-10.31317
2855.581	NaN	NaN	-11.23012	-12.50018
2859.583	NaN	NaN	-11.13033	-9.83149
2863.587	NaN	NaN	-10.31225	-12.41640
2867.578	NaN	NaN	-10.89504	-12.11787
2871.578	NaN	NaN	-10.71063	-11.64481
2875.580	NaN	NaN	-10.59088	-12.32961
2879.581	NaN	NaN	-9.43506	-12.16916
2883.578	NaN	NaN	-9.48355	-11.93189
2887.578	NaN	NaN	-9.69279	-11.73587
2891.581	NaN	NaN	-9.81166	-11.71166
2895.578	NaN	NaN	-9.84655	-11.68736
2899.584	NaN	NaN	-10.00170	-11.51727
2903.583	NaN	NaN	-9.83416	-11.50751
2907.584	NaN	NaN	-9.83619	-11.65994
2911.594	NaN	NaN	-9.76825	-11.63407
2915.581	NaN	NaN	-9.72942	-11.63179
2919.578	-10.82943	-14.90830	-9.76939	-11.55009
2923.576	-19.99372	-12.07814	-9.79093	-11.57942
2927.582	-10.48679	-14.92071	-9.82014	-11.63510
2931.583	-10.55680	-14.84272	-9.85450	-11.70723
2935.577	-10.62037	-14.52533	-9.91987	-11.70914
2939.582	-10.64458	-14.29843	-9.95574	-11.75866
2943.583	-10.70941	-14.45374	-9.94214	-11.80331
2947.579	-10.76099	-14.58637	-9.96494	-11.85172
2951.575	-19.99372	-12.16546	-9.98981	-11.85569
2956.045	-10.81245	-14.56174	-10.01267	-11.89343
2959.588	-19.99372	-12.19286	-10.06987	-11.90402
2963.584	-10.72560	-14.53028	-10.05717	-11.93958
2967.575	-10.69863	-14.42558	-10.04158	-11.93644
2971.581	-10.74245	-14.45522	-10.06325	-11.94295
2975.578	-10.71154	-14.41230	-10.06362	-11.94045
2979.580	-10.78551	-14.25000	-10.05308	-11.96380
2983.573	-10.82548	-14.34506	-10.04362	-11.99130
2987.587	-10.81401	-14.15126	-10.03599	-12.01869
2991.584	-10.73981	-14.31449	-10.02184	-12.01903
2995.583	-10.79557	-14.18943	-10.03024	-12.05480
2999.577	-10.76432	-14.13397	-10.00110	-12.06196
3003.573	-10.77553	-14.08279	-10.00666	-12.10058
3007.580	-10.71892	-13.81072	-10.03469	-12.11484
3011.578	-10.74822	-13.88626	-10.06263	-12.14787
3015.577	-10.78374	-14.26760	-10.03472	-12.15448
3019.575	-10.79856	-14.30482	-10.02406	-12.15012
3023.620	-10.74877	-14.13070	-9.95791	-12.17106
3027.592	-10.67373	-14.07999	-9.86960	-12.17123
3031.575	-10.64144	-14.07279	-9.83118	-12.14102
3035.574	-10.58541	-14.12462	-9.84484	-12.14081
3039.576	-10.51326	-14.16991	-9.79845	-12.12016
3043.574	-10.43860	-13.97317	-9.75529	-12.11173
3047.573	-10.40752	-13.62992	-9.74740	-12.06703
3051.586	-10.41025	-14.00366	-9.73981	-12.08455
3055.582	-10.54114	-14.17254	-9.70234	-12.05352
3059.572	-10.50539	-14.10576	-9.73159	-12.03540
3063.579	-10.52396	-13.97715	-9.77891	-12.03341
3067.581	-10.63221	-14.06660	-9.77990	-12.01536
3071.578	-10.54692	-13.91923	-9.77112	-11.99290
3075.572	-10.55709	-13.87304	-9.73735	-11.98386
3079.579	-10.57119	-13.80491	-9.68585	-11.93098
3083.575	-10.50489	-13.64415	-9.71493	-11.86351
3087.574	-10.50849	-13.51518	-9.70765	-11.79586
3091.615	-10.44437	-13.38476	-9.60900	-11.80713
3095.582	-10.39967	-13.69466	-9.69144	-11.75071
3099.576	-10.24531	-13.55186	-9.62770	-11.70432
3103.578	-10.33252	-13.80534	-9.63460	-11.74818
3107.570	-10.19014	-13.80732	-9.53784	-11.76506
3111.591	-10.22740	-13.44365	-9.52688	-11.73075
3115.458	-10.22176	-12.93990	-9.53342	-11.63387
3119.454	-9.97452	-12.52862	-9.57751	-11.54621
3123.450	-9.98056	-11.05633	-9.64642	-11.30370
3127.454	-9.87389	-10.17414	-9.70203	-10.48337
3131.452	-9.85895	-10.24365	-9.78963	-10.08786
3135.448	-9.89335	-10.41676	-9.78968	-10.24577
3139.451	-10.00564	-10.28166	-9.76772	-10.43023
3143.450	-9.93949	-10.34995	-9.64632	-10.71036
3147.447	-9.74362	-10.37396	-9.70408	-10.60592
3151.448	-9.59448	-10.37341	-9.70938	-10.69366
3155.455	-9.66265	-10.26061	-9.60384	-10.45123
3159.456	-9.73781	-10.28288	-9.60256	-10.42319
3163.452	-9.68341	-10.30541	-9.64531	-10.26158
3167.449	-9.65958	-10.25919	-9.71307	-10.28633
3171.448	-9.57273	-10.30238	-9.53337	-10.26632
3175.451	-9.49967	-10.31460	-9.47273	-10.23779
3179.450	-9.48024	-10.27818	-9.36493	-10.26703
3183.450	-9.41627	-10.18620	-9.37366	-10.29864
3187.452	-9.42156	-10.30709	-9.44921	-10.17024
3191.452	-9.37482	-10.27019	-9.35341	-10.17093
3195.447	-9.37566	-10.20960	-9.34739	-10.17564
3199.453	-9.41064	-10.20273	-9.39045	-10.12504
3203.486	-9.41784	-10.17286	-9.38566	-10.28573
3207.448	-9.31356	-10.18922	-9.33865	-10.18627
3211.464	-9.31823	-10.20913	-9.33874	-10.19795
3215.448	-9.36462	-10.17797	-9.44503	-10.23801
3219.451	-9.46285	-10.15676	-9.46068	-10.21008
3223.445	-9.40470	-10.14813	-9.46660	-10.22586
3227.474	-9.38291	-10.31026	-9.48572	-10.26072
3231.450	-9.48915	-10.23779	-9.56844	-10.21121
3235.447	-9.76700	-10.11170	-9.49567	-10.28648
3239.456	-9.39279	-10.12500	-9.53388	-10.34331
3243.448	-9.40489	-10.21020	-9.51920	-10.27390
3247.450	-9.45071	-10.14125	-9.47328	-10.26260
3251.441	-9.63433	-10.16804	-9.50013	-10.29525
3255.451	-9.39762	-10.06714	-9.42989	-10.25606
3259.446	-9.49091	-10.12655	-9.34570	-10.35877
3263.450	-9.60109	-10.17322	-9.40175	-10.25870
3267.441	-9.52541	-10.02815	-9.38919	-10.30329
3271.451	-9.32661	-10.02011	-9.28683	-10.34311
3275.446	-9.36728	-9.81694	-9.31528	-10.34366
3279.450	-9.25528	-10.03015	-9.25579	-10.35996
3283.446	-9.32192	-10.15454	-9.28876	-10.29112
3287.454	-9.48038	-9.99740	-9.31431	-10.29582
3291.446	-9.45583	-9.76372	-9.38482	-10.30125
3295.493	-9.47355	-9.87922	-9.39322	-10.25686
3299.457	-9.16746	-10.07279	-9.32840	-10.24684
3303.443	-8.99779	-10.03572	-9.37887	-10.22368
3307.455	-9.28499	-9.96753	-9.40863	-10.22733
3311.452	-9.36411	-9.98809	-9.49038	-10.23120
3315.448	-9.45124	-9.97759	-9.60142	-10.20848
3319.446	-9.43296	-9.97328	-9.49477	-10.25739
3323.450	-9.40407	-10.05415	-9.51652	-10.23585
3327.445	-9.49960	-10.06213	-9.48625	-10.25375
3331.447	-9.07332	-10.08581	-9.51266	-10.24540
3335.445	-8.95944	-10.18152	-9.39429	-10.29403
3339.443	-8.79489	-10.24206	-9.39441	-10.34307
3343.450	-8.84821	-10.24051	-9.42400	-10.35585
3347.446	-8.97046	-10.26319	-9.42252	-10.31717
3351.449	-8.97225	-10.26040	-9.44547	-10.31757
3355.442	-8.86955	-10.26176	-9.46611	-10.28533
3359.449	-9.06743	-10.28033	-9.44955	-10.27858
3363.453	-9.13376	-10.22068	-9.52664	-10.20116
3367.453	-9.28490	-10.22949	-9.57425	-10.16890
3371.447	-9.50609	-10.18160	-9.47379	-10.16454
3375.444	-9.14927	-10.18527	-9.50083	-10.16625
3379.445	-8.81089	-10.25256	-9.63836	-10.18363
3383.447	-8.93232	-10.20607	-9.52780	-10.17748
3387.444	-9.11578	-10.04508	-9.51841	-10.14031
3391.443	-9.26087	-10.17723	-9.50868	-10.12287
3395.448	-9.19660	-10.03264	-9.46594	-10.12765
3399.446	-9.30358	-10.04696	-9.36667	-10.17977
3403.445	-8.13548	-10.20695	-8.06806	-10.08995
3407.448	-4.82826	-10.03627	-5.41258	-10.04141
3411.459	-2.21826	-9.86500	-3.18148	-9.93277
3415.451	-1.01189	-8.74565	-2.11901	-9.67344
3419.442	0.61608	-9.00623	-0.09145	-9.62076
3423.483	1.86256	-9.39096	1.50909	-9.72996
3427.448	3.72071	-9.57039	3.14988	-9.91814
3431.471	5.53178	-9.64801	4.95433	-9.62412
3435.460	6.08463	-8.95880	5.71903	-9.74054
3439.445	6.26777	-7.85831	6.59848	-9.67500
3443.443	7.28200	-7.70536	7.15586	-9.51628
3447.448	7.79875	-8.20093	6.52507	-9.54800
3451.446	6.83621	-8.00238	6.75289	-9.47929
3455.445	6.27309	-8.60929	6.87589	-9.55897
3459.447	6.83073	-8.44815	6.83389	-9.47624
3463.438	7.34248	-8.87534	6.88025	-9.38184
3467.448	7.47534	-8.94841	6.98930	-9.45439
3471.445	7.49227	-8.62111	7.20507	-9.35802
3475.446	7.61451	-8.41341	7.03795	-9.43000
3479.441	7.71935	-8.30833	7.03685	-9.35908
3483.442	7.68018	-8.23140	7.03609	-9.29183
3487.456	7.51452	-8.40470	6.99221	-9.29433
3491.450	7.58537	-8.38731	6.98040	-9.30633
3495.453	7.47156	-8.41977	6.93775	-9.31220
3499.442	7.37531	-8.34667	6.96035	-9.27936
3503.446	7.17805	-8.32231	6.88908	-9.22320
3507.440	7.04655	-8.25705	6.87545	-9.21291
3511.450	7.47070	-8.27314	6.81957	-9.16718
3515.449	7.54847	-8.24437	6.75639	-9.16069
3519.439	7.41516	-8.26068	6.75901	-9.15821
3523.447	7.51232	-8.36151	6.76317	-9.11900
3527.444	7.48183	-8.44587	6.76408	-9.07130
3531.448	7.53886	-8.46471	6.76031	-9.01599
3535.437	7.54510	-8.50720	6.78360	-8.97047
3539.447	7.46087	-8.64937	6.78899	-8.91820
3543.442	7.55525	-8.85951	6.77604	-8.91728
3547.444	7.50966	-8.95094	6.85224	-9.01232
3551.438	7.62180	-8.74073	6.89654	-9.11414
3555.444	7.67382	-8.73369	7.02641	-9.20870
3559.441	7.71101	-8.77253	7.16070	-9.26900
3563.440	7.72449	-8.75008	7.20685	-9.30942
3567.439	7.80828	-8.70774	7.28188	-9.41000
3571.446	7.79127	-8.75862	7.29318	-9.41059
3575.446	7.77897	-8.66475	7.26701	-9.42873
3579.449	7.80021	-8.58762	7.41531	-9.35705
3583.441	7.78209	-8.52628	7.37536	-9.40972
3587.456	7.88492	-8.39267	7.42885	-9.41371
3591.444	7.90691	-8.40536	7.46919	-9.21640
3595.446	7.79885	-8.47200	7.45662	-9.11936
3599.441	7.80691	-8.40140	7.37331	-9.09850
3603.445	7.62813	-8.39656	7.22363	-9.01009
3607.437	7.49266	-8.38489	7.04315	-8.97737
3611.450	7.53342	-8.46651	7.23140	-8.95558
3615.453	7.77222	-8.48965	7.13126	-8.92956
3619.455	7.71284	-8.64522	7.20148	-8.84432
3623.443	7.63069	-8.70831	7.06879	-8.84643
3627.442	7.59851	-8.59658	7.04328	-8.74987
3631.441	7.55337	-8.69584	6.85038	-8.69797
3635.472	7.38053	-8.73152	6.93477	-8.81316
3639.446	7.62216	-8.85729	6.88216	-8.92188
3643.441	7.64215	-8.78798	6.83061	-8.92220
3647.440	7.72273	-8.81031	6.86420	-8.88313
3651.438	7.76888	-8.80328	6.95262	-8.82228
3655.443	7.71754	-8.78385	7.01942	-8.76978
3659.439	7.69980	-8.65725	6.96105	-8.73987
3663.443	7.81378	-8.57121	6.86303	-8.64484
3667.435	7.81824	-8.53646	6.87748	-8.59519
3671.444	7.79176	-8.52799	6.95836	-8.76975
3675.441	7.80762	-8.55210	6.92356	-8.85133
3679.441	7.85762	-8.38589	6.93286	-8.77796
3683.444	7.83383	-8.40275	6.87477	-8.75644
3687.440	7.83975	-8.59286	6.98585	-8.85468
3691.439	7.82041	-8.52623	7.11743	-8.67754
3695.434	7.59985	-8.41109	6.91263	-8.66936
3699.442	7.26991	-8.12500	6.63823	-8.65748
3703.440	6.06603	-6.78810	3.77557	-8.08015
3707.441	5.23994	-5.79574	4.51181	-6.73309
3711.438	5.87317	-4.38296	4.28481	-4.21765
3715.445	6.02963	-2.08549	4.22046	-3.94819
3719.439	5.71409	-1.31629	4.37206	-3.34708
3723.440	5.92530	0.07037	4.22330	-1.35748
3727.440	6.47884	1.10745	4.54190	-0.82574
3731.444	6.94778	3.15673	4.36582	0.61601
3735.438	6.68714	2.18703	4.28318	1.49888
3739.460	6.31909	3.22701	4.18099	1.25310
3743.441	5.90823	4.24687	3.73608	1.71123
3747.440	5.72360	4.33761	2.70069	2.27338
3751.439	5.75706	4.67329	3.26050	2.62080
3755.433	5.69789	4.72726	3.20199	2.29299
3759.443	5.81530	4.54091	3.54739	2.41129
3763.439	5.97975	4.53331	3.81785	2.49768
3767.440	6.06546	4.53117	3.85721	2.51892
3771.440	6.09744	4.57191	3.79759	2.59085
3775.440	5.86091	4.64581	3.92260	2.97904
3779.442	5.54046	4.75870	3.82378	3.14635
3783.443	5.83007	4.65407	3.59550	3.28642
3787.435	5.90669	4.67099	3.59394	3.11539
3791.438	5.98263	4.70222	3.62066	3.07462
3795.439	5.97533	4.69013	3.68268	2.74095
3799.434	6.05898	4.70175	3.79749	2.79484
3803.451	5.90458	4.74059	3.80475	2.81168
3807.444	5.83586	4.73658	3.74575	2.90651
3811.443	5.71072	4.78040	3.69192	2.89075
3815.442	5.81810	4.76865	3.65361	2.97668
3819.438	6.00310	4.81967	3.59688	2.80076
3823.443	5.97715	4.83661	3.58255	3.05017
3827.441	5.94548	4.91565	3.54811	3.08631
3831.440	5.83493	4.86252	3.56146	2.98222
3835.438	5.79131	4.89546	3.56586	3.21397
3839.440	5.94342	4.93797	3.61453	3.32928
3843.440	5.94980	4.93836	3.62516	3.27180
3847.433	5.99470	4.95037	3.69459	3.41086
3851.443	6.04696	4.98114	3.69093	3.40961
3855.437	6.05327	5.01939	3.74869	3.41067
3859.441	6.09363	4.98282	3.71238	3.47928
3863.468	6.08129	4.88193	3.68332	3.52967
3867.454	6.00069	4.89517	3.67064	3.52927
3871.443	6.00381	4.84227	3.73673	3.57411
3875.431	6.06198	4.87965	3.73626	3.60072
3879.440	6.00518	4.86174	3.79287	3.54397
3883.434	5.87258	4.71631	3.84881	3.48572
3887.440	5.86136	4.82493	3.90163	3.35213
3891.431	5.83073	4.79915	3.85392	2.94764
3895.440	5.75153	4.76402	3.88468	2.54299
3899.434	5.79339	4.68746	3.79714	2.69156
3903.435	5.85340	4.67854	3.78879	3.03275
3907.439	5.96701	4.73080	3.80349	2.71813
3911.449	6.12411	4.75795	3.89320	2.79079
3915.443	5.98709	4.76774	3.93537	3.08985
3919.432	5.97511	4.73085	4.05927	2.99711
3923.439	5.91015	4.77343	4.18628	2.85040
3927.436	5.96343	4.80915	4.20081	2.86600
3931.435	5.96031	4.76193	4.03500	2.87275
3935.437	6.10421	4.64962	3.91736	3.28523
3939.434	6.20398	4.71295	3.86983	3.30724
3943.439	6.20614	4.64734	3.93799	3.16732
3947.434	6.13267	4.55983	3.90261	3.15001
3951.444	6.19012	4.60347	4.01635	3.17330
3955.435	6.22490	4.65978	3.94288	3.14464
3959.439	6.17462	4.59398	3.84337	3.20488
3963.429	6.11488	4.73256	3.92823	3.21746
3967.314	6.15826	4.89278	3.85760	3.27071
3971.311	6.08909	5.01297	3.87754	3.24088
3975.470	6.16945	4.88800	3.84046	3.51643
3979.315	6.10384	4.78887	3.85246	3.41150
3983.304	5.99573	4.71288	3.83851	3.26799
3987.329	5.96328	4.72450	3.84154	3.30463
3991.315	6.08124	4.74569	3.97336	3.40197
3995.315	6.28736	4.78464	3.80468	3.44242
3999.312	6.10612	4.64047	3.84485	3.55218
4003.307	5.97084	4.55925	3.80246	3.46355
4007.321	6.08821	4.42664	3.80666	3.28835
4011.310	6.14342	4.37247	3.89844	3.09473
4015.315	5.81977	4.39652	4.00428	3.05466
4019.310	5.93335	4.41890	3.82432	2.95508
4023.309	6.26223	4.43852	3.53718	3.06488
4027.308	6.05096	4.33961	3.61112	3.06286
4031.312	6.11267	4.25865	3.65616	3.02331
4035.314	6.18772	4.24574	3.78857	3.11206
4039.310	6.13218	4.33065	3.77310	3.32219
4043.307	5.82039	4.64890	3.75899	3.90033
4047.310	4.27062	6.13660	2.60121	4.18047
4051.336	3.52395	6.77114	1.00670	5.18358
4055.307	3.25622	6.73145	0.33975	6.75560
4059.309	3.43573	6.95529	0.33213	7.21093
4063.307	3.48209	6.99313	0.37903	7.02801
4067.306	3.61658	6.99114	0.70695	6.87716
4071.307	3.66446	6.86367	1.30948	6.80737
4075.311	3.69605	6.82339	1.76802	6.66054
4079.316	3.78669	6.84230	1.83712	6.43219
4083.307	3.82185	6.89266	1.63489	6.49892
4087.307	3.80559	6.89723	1.66601	6.59773
4091.309	3.89157	6.93307	1.73517	6.71600
4095.306	3.88759	6.96813	1.51100	6.56697
4099.306	3.75687	6.98089	1.72064	6.57149
4103.306	3.69130	6.97774	1.48277	6.29029
4107.310	3.53980	6.95470	1.55209	6.23356
4111.332	3.37764	7.02907	1.64432	6.16577
4115.311	3.35822	7.05091	1.62056	6.21448
4119.318	3.05583	7.12147	1.60566	6.26602
4123.308	2.86504	7.14690	1.56761	6.28175
4127.307	2.93329	7.16843	1.56486	6.32666
4131.305	2.86809	7.24733	1.47508	6.50323
4135.306	2.88319	7.31861	1.42303	6.27300
4139.309	2.86762	7.37815	1.36727	6.15919
4143.307	2.85980	7.46444	1.38736	6.23132
4147.309	2.86395	7.54755	1.36519	6.24962
4151.312	2.85269	7.45429	1.42962	6.31998
4155.308	2.77760	7.51576	1.44902	6.34827
4159.311	2.72669	7.51574	1.50929	6.38684
4163.311	2.77473	7.43238	1.56749	6.41002
4167.306	2.87391	7.43497	1.63995	6.46999
4171.309	3.11836	7.47236	1.55839	6.42362
4175.308	3.31318	7.45610	1.56923	6.30535
4179.315	3.39920	7.42731	1.60062	6.23030
4183.305	3.65772	7.31485	1.58812	6.29163
4187.312	3.05709	7.28578	1.57575	6.41554
4191.305	2.89824	7.19487	1.57305	6.68322
4195.310	3.09176	7.16452	1.52905	7.18193
4199.305	3.22000	7.10284	1.41211	6.73318
4203.318	3.42248	7.06415	1.42293	6.81158
4207.307	3.36651	7.08681	1.33341	6.48785
4211.325	3.21574	7.09288	1.30774	6.54893
4215.308	3.26965	7.12158	1.27738	6.55006
4219.306	3.35439	7.06801	1.28209	6.65710
4223.306	3.40645	7.05574	1.30203	6.84893
4227.306	3.03576	7.10862	1.29365	6.82174
4231.305	3.12410	7.13934	1.28710	6.89109
4235.310	3.20140	7.21801	1.21819	6.51997
4239.318	3.25382	7.21686	1.20643	6.47936
4243.318	3.01989	7.26381	1.23372	6.50191
4247.315	2.92339	7.33571	1.23067	6.54942
4251.310	2.84222	7.47851	1.27063	6.58396
4255.302	2.98099	7.55629	1.30251	6.73578
4259.312	2.91181	7.55763	1.36573	6.87848
4263.307	2.98767	7.45745	1.33644	7.01097
4267.310	3.08627	7.32232	1.28993	6.89179
4271.304	3.12900	7.29059	1.29735	6.82800
4275.337	3.33733	7.31903	1.35951	6.93263
4279.303	3.67877	7.36151	1.52121	6.77371
4283.308	3.59023	7.40376	1.58120	6.89951
4287.304	3.60400	7.42970	1.69763	6.88727
4291.307	3.73161	7.50807	1.72852	6.72205
4295.305	3.83564	7.39315	1.65756	6.55464
4299.303	3.78687	7.42350	1.72138	6.43257
4303.310	3.88952	7.43113	1.74338	6.61946
4307.304	3.87991	7.46834	1.85403	6.61759
4311.302	3.80426	7.41290	1.81010	6.71189
4315.305	3.78543	7.45206	1.63655	6.39215
4319.306	3.27462	7.50128	1.57686	6.52416
4323.299	3.04576	7.53965	1.43711	6.86118
4327.313	3.37739	7.56200	1.50358	6.50979
4331.304	2.08518	7.55997	0.92607	7.05035
4335.307	1.06666	7.62909	-0.39670	7.58657
4339.298	0.66297	7.97318	-1.05091	7.67042
4343.307	1.02873	8.15591	-0.65002	7.84453
4347.303	1.52526	8.24710	0.38425	7.41350
4351.307	1.73745	8.23639	0.83471	7.42071
4355.299	2.28383	7.74312	0.44276	6.62129
4359.308	2.48180	7.85097	0.41559	7.17635
4363.326	2.56401	8.03109	0.50580	7.63984
4367.310	2.34941	8.08401	0.40539	7.84381
4371.314	1.90460	8.24439	0.37266	7.70690
4375.302	1.91417	8.17294	0.06678	7.46353
4379.307	2.09207	8.18669	0.11416	7.52629
4383.305	1.99030	8.20335	0.24646	7.64422
4387.305	2.05395	8.00530	0.19298	7.64661
4391.302	1.79252	7.98106	-0.01042	7.67699
4395.306	1.63849	7.94800	-0.12535	7.62887
4399.299	1.51705	7.98147	-0.19531	7.65352
4403.307	1.57907	8.05543	-0.25167	7.83362
4407.301	1.77219	8.11950	-0.15938	7.94513
4411.308	1.70241	8.22705	-0.14905	8.16319
4415.308	1.89649	8.26469	-0.11860	8.05310
4419.306	1.75582	8.36464	-0.08349	7.87736
4423.302	1.71922	8.44370	-0.05601	7.53666
4427.301	1.67920	8.28935	0.00829	7.32064
4431.319	1.71503	8.33559	0.10029	7.50217
4435.308	1.68245	8.32759	0.13550	7.51681
4439.302	1.68213	8.34281	0.28622	7.57283
4443.302	1.71035	8.37872	0.34682	7.55721
4447.305	1.71189	8.30706	0.45051	7.50222
4451.309	1.67861	8.18181	0.52431	7.43987
4455.306	1.65785	8.17392	0.58888	7.48044
4459.300	1.62857	8.15634	0.54215	7.40127
4463.303	1.58964	8.15321	0.60317	7.37722
4467.300	1.50914	8.11094	0.54471	7.39139
4471.301	1.45296	8.14678	0.53915	7.42800
4475.304	1.32200	8.15446	0.47974	7.43445
4479.303	1.27832	8.17183	0.47118	7.43340
4483.301	1.21621	8.20928	0.43577	7.46383
4487.305	1.14747	8.24054	0.36233	7.50337
4491.336	1.20755	8.27829	0.19102	7.50614
4495.301	1.12675	8.33861	0.18449	7.52522
4499.305	1.14690	8.33495	0.09756	7.58810
4503.300	1.07324	8.37385	0.06909	7.59380
4507.304	1.05758	8.40341	0.01899	7.59661
4511.316	1.08659	8.43032	-0.00983	7.62998
4515.303	1.08046	8.42499	-0.04117	7.62859
4519.305	1.09745	8.42560	-0.06445	7.60793
4523.301	1.10321	8.43242	-0.10612	7.57487
4527.298	1.11435	8.43358	-0.12687	7.53164
4531.300	1.14208	8.39606	-0.14181	7.55303
4535.305	1.12658	8.37585	-0.11746	7.50756
4539.299	1.12042	8.36327	-0.08709	7.45571
4543.299	1.05027	8.35867	-0.05254	7.40719
4547.301	0.97596	8.34674	-0.01827	7.40533
4551.316	1.01772	8.30845	-0.00457	7.42251
4555.300	0.97608	8.29513	0.03204	7.37784
4559.304	0.97636	8.28800	0.05961	7.40694
4563.299	0.95825	8.29407	0.08473	7.47657
4567.303	0.96676	8.29318	0.12205	7.48477
4571.299	1.03158	8.29725	0.17340	7.58112
4575.308	1.02392	8.33998	0.19387	7.58128
4579.306	1.07289	8.38319	0.23041	7.51946
4583.303	1.17857	8.42245	0.24594	7.51728
4587.300	1.24024	8.46730	0.24177	7.51823
4591.298	1.31823	8.47915	0.20862	7.50782
4595.300	1.36481	8.54907	0.20740	7.40580
4599.301	1.52330	8.55380	0.19799	7.42963
4603.299	1.58971	8.58023	0.23172	7.41602
4607.297	1.65220	8.58611	0.25870	7.31204
4611.313	1.71290	8.60149	0.29587	7.30835
4615.302	1.76247	8.60712	0.28461	7.31767
4619.323	1.87217	8.57173	0.32677	7.28474
4623.301	2.04840	8.47129	0.32593	7.49837
4627.299	2.31242	8.34172	0.33226	7.45762
4631.299	1.87743	8.37055	0.36767	7.62351
4635.299	2.11410	8.25721	0.47128	7.56479
4639.301	2.63329	8.17804	0.59009	7.41921
4643.299	2.39792	8.14666	0.95996	7.34766
4647.298	2.56052	8.04739	1.02732	7.24607
4651.298	2.59569	8.01147	1.13199	7.21233
4655.300	2.59225	7.95335	1.28958	7.21169
4659.307	2.62115	7.92225	1.31994	7.14939
4663.295	2.21499	7.96600	1.28470	7.28111
4667.298	1.62897	8.02331	1.39326	7.23210
4671.301	1.54331	8.06715	1.26907	7.16360
4675.298	1.58031	8.05145	1.34018	7.33320
4679.317	1.64796	8.07201	1.33334	7.24240
4683.304	1.60474	8.08302	1.23320	7.22881
4687.297	1.53917	8.11691	1.15213	7.27758
4691.298	1.53012	8.12790	1.02382	7.34860
4695.297	1.46373	8.15193	0.99616	7.30254
4699.300	1.41549	8.14947	0.73546	7.38288
4703.304	1.38049	8.16619	0.68662	7.40708
4707.300	1.39599	8.12169	0.70109	7.40413
4711.299	1.41204	8.10802	0.57583	7.42869
4715.336	1.42000	8.10451	0.46758	7.45332
4719.293	1.42561	8.08297	0.56575	7.38733
4723.298	1.41340	8.07532	0.51026	7.36022
4727.302	1.44483	8.08300	0.60429	7.36243
4731.296	1.45534	8.09217	0.62345	7.34913
4735.300	1.48057	8.08260	0.66012	7.36949
4739.298	1.51392	8.08696	0.89277	7.33988
4743.305	1.58478	8.10987	0.89274	7.27102
4747.295	1.58721	8.12050	0.90726	7.22018
4751.295	1.61783	8.12798	1.01387	7.16645
4755.296	1.65508	8.12182	0.95584	7.07978
4759.298	1.67330	8.11400	1.02327	6.95283
4763.296	1.66457	8.11820	1.05937	6.92947
4767.295	1.66993	8.10313	1.07398	6.75741
4771.295	1.64617	8.09860	1.08800	6.68649
4775.298	1.62391	8.09175	1.09604	6.58562
4779.295	1.76713	8.06752	1.10090	6.54341
4783.302	1.90279	8.04946	1.04880	6.46323
4787.307	1.99481	8.02095	1.01494	6.39673
4791.298	2.37510	7.95218	1.01221	6.32677
4795.298	2.76676	7.86016	0.99908	6.35893
4799.294	2.03680	7.85286	0.94070	6.46540
4803.310	0.86890	7.77137	-0.23361	6.57423
4807.303	-1.00568	7.73572	-1.71020	6.38259
4811.302	-3.19756	7.68541	-3.21013	6.26506
4815.299	-3.38817	7.56625	-4.98637	6.22986
4819.294	-3.49817	7.45863	-4.74777	6.70652
4823.176	-3.31902	7.51978	-4.43396	6.51414
4827.170	-2.83251	7.44146	-3.86267	6.67221
4831.175	-2.42252	7.37286	-2.99559	6.72822
4835.170	-2.44782	7.33729	-3.15805	6.81565
4839.174	-2.84427	7.32415	-3.32345	6.91218
4843.172	-2.96161	7.29293	-3.53189	6.96546
4847.173	-2.98002	7.26720	-3.66231	6.85071
4851.171	-3.16921	7.25762	-3.81486	6.88570
4855.176	-3.12032	7.24550	-3.84112	6.90145
4859.171	-3.00586	7.27733	-3.82292	6.93304
4863.168	-2.65768	7.31664	-3.78425	6.90048
4867.175	-2.75190	7.30536	-3.73737	6.90043
4871.169	-2.77505	7.33667	-3.75299	6.84806
4875.178	-2.85155	7.37879	-3.77654	6.86579
4879.165	-2.91619	7.41308	-3.82230	6.87247
4883.175	-2.87977	7.44038	-3.86753	6.79998
4887.170	-2.83586	7.47414	-3.86363	6.81047
4891.174	-2.80449	7.52755	-3.83873	6.82084
4895.167	-2.75180	7.56281	-3.79969	6.81790
4899.170	-2.75527	7.59125	-3.80871	6.86243
4903.172	-2.76128	7.64337	-3.80841	6.90181
4907.167	-2.80436	7.68363	-3.83747	6.89999
4911.184	-2.82831	7.73902	-3.88265	6.95967
4915.179	-2.83422	7.76196	-3.87707	6.93390
4919.169	-2.83700	7.77590	-3.86840	6.91882
4923.172	-2.82204	7.79737	-3.86220	6.92231
4927.201	-2.84180	7.81673	-3.85160	6.90708
4931.209	-2.85064	7.83752	-3.85459	6.86011
4935.179	-2.84205	7.83015	-3.91259	6.77290
4939.169	-2.83051	7.81846	-3.94436	6.75918
4943.172	-2.78171	7.83481	-3.94372	6.71283
4947.165	-2.76817	7.81711	-3.93107	6.66568
4951.172	-2.74390	7.79169	-3.93075	6.65504
4955.173	-2.71748	7.76450	-3.91919	6.62353
4959.172	-2.71827	7.75638	-3.92564	6.59408
4963.167	-2.70879	7.75315	-4.00662	6.62793
4967.171	-2.71993	7.76818	-4.03152	6.60266
4971.168	-2.71961	7.76007	-4.10631	6.67069
4975.170	-2.68683	7.74490	-4.16285	6.72686
4979.165	-2.67328	7.75244	-4.16658	6.78703
4983.171	-2.66097	7.77457	-4.18677	6.83822
4987.168	-2.67105	7.78414	-4.24176	6.88684
4999.142	-2.64663	7.78697	-4.22560	6.90014
5002.982	-2.62856	7.79836	-4.22278	6.92188
5005.783	-2.59703	7.82209	-4.25257	7.00554
5008.440	-2.62484	7.84507	-4.26492	7.00223
5011.175	-2.56243	7.83275	-4.19193	7.00354
5015.172	-2.47031	7.84412	-4.18124	7.01967
5019.170	-2.40174	7.85289	-4.11885	7.03697
5023.170	-2.30405	7.88864	-4.03542	7.02663
5027.166	-2.31443	7.89492	-4.01789	7.04524
5031.171	-2.41016	7.83487	-3.94085	7.06486
5035.167	-2.36401	7.78743	-3.88673	6.86594
5039.172	-2.38422	7.81535	-3.84263	5.55067
5043.167	-2.37771	7.82698	-3.81642	5.32950
5047.171	-2.40469	7.82866	-3.79238	5.07991
5051.167	-2.53298	7.82662	-3.77379	5.21657
5055.166	-2.67197	7.86211	-3.77580	5.20992
5059.170	-2.73006	7.90249	-3.77441	6.07013
5063.167	-2.80880	7.92929	-3.78551	5.69092
5067.166	-2.82120	7.93824	-3.79836	5.91708
5071.167	-2.88673	7.94018	-3.79606	5.79495
5075.163	-2.94020	8.03640	-3.83855	5.93831
5079.167	-2.91693	8.05021	-3.90350	6.03377
5083.173	-2.92337	8.09955	-3.94517	6.09845
5087.166	-2.97262	8.13748	-3.96348	6.14432
5091.166	-2.95624	8.15900	-4.16855	6.32009
5095.167	-2.92584	8.19000	-4.21898	6.32372
5099.168	-2.90072	8.21845	-4.32313	6.34688
5103.166	-2.87064	8.22304	-4.32669	6.41679
5107.165	-2.84143	8.22274	-4.39501	6.52910
5111.165	-2.81932	8.20551	-4.37453	6.55308
5115.169	-2.80414	8.22353	-4.38815	6.53738
5119.172	-2.74680	8.18019	-4.35124	6.56991
5123.172	-2.72627	8.17865	-4.32032	6.58247
5127.171	-2.68118	8.11629	-4.29567	6.56268
5131.168	-2.58157	8.07934	-4.28713	6.55837
5135.201	-2.54606	8.04308	-4.28419	6.51159
5139.164	-2.50568	8.02546	-4.21698	6.48362
5143.168	-2.39995	7.98806	-4.19778	6.51006
5147.162	-2.36430	7.96250	-4.12310	6.48006
5151.168	-2.35206	7.95399	-4.10604	6.47748
5155.166	-2.32986	7.95872	-4.08824	6.45753
5159.167	-2.29394	7.93213	-4.07029	6.45919
5163.168	-2.30343	7.93992	-4.07256	6.47359
5167.171	-2.31416	7.95296	-4.07992	6.48332
5171.166	-2.26742	7.97341	-4.10992	6.52198
5175.168	-2.37451	7.98367	-4.12345	6.49655
5179.168	-2.42659	8.00334	-4.11777	6.52319
5183.166	-2.44970	7.95102	-3.81115	6.30893
5187.166	-1.31788	7.76032	-1.77749	5.92516
5191.163	2.01479	6.04663	-0.95177	5.93630
5195.163	1.42322	5.53312	-0.16099	4.41393
5199.166	1.52516	4.96288	0.03435	3.94507
5203.163	1.91945	4.86201	0.07793	3.71950
5207.170	1.70834	4.86881	0.09577	3.81513
5211.161	1.59264	5.63222	0.04517	4.01394
5215.180	1.45663	5.24055	-0.04532	4.39093
5219.167	1.53647	5.44332	-0.12488	4.54963
5223.168	1.47734	5.47923	-0.12456	4.26511
5227.163	1.71382	5.14186	-0.10131	4.40920
5231.165	1.90054	5.17341	-0.09870	4.37091
5235.163	1.83013	5.11175	-0.03063	4.30001
5239.169	1.90294	5.01593	-0.06371	4.37380
5243.165	1.92808	4.93871	-0.12190	4.39729
5247.166	1.89759	4.95073	-0.19013	4.48242
5251.163	1.86895	4.87911	-0.23865	4.51221
5255.163	1.88152	4.90408	-0.32536	4.51764
5259.166	1.97488	4.78607	-0.43065	4.49029
5263.163	2.00130	4.72089	-0.41566	4.40126
5267.162	1.90696	4.72658	-0.50520	4.40051
5271.178	1.88497	4.77293	-0.56560	4.30249
5275.164	2.04049	4.75212	-0.68335	4.28083
5279.172	1.99580	4.82428	-0.72528	4.25153
5283.158	2.07626	4.92017	-0.83081	4.19701
5287.168	2.00666	5.06887	-0.89828	4.10272
5291.167	1.86144	5.16113	-0.94604	4.07987
5295.167	1.89786	5.15166	-0.79848	4.05543
5299.164	1.86925	5.25675	-0.07061	3.97937
5303.167	1.88834	5.36257	0.07731	3.93572
5307.163	1.79906	5.43898	0.30267	3.91927
5311.163	1.82971	5.47792	0.10796	3.86411
5315.175	1.82361	5.52576	0.39752	3.82778
5319.170	1.78491	5.45625	0.24123	3.83966
5323.161	1.73343	5.45955	0.30530	3.81221
5327.168	1.75843	5.44582	0.31203	3.86035
5331.167	1.72718	5.43857	0.28853	3.89721
5335.163	1.83546	5.29928	0.31657	3.92169
5339.162	1.88901	5.27041	0.31729	3.99293
5343.161	1.97661	5.19404	0.25488	4.11206
5347.166	1.97039	5.14346	0.15953	4.13927
5351.167	1.98849	5.06474	0.05398	4.18561
5355.158	1.97233	5.06555	-0.10994	4.29219
5359.199	1.93755	5.03192	-0.19827	4.31678
5363.174	1.93601	5.02737	-0.29342	4.38598
5367.163	1.86176	5.03347	-0.41827	4.42675
5371.169	1.92713	5.07101	-0.39534	4.30504
5375.166	1.85207	5.08591	-0.32615	3.98989
5379.160	1.76033	5.13422	-0.21075	3.73613
5383.160	1.68446	5.26644	-0.23510	3.57739
5387.162	1.54430	5.34937	-0.21725	3.69520
5391.159	1.56357	5.38303	-0.29764	3.61257
5395.164	1.56880	5.48538	-0.28088	3.63525
5399.156	1.69344	5.48071	-0.24093	3.67654
5403.165	1.54130	5.52968	-0.24592	3.72054
5407.159	1.68533	5.58485	-0.19055	3.63300
5411.166	1.68630	5.62876	-0.06621	3.60683
5415.166	2.08830	5.68739	-0.05187	3.67457
5419.159	2.05405	5.71412	-0.04333	3.74912
5423.160	2.07410	5.74168	-0.04738	3.95456
5427.159	1.94952	5.78332	0.01658	4.10302
5431.163	2.07950	5.84077	-0.04204	4.16524
5435.161	2.03169	5.88532	0.01879	4.18521
5439.160	2.06538	5.93483	0.00392	4.22241
5443.164	1.97597	5.97240	0.08515	4.05632
5447.156	1.99030	6.01246	0.07021	4.04462
5451.164	1.89235	6.05112	0.07433	4.02467
5455.166	1.69262	6.09085	-0.00047	4.00721
5459.165	1.58572	6.10532	-0.01886	3.95135
5463.155	1.64511	6.04780	-0.04447	3.81763
5467.164	1.67062	6.02055	-0.12533	3.76896
5471.161	1.76016	5.87580	-0.08306	3.77609
5475.164	1.60161	5.79999	-0.10195	3.63613
5479.160	1.59432	5.70256	-0.09922	3.62992
5483.161	1.53766	5.67059	-0.11029	3.63358
5487.162	1.50363	5.64207	-0.16238	3.66688
5491.161	1.40502	5.58499	-0.12607	3.69297
5495.160	1.38188	5.46105	-0.07574	3.77636
5499.168	1.49498	5.46191	-0.05343	3.84727
5503.157	1.55390	5.41322	0.01777	3.75192
5507.158	1.61778	5.39486	0.03675	3.82641
5511.160	1.66358	5.37300	0.09463	3.69409
5515.157	1.65032	5.30423	0.11272	3.60066
5519.163	1.72158	5.30736	0.14054	3.55073
5523.159	1.75342	5.21302	0.10148	3.49947
5527.163	1.74593	5.18370	0.07790	3.55044
5531.154	1.75597	5.13241	0.08108	3.66073
5535.164	1.72904	5.13034	-0.03335	3.61933
5539.163	1.85088	5.16599	-0.40201	3.60622
5543.163	1.87998	5.10330	-0.20338	3.62228
5547.160	1.85636	5.11931	0.18350	3.63965
5551.160	1.83152	5.11125	0.19569	3.78629
5555.180	1.97924	5.18923	0.40919	3.93223
5559.164	2.01920	5.68346	0.92371	4.33742
5563.158	2.09584	6.32081	1.14027	5.46559
5567.191	2.36311	6.77740	1.27562	6.04065
5571.158	2.45547	7.00558	0.86781	6.46786
5575.155	2.55596	7.77385	0.71402	6.93871
5579.163	2.80979	7.74455	0.80000	6.76001
5583.164	2.76893	7.65409	0.82620	5.64187
5587.157	2.49964	7.02227	0.74747	6.59200
5591.155	2.59425	7.58109	0.96561	6.40139
5595.156	2.86282	7.65751	1.08128	6.05168
5599.159	2.78775	7.44972	0.94157	6.90641
5603.157	2.77302	7.35013	0.98923	6.92781
5607.156	2.63574	7.88251	0.91274	6.87982
5611.156	2.85311	7.76858	0.81622	6.74443
5615.159	2.65647	7.59457	0.81994	6.90786
5619.160	3.07951	7.67708	0.71709	6.76914
5623.160	3.55444	7.67020	0.76355	6.89953
5627.162	2.74551	7.70166	0.89979	6.65725
5631.158	2.81511	7.47988	0.91440	6.81028
5635.156	2.78820	7.73697	0.91257	6.92189
5639.154	3.13796	7.68419	0.90230	6.98875
5643.156	2.93453	7.61161	0.87307	6.82092
5647.159	2.72456	7.46051	0.75206	6.75188
5651.156	2.81558	7.67035	0.81342	6.78596
5655.155	2.49075	7.75781	0.87801	6.81476
5659.155	2.68163	7.74381	0.87865	6.72271
5663.159	2.83578	7.70336	0.97879	7.21656
5667.163	2.79357	7.79855	1.04766	7.04530
5671.152	2.57786	7.88021	0.98807	6.69005
5675.059	2.65003	7.84769	0.95857	6.66849
5679.033	2.82274	7.80799	0.93177	6.77468
5683.037	2.61830	7.80600	0.95629	6.33162
5687.032	2.77104	7.64028	0.85565	6.85443
5691.031	2.70374	7.51322	0.94519	6.84765
5695.027	2.66253	7.73026	0.93807	6.90686
5699.030	2.77577	7.56866	0.96934	6.66867
5703.033	2.78679	7.45707	0.95170	7.03716
5707.030	2.72399	7.36286	0.92946	6.79164
5711.035	2.62514	7.47463	0.85374	6.81049
5715.045	2.79246	7.39024	0.88503	6.68767
5719.037	2.72947	7.41260	0.77814	6.70565
5723.027	3.50576	7.38716	1.04163	6.86812
5727.033	2.56144	7.39824	0.92904	6.80597
5731.030	4.09972	7.45396	1.08525	6.54737
5735.034	2.69416	7.62728	0.84468	6.73250
5739.040	4.11824	7.55457	1.12196	6.97237
5743.041	2.66679	7.97263	0.89240	6.73966
5747.031	3.57632	7.64556	1.27224	6.65730
5751.041	2.49240	7.86289	0.77677	6.70352
5755.033	3.61434	7.65806	0.86356	6.98238
5759.031	2.77369	7.60801	0.84610	6.72296
5763.033	2.36237	7.74440	0.92430	6.90064
5767.030	3.01994	7.67514	1.01945	6.85847
5771.029	3.53065	7.87153	0.90173	6.78828
5775.029	2.73160	7.93294	1.17252	6.74770
5779.032	3.82200	7.79694	0.92765	6.92279
5783.030	2.29448	8.14063	0.94599	6.71704
5787.028	2.54962	8.01129	1.26470	6.75041
5791.030	2.94678	7.85975	0.97264	6.81152
5795.066	2.70535	7.71671	0.94311	6.73322
5799.054	3.45438	7.83619	1.15605	6.67800
5803.033	3.53678	7.88024	1.13323	6.67808
5807.026	2.73370	7.96280	1.09735	6.68911
5811.028	3.54499	7.95001	1.19252	6.42346
5815.051	3.13484	7.86763	1.29834	6.63235
5819.034	3.29822	7.76290	0.92267	6.73642
5823.032	3.48523	7.84378	1.09073	6.68048
5827.028	2.70864	7.94122	1.20279	6.70448
5831.030	2.78733	7.83791	1.03732	6.81702
5835.035	3.31274	7.72374	1.08530	6.79945
5839.029	3.12865	7.64587	0.96395	6.80862
5843.028	3.37702	7.69939	1.01908	6.91342
5847.031	3.75175	7.73184	0.91175	6.96038
5851.026	2.91252	7.76760	0.96303	7.02174
5855.033	2.61850	7.92304	0.94840	6.93091
5859.027	2.90309	7.91148	0.88433	6.91389
5863.031	3.28998	7.95007	0.93061	6.89764
5867.028	2.83828	8.10423	0.95192	6.95736
5871.029	2.50439	8.20172	0.92120	6.95006
5875.036	3.74602	7.92692	0.83483	6.98953
5879.034	2.76708	8.06107	0.79431	6.94661
5883.032	2.63088	7.98340	0.97596	6.98402
5887.027	3.19927	7.95976	1.02665	6.92303
5891.032	3.60863	7.86574	0.92351	6.84953
5895.022	2.75257	7.84559	0.88391	6.77883
5899.029	2.51178	8.11651	0.90081	6.79208
5903.026	3.50815	7.88791	0.90316	7.09023
5907.026	3.69711	7.81117	1.04739	6.94659
5911.027	3.80987	7.54837	1.20008	6.94601
5915.045	2.97138	7.95596	1.13385	6.81210
5919.036	2.71510	7.90650	0.96365	6.88761
5923.032	2.89024	7.79021	1.05592	6.91014
5927.031	3.47144	7.57413	0.76712	6.94078
5931.027	3.68335	7.84993	0.98003	6.94656
5935.027	3.54798	7.77234	0.85682	6.95796
5939.029	3.08874	7.82560	1.16513	7.17830
5943.026	3.44938	7.52848	1.40041	7.15522
5947.025	2.94356	7.89486	1.22387	7.20231
5951.026	3.58774	7.70967	1.48257	7.15093
5955.482	3.62872	7.76908	1.18847	7.24671
5959.047	2.99220	7.82397	1.39666	7.24206
5963.032	3.33230	7.89211	1.44240	7.62911
5967.026	3.08985	7.74175	1.24714	7.35043
5971.032	3.25948	7.58739	1.14543	6.97537
5975.035	2.83345	7.84681	1.05094	7.86589
5979.023	3.39399	7.68086	1.27239	7.43841
5983.026	3.43059	7.46019	1.14918	7.27015
5987.040	3.46812	7.80175	1.14312	8.01314
5991.036	3.53651	7.70259	1.11090	7.37476
5995.044	3.00529	8.05014	1.15855	6.89374
5999.030	3.37381	7.74092	1.04404	7.73651
6003.025	1.84855	7.75046	0.43393	7.35681
6007.035	-0.08527	7.96066	-1.35946	6.66947
6011.025	-2.39331	7.83633	-2.58633	7.86555
6015.036	-2.94688	8.26384	-3.32127	7.41396
6019.028	-2.98633	8.01767	-3.81229	8.30783
6023.028	-2.67685	8.35983	-2.89260	7.82686
6027.028	-0.97673	8.03566	-2.96146	7.97967
6031.021	-1.76656	8.30449	-2.30630	7.94551
6035.025	-1.70680	8.20941	-0.96249	7.83621
6039.026	-1.74246	8.31459	-1.85666	7.71279
6043.029	-2.28133	8.34331	-2.49008	7.74031
6047.026	-1.96794	8.30622	-2.63093	10.13700
6051.028	-2.03771	8.33121	-3.24912	7.41069
6055.028	-2.14907	8.18069	-4.13873	8.89865
6059.023	-2.08830	8.35869	-3.90827	8.07478
6063.024	-1.90398	8.25692	-2.53823	7.85909
6067.026	-1.92917	8.37869	-2.83813	8.21758
6071.024	-1.93294	8.25659	-4.21617	6.84424
6075.023	-1.93616	8.44073	-3.11203	8.06489
6079.024	-2.01280	8.40331	-3.94470	7.21928
6083.025	-2.13108	8.35598	-2.98725	7.83521
6087.029	-1.99049	8.46172	-3.34338	7.86074
6091.035	-1.87071	8.46525	-3.83981	7.38155
6095.026	-1.98435	8.12055	-3.23375	8.12015
6099.022	-1.91437	8.50201	-3.81990	7.38719
6103.023	-1.94330	8.45489	-3.36814	7.84353
6107.026	-1.98740	8.42201	-2.95814	8.08600
6111.024	-1.79929	8.55389	-2.85353	8.02871
6115.042	-2.00217	8.33525	-3.58042	7.89847
6119.030	-2.10426	8.49599	-2.97656	8.14866
6123.019	-2.15286	8.55202	-3.11688	7.87219
6127.033	-1.86511	8.41463	-3.07179	7.78061
6131.031	-2.05035	8.42205	-3.54591	7.90859
6135.027	-2.23462	6.93164	-3.40578	7.96980
6139.023	-2.31834	7.20282	-3.27774	7.77815
6143.026	-1.77077	7.35452	-3.32342	7.76565
6147.022	-1.94652	7.60470	-3.40514	7.82873
6151.021	-1.94826	6.48931	-3.56969	7.93277
6155.023	-2.08788	8.45597	-4.26617	7.85217
6159.026	0.07552	8.21246	-4.66332	7.72775
6163.027	-1.33626	8.20903	-4.11389	7.67731
6167.026	-1.83722	8.52082	-3.79210	7.60061
6171.024	1.38542	6.07753	-3.72845	8.10936
6175.040	-1.91045	8.29437	-3.70398	7.68772
6179.024	-1.75443	8.05720	-3.23922	7.53788
6183.027	-1.87622	7.97996	-3.08310	7.68566
6187.022	-2.33328	8.25940	-1.73494	7.68881
6191.027	-2.56196	8.30960	-3.81363	7.34322
6195.021	-2.59150	8.28576	-2.63618	7.04996
6199.028	-2.63886	8.34898	-1.59383	7.06980
6203.024	-2.22755	8.35545	-3.86035	3.94328
6207.027	-2.33688	8.29722	-8.83459	6.07574
6211.026	-2.60369	8.30639	NaN	NaN
6215.019	-2.50382	8.30153	NaN	NaN
6219.025	-2.43330	8.30712	NaN	NaN
6223.021	NaN	NaN	NaN	NaN
6227.024	NaN	NaN	NaN	NaN
6231.024	NaN	NaN	NaN	NaN
6235.018	NaN	NaN	NaN	NaN
6239.040	NaN	NaN	NaN	NaN
6243.020	NaN	NaN	NaN	NaN
6247.019	NaN	NaN	NaN	NaN
6251.022	NaN	NaN	NaN	NaN
6255.018	NaN	NaN	NaN	NaN
6259.019	NaN	NaN	NaN	NaN
6263.020	NaN	NaN	NaN	NaN
6267.016	NaN	NaN	NaN	NaN
6271.016	NaN	NaN	NaN	NaN
6275.019	NaN	NaN	NaN	NaN
6279.020	NaN	NaN	NaN	NaN
6283.017	NaN	NaN	NaN	NaN
6287.014	NaN	NaN	NaN	NaN
6291.018	NaN	NaN	NaN	NaN
6295.299	NaN	NaN	NaN	NaN
6299.022	NaN	NaN	NaN	NaN
6303.021	NaN	NaN	NaN	NaN
6307.022	NaN	NaN	NaN	NaN
6311.023	NaN	NaN	NaN	NaN
6315.017	NaN	NaN	NaN	NaN
6319.021	NaN	NaN	NaN	NaN
6323.022	NaN	NaN	NaN	NaN
6327.022	NaN	NaN	NaN	NaN
6331.020	NaN	NaN	NaN	NaN
6335.024	NaN	NaN	NaN	NaN
6339.026	NaN	NaN	NaN	NaN
6343.026	NaN	NaN	NaN	NaN
6347.034	NaN	NaN	NaN	NaN
6351.020	NaN	NaN	NaN	NaN
6355.017	NaN	NaN	NaN	NaN
6359.016	NaN	NaN	NaN	NaN
6363.464	NaN	NaN	NaN	NaN
6367.030	NaN	NaN	NaN	NaN
6371.022	NaN	NaN	NaN	NaN
6375.026	NaN	NaN	NaN	NaN
6379.024	NaN	NaN	NaN	NaN
6383.020	NaN	NaN	NaN	NaN
6387.017	7.81827	9.36353	NaN	NaN
6391.025	8.23685	9.42693	NaN	NaN
6395.022	8.16386	9.35752	5.49849	1.78031
6399.033	8.33562	9.02147	7.91068	9.85340
6403.023	8.08207	8.90007	7.97369	9.10320
6407.018	8.73385	9.04628	7.16796	8.46590
6411.018	8.58653	9.01164	7.64193	8.91807
6415.019	8.23043	8.63491	7.52457	8.98049
6419.029	8.35901	8.98227	7.52554	8.71998
6423.020	8.38403	9.09675	7.59490	8.92353
6427.019	8.96830	9.00657	7.33423	8.98655
6431.018	8.64158	8.98125	7.54135	9.22692
6435.022	8.64495	8.76454	7.22463	8.79712
6439.016	8.81150	8.95234	7.33205	9.28260
6443.021	8.31948	8.67247	7.36047	8.74597
6447.013	8.41060	9.03122	7.34714	9.15957
6451.023	8.50103	8.80758	7.32527	8.94553
6455.017	8.53362	9.05929	7.27619	9.10763
6459.025	8.57158	8.89678	7.30717	8.80321
6463.016	8.65628	8.79773	7.35073	9.03010
6467.022	8.89703	9.06383	7.27523	9.01775
6471.017	8.86219	8.98476	7.30879	8.89984
6475.020	8.63127	8.72672	7.18025	9.34813
6479.015	8.83541	9.20673	7.32749	8.78628
6483.022	8.84314	9.27335	7.29086	9.13694
6487.018	8.60582	8.99477	7.27958	8.92442
6491.015	9.01106	8.85334	7.32155	8.79778
6495.022	8.88525	9.32116	7.33130	9.12001
6499.017	8.85402	9.10631	7.34716	9.00488
6503.022	9.03645	9.03008	7.28114	8.93748
6507.021	8.85196	9.19314	7.32817	8.91806
6511.017	8.78639	9.22997	7.29831	8.88759
6515.017	8.71385	9.17090	7.27863	8.87479
6519.021	8.74309	9.10536	7.33559	9.02800
6523.017	8.58551	9.11091	7.26366	8.77001
6527.017	8.73972	9.00982	7.33586	9.00551
6530.890	8.62438	9.24170	7.22124	9.04572
6534.896	8.56850	9.03042	7.27523	8.67172
6538.894	8.85305	8.91789	7.34782	8.94886
6542.894	8.70350	9.08265	7.22492	8.62398
6546.892	8.68038	8.87464	7.31550	8.97521
6550.921	8.83767	9.09637	7.23088	8.77187
6554.898	8.76105	8.98787	7.20761	9.02641
6558.889	8.69426	9.12937	7.35700	8.99632
6562.896	9.05940	8.92556	7.49376	9.10817
6566.890	8.67934	9.14209	7.35043	8.76682
6570.895	8.72265	8.87840	7.27287	9.09467
6574.887	8.68960	9.04290	7.47866	8.88313
6578.890	8.90812	8.78103	7.43132	8.86048
6582.893	8.92965	9.07263	7.39684	8.72928
6586.890	8.88382	9.11040	7.25035	9.40425
6590.894	9.08873	9.06832	7.25130	9.17377
6594.895	8.70970	9.06702	7.37921	8.94415
6598.893	9.10286	8.87892	7.27113	9.29069
6602.895	8.91551	9.03005	7.49751	8.82016
6606.885	8.94927	8.88638	7.22852	9.14729
6610.890	8.95801	9.07591	7.20446	8.85716
6614.891	8.89620	8.95817	7.25453	9.14802
6618.897	9.07436	9.08871	7.15296	8.92183
6622.890	9.01210	9.05246	7.29709	9.06364
6626.895	9.08619	9.01229	7.06882	8.79723
6630.897	9.03553	9.00980	7.18220	9.10743
6634.893	9.08033	8.88833	7.28796	8.88490
6638.892	9.03316	9.08444	7.33374	9.08206
6642.925	8.81920	8.98189	7.25365	9.00981
6646.889	8.90955	8.79704	7.24173	8.92418
6650.894	8.91948	9.12762	7.19427	8.89634
6654.889	9.08987	9.08062	7.20270	9.17590
6658.892	8.93794	8.89015	7.28161	8.91209
6662.885	8.78241	8.94435	7.36286	9.51690
6666.894	8.73427	8.93303	7.32446	9.23385
6670.893	8.76355	8.81697	7.31093	9.34990
6674.897	8.86204	9.02134	7.17084	9.23901
6678.887	8.77511	9.11792	7.31460	9.24832
6682.891	8.85994	8.73049	7.28666	9.15692
6686.887	8.87442	8.98334	7.36330	9.40501
6690.887	8.95818	8.90531	7.42493	9.39372
6694.889	8.90170	9.02222	7.46738	9.04671
6698.890	8.85109	9.09794	7.24793	9.16317
6702.891	8.90187	8.89466	7.39579	9.20216
6706.907	8.94888	8.95069	7.49851	9.32251
6710.890	8.94854	9.15971	7.34409	9.32534
6714.893	8.94535	9.27430	7.45345	9.44314
6718.895	8.90659	9.25296	7.37899	9.55397
6722.886	8.93486	9.07985	7.50356	9.66016
6726.893	8.94227	9.00260	7.36022	9.75783
6730.888	8.98203	9.24378	7.37597	9.47975
6734.892	8.82468	9.43902	7.37555	9.47717
6738.900	8.91171	9.37463	7.26613	9.34256
6742.895	8.84792	9.31800	7.37982	9.19106
6746.888	8.79344	9.27087	7.37236	9.30069
6750.888	8.94295	9.18154	7.21501	9.26846
6754.892	8.79334	9.46430	7.32851	9.32672
6758.890	8.81472	9.28843	7.31987	9.08809
6762.887	8.78563	9.20417	7.35068	9.19122
6766.887	8.83512	9.07431	7.35734	9.49551
6770.886	8.81239	9.26208	7.33991	9.04887
6774.896	8.84956	9.23160	7.33930	8.94927
6778.887	8.73427	9.17600	7.30095	9.38960
6782.890	9.03607	8.99270	7.39503	9.03786
6786.883	9.00479	9.24443	7.30388	8.99884
6790.892	9.12582	9.08149	7.38349	9.26549
6794.887	9.14145	8.96970	7.36647	9.18377
6798.894	9.07283	9.05714	7.33032	9.28766
6802.917	9.11433	9.11256	7.37170	8.65220
6806.890	9.16830	8.95841	7.30527	9.46229
6810.890	8.77991	9.17887	7.24561	8.90962
6814.893	8.98286	9.30111	7.28259	9.23590
6818.893	9.09630	8.89829	7.18044	9.04270
6822.891	9.17515	9.25273	7.22964	9.06339
6826.883	9.22269	9.01047	7.07249	9.12294
6830.892	9.04238	9.17849	7.06532	9.08052
6834.888	8.98913	9.10585	7.09282	8.88281
6838.897	8.91701	8.95924	6.92736	8.95742
6842.893	8.97375	9.22923	7.16610	8.88625
6846.887	8.94123	9.05652	6.97504	8.97407
6850.886	8.85225	9.10858	7.11342	8.88239
6854.886	8.79106	9.09489	7.22402	8.89796
6858.886	8.83629	8.95927	6.86924	8.87914
6862.889	8.92730	8.99119	7.17079	8.78763
6866.883	8.85039	9.04044	7.27484	8.85616
6870.888	8.78384	9.06441	7.50471	8.78578
6874.883	8.82972	9.07643	7.07869	8.94859
6878.884	8.74850	9.12872	6.93817	9.02681
6882.891	8.75730	9.15297	6.78613	9.01802
6886.887	8.78891	9.12518	6.87951	9.03441
6890.885	8.70674	9.22145	7.13282	9.05969
6894.883	8.84751	8.99644	7.17866	8.97460
6898.886	9.08408	9.00842	7.37218	8.92414
6902.888	8.98070	9.18580	7.26141	8.99886
6906.887	8.94050	9.14579	7.04560	8.83984
6910.886	8.90323	9.04325	6.85750	9.14809
6914.901	7.79317	9.14054	6.52086	8.74043
6918.887	5.71003	9.06748	3.59547	8.41978
6922.890	4.26272	9.08771	2.45525	8.61854
6926.892	3.54596	8.54927	2.69943	8.86943
6930.886	2.63363	8.71428	0.26674	7.91943
6934.889	2.66276	8.47584	1.15662	8.42555
6938.884	3.21112	8.98514	0.76216	7.75652
6942.888	3.66824	8.72119	1.34212	8.29159
6946.881	3.72996	8.81892	1.56933	8.34222
6950.890	4.00243	8.58067	1.64384	8.34496
6954.884	3.47119	8.68917	1.13300	8.14521
6958.898	3.71374	8.33920	0.65657	8.33222
6962.892	3.37017	8.39018	0.68005	8.26379
6966.885	3.63797	8.19960	0.93914	8.06629
6970.886	3.22779	8.36024	1.04741	8.31550
6974.886	3.23507	8.27820	0.96400	8.18095
6978.890	2.88841	8.32774	0.85848	8.13855
6982.885	3.70497	8.30430	1.03409	8.34217
6986.884	3.63166	8.18167	1.03543	8.30787
6990.932	3.72588	8.15910	1.00052	8.51346
6994.890	3.23742	8.22985	0.85476	8.17827
6998.896	3.53095	8.12249	0.92716	8.23575
7002.883	3.27962	8.15694	1.02355	8.38461
7006.892	3.83561	8.23117	1.13112	8.26394
7010.887	3.25906	8.36574	1.10819	8.38395
7014.892	3.01296	8.33437	1.07242	8.28216
7018.886	3.44327	8.23709	1.20360	8.45074
7022.886	3.39814	8.27505	1.13811	8.49250
7026.884	3.69768	8.22707	1.06848	8.43774
7030.884	3.77283	8.24274	1.14903	8.34122
7034.883	4.09802	8.28484	1.16104	8.22020
7038.886	4.27084	8.26110	1.24342	8.32793
7043.397	3.23044	8.29298	1.25381	8.32439
7046.904	3.14899	8.35460	1.28479	8.23265
7050.885	3.25290	8.35160	1.23580	8.36283
7054.907	3.28192	8.32980	1.13486	8.46760
7058.890	2.85239	8.38808	1.13819	8.49838
7062.879	2.80154	8.41409	1.14084	8.40513
7066.888	2.91663	8.23054	1.15052	8.33096
7070.881	3.05165	8.20524	1.07113	8.26403
7074.886	3.13274	8.16431	1.10951	8.36797
7078.880	2.92139	8.23853	1.09971	8.52340
7082.882	3.02093	8.08026	1.10916	8.42866
7086.888	2.83472	8.38082	1.05523	8.48017
7090.887	2.64423	8.65312	1.17723	8.78044
7094.881	2.76069	8.37439	1.30541	8.62899
7098.882	2.84054	8.40023	1.14754	8.45137
7102.891	3.09659	8.35178	1.34889	8.04324
7106.889	2.96849	8.26735	1.22276	8.37658
7110.887	3.13439	8.13897	1.08299	8.74419
7114.890	3.12180	8.32569	1.48590	8.63132
7118.887	2.56622	8.54714	1.14481	8.06663
7122.887	3.02430	8.60208	1.53600	8.05082
7126.881	3.16654	8.51918	1.39009	8.67538
7130.890	3.07092	8.32166	1.43037	8.66414
7134.880	3.14575	8.53173	1.52042	8.25942
7138.886	3.01128	8.54766	1.36293	8.18560
7142.882	3.12925	8.48953	1.39235	8.62633
7146.885	3.13383	8.28196	1.13156	8.26265
7150.877	3.19370	8.24728	1.48704	7.89639
7154.886	2.75111	8.47792	1.47201	8.57967
7158.880	2.88014	8.60085	1.32143	8.62971
7162.885	3.26693	8.37519	1.45006	7.79593
7166.876	2.97188	8.41180	1.44007	8.27685
7170.891	2.79075	8.29276	1.38421	8.41157
7174.881	2.85212	8.38448	1.36643	8.42846
7178.919	3.34774	8.36964	1.41122	8.44393
7182.894	3.51515	8.33061	1.44317	8.07417
7186.880	3.34494	8.32692	1.47082	7.96173
7190.885	3.11022	8.37645	1.35859	7.73875
7194.875	2.74093	8.53777	1.29028	8.39446
7198.882	2.98958	8.51167	1.35583	8.15785
7202.882	2.82647	8.46522	1.23575	7.79707
7206.881	2.90309	8.51630	1.24399	7.80300
7210.885	2.71434	8.51193	1.40477	7.69587
7214.896	3.30792	8.44960	1.14680	7.85965
7218.887	3.32909	8.44510	1.19730	7.62018
7222.880	3.59399	8.47798	1.08860	7.60041
7226.881	3.88147	8.50507	1.11775	7.97401
7230.880	2.84509	8.56755	1.14030	8.02365
7234.881	2.80060	8.58860	1.28038	8.22332
7238.883	4.14695	8.46217	1.06580	8.10632
7242.883	3.72630	8.46826	1.17465	8.13884
7246.887	3.39379	8.54505	1.02709	8.10130
7250.882	3.16216	8.55498	1.03545	8.13997
7254.884	3.25681	8.53033	1.00720	8.21090
7258.879	3.13049	8.59418	0.98077	7.83366
7262.880	3.06352	8.62678	0.94787	7.90538
7266.882	2.85376	8.66822	0.82359	7.81170
7270.879	2.84895	8.60623	1.01394	7.73217
7274.879	2.97349	8.59726	1.00377	7.85252
7278.900	2.87034	8.59369	1.02918	7.66142
7282.880	3.59357	8.61506	1.04004	7.78418
7286.877	2.97091	8.62156	1.08031	7.62130
7290.877	4.22913	8.48932	1.09812	7.92632
7294.883	3.03479	8.43815	1.07078	7.86694
7298.890	2.78684	8.21439	1.14871	7.81019
7302.880	3.48879	8.38345	1.19773	7.81608
7306.884	2.87797	8.46543	1.20457	7.73941
7310.877	3.39762	8.26704	1.31230	7.83274
7314.913	3.25839	8.26972	1.25533	7.79555
7318.879	4.12130	8.30178	1.25436	7.88204
7322.883	3.03707	8.49176	1.28767	8.13178
7326.878	3.75820	8.21052	1.20948	8.12406
7330.882	3.16985	8.30605	1.19378	8.22135
7334.873	2.98262	8.32075	1.21499	8.04127
7338.887	2.97054	8.56372	1.26426	8.00239
7342.880	3.22359	8.63964	1.31721	7.95230
7346.877	4.11347	8.34452	1.26259	8.12312
7350.876	2.88819	8.31955	1.25920	8.15560
7354.878	3.61602	8.31179	1.13132	8.10638
7358.881	2.93238	8.61640	1.27343	8.16493
7362.878	2.94931	8.37214	1.28894	8.05057
7366.894	4.09629	8.52450	1.19629	8.17420
7370.881	3.00259	8.39850	1.36861	8.05801
7374.877	3.11500	8.25363	1.44894	8.01966
7378.881	3.16136	8.25128	1.39860	7.98208
7382.883	3.88367	8.18160	1.10420	7.78895
7386.768	3.12452	8.11008	1.12340	7.94019
7390.760	2.97223	8.08969	1.30335	7.91862
7394.747	3.97227	8.06595	0.94348	7.76097
7398.756	3.16879	8.12280	1.41888	7.74200
7402.751	2.92047	8.15062	0.93711	7.67742
7406.756	3.94999	7.99179	1.06761	7.77843
7410.751	3.96933	7.91990	1.26284	7.60592
7414.764	2.68792	7.95275	0.88644	7.59449
7418.753	3.95004	7.83329	1.03977	7.71659
7422.751	2.38554	8.03790	1.13610	7.72388
7426.760	2.57761	7.98904	1.12085	7.84350
7430.756	1.90978	8.10937	1.17726	7.73785
7434.768	-0.07974	7.94289	0.66975	7.56866
7438.754	-1.72411	8.19683	-1.63269	7.41264
7442.753	-3.14773	7.88450	-2.22805	6.93708
7446.750	-2.19695	7.60780	-2.37285	6.55669
7450.752	-3.06206	7.73527	-2.21940	6.79759
7454.754	-2.31014	7.52605	-2.06233	6.53139
7458.748	-1.94451	7.39430	-2.01258	6.55112
7462.758	-2.03283	7.47832	-2.11485	6.56774
7466.756	-2.11534	7.59249	-2.33591	6.75106
7470.760	-1.94811	7.47743	-2.42877	6.37813
7474.747	-1.76609	7.45402	-2.04567	6.18644
7478.756	-2.02654	7.57796	-2.39889	6.03457
7482.750	-1.95815	7.44804	-2.30553	6.04391
7486.754	-1.82041	7.47236	-2.22411	6.16170
7490.754	-1.83950	7.49052	-2.26500	6.20013
7494.779	-1.70705	7.50521	-2.23543	6.30765
7498.748	-1.91534	7.45143	-2.36230	5.99810
7502.749	-2.07901	7.46978	-2.34599	6.21568
7506.749	-1.84788	7.48770	-2.49342	6.09702
7510.757	-2.04555	7.40941	-2.37587	6.17324
7514.749	-2.78585	7.38774	-2.22252	6.23052
7518.751	-1.93130	7.25691	-2.31881	6.21342
7522.753	-2.06875	7.34013	-2.28670	6.23837
7526.752	-2.11809	7.26595	-2.24948	6.20177
7530.750	-2.21259	7.26052	-2.30313	6.12742
7534.747	-2.20096	7.32488	-2.30427	6.40486
7538.753	-2.28100	7.21144	-2.28318	6.35973
7542.749	-2.24252	7.27621	-2.49394	6.27320
7546.753	-2.18111	7.24599	-2.28992	6.39776
7550.756	-2.31534	7.28461	-2.27392	6.20672
7554.755	-2.25015	7.31025	-2.34552	6.14292
7558.753	-2.21663	7.28513	-2.45867	5.96167
7562.744	-2.32236	7.30226	-2.31762	6.01042
7566.754	-2.36606	7.39321	-2.19826	6.03912
7570.749	-2.41967	7.33636	-2.34072	6.15610
7574.753	-2.36165	7.36993	-2.35308	6.15396
7578.743	-2.38895	7.37240	-2.14771	6.41770
7582.755	-2.48455	7.27747	-2.31822	6.24372
7586.749	-2.42552	7.26831	-2.29017	6.11488
7590.749	-2.43365	7.29907	-2.34426	6.16141
7594.758	-2.29079	7.40458	-2.57969	6.02644
7598.749	-2.35910	7.32418	-1.83139	5.85480
7602.754	-2.37112	7.25284	-2.24780	6.20690
7606.744	-2.67536	7.24481	-2.37872	6.63053
7610.754	-2.26785	7.22360	-2.41586	6.38839
7614.757	-1.83982	7.30079	-2.56582	6.13664
7618.749	-1.91928	7.36735	-0.92482	5.86316
7622.749	-2.15150	7.23647	-0.95842	5.98869
7626.752	-2.42834	7.27144	-1.13228	5.87908
7630.746	-2.53394	7.25069	1.67276	5.75710
7634.753	-2.83162	7.32330	0.15620	5.77504
7638.753	-2.16347	7.33703	0.54560	6.09997
7642.747	-2.24044	7.35568	0.11193	4.19158
7646.747	-2.96564	7.28321	-0.09317	4.84629
7650.748	-2.46711	7.24458	-0.44316	5.71123
7654.749	-3.05397	6.96628	-0.39876	5.86702
7658.751	-2.95418	7.19446	-2.19670	5.80516
7662.747	-2.17688	7.22609	-1.99379	5.95458
7666.753	-2.92678	6.85785	-2.91069	5.86596
7670.750	-3.26765	6.74212	-2.38422	5.94414
7674.753	-3.00566	7.11752	-2.29703	5.99245
7678.773	-2.72595	6.74655	-2.57300	6.21539
7682.752	-2.22181	6.87160	-1.41137	6.13857
7686.748	-3.54047	6.65771	-2.50680	6.28859
7690.749	-2.96470	6.68503	-2.63963	6.04049
7694.749	-2.75212	6.84897	-2.38373	6.18499
7698.751	-2.32540	6.73740	-2.55953	6.12643
7702.749	-1.55249	6.83749	-2.51024	6.22038
7706.747	-2.78993	6.72786	-2.43449	6.32950
7710.747	-2.22914	6.74791	-2.27664	6.11643
7714.762	-2.64859	6.76135	-2.44737	6.22060
7718.787	-2.42750	6.86226	-3.53421	6.09327
7722.747	-1.66388	6.63999	-1.91462	6.08378
7726.747	0.05380	6.22809	-2.32793	5.69280
7730.743	4.59038	4.62218	-1.02692	4.91320
7734.752	4.55421	3.74465	-1.54946	4.31682
7738.754	1.24007	3.54575	5.32284	3.93247
7742.749	1.66371	3.37747	5.31950	-0.08835
7746.750	1.17339	2.90420	2.82345	3.83582
7750.745	-2.85108	3.12914	2.30008	4.26273
7754.749	-0.98345	3.37032	2.11133	5.56090
7758.745	-0.89624	3.39027	1.85544	5.50245
7762.751	-0.16660	3.57058	1.75944	6.01227
7766.747	0.69754	3.57751	1.63043	6.34550
7770.749	0.11036	3.58578	3.70196	6.85933
7774.743	-0.26294	3.38723	2.02366	7.09504
7778.745	-0.05405	3.38595	3.31917	7.27147
7782.748	0.43584	3.48987	3.44530	7.39700
7786.745	0.22797	3.54423	3.16517	7.81536
7790.751	1.29707	3.63199	3.28452	5.78303
7794.743	0.97973	3.72606	2.27739	9.10481
7798.750	0.85051	3.84489	2.69490	1.10763
7802.776	0.61404	4.05861	2.49989	0.89496
7806.750	0.49187	3.89675	2.28856	1.04535
7810.745	0.90944	3.84389	1.86491	0.88506
7814.752	1.43295	3.56121	1.45105	1.02591
7818.747	2.41618	3.81192	0.59258	1.07968
7822.749	0.80307	4.10304	0.60022	1.33873
7826.745	0.69101	4.28588	0.77568	1.60397
7830.750	1.81910	3.99173	0.47572	1.92077
7834.740	1.66090	3.76796	0.29535	1.47048
7838.749	2.08959	3.93870	0.39742	1.08128
7842.752	0.84582	4.17752	0.17603	1.01249
7846.746	0.57989	4.41568	0.18052	1.30986
7850.744	0.85158	4.33664	0.17156	1.69600
7854.745	1.59782	4.26791	0.09612	1.61040
7858.744	1.59517	4.34157	0.08163	1.80904
7862.749	1.05753	4.36447	0.00876	0.99578
7866.746	1.64608	4.43223	0.03849	1.45319
7870.743	0.64305	4.32264	0.12173	1.73250
7874.742	1.24902	4.39298	0.13627	1.72078
7878.745	0.72278	4.41817	0.16278	1.15309
7882.752	0.44912	4.47435	0.11545	1.59316
7886.749	1.29013	4.45469	0.06567	1.60871
7890.743	1.14062	4.43456	0.07227	1.60416
7894.744	1.42045	4.41423	-0.18402	1.61588
7898.742	0.96256	4.43504	-0.23577	1.72640
7902.746	1.18946	4.41209	-0.13039	1.70807
7906.746	1.29159	4.38265	-0.15337	1.74670
7910.745	1.33465	4.43503	-0.30257	1.72265
7914.762	1.34403	4.39027	-0.25115	1.70868
7918.749	1.35673	4.39143	-0.28592	1.61398
7922.743	1.42216	4.38909	-0.24453	1.62645
7926.756	1.33678	4.48481	-0.24080	1.73214
7930.781	1.32046	4.47160	-0.19926	1.97732
7934.745	1.31989	4.39673	-0.56506	1.69366
7938.746	0.92860	4.41019	-0.33409	1.63746
7942.752	0.54625	4.37494	-0.34062	1.92244
7946.745	1.04317	4.38716	-0.31573	1.96725
7950.742	1.16401	4.39687	-0.22127	1.75587
7954.744	1.10427	4.34659	-0.16933	1.78426
7958.742	0.86036	4.49935	-0.44003	1.60682
7962.741	1.05823	4.41814	-0.57826	1.86388
7966.746	0.87093	4.30794	-0.53150	1.73320
7970.746	0.63198	4.32117	-0.34451	1.56347
7974.742	0.73516	4.35537	-0.23907	1.60812
7978.741	0.57803	4.40770	-0.07962	1.97671
7982.741	0.83801	4.40454	-0.10664	1.63619
7986.743	0.92629	4.18526	-0.64047	1.59391
7990.754	0.72714	3.94233	-0.52116	1.60750
7994.756	0.61424	4.33608	-0.20375	1.61453
7998.744	0.75508	4.31347	0.05639	1.61787
8002.740	0.88763	4.36997	-0.10160	1.95804
8006.747	1.02895	4.36157	0.12553	1.77272
8010.747	0.84359	4.34722	0.05847	1.79499
8014.757	2.12558	4.34955	0.19953	1.99794
8018.746	2.29495	4.39485	0.38837	2.64993
8022.741	2.81771	4.77294	0.94289	3.32003
8026.740	3.20736	5.40374	1.12757	3.68529
8030.744	3.25518	5.20967	0.76704	3.69841
8034.737	3.38323	5.07157	0.94959	3.34743
8038.746	3.29691	4.90319	0.87505	3.37194
8042.742	3.13363	4.73757	0.96043	2.64178
8046.745	3.33671	4.79688	0.70362	3.38557
8050.741	3.32941	5.16128	1.02154	3.30303
8054.753	3.58247	5.40846	1.01687	3.28630
8058.744	3.62131	5.61166	1.26103	3.29006
8062.748	3.78649	5.63738	1.29221	3.54786
8066.741	3.89496	5.66896	1.23350	3.64722
8070.744	4.07802	5.68913	1.26594	3.66986
8074.741	4.20109	5.69289	1.39527	3.55328
8078.745	4.22816	5.65650	1.28326	3.60085
8082.737	4.11950	5.73627	1.36117	3.50589
8086.756	4.09960	5.65876	1.28308	3.57586
8090.751	4.19425	5.68712	1.29380	3.57884
8094.750	4.05915	5.53639	1.30794	3.84036
8098.737	3.65332	5.31139	1.36496	3.85392
8102.746	3.49428	5.12809	1.38225	3.85003
8106.740	3.47267	5.42970	1.33552	4.07900
8110.745	3.51728	5.33015	1.39368	4.04618
8114.754	3.35971	5.46524	1.25436	4.00089
8118.746	3.18207	5.21326	1.22134	3.75485
8122.737	3.21904	5.16041	1.25671	3.89346
8126.776	3.11594	5.05486	1.16208	4.06075
8130.740	3.20177	5.04637	1.13164	3.75789
8134.743	3.13039	5.05287	0.97656	3.60834
8138.749	3.15164	5.06234	1.16404	3.85120
8142.739	3.38271	5.19544	1.29179	3.80009
8146.737	3.96444	5.29596	1.26517	3.61711
8150.737	3.82788	5.34996	1.11467	3.59855
8154.738	3.84070	5.41680	0.89309	3.72680
8158.741	3.97657	5.47992	1.13189	3.60576
8162.738	4.01764	5.17782	1.06297	3.72547
8166.737	3.57337	5.25544	1.03320	3.61137
8170.737	4.00492	5.39633	1.17255	3.57787
8174.745	3.49223	5.42647	1.12720	3.56649
8178.745	3.33864	5.61810	1.17746	3.71316
8182.744	3.34875	5.88439	1.20326	3.71612
8186.739	3.29285	6.07016	1.17964	3.80033
8190.742	3.31969	5.69967	1.07426	3.78918
8194.737	3.81162	5.47789	1.04320	3.82318
8198.737	4.15243	5.20928	1.16662	3.86772
8202.745	3.68836	5.24334	1.10105	3.82870
8206.742	3.31405	5.32182	1.21549	3.79991
8210.735	3.21176	5.39860	1.06560	3.89253
8214.751	3.34279	5.41236	1.10080	4.01575
8218.749	3.46024	5.39108	0.95472	4.06987
8222.740	4.02712	5.19355	1.09676	4.07338
8226.743	3.21503	5.17916	1.13236	3.84936
8230.741	3.28110	5.57933	0.99335	4.30944
8234.743	3.18155	5.94511	1.12023	4.21340
8238.621	3.28558	5.63641	0.95976	3.98312
8242.618	3.75731	5.66473	0.90704	4.43538
8246.613	3.18032	5.65141	0.97914	4.46446
8250.613	3.11977	5.59256	1.01020	4.39887
8254.612	3.46024	5.61850	0.98988	4.55108
8258.615	4.18958	5.44068	0.92832	4.45030
8262.619	3.21579	5.32711	1.00129	4.14550
8266.621	3.03351	6.09986	0.98507	4.08259
8270.614	3.11707	6.14435	0.93026	4.35854
8274.608	4.01924	5.77575	0.90344	4.14683
8278.619	4.22286	5.80445	0.89500	4.15184
8282.613	3.08842	5.68986	0.93336	4.53042
8286.615	3.16785	5.76497	1.04096	4.42014
8290.608	3.95641	5.75820	0.86290	4.27160
8294.617	4.24697	5.74636	0.89785	4.20457
8298.613	3.51040	5.64490	0.92939	4.61745
8302.616	3.17646	5.72948	1.01156	4.77928
8306.626	3.15379	5.73710	1.25399	4.67853
8310.613	3.49975	5.63209	0.89942	4.52933
8314.613	4.20467	5.61416	1.01042	4.59776
8318.618	4.23527	5.54830	1.16126	4.38553
8322.612	3.39273	5.50900	1.27968	4.91987
8326.616	3.25538	5.50296	1.17307	4.72590
8330.609	3.66975	5.49577	0.91453	4.61762
8334.613	4.06488	5.49151	1.04153	4.46788
8338.611	3.83490	5.48344	1.24007	4.49653
8342.612	4.10266	5.59313	1.04203	4.49768
8346.650	3.43556	5.55604	1.31362	4.19526
8350.607	3.40000	5.67341	0.85724	4.44549
8354.615	3.55750	5.72298	0.98425	4.30469
8358.612	3.96066	5.67578	1.06163	4.40070
8362.610	4.24107	5.75847	0.86344	4.43462
8366.610	3.14944	5.79558	0.97802	4.25365
8370.611	3.19528	5.88325	0.92798	4.34599
8374.613	3.03747	5.89657	0.84587	4.47655
8378.605	3.76344	5.97069	0.64121	5.07387
8382.615	3.40793	6.19084	0.50505	5.39590
8386.610	3.34539	6.51078	0.57749	5.96390
8390.618	3.23633	6.43369	1.06351	5.64407
8394.606	2.92069	6.72154	0.77955	6.03753
8398.615	3.18625	6.48393	0.72064	6.06451
8402.609	3.66711	6.44586	0.76622	5.59473
8406.614	3.89379	6.46434	1.10378	4.65608
8410.605	4.16393	6.64422	0.73382	5.97205
8414.623	3.56613	6.72992	0.93120	6.04756
8418.616	3.42057	6.65458	1.25634	5.86835
8422.606	3.36715	6.61836	0.96509	6.14311
8426.614	3.46471	6.61277	1.16629	6.13653
8430.623	3.93139	6.63063	1.32676	5.95947
8434.611	3.80755	6.66601	0.90374	6.14342
8438.615	3.39359	6.62043	1.04952	6.10174
8442.611	3.64167	6.61878	1.30144	6.06339
8446.613	3.20402	6.57620	1.03037	6.12511
8450.604	3.21968	6.68446	1.00228	6.22516
8454.614	3.51243	6.66429	1.13035	6.15112
8458.609	3.94809	6.66210	1.25513	6.05229
8462.614	3.93221	6.61690	0.88684	6.19057
8466.604	4.06611	6.65234	0.78838	6.16479
8470.616	3.20516	6.65910	0.67034	6.13811
8474.616	3.41879	6.58051	0.73945	6.14757
8478.605	3.33230	6.48687	0.81074	6.11001
8482.608	3.63955	6.58931	0.90510	6.11843
8486.609	3.74177	6.54189	0.90661	6.10708
8490.610	3.71777	6.63953	1.02667	6.05845
8494.614	3.61636	6.72368	1.13310	6.00745
8498.609	3.74197	6.68625	1.05175	6.02580
8502.611	3.53837	6.70047	1.02335	6.00749
8506.609	3.55199	6.77336	0.98770	5.90595
8510.615	3.52873	6.70447	1.10090	5.87152
8514.628	3.53864	6.81936	1.14022	5.83877
8518.612	3.54081	6.80555	1.20088	5.84632
8522.608	3.51812	6.82161	1.23355	5.79614
8526.610	3.42389	6.85757	1.25510	5.78259
8530.609	3.64103	6.89741	1.24570	5.76896
8534.608	3.69679	6.89786	1.19956	5.73136
8538.606	3.56994	6.85221	1.15588	5.65922
8542.612	3.58193	6.83469	1.23206	5.66199
8546.604	3.52576	6.78015	1.29020	5.65773
8550.614	3.56129	6.72132	1.30511	5.72028
8554.618	3.55337	6.73160	1.30280	5.64408
8558.631	3.64998	6.61796	1.36414	5.69166
8562.612	3.62615	6.54349	1.38520	5.63702
8566.606	3.67425	6.59033	1.32900	5.58726
8570.610	3.66983	6.41984	1.36047	5.50929
8574.604	3.57325	6.50438	1.34177	5.39215
8578.605	3.49755	6.41800	1.40351	5.40433
8582.608	3.36466	6.40318	1.45624	5.41710
8586.607	3.16109	6.44019	1.38272	5.28498
8590.606	3.07939	6.47653	1.33264	5.27243
8594.606	3.27804	6.65109	1.27959	5.50792
8598.614	3.20716	6.73014	1.26202	5.53705
8602.606	3.05872	6.72225	1.18267	5.29037
8606.626	3.01111	6.74207	1.19470	5.25783
8610.613	2.91492	6.75056	1.13610	5.23099
8614.610	2.90143	6.71715	1.08386	5.33210
8618.613	2.91215	6.74764	1.18393	5.39238
8622.607	3.17945	6.77326	1.13645	5.66883
8626.607	3.15372	6.83473	0.99045	5.77981
8630.603	3.29688	6.68330	0.90594	5.77098
8634.604	3.73764	6.66656	1.03719	5.73470
8638.613	4.13322	6.64668	1.17984	5.84174
8642.608	3.11361	6.60700	1.13670	5.78879
8646.609	2.97564	6.67948	1.18837	5.65987
8650.613	3.37685	6.51236	1.23511	5.72823
8654.605	3.29674	6.51916	1.02856	5.83571
8658.609	2.80206	6.76443	1.11278	5.94969
8662.604	3.52984	6.71562	1.24253	5.81180
8666.611	3.04823	6.62520	1.25034	5.93347
8670.605	3.46310	6.50434	0.92817	5.83712
8674.611	3.46528	6.58670	0.98149	5.84994
8678.610	3.71300	6.52818	1.17808	5.58984
8682.616	3.03081	6.50264	1.10189	5.71082
8686.607	3.16082	6.47246	0.88485	5.81958
8690.609	3.54215	6.39247	1.19502	5.51514
8694.603	3.30149	6.49111	1.24305	5.49872
8698.611	2.67370	6.70449	1.21045	5.77459
8702.605	3.07147	6.60739	1.10147	5.82309
8706.607	3.10111	6.47417	0.85339	5.94563
8710.604	3.54690	6.42055	0.74578	5.94623
8714.617	3.27648	6.42719	1.09941	5.70671
8718.611	2.72154	6.53920	0.90302	5.70164
8722.613	2.50878	6.54491	0.75025	6.00543
8726.615	1.08448	6.71857	-0.71151	5.98889
8730.606	0.19901	7.14389	-1.23608	6.62116
8734.606	0.43939	7.21040	-1.25237	7.64651
8738.616	0.98913	7.12062	-0.56612	7.69449
8742.607	1.15771	6.87900	0.09354	7.28281
8746.615	1.50693	6.82627	0.06629	6.74363
8750.606	1.17317	7.19444	-0.36583	6.63283
8754.606	1.09393	7.27014	-0.59543	6.49091
8758.603	1.00864	7.45604	-0.59910	6.74119
8762.603	0.93735	7.49664	-0.58106	6.86684
8766.613	1.10728	7.51183	-0.76546	6.64530
8770.605	1.02178	7.49812	-0.79655	6.54156
8774.608	1.12097	7.45279	-0.60250	6.82824
8778.616	1.11167	7.36063	-0.49905	6.80741
8782.609	1.13127	7.38802	-0.64268	7.13842
8786.615	1.13858	7.49451	-0.82672	7.04706
8790.611	1.03240	7.60547	-0.78255	6.89668
8794.599	0.64893	7.70533	-0.63506	7.02590
8798.608	0.73580	7.74032	-0.38507	6.84852
8802.603	0.91659	7.56660	-0.40688	6.74055
8806.612	0.88870	7.36555	-0.73322	6.97386
8810.605	0.88163	7.64593	-0.70156	7.32998
8814.606	0.94907	7.64828	-0.49843	6.88841
8818.607	0.69977	7.79053	-0.26458	7.20882
8822.601	0.59677	7.83218	-0.14062	7.02657
8826.607	0.71935	7.72364	-0.58409	7.24499
8830.599	0.81483	7.50209	-0.46018	7.13416
8834.607	0.75198	7.71006	-0.67332	7.21022
8838.602	0.81506	7.76808	-0.45768	7.09232
8842.606	0.82394	7.81758	-0.40254	6.97379
8846.603	0.70322	7.84735	-0.52972	7.23757
8850.607	0.79305	7.73968	-0.79290	7.07497
8854.602	0.85374	7.76972	-0.69498	7.28237
8858.606	0.83374	7.51194	-0.75511	7.33539
8862.598	1.06128	7.47389	-0.67263	7.18209
8866.604	0.92463	7.76135	-0.78707	7.14094
8870.601	1.12546	7.57514	-0.71896	7.15514
8874.600	1.03126	7.65495	-0.58401	6.99534
8878.603	0.58659	7.86011	-0.54443	6.83328
8882.600	0.72149	7.79479	-0.59662	7.02558
8886.607	0.53332	7.87335	-0.76620	7.07425
8890.605	0.33362	7.85809	-0.62064	6.98276
8894.606	0.06559	7.75244	-0.63161	6.96656
8898.601	-3.70633	4.57587	-2.58323	7.05199
8902.604	-0.32027	4.75801	-5.02849	7.13826
8906.601	-3.27012	7.96604	-4.85805	7.48899
8910.601	-3.01556	7.95273	-3.00933	7.27819
8914.617	-2.63601	7.95247	-2.69730	7.19833
8918.602	-2.09098	7.94333	-2.52007	7.04366
8922.603	-2.43823	7.92981	-2.31433	7.14489
8926.602	-2.87596	4.66088	-2.74833	7.00275
8930.609	-3.41822	4.64595	-3.04986	7.11584
8934.613	-3.59550	4.60851	-3.24909	7.15990
8938.603	-0.72925	7.49835	-3.40000	7.15666
8942.601	-1.91680	7.86524	-3.57530	7.27385
8946.607	-1.91234	7.90050	-4.17156	7.14374
8950.603	-0.32814	7.80759	-4.06350	7.06289
8954.600	-0.46520	7.73040	-4.20565	7.11913
8958.600	-0.69198	7.76462	-4.01781	7.15674
8962.600	-0.61156	7.68025	-3.86227	7.30861
8966.604	-0.79853	7.60694	-3.51389	7.21138
8970.611	-1.24682	7.61609	-3.11804	7.28239
8974.600	-1.19219	7.56032	-3.12714	7.28999
8978.601	-1.45832	7.54592	-3.02665	7.32556
8982.602	-1.32054	7.58876	-2.88059	7.39488
8986.667	-1.49066	7.54776	-2.76844	7.34310
8990.612	-1.50279	7.51345	-2.76960	7.36739
8994.610	-1.55177	7.49775	-2.97770	7.40565
8998.599	-1.54046	7.45754	-2.88321	7.37351
9002.603	-1.61726	7.42247	-2.86443	7.37807
9006.599	-1.62304	7.37555	-2.85502	7.29371
9010.603	-1.69242	7.30532	-2.86425	7.29683
9014.634	-1.68620	7.29513	-2.93077	7.23562
9018.599	-5.50741	4.28670	-2.98047	7.20057
9022.599	-5.62453	4.23479	-2.99678	7.14347
9026.601	-5.66868	4.34109	-3.04155	7.07066
9030.599	-5.71465	4.41324	-3.13264	7.04130
9034.598	-5.72261	4.40027	-3.18437	7.00959
9038.599	-5.67602	4.42759	-3.18858	7.00372
9042.602	-5.70293	4.44737	-3.20709	7.03532
9046.595	-5.71748	4.51309	-3.23007	7.12916
9050.604	-5.73072	4.69897	-3.25040	7.21125
9054.604	-5.79325	4.93930	-3.34900	7.91439
9058.599	-1.50991	5.26114	-3.32978	7.18592
9062.598	-3.22371	5.66734	-3.26977	7.53070
9066.600	-1.53657	5.96984	-3.35360	7.42297
9070.603	-5.89608	4.82058	-3.44562	7.46426
9074.593	-5.88798	4.98454	-3.62309	7.64132
9078.603	-1.71593	5.43605	-3.36955	7.44904
9082.600	-3.03945	5.56506	-3.46352	7.51884
9086.602	-2.28665	6.00802	-3.60225	7.80551
9090.469	-2.23687	6.38784	-3.88307	7.52987
9094.479	-2.20220	5.27212	-4.10794	7.53565
9098.473	-2.10550	5.19619	-3.68379	7.43192
9102.484	-3.33990	5.48634	-3.98027	7.61036
9106.468	-3.28674	5.61569	-4.01359	7.64687
9110.478	-2.47286	5.83904	-4.02324	7.41339
9114.470	-1.08621	7.63375	-4.14120	7.65390
9118.479	-1.06691	7.85964	-3.15681	7.63321
9122.474	-2.29577	7.69549	-3.71399	7.66681
9126.477	-2.47769	7.82475	-3.67989	7.59957
9130.470	-2.07070	7.95958	-3.65623	7.64202
9134.477	-2.36292	8.02230	-3.67005	7.54771
9138.473	-2.36842	7.99130	-3.62580	7.56543
9142.480	-2.20476	8.05008	-3.62007	7.63925
9146.476	-2.26361	8.05358	-3.58306	7.66945
9150.474	-2.15787	8.07068	-3.49824	7.66968
9154.471	-2.38920	8.06979	-3.31197	7.70655
9158.479	-2.44564	8.06099	-3.27784	7.89181
9162.472	-2.67068	8.08775	-3.27888	7.98984
9166.477	-2.69554	8.11600	-3.25421	8.17211
9170.468	-2.70074	8.14618	-3.26794	8.22637
9174.478	-2.78916	8.14303	-3.20847	8.11123
9178.489	-2.77948	8.16797	-3.16045	8.22188
9182.484	-2.70951	8.17187	-3.09156	8.22487
9186.481	-2.75135	8.14837	-3.07446	8.22743
9190.475	-2.65904	8.14536	-3.02653	8.21167
9194.518	-2.67922	8.10625	-2.98247	8.17079
9198.469	-2.78619	8.10111	-2.97673	8.20402
9202.471	-2.77842	8.06662	-2.95502	7.96380
9206.474	-2.82363	7.95490	-3.10614	7.21078
9210.483	-2.77827	6.91328	-3.17228	5.36527
9214.473	-2.65552	5.59995	-2.93973	4.47827
9218.488	-2.44896	3.82832	-2.98995	1.75937
9222.477	-2.38023	3.16749	-2.31567	0.51161
9226.478	-2.02986	2.66374	-2.79372	0.67253
9230.475	-2.25221	0.75680	-2.70812	-0.53866
9234.469	-2.18684	0.05485	-2.34196	-2.04752
9238.482	-2.06865	-0.52451	-1.60035	-2.07406
9242.478	-1.91345	-0.49185	-1.62778	-2.12245
9246.469	-1.83045	-0.16534	-2.13537	-1.78149
9250.475	-1.77972	0.09942	-2.20181	-1.94137
9254.470	-1.75947	-0.08616	-1.86427	-1.48297
9258.475	-1.68354	-0.10512	-1.83576	-1.26881
9262.466	-1.69917	-0.00385	-1.81991	-1.34962
9266.481	-1.65971	-0.19344	-1.82891	-1.89411
9270.472	-1.71248	-0.14508	-1.81235	-1.67265
9274.475	-1.58081	-0.24301	-2.14045	-1.72611
9278.466	-1.52754	-0.53167	-2.00993	-1.91103
9282.476	-1.55296	-0.73324	-1.95884	-1.64276
9286.469	-1.57771	-0.48367	-1.96640	-1.59166
9290.468	-1.50827	-0.28348	-2.01357	-1.59888
9294.474	-1.47077	-0.20071	-1.96008	-1.36368
9298.472	-1.55333	-0.31201	-1.97014	-0.74278
9302.471	-1.47122	-0.44862	-1.91754	-1.87141
9306.476	-1.40792	-0.41328	-1.90316	-1.70616
9310.474	-1.44339	-0.41149	-1.97104	-1.59887
9314.473	-1.36747	-0.56290	-2.14255	-1.60180
9318.475	-1.38996	-0.59973	-2.17011	-1.45567
9322.472	-1.40589	-0.57914	-1.99818	-1.30331
9326.470	-1.35199	-0.51944	-1.99463	-1.16049
9330.468	-1.28688	-0.57996	-2.00653	-1.09090
9334.471	-1.27653	-0.54022	-2.02485	-1.09925
9338.470	-1.26341	-0.54785	-1.95244	-1.29374
9342.469	-1.34485	-0.48799	-1.83806	-1.37838
9346.470	-1.39936	-0.39619	-1.92421	-1.28714
9350.488	-1.32565	-0.33371	-2.10260	-1.32979
9354.487	-1.16649	-0.45878	-2.10857	-1.32147
9358.478	-1.07525	-0.44389	-2.08843	-1.40927
9362.474	-1.21760	-0.23435	-2.09232	-1.39609
9366.473	-1.28492	-0.39316	-2.26495	-1.29063
9370.470	-1.11990	-0.25416	-2.19992	-1.31891
9374.469	-1.25275	0.01180	-2.18862	-1.42138
9378.474	-1.32319	-0.02437	-2.25660	-1.49110
9382.465	-1.44880	-0.15426	-2.36505	-1.34808
9386.475	-1.15074	-0.26285	-2.33641	-1.34948
9390.469	-1.23722	0.06593	-2.32122	-1.41661
9394.479	-1.09869	-0.10288	-2.23139	-1.51134
9398.465	-1.14387	-0.21768	-2.40283	-1.41050
9402.474	-1.26996	-0.25896	-2.73026	-1.41719
9406.470	-1.05510	-0.20283	-2.31361	-1.22222
9410.473	-1.14054	0.06561	-2.26011	-1.33841
9414.523	-1.02422	-0.11844	-2.24391	-1.49289
9418.471	-1.07289	-0.27535	-2.14748	-1.43636
9422.471	-0.97889	-0.23531	-1.90673	-1.42007
9426.468	-0.89567	-0.08517	-1.95088	-1.59897
9430.470	-0.95609	0.00942	-1.89404	-1.66709
9434.471	-0.91835	0.02909	-2.06627	-1.33878
9438.476	-0.94182	-0.01016	-2.18523	-1.36195
9442.469	-0.94338	-0.03978	-2.22872	-1.37998
9446.466	-0.98311	-0.17678	-2.07968	-1.38453
9450.466	-1.02129	0.11123	-2.17854	-1.57765
9454.466	-0.99568	0.04380	-2.04726	-1.39573
9458.469	-1.00873	-0.17404	-1.97228	-1.53984
9462.466	-1.01149	-0.00527	-2.00272	-1.06131
9466.465	-1.06399	0.19533	-2.15802	-1.37225
9470.466	-1.07959	0.21575	-2.07517	-1.31457
9474.476	-1.09457	0.06256	-2.20144	-1.42477
9478.470	-1.13863	-0.25893	-2.05420	-1.42280
9482.466	-1.12737	0.16134	-2.10233	-1.22991
9486.491	-1.13328	0.00532	-2.01702	-1.01155
9491.025	-1.06493	-0.04845	-2.02951	-1.54311
9494.473	-1.04816	0.02403	-1.99337	-1.46740
9498.474	-0.98819	-0.01476	-2.54881	-1.27208
9502.462	-0.99554	0.04268	-2.20731	-1.30446
9506.471	-1.08939	-0.34211	-2.06946	-1.10351
9510.466	-1.27586	0.08355	-2.72025	-1.33911
9514.469	-1.73978	0.32102	-3.76856	-1.03743
9518.476	-3.75543	1.83810	-4.59075	-0.69698
9522.467	-6.13986	3.32878	-7.14761	1.07061
9526.470	-6.77541	5.17952	-8.16980	3.58686
9530.462	-9.03527	5.53505	-9.62183	3.86867
9534.471	-9.35824	5.76202	-9.94289	5.40110
9538.466	-11.86098	5.96576	-11.40236	5.66653
9542.470	-12.13714	6.33973	-11.53587	6.69561
9546.461	-12.13232	7.41065	-11.39012	7.46021
9550.471	-11.61430	7.20499	-10.98456	8.68221
9554.480	-11.17873	7.28410	-10.25471	7.66027
9558.483	-11.69221	7.14521	-10.19957	6.88918
9562.475	-11.54673	7.12702	-10.58809	6.66322
9566.465	-12.16508	7.34563	-11.34244	7.12153
9570.468	-11.90692	7.43444	-11.43250	7.62301
9574.466	-11.84898	7.43923	-11.27596	7.69191
9578.466	-11.85000	7.47901	-11.17118	7.61931
9582.467	-11.85885	7.63932	-11.12546	7.53077
9586.465	-11.70169	7.60283	-11.25622	7.58992
9590.469	-11.78502	7.58555	-11.35787	7.61984
9594.461	-11.77403	7.58093	-11.41473	7.57439
9598.475	-11.91348	7.71661	-11.40322	7.57422
9602.472	-11.87144	7.66097	-11.42277	7.51400
9606.470	-11.76680	7.72077	-11.31498	7.62157
9610.460	-11.87624	7.72126	-11.41578	7.72146
9614.479	-12.00210	7.74779	-11.41268	8.01990
9618.466	-11.55964	7.57296	-11.19671	7.59671
9622.470	-11.79779	7.69323	-11.40586	8.02210
9626.520	-11.71051	7.74591	-11.34936	7.71609
9630.464	-11.84007	7.65054	-11.30247	7.86033
9634.470	-11.88150	7.65183	-11.30030	7.82024
9638.464	-11.63997	7.69891	-11.21973	7.97213
9642.490	-11.63411	7.52363	-11.22547	7.75353
9646.459	-11.64630	7.55132	-11.45817	8.05679
9650.464	-11.73469	7.56961	-11.38478	8.01815
9654.465	-11.60530	7.59566	-11.36217	8.00229
9658.463	-11.57772	7.60482	-11.48828	8.13239
9662.462	-11.79453	7.59693	-11.45527	7.99328
9666.463	-11.47958	7.51036	-11.46609	7.90882
9670.462	-11.80390	7.43920	-11.43247	8.10354
9674.467	-11.54663	7.43906	-11.52390	8.00674
9678.464	-11.51480	7.40829	-11.46909	7.98310
9682.470	-11.70966	7.40654	-11.56910	7.85231
9686.466	-11.24168	7.41271	-11.61009	7.87145
9690.462	-11.47488	7.31155	-11.49960	7.69103
9694.461	-11.31913	7.47633	-11.56369	7.96562
9698.465	-11.52684	7.32998	-11.47150	7.59290
9702.466	-11.43719	7.40458	-11.37829	7.64402
9706.463	-11.59122	7.48427	-11.47598	7.85708
9710.461	-11.42167	7.53048	-11.29507	7.78051
9714.477	-11.38325	7.54753	-11.72553	7.64270
9718.470	-11.48537	7.44773	-11.43357	7.74744
9722.460	-11.52450	7.64736	-11.71059	7.62690
9726.473	-11.48315	7.61771	-11.42771	7.62993
9730.466	-11.47948	7.51790	-11.37524	7.54328
9734.462	-11.44845	7.58133	-11.53296	7.67062
9738.476	-11.51554	7.53353	-11.48821	7.75877
9742.468	-11.49154	7.54056	-11.77199	7.70637
9746.462	-11.42897	7.51521	-11.42959	7.73040
9750.464	-11.47291	7.51544	-11.17725	7.75385
9754.464	-11.49054	7.50224	-11.55116	7.74771
9758.466	-11.71418	7.59358	-11.45286	7.78390
9762.784	-11.48628	7.56647	-11.34685	7.68663
9766.481	-11.47979	7.52555	-11.09408	7.73018
9770.472	-11.44583	7.57262	-11.32738	7.80023
9774.466	-11.49714	7.52143	-11.43514	7.81597
9778.461	-11.37362	7.54335	-11.51211	7.78059
9782.466	-11.33287	7.63840	-11.34547	7.54540
9786.457	-11.35580	7.66168	-11.31696	7.67027
9790.466	-11.36601	7.70005	-11.50644	7.60068
9794.461	-11.33702	7.72805	-11.36921	7.81039
9798.465	-11.46208	7.77992	-11.43066	7.91307
9802.465	-11.47276	7.75704	-11.49555	7.22342
9806.463	-11.47662	7.73730	-11.46058	7.53652
9810.466	-11.34676	7.78307	-11.47150	7.86872
9814.478	-11.40846	7.77234	-11.49560	7.66184
9818.466	-11.52462	7.82422	-11.51256	7.62778
9822.461	-11.43712	7.74036	-11.44497	7.41451
9826.462	-11.54389	7.73701	-11.35683	7.36436
9830.463	-11.69681	7.72048	-11.35809	7.48986
9834.465	-11.64713	7.68038	-11.28932	7.87231
9838.466	-11.57193	7.57084	-11.25452	7.61592
9842.457	-11.59613	7.58299	-11.29166	7.11823
9846.466	-11.65801	7.57013	-11.24349	7.39157
9850.467	-11.53341	7.52847	-11.28140	7.63401
9854.463	-11.57791	7.56858	-11.40446	7.51475
9858.497	-11.35666	7.51822	-11.25786	7.45919
9862.479	-11.21744	7.45891	-11.23767	7.51065
9866.466	-11.55011	7.46721	-11.31624	7.51748
9870.456	-11.46785	7.33267	-11.52226	6.63324
9874.464	-11.49729	6.52448	-11.51373	4.45727
9878.460	-11.35697	5.03104	-11.47383	3.15249
9882.463	-11.47681	3.83884	-11.57155	1.82913
9886.458	-11.86348	2.91101	-11.60432	1.16099
9890.472	-11.96990	2.66585	-12.01879	1.31561
9894.465	-12.13197	2.33935	-12.21407	1.31052
9898.465	-12.40297	2.12241	-11.40288	0.75598
9902.458	-11.81627	2.41706	-12.34380	1.21343
9906.464	-11.74213	2.36129	-12.13875	1.10877
9910.470	-11.89247	2.35046	-11.82185	1.08172
9914.457	-12.00937	2.28989	-12.64714	1.24056
9918.469	-11.67503	2.53734	-12.24239	0.93816
9922.458	-11.64637	2.64867	-12.31502	0.72005
9926.461	-11.99042	2.56777	-12.55247	0.52994
9930.459	-11.45682	2.33681	-12.77452	0.63721
9934.465	-11.48029	2.31440	-12.47312	0.83855
9938.463	-11.31075	2.58135	-12.20880	0.59611
9942.459	-11.26846	2.59785	-12.36099	0.59494
9946.335	-11.46826	2.59232	-12.39400	0.74633
9950.334	-11.31209	2.56239	-12.37506	0.71681
9954.330	-11.63823	2.69598	-12.38351	0.27067
9958.338	-11.18114	2.77144	-12.29296	0.33241
9962.333	-11.64844	2.88155	-12.56777	0.71031
9966.377	-11.38588	2.64594	-12.78151	0.65490
9970.343	-11.50496	2.54809	-12.43125	0.33733
9974.332	-11.52388	2.33786	-12.48556	0.66665
9978.333	-11.33492	2.63392	-12.29460	0.92836
9982.345	-11.40114	2.79767	-12.52632	0.82599
9986.333	-11.52116	2.69150	-12.63057	0.70633
9990.370	-11.30889	2.55396	-12.50905	0.74916
9994.349	-11.35589	2.51675	-12.62355	0.78398
9998.333	-11.32163	2.53641	-12.34188	0.82539
10002.331	-11.08524	2.58569	-12.43237	0.81353
10006.332	-11.11026	2.53602	-12.53055	0.54698
10010.333	-10.85780	2.54116	-12.44863	0.59056
10014.343	-11.19791	2.52490	-12.58105	0.72751
10018.340	-11.20545	2.60907	-12.51239	0.68373
10022.335	-11.37839	2.56457	-12.36793	0.66848
10026.336	-10.99370	2.54239	-12.55635	0.74931
10030.336	-10.93323	2.47226	-12.57304	0.86759
10034.336	-11.19015	2.40771	-12.54039	0.90233
10038.334	-11.19566	2.49747	-12.45743	0.85886
10042.335	-11.04647	2.55924	-12.44555	0.90055
10046.332	-10.77256	2.49128	-12.66188	0.93487
10050.335	-11.24963	2.57691	-12.54826	1.06193
10054.332	-11.07379	2.71041	-12.61568	0.97824
10058.334	-11.02976	2.51820	-12.50990	0.89609
10062.336	-10.90884	2.51530	-12.59779	0.82375
10066.333	-10.88432	2.35000	-12.52847	0.62824
10070.331	-10.89355	2.87149	-12.58713	0.71518
10074.334	-10.95227	2.79090	-12.47721	0.85137
10078.331	-10.97057	2.48432	-12.28142	0.84835
10082.330	-11.03086	2.70219	-12.44181	0.73108
10086.331	-10.87012	2.39184	-12.62032	0.57494
10090.334	-11.04859	2.59203	-12.42572	0.43891
10094.333	-11.05531	2.48426	-12.32558	0.48879
10098.329	-10.93110	2.52493	-12.58082	0.57501
10102.365	-10.42370	2.37058	-11.95589	0.46412
10106.341	-8.73077	1.69418	-9.06066	-0.08861
10110.331	-5.58948	-1.47948	-7.12845	-2.89639
10114.336	-5.04595	-1.72997	-4.23290	-3.59981
10118.330	-3.08144	-4.01677	-3.58623	-4.51873
10122.331	-3.26040	-2.56215	-2.60701	-4.67115
10126.332	2.17356	-4.32589	-2.11703	-5.38750
10130.331	5.04479	-4.13144	-3.61547	-6.07204
10134.330	3.27487	-5.14527	-4.28597	-4.79706
10138.331	4.68898	-3.56689	-2.74217	-2.85497
10142.333	5.25202	-4.13708	-3.20201	-5.50098
10146.336	4.21822	-2.87093	-2.26894	-4.33114
10150.335	4.45066	0.40394	-4.09352	-4.65557
10154.335	4.78516	-2.60913	-3.20644	-4.57780
10158.333	4.63163	-4.20596	-3.92410	-5.17836
10162.335	2.12652	-6.08132	-2.74209	-6.89585
10166.327	2.84863	-7.30928	-3.75776	-6.95985
10170.332	2.11252	-6.32273	-4.21558	-6.61185
10174.333	2.46248	-5.40083	-4.32177	-6.52154
10178.333	4.04283	-5.78878	-1.83112	-6.47910
10182.332	4.06214	-4.97364	1.90336	-6.36629
10186.337	4.27508	-5.08736	0.88550	-5.58708
10190.333	4.03292	-5.86883	1.15434	-6.12550
10194.331	1.87411	-5.77180	0.96281	-6.46886
10198.334	2.04607	-5.87576	0.98913	-6.52150
10202.334	2.29153	-6.44277	0.90475	-6.49836
10206.329	2.20587	-5.94802	1.08557	-6.54752
10210.331	2.22099	-5.80003	1.03114	-6.63425
10214.328	2.39044	-5.69073	0.90416	-6.69443
10218.334	2.32513	-5.90310	1.07215	-6.52822
10222.330	2.36747	-6.41428	1.02082	-6.48474
10226.334	2.42849	-6.22608	0.95130	-6.69826
10230.330	2.09234	-5.82234	0.96065	-6.73865
10234.340	2.16377	-5.64800	0.97293	-6.84196
10238.374	2.12372	-6.50199	1.02645	-7.00303
10242.335	2.26133	-6.60315	1.10058	-6.93239
10246.333	2.31978	-6.87865	1.17706	-7.06741
10250.329	2.22307	-6.70246	1.18284	-7.04204
10254.334	2.36631	-6.75275	1.08927	-7.07462
10258.325	2.10721	-6.79551	1.21953	-7.12506
10262.335	1.98772	-6.83548	1.11261	-7.18188
10266.357	2.03819	-6.55563	1.18366	-7.24085
10270.336	2.04669	-6.15592	1.24367	-7.20103
10274.326	2.09985	-6.99298	1.22199	-7.14663
10278.332	2.20401	-6.91718	1.04811	-7.14243
10282.329	2.25429	-7.02285	1.01174	-7.11108
10286.331	2.25779	-6.83729	1.16627	-7.21799
10290.325	2.35303	-6.57622	1.06034	-7.26189
10294.332	2.22780	-6.61454	1.17076	-7.19702
10298.328	2.05834	-6.61324	1.12710	-6.94731
10302.331	2.04701	-6.45947	1.12735	-7.30986
10306.330	2.09660	-6.76693	1.21834	-7.25003
10310.331	2.00229	-7.09100	1.23680	-7.31583
10314.339	1.92800	-7.30357	0.99792	-7.35134
10318.331	1.97976	-7.22686	1.23466	-7.18526
10322.331	2.01345	-7.11915	1.11050	-7.40249
10326.323	2.12830	-6.79640	1.15270	-7.33629
10330.333	2.09066	-6.65529	1.17212	-7.45200
10334.341	2.16800	-6.44441	1.13392	-7.41330
10338.336	2.02235	-6.47524	1.18192	-7.45718
10342.323	2.16558	-6.72708	1.30940	-7.40745
10346.331	2.15908	-6.70414	1.16483	-7.39651
10350.327	2.12895	-6.92327	1.08239	-7.41094
10354.335	2.05606	-7.04176	1.03650	-7.36533
10358.327	2.17544	-7.18377	1.16863	-7.27331
10362.362	2.20255	-7.07518	1.19966	-7.42852
10366.339	2.35826	-6.94891	1.23238	-7.42179
10370.324	2.28430	-6.70348	1.26770	-7.48754
10374.357	2.37657	-6.60796	1.47198	-7.41364
10378.339	2.29998	-7.15623	1.17329	-7.41320
10382.326	2.17700	-6.93161	1.18909	-7.38521
10386.331	2.17269	-6.84715	1.17485	-7.44654
10390.326	2.17983	-6.82393	1.19686	-7.44866
10394.326	2.19526	-6.96938	1.09400	-7.37893
10398.334	2.32607	-6.89333	1.36018	-7.29663
10402.330	2.21816	-6.80658	1.38602	-7.34875
10406.326	2.14069	-6.81787	1.32848	-7.30276
10410.326	2.19809	-6.88952	1.14464	-7.22868
10414.339	2.13772	-6.99548	1.13008	-7.25050
10418.333	2.04721	-7.01988	1.07014	-7.19169
10422.324	1.98457	-7.07741	1.17081	-7.22656
10426.330	2.22010	-6.93575	1.41375	-7.12855
10430.327	2.36978	-6.92380	1.46685	-6.92678
10434.326	1.96821	-7.29416	1.39398	-7.24050
10438.339	2.22349	-7.24263	1.47791	-7.19078
10442.328	2.10689	-7.09673	1.13417	-7.23389
10446.329	1.96348	-6.87791	1.08418	-7.30312
10450.323	2.07095	-6.90159	1.10859	-7.34581
10454.326	2.08473	-7.00988	1.30124	-7.34111
10458.324	2.43362	-6.57669	1.49173	-7.40092
10462.325	2.23452	-6.24038	1.27430	-7.31223
10466.329	2.64609	-4.89480	1.31024	-6.35247
10470.326	2.92663	-4.57855	1.40157	-5.44700
10474.324	2.51846	-4.33312	1.35668	-4.39059
10478.336	2.65872	-3.68148	1.29804	-3.72486
10482.349	2.66969	-3.59059	1.38659	-4.31049
10486.385	2.51542	-3.80193	1.48563	-4.24294
10490.338	2.63460	-3.83654	1.62487	-5.09039
10494.324	2.93396	-4.00704	1.54753	-5.44039
10498.328	2.81305	-4.04890	1.71650	-4.83042
10502.320	2.85923	-4.12294	1.51938	-4.52405
10506.329	2.96973	-3.67743	1.72763	-4.65012
10510.324	2.88376	-3.78968	1.87014	-4.73440
10514.331	2.90153	-3.73413	1.93824	-4.55669
10518.331	2.88297	-3.62685	1.77209	-4.50447
10522.326	3.01675	-3.68370	1.74305	-4.61864
10526.332	2.86363	-3.75570	1.86142	-4.58249
10530.323	2.89594	-3.45335	1.94783	-5.03554
10534.328	3.06140	-3.52055	1.76978	-4.70106
10538.319	3.08919	-3.64752	1.74370	-4.59391
10542.329	2.96332	-3.68195	1.77248	-4.67495
10546.323	2.87131	-3.39719	1.79557	-4.55163
10550.328	2.91309	-3.12838	1.90688	-4.71735
10554.328	2.93121	-3.12254	1.96377	-5.01646
10558.325	3.02984	-3.46300	1.74638	-4.70551
10562.328	3.38662	-3.71540	1.65379	-4.67425
10566.323	2.86341	-3.24151	1.73926	-4.55592
10570.324	2.75024	-3.04380	1.65193	-4.76078
10574.326	2.80954	-2.94880	1.61339	-4.70575
10578.325	3.06004	-3.20821	1.67040	-4.69768
10582.320	2.87215	-2.67737	1.79626	-4.68375
10586.328	2.91624	-3.05997	1.77714	-4.61880
10590.322	3.11831	-3.13516	1.91330	-4.71230
10594.328	3.37873	-3.26279	1.93043	-4.67069
10598.319	3.55342	-3.32649	1.88331	-4.64076
10602.335	3.38684	-3.15159	1.74652	-4.59746
10606.328	3.23868	-3.20900	1.79986	-4.47419
10610.324	3.31165	-3.25476	1.88137	-4.53831
10614.340	3.16884	-3.40615	1.85576	-4.55390
10618.324	3.25068	-3.58293	1.94664	-4.54961
10622.332	3.19840	-3.94228	1.91229	-4.48823
10626.322	3.14872	-3.81436	1.96082	-4.49298
10630.322	3.14095	-3.97240	1.97860	-4.54245
10634.327	3.10631	-3.72520	1.96030	-4.64623
10638.319	3.13736	-3.54405	1.90262	-4.45075
10642.327	3.03667	-3.46802	1.91960	-4.49625
10646.326	3.03239	-2.72742	1.96965	-4.50816
10650.324	3.25943	-2.31077	1.99657	-4.53845
10654.324	3.16631	-1.79899	1.97557	-4.25249
10658.328	3.15236	-1.51243	3.48439	-4.34521
10662.323	3.36708	-1.18974	-1.46983	-4.41655
10666.322	3.86642	-1.37300	-4.14011	-3.80049
10670.317	4.02855	-0.73122	-4.95090	-2.64533
10674.327	-4.57206	-2.60941	-4.85655	-2.03404
10678.324	NaN	NaN	-2.31371	-2.30008
10682.321	NaN	NaN	NaN	NaN
10686.331	NaN	NaN	NaN	NaN
10690.325	NaN	NaN	17.60341	11.91890
10694.325	NaN	NaN	NaN	NaN
10698.315	NaN	NaN	NaN	NaN
10702.326	NaN	NaN	NaN	NaN
10706.379	NaN	NaN	NaN	NaN
10710.343	NaN	NaN	NaN	NaN
10714.598	NaN	NaN	NaN	NaN
10718.715	NaN	NaN	NaN	NaN
10722.485	NaN	NaN	NaN	NaN
10726.328	NaN	NaN	NaN	NaN
10730.326	NaN	NaN	NaN	NaN
10734.324	NaN	NaN	NaN	NaN
10738.321	NaN	NaN	NaN	NaN
10742.331	NaN	NaN	NaN	NaN
10746.327	NaN	NaN	NaN	NaN
10750.323	NaN	NaN	NaN	NaN
10754.325	NaN	NaN	NaN	NaN
10758.324	NaN	NaN	NaN	NaN
10762.323	NaN	NaN	NaN	NaN
10766.322	NaN	NaN	NaN	NaN
10770.316	NaN	NaN	NaN	NaN
10774.320	NaN	NaN	-20.97251	6.78035
10778.323	NaN	NaN	-20.88586	6.74662
10782.322	NaN	NaN	-3.35251	0.59787
10786.324	NaN	NaN	-20.03055	-12.07468
10790.313	NaN	NaN	-5.37453	1.79081
10794.325	NaN	NaN	-20.03456	-12.07438
10798.319	NaN	NaN	-6.61046	2.14889
10802.195	-9.27288	7.97593	-7.07244	1.67628
10806.200	-3.13954	4.82987	-3.36708	2.03685
10810.196	-1.00467	3.36387	-3.35874	2.00288
10814.192	-0.97291	3.75917	-4.69694	1.87694
10818.208	-0.63419	4.33606	-6.83318	1.94447
10822.194	-0.02859	3.27721	-6.89050	1.95636
10826.199	-3.12863	3.94795	-7.19048	2.27105
10830.189	-2.95188	3.95334	-1.81158	2.32317
10834.199	-3.08555	3.93672	-4.83627	2.08356
10838.193	-5.65297	4.36840	-4.41028	2.04421
10842.198	-3.15073	3.87884	-5.38909	2.36435
10846.192	-3.35323	3.92451	-5.43883	2.29052
10850.192	-3.53931	3.86997	-6.10401	2.27875
10854.195	-3.69276	3.88564	-5.67519	2.26681
10858.203	-3.86247	3.98526	-4.90442	2.23745
10862.190	-4.47543	3.99190	-5.11250	2.14396
10866.210	-4.58856	4.10103	-5.34865	2.18458
10870.197	-4.50557	4.16833	-4.76719	2.08288
10874.194	-4.09323	4.14156	-5.04472	2.18089
10878.193	-4.34522	4.20850	-4.77665	2.21324
10882.197	-4.19420	4.14111	-4.95997	2.22488
10886.194	-4.19245	4.19346	-4.95746	2.15154
10890.192	-4.23359	4.06388	-4.96031	2.11069
10894.193	-4.23587	4.10529	-4.77693	2.09089
10898.197	-4.23273	4.18301	-4.61982	2.17778
10902.199	-4.05564	4.28709	-4.62051	2.02239
10906.236	-4.02092	4.04953	-4.60301	2.06430
10910.203	-4.00205	4.09150	-4.82690	2.14120
10914.193	-3.95024	4.08934	-4.60471	2.06308
10918.211	-3.81605	3.87919	-5.49692	0.20646
10922.196	-3.88446	4.04940	-4.77436	1.96147
10926.235	-3.77436	3.83342	-4.73739	0.54341
10930.195	-3.70243	3.81939	-4.86892	-0.42808
10934.190	-3.72484	3.82779	-4.99613	1.53982
10938.191	-3.56477	3.82582	-4.99970	1.01478
10942.198	-3.61589	4.25878	-5.01832	0.43932
10946.194	-3.52514	3.84018	-5.05737	0.02490
10950.192	-3.48046	3.99461	-4.99613	0.07246
10954.190	-3.42888	4.03600	-5.01039	-0.11077
10958.191	-3.38926	3.89585	-4.97551	0.00911
10962.194	-3.25048	4.05520	-4.90464	0.52699
10966.187	-3.36248	4.27384	-4.88229	0.87254
10970.196	-3.37109	4.24286	-4.90737	2.27096
10974.191	-3.19536	3.93905	-4.94135	0.19946
10978.191	-3.27484	4.27609	-4.98603	0.85971
10982.196	-3.31877	4.32348	-4.96635	-0.04565
10986.195	-3.19172	4.26408	-5.06368	1.25825
10990.204	-3.33557	4.27970	-4.99600	-0.02315
10994.199	-3.38439	3.94767	-5.09382	1.44298
10998.190	-3.34385	4.42069	-5.03762	0.60908
11002.195	-3.43024	4.04305	-5.03359	0.14206
11006.186	-3.43205	2.99226	-5.09335	1.54078
11010.197	-3.37066	3.99798	-5.13890	1.50107
11014.209	-3.39000	3.95937	-5.08717	0.71490
11018.195	-3.39787	3.66598	-5.05137	0.36247
11022.191	-3.33114	3.43655	-4.94277	0.24566
11026.195	-3.28276	3.54631	-4.98135	2.24052
11030.195	-3.30844	3.30538	-4.97288	2.19421
11034.193	-3.21198	3.19793	-4.62379	1.84022
11038.194	-3.08362	2.96459	-4.80872	1.52545
11042.190	-3.07105	3.32341	-4.73153	1.86084
11046.190	-3.06706	3.25793	-4.63410	1.17450
11050.194	-3.07038	3.25829	-4.56299	1.69187
11054.225	-3.05622	3.25950	-4.58683	1.36885
11058.199	-3.06635	3.24880	-4.54920	1.46998
11062.193	-3.08473	3.21776	-4.52474	1.43265
11066.195	-3.05417	3.27204	-4.59275	1.98910
11070.189	-3.14706	3.20963	-4.54582	2.10951
11074.190	-3.19199	3.18708	-4.46038	1.71966
11078.192	-3.23714	3.12832	-4.47987	1.51465
11082.191	-3.30547	3.24239	-4.45612	1.77947
11086.189	-3.47784	3.23271	-4.40236	1.67182
11090.196	-3.64939	3.26170	-4.59258	2.40004
11094.190	-3.55943	3.14075	-4.69356	2.02606
11098.193	-3.65937	3.13611	-4.78449	2.08950
11102.186	-3.79210	3.10491	-4.79669	2.33101
11106.195	-3.75635	3.11616	-4.58703	2.04458
11110.196	-3.73987	3.14870	-3.75230	2.01119
11114.208	-3.76843	3.08719	-4.73569	1.95164
11118.190	-3.81748	3.10113	-4.57911	2.34734
11122.217	-3.79845	3.15452	-4.66921	2.22637
11126.198	-3.73013	3.22898	-4.06653	2.15081
11130.190	-3.94794	3.28170	-4.58634	2.20922
11134.193	-3.86052	3.31459	-4.51719	2.11838
11138.184	-3.79959	3.32649	-4.13505	2.03858
11142.192	-3.79502	3.31494	-4.14991	2.12742
11146.191	-3.81610	3.33178	-4.28533	2.25337
11150.197	-3.87112	3.30891	-4.36128	2.15017
11154.184	-3.92591	3.27986	-4.49812	2.15806
11158.192	-3.75279	3.32232	-4.34717	2.93366
11162.189	-3.68987	3.37178	-4.33614	2.28867
11166.193	-3.62605	3.31340	-4.33949	2.08229
11170.184	-3.99828	3.43484	-4.30038	2.63648
11174.215	-3.83010	3.32222	-4.55615	2.15779
11178.192	-3.90696	3.18106	-4.52301	1.95039
11182.194	-3.82887	3.14531	-4.48942	2.28703
11186.187	-3.93737	3.16033	-4.68309	2.23708
11190.240	-3.64842	3.51332	-4.59600	1.78608
11194.206	-3.75929	3.55441	-4.68760	1.33633
11198.187	-3.75237	3.25371	-4.46944	2.24883
11202.190	-3.74061	3.16494	-4.73771	1.94834
11206.184	-3.55869	3.60370	-4.58437	1.94028
11210.187	-3.71594	3.27236	-4.39639	2.11620
11214.198	-3.69407	3.36173	-4.49497	1.99835
11218.191	-3.50867	3.28757	-4.56350	2.10454
11222.188	-3.50432	3.68676	-4.54042	2.19840
11226.186	-3.49231	3.68026	-4.57317	2.08633
11230.191	-3.47784	3.56102	-4.55971	2.01920
11234.187	-3.41206	3.34563	-4.59179	1.58301
11238.196	-3.31353	3.32967	-4.59539	1.65334
11242.195	-3.29528	3.18290	-4.59743	1.99849
11246.183	-3.33893	3.18201	-4.52969	2.01847
11250.193	-3.46392	3.34992	-4.57578	2.07224
11254.188	-3.34813	3.39870	-4.48779	2.08914
11258.221	-3.39733	3.34652	-4.55381	1.94554
11262.198	-3.45329	3.22817	-4.46833	2.02163
11266.182	-3.48256	3.20733	-4.54922	1.78142
11270.191	-3.46763	3.14044	-4.48959	1.96986
11274.192	-3.37052	2.89467	-4.56881	1.96766
11278.192	-3.38533	2.97941	-4.63176	2.04841
11282.182	-3.45346	3.13065	-4.56119	2.03189
11286.191	-3.36604	3.25651	-4.48786	2.03036
11290.186	-3.39626	3.44851	-4.51554	2.00099
11294.190	-3.33300	3.35008	-4.67929	1.99276
11298.182	-3.25124	3.10918	-4.58977	1.86891
11302.193	-3.11482	2.96603	-4.54185	1.91605
11306.190	-3.16701	3.11315	-4.50589	1.84644
11310.183	-3.04133	3.25944	-4.47883	1.95853
11314.199	-3.05293	3.48248	-4.66992	1.93943
11318.197	-3.07813	3.49095	-4.55507	1.95157
11322.190	-3.20620	3.41794	-4.38294	1.83679
11326.229	-3.21406	3.05578	-4.31213	1.93887
11330.197	-3.13912	2.99437	-4.41465	1.96424
11334.215	-3.16985	3.35334	-4.53852	1.98108
11338.184	-3.16560	2.84317	-4.30423	1.96018
11342.185	-3.25698	2.71555	-4.43744	2.00845
11346.187	-3.44226	3.23845	-4.50005	1.94585
11350.185	-3.33428	2.81458	-4.43029	1.99607
11354.184	-3.59570	3.14174	-4.63551	1.83675
11358.195	-4.86916	2.55640	-5.74998	1.27237
11362.187	-6.03319	2.24449	-5.47171	0.03708
11366.186	-7.55601	1.23320	-6.55545	-0.41559
11370.184	-6.29259	1.57871	-6.38886	-0.59552
11374.187	-5.87597	1.76455	-6.08851	-0.74125
11378.184	-5.40712	2.14707	-6.13969	-0.43942
11382.181	-5.71487	1.81374	-5.98510	-0.56256
11386.184	-5.74519	1.68428	-6.36371	-0.39350
11390.187	-5.94195	1.56293	-6.40060	-0.40342
11394.188	-5.86912	1.57405	-6.34106	-0.51077
11398.196	-6.49347	1.76012	-6.37096	-0.72895
11402.191	-6.07820	1.37346	-6.50758	-0.69896
11406.185	-6.22167	1.14092	-6.39888	-0.63909
11410.183	-6.05277	1.31667	-6.30818	-0.68899
11414.200	-6.06632	1.43081	-6.33812	-0.59089
11418.187	-6.01839	1.79638	-6.50521	-0.44161
11422.184	-6.14798	1.72753	-6.43064	-1.08527
11426.186	-6.05108	1.37345	-6.45410	-0.92889
11430.181	-6.05466	1.11685	-6.40070	-0.70415
11434.189	-6.01432	1.35702	-6.46502	-0.66594
11438.184	-6.06004	1.49854	-6.47639	-0.51938
11442.194	-6.02801	1.19921	-6.37633	-0.33282
11446.179	-6.07366	1.35784	-6.43819	-0.26675
11450.189	-6.00754	1.58906	-6.42633	-0.33372
11454.184	-6.01510	1.54002	-6.40697	-0.42814
11458.188	-5.95098	1.52163	-6.49693	-0.39330
11462.215	-5.99237	1.55362	-6.54007	-0.35154
11466.187	-5.92071	1.51794	-6.46203	-0.60916
11470.184	-6.01255	1.39919	-6.59887	-0.49114
11474.186	-6.01785	1.37887	-6.52581	-0.29702
11478.183	-5.99330	1.35923	-6.59145	-0.31794
11482.187	-6.02686	1.12733	-6.32784	-0.29694
11486.185	-5.91838	1.35751	-6.57352	-0.28263
11490.187	-5.95604	1.39958	-6.59753	-0.17338
11494.180	-5.87356	1.18556	-6.46924	-0.11308
11498.183	-5.95250	1.04620	-6.52779	-0.23217
11502.186	-5.96799	1.31416	-6.59326	-0.15635
11506.185	-5.92923	1.27937	-6.50104	-0.31444
11510.183	-6.06041	1.24733	-6.51332	-0.13742
11514.200	-5.89168	1.21656	-6.47316	-0.10612
11518.191	-5.77740	0.96751	-6.50420	-0.10960
11522.181	-5.90229	1.24922	-6.48080	-0.00775
11526.193	-5.90102	1.33374	-6.64454	0.04290
11530.186	-5.75362	1.30307	-6.58878	-0.07250
11534.185	-5.84564	1.28006	-6.72274	-0.13951
11538.185	-5.95790	1.28765	-6.49340	-0.36017
11542.182	-5.87037	1.36981	-6.55856	-0.16468
11546.181	-5.76676	1.26662	-6.70563	-0.22687
11550.182	-5.79971	1.25815	-6.65639	-0.17832
11554.185	-5.89151	1.26864	-6.64462	0.13267
11558.187	-5.74369	1.35845	-6.69978	-0.02502
11562.183	-5.92486	1.30999	-6.70761	-0.13791
11566.189	-5.90983	1.34466	-6.61092	-0.10725
11570.180	-5.72826	1.43650	-6.67079	0.00733
11574.180	-5.95844	1.17337	-6.70049	-0.66185
11578.183	-5.85210	1.39609	-6.52583	0.12070
11582.181	-5.87309	1.29235	-6.67821	-0.17323
11586.180	-5.78870	1.38933	-6.71530	0.02601
11590.180	-5.81000	1.50341	-6.62473	0.01565
11594.183	-5.94686	1.43006	-6.63693	-0.79752
11598.185	-5.73482	1.53400	-6.43113	-0.04366
11602.183	-5.62244	1.40705	-6.56485	-0.18465
11606.184	-5.60214	1.29494	-6.53250	-0.19476
11610.185	-5.36093	1.53762	-6.67779	-0.04803
11614.201	-5.02056	1.43822	-6.13257	0.22671
11618.184	-4.78708	1.51368	-5.78293	0.03696
11622.180	-5.33536	1.48181	-6.32968	0.00682
11626.183	-5.37662	1.43199	-6.45816	0.04946
11630.181	-5.14485	1.47311	-6.10460	-0.06177
11634.179	-5.37318	1.41983	-5.75362	0.04490
11638.181	-4.92292	1.31583	-6.44415	0.32378
11642.183	-5.10847	1.45120	-6.22996	0.05635
11646.180	-5.14707	1.62646	-5.97806	0.14468
11650.184	-4.93883	1.45168	-5.95319	0.17689
11654.059	-5.06205	1.46185	-6.13137	0.11901
11658.058	-5.15731	1.45799	-6.07776	0.12451
11662.057	-4.94962	1.42281	-6.06262	0.10178
11666.216	-5.16659	1.42983	-6.47397	0.09523
11670.057	-5.15549	1.56407	-6.04870	0.00319
11674.057	-5.06974	1.49562	-6.11285	0.09905
11678.061	-5.01573	1.49342	-6.11253	0.08141
11682.060	-5.07264	1.59351	-6.10257	0.09775
11686.057	-5.21821	1.74820	-6.15036	0.13700
11690.059	-5.02839	1.93069	-6.04458	0.09993
11694.054	-5.04181	2.18723	-6.09626	0.08040
11698.063	-5.16620	1.99642	-5.97639	0.16030
11702.055	-5.15244	2.08350	-6.10274	0.16261
11706.053	-4.97329	1.53651	-6.05059	0.11107
11710.056	-5.01694	1.90627	-6.04598	0.12210
11714.053	-5.17469	2.08140	-6.01834	0.25886
11718.059	-5.16506	1.88894	-6.04468	0.18234
11722.053	-5.28323	2.27526	-6.11157	0.12880
11726.059	-5.00989	2.20676	-6.06583	0.05036
11730.050	-5.18397	1.96240	-6.06811	0.01379
11734.109	-5.10394	2.18351	-6.07543	0.04455
11738.071	-5.15709	2.00542	-6.05059	0.05058
11742.065	-5.27122	2.02705	-6.06590	-0.01594
11746.057	-4.77917	2.02186	-6.04890	0.04208
11750.053	-4.95526	1.85612	-6.10492	-0.03919
11754.056	-5.08020	2.15037	-6.07521	-0.04077
11758.054	-4.92361	1.68283	-6.22804	-0.06628
11762.053	-4.93472	2.16761	-6.17514	-0.03632
11766.088	-4.91454	1.67842	-6.25497	-0.03767
11770.054	-4.98632	2.17641	-6.31220	0.03529
11774.056	-5.10019	1.83487	-6.28879	-0.00692
11778.052	-4.99687	2.04380	-6.29313	-0.02339
11782.063	-5.16164	1.86868	-6.36979	-0.03811
11786.054	-5.11863	1.93994	-6.40523	-0.07082
11790.056	-5.31300	1.86440	-6.41996	-0.06862
11794.050	-5.17053	2.14876	-6.39334	-0.41684
11798.056	-5.26398	1.94616	-6.44096	-0.00388
11802.082	-5.19788	2.02494	-6.44841	0.07116
11806.056	-5.32036	2.08234	-6.42427	0.09346
11810.057	-5.20853	2.03608	-6.42604	0.00775
11814.058	-5.19071	2.05626	-6.48433	0.01595
11818.054	-5.32796	2.01296	-6.26301	0.03685
11822.057	-5.20260	2.07599	-6.42682	0.10778
11826.055	-5.19357	2.11892	-6.43113	-0.09877
11830.052	-5.06619	2.07708	-6.19942	-0.07083
11834.051	-4.76130	1.83308	-6.06524	0.12459
11838.051	-2.60996	2.09059	-3.99615	0.20778
11842.055	0.70444	2.23765	-1.69046	1.12675
11846.052	2.66295	2.73250	0.91564	1.34573
11850.051	4.50745	3.28292	2.42659	2.17610
11854.052	5.97305	2.93933	4.13401	2.01663
11858.054	7.07896	3.13457	4.71982	1.96351
11862.062	8.08161	3.36638	5.80914	0.75747
11866.060	8.41782	3.70892	6.39638	1.48001
11870.053	8.68109	3.73870	6.86885	1.95273
11874.056	8.78932	3.79880	7.58356	1.86845
11878.046	8.38709	3.91744	7.63811	1.72447
11882.072	7.97079	3.84110	7.16683	2.00570
11886.056	8.04796	3.92558	7.10738	2.02392
11890.052	7.86734	3.94478	7.37013	1.75215
11894.051	8.17138	3.91508	7.37475	1.62781
11898.052	8.64711	3.91379	7.47539	1.74944
11902.054	8.94203	4.00555	7.59000	1.74635
11906.054	9.04522	4.07893	7.61887	1.77610
11910.055	8.80980	4.06228	7.51681	1.96793
11914.063	9.01067	4.05170	7.48895	2.00829
11918.056	9.01871	3.99606	7.53769	1.91149
11922.050	9.21212	4.07766	7.56081	1.83666
11926.051	9.31105	4.05373	7.58749	1.77074
11930.050	9.30029	4.04759	7.52296	1.74337
11934.054	9.34981	4.02979	7.56452	1.88750
