time (ms)	lx (deg)	ly (deg)	rx (deg)	ry (deg)
0.000	15.16153	-0.01300	13.34167	-1.33284
3.976	12.98685	-0.49540	10.73897	-1.20919
7.981	10.47420	-1.32112	9.57696	-1.21462
11.975	9.19491	-1.74750	8.25865	-0.59915
16.011	8.48901	-1.97655	6.83374	0.61383
19.996	7.87085	-2.13240	5.81869	-0.35479
23.989	5.15128	-2.29099	4.41608	0.00188
27.977	5.08377	-2.46565	3.98457	0.55328
31.977	4.70665	-2.58286	3.21436	1.02487
35.984	4.35718	-2.64906	3.07523	1.36425
39.978	4.27795	-2.79954	2.96379	0.45586
43.975	4.60959	-2.86796	3.27734	1.00035
47.971	4.74587	-2.87217	3.45937	0.67649
51.986	4.56903	-3.06926	3.27977	0.89350
55.968	4.36446	-3.17651	3.24667	0.87371
59.984	4.15853	-3.24913	2.81026	0.92637
63.979	4.19232	-3.31914	3.05170	1.04517
67.974	4.20420	-3.38990	3.04405	0.98738
71.977	4.20553	-3.43711	2.71728	0.82418
75.978	4.14357	-3.45852	2.77711	1.05401
79.977	4.15769	-3.44942	2.59708	0.89390
83.978	4.28935	-3.41214	2.69435	0.18993
87.975	4.34127	-3.38194	2.90599	0.35138
91.975	4.37362	-3.20678	2.81241	0.85054
95.983	4.34838	-2.97231	2.63212	-0.02162
99.972	4.52878	-2.69516	2.49674	0.60657
103.992	4.35092	-3.24788	2.71305	0.40259
107.984	4.50204	-3.43746	3.25169	0.17366
111.978	4.62520	-3.38830	2.77072	0.27126
115.979	4.52350	-3.16387	2.77260	-0.22286
119.971	4.59941	-2.90748	2.70136	-1.89729
123.973	4.68987	-2.80191	3.18499	-0.15090
127.963	4.70628	-2.59858	2.82939	-0.14807
131.976	4.66536	-3.83942	3.08505	-0.37204
135.981	4.70461	-3.94786	3.18591	0.18226
139.974	4.71836	-3.66511	2.97596	-0.44603
143.977	4.69093	-3.62709	3.06941	-1.04426
147.992	4.72963	-3.62383	3.38160	-0.50570
151.975	4.68696	-3.32001	3.18717	-0.14462
155.977	4.64123	-3.25574	2.87923	-0.63045
159.976	4.65723	-3.18410	3.08211	0.17521
163.976	4.62663	-3.18846	3.10925	0.23951
167.970	4.58587	-3.15557	3.06429	0.29344
172.012	4.50249	-3.21830	3.28123	0.46225
175.984	4.41936	-3.23343	3.23682	-0.73281
179.974	4.39190	-3.11249	3.14132	-0.01737
183.985	4.35296	-3.09487	3.16362	0.09599
187.981	4.43826	-3.11961	3.06679	-0.08114
191.975	4.41489	-3.08913	2.93203	-0.00392
196.002	4.51536	-3.07986	2.71456	-0.24965
199.973	4.59891	-3.10524	2.82984	-0.26611
203.982	4.53978	-3.07571	2.83806	-0.25558
207.972	4.48594	-3.16900	2.73459	-0.25531
211.969	4.56412	-3.19469	2.97242	-0.36322
215.981	4.64621	-3.28327	2.90022	-0.12118
219.974	4.77397	-3.27633	2.74531	-0.14043
223.967	4.76524	-3.46133	2.82373	-0.19272
227.986	4.84127	-3.48712	2.78406	-0.03428
231.978	4.98650	-3.42070	3.25399	-0.03506
235.969	5.47670	-3.41283	3.13788	0.11012
240.061	4.87463	-3.46514	2.88955	-0.00876
243.997	4.90858	-3.50936	2.92700	0.01511
247.974	5.01356	-3.66804	3.05358	0.05484
251.974	4.92785	-3.43793	3.08404	0.10930
255.974	5.14089	-3.25912	3.14622	0.18656
259.970	5.34585	-3.09630	3.30695	0.22166
263.988	5.14894	-2.95892	3.19613	0.21816
267.968	5.01718	-2.41495	3.08038	0.24404
271.980	5.59791	-2.71917	3.17670	0.13849
275.973	5.26927	-2.76146	3.15557	0.08977
279.979	5.25079	-2.64836	3.09052	0.13183
283.967	5.44394	-2.60786	3.16619	0.02546
287.969	5.26071	-2.48146	3.24081	0.10301
291.970	5.51568	-2.51967	3.32281	0.20362
295.973	5.18872	-2.34372	3.39960	0.24870
299.969	5.28020	-2.46829	3.43467	0.35733
303.968	5.41332	-2.35989	3.43541	0.26208
307.971	5.22397	-2.43534	3.44921	0.42858
311.977	5.27744	-2.82380	3.54480	0.29013
315.971	5.33888	-3.03616	3.54292	0.32413
319.974	5.11108	-2.61096	3.61676	0.39463
323.968	5.39738	-2.58199	3.62274	0.50071
327.983	5.09918	-2.45593	3.66392	0.37440
331.969	5.28438	-2.39907	3.67393	0.50993
335.977	5.21858	-2.51549	3.66147	0.55063
339.969	5.25579	-3.47693	3.61592	0.35793
343.970	5.17713	-3.13393	3.64948	0.45507
347.972	5.11268	-2.92798	3.63554	0.36045
351.977	5.24179	-2.81740	3.60363	0.29522
355.979	5.10307	-2.78735	3.59955	0.22461
359.969	5.21484	-2.73620	3.56395	0.21277
363.973	5.16078	-2.47849	3.63020	0.32973
367.973	5.14626	-2.56187	3.59149	0.22571
371.969	5.21530	-2.54790	3.59224	0.27466
375.977	5.21474	-2.49851	3.53874	0.33440
379.972	5.15204	-2.34739	3.49950	0.26588
383.971	5.11213	-2.38035	3.51186	0.20745
387.989	5.13833	-2.34211	3.41201	0.19948
391.968	5.13552	-2.21894	3.54391	0.18185
395.978	5.15610	-2.20431	3.48852	0.10970
399.842	5.17016	-2.12145	3.49127	0.07481
403.841	5.12560	-2.11141	3.43086	0.01081
407.849	5.06572	-2.14177	3.46649	-0.01833
411.846	5.11334	-2.18155	3.52049	0.05067
415.859	5.06858	-2.15716	3.42989	0.14149
419.844	4.99682	-2.10780	3.48820	0.37881
423.845	4.20032	-1.98821	3.35894	0.57098
427.847	6.08372	-1.20232	-0.14605	1.00266
431.857	6.04369	-0.31405	0.00367	0.50949
435.842	-2.08649	1.56536	5.18375	5.35678
439.846	NaN	NaN	NaN	NaN
443.862	NaN	NaN	NaN	NaN
447.842	NaN	NaN	NaN	NaN
451.887	NaN	NaN	NaN	NaN
455.927	NaN	NaN	NaN	NaN
459.852	NaN	NaN	NaN	NaN
463.895	NaN	NaN	NaN	NaN
467.850	NaN	NaN	NaN	NaN
471.844	NaN	NaN	NaN	NaN
475.844	NaN	NaN	NaN	NaN
479.848	NaN	NaN	NaN	NaN
483.972	NaN	NaN	NaN	NaN
488.022	NaN	NaN	NaN	NaN
492.009	NaN	NaN	NaN	NaN
496.174	NaN	NaN	NaN	NaN
500.365	NaN	NaN	NaN	NaN
503.999	NaN	NaN	NaN	NaN
508.454	NaN	NaN	NaN	NaN
512.259	NaN	NaN	NaN	NaN
515.862	NaN	NaN	NaN	NaN
519.860	NaN	NaN	NaN	NaN
523.845	NaN	NaN	NaN	NaN
527.853	NaN	NaN	4.51887	-0.59099
531.835	NaN	NaN	0.23031	3.58537
535.853	NaN	NaN	1.18636	0.11133
539.844	NaN	NaN	5.98358	0.14208
543.838	NaN	NaN	6.97350	0.50037
547.842	3.04989	-3.69088	7.03010	1.19627
551.844	NaN	NaN	-0.31861	0.67523
555.848	1.60821	0.51525	1.02769	0.60327
559.845	4.76204	-0.90884	3.98311	0.73910
563.839	4.90277	-2.03284	0.71766	0.58513
567.845	5.18331	-2.23908	0.82640	0.83287
571.846	5.48361	-2.05659	3.32822	0.90720
575.866	5.05201	-2.11348	3.55288	0.99635
579.843	4.59213	-1.95837	3.80152	0.82550
583.844	4.87126	-2.07554	3.58991	0.87474
587.846	4.77271	-2.02104	3.39888	0.81297
591.842	5.00630	-2.02533	3.62850	0.54123
595.839	5.08035	-2.02831	3.42497	0.66417
599.841	5.02142	-2.15664	3.46901	0.64958
603.843	4.99135	-2.21600	3.37786	0.71482
607.838	4.98014	-2.16971	3.44686	0.68672
611.846	4.77986	-2.13962	3.40665	0.73849
615.841	4.86401	-2.10541	3.54450	0.82539
619.842	4.88311	-1.97751	3.47836	0.53951
623.841	4.80152	-1.91579	3.37722	0.59741
627.838	4.96322	-1.74028	3.28810	0.46847
631.840	4.81936	-1.91284	3.40405	0.57703
635.841	5.01344	-1.99568	3.41328	0.40218
639.849	4.84501	-2.03954	3.38264	0.45528
643.837	4.89464	-1.96152	3.40017	0.39475
647.830	4.81926	-2.02938	3.42670	0.25492
651.836	4.86389	-2.09037	3.39760	0.38984
655.854	4.88321	-2.17059	3.41570	0.22612
659.836	4.90846	-2.17983	3.32726	0.30275
663.837	4.92834	-2.21598	3.27314	0.43945
667.840	4.97265	-2.23418	3.28929	0.36646
671.849	4.89215	-2.27546	3.40284	0.42089
675.836	4.90715	-2.27336	3.42811	0.37335
679.838	4.83641	-2.25678	3.40717	0.36086
683.835	4.84960	-2.25108	3.40108	0.43079
687.837	4.85847	-2.24996	3.48471	0.22578
691.838	4.89823	-2.23870	3.56806	0.32114
695.833	4.92780	-2.22113	3.44817	0.16490
699.838	4.94886	-2.19896	3.49265	0.29302
703.836	5.03442	-2.23681	3.48039	0.22382
707.855	5.18833	-2.26486	3.43128	0.17023
711.844	5.16620	-2.31112	3.50796	0.10561
715.843	5.24543	-2.33272	3.47673	0.12694
719.843	5.25914	-2.29882	3.49906	0.10164
723.838	5.27329	-2.41865	3.51063	0.11518
727.840	5.30992	-2.54016	3.61342	0.07296
731.840	5.35025	-2.60720	3.56709	0.24389
735.847	5.31866	-2.60558	3.55955	0.27613
739.841	5.36026	-2.72395	3.66775	0.23300
743.834	5.32105	-2.73037	3.71538	0.44086
747.851	5.28608	-2.82137	3.73324	0.37896
751.844	5.23332	-2.94352	3.72388	0.30671
755.846	5.21237	-2.86001	3.69111	0.14194
759.839	5.14783	-2.92432	3.69978	0.24180
763.838	5.11763	-3.05764	3.63460	0.38713
767.833	5.11484	-3.03811	3.64316	0.30282
771.848	5.10007	-3.03379	3.54124	0.16741
775.839	5.05127	-3.04902	3.55073	0.23502
779.842	5.07621	-3.08973	3.45645	0.06300
783.846	5.07318	-3.09875	3.37888	0.16116
787.837	5.13284	-3.11783	3.32372	0.03694
791.837	5.13124	-3.01283	3.29352	0.26180
795.835	5.15610	-2.97093	3.31838	0.30952
799.841	5.11782	-2.50993	3.24496	0.50558
803.835	5.10655	-2.12510	3.51886	0.32461
807.838	5.13685	-2.33766	3.66202	0.48482
811.834	5.12058	-2.42010	3.44958	0.54706
815.841	5.11573	-2.61569	3.48551	0.46899
819.842	5.15428	-2.47612	3.41867	0.38474
823.834	5.20002	-2.60889	3.48120	0.25113
827.842	5.20718	-2.71514	3.60796	0.53792
831.839	5.24336	-2.74385	3.48667	0.61772
835.839	5.24540	-2.76547	3.51453	0.51970
839.838	5.25635	-2.86107	3.49836	0.44029
843.834	5.26908	-2.81226	3.49448	0.34627
847.844	5.34329	-2.76160	3.43697	0.44015
851.842	5.32383	-2.79375	3.42141	0.32174
855.833	5.32646	-2.86376	3.35785	0.33191
859.843	5.35674	-2.85525	3.45712	0.31630
863.847	5.34513	-2.89756	3.44931	0.26796
867.845	5.32087	-2.86687	3.44431	0.40549
871.833	5.28409	-2.85741	3.41713	0.36996
875.838	5.26539	-2.83188	3.54455	0.21034
879.837	5.24737	-2.81959	3.49203	0.24783
883.835	5.22084	-2.81944	3.51906	0.21890
887.830	5.20851	-2.82730	3.46528	0.13610
891.837	5.17949	-2.88408	3.46258	0.03790
895.847	5.18569	-2.90356	3.45037	0.12134
899.834	5.20590	-2.89287	3.36265	0.11074
903.848	5.17275	-2.87992	3.35592	0.20758
907.837	5.15234	-2.82970	3.31734	0.18162
911.835	5.14995	-2.81433	3.33028	0.12322
915.837	5.13577	-2.80982	3.31798	0.20781
919.836	5.20041	-2.81237	3.27096	0.17885
923.834	5.22864	-2.77021	3.29364	0.01799
927.841	5.20733	-2.70813	3.27353	0.15451
931.837	5.20590	-2.54542	3.26856	0.16074
935.837	5.22795	-2.50663	3.26975	0.34779
939.836	5.24304	-2.19442	3.26191	0.28478
943.838	5.18791	-2.00397	3.31044	0.20811
947.842	5.25549	-2.07016	3.37569	0.23499
951.835	5.30466	-2.02979	3.46476	0.35650
955.835	5.29100	-1.89291	3.47265	0.39931
959.832	5.32102	-1.93701	3.56880	0.35787
963.842	5.23236	-1.77631	3.61911	0.36187
967.863	5.20871	-2.13755	3.53570	0.34191
971.837	5.15916	-1.92644	3.52821	0.39740
975.830	5.11177	-2.09722	3.56405	0.25771
979.837	5.04484	-2.02802	3.51807	0.32917
983.834	5.05668	-2.34873	3.55093	0.31634
987.838	5.00965	-2.43178	3.58564	0.34162
991.830	5.00957	-2.37146	3.51995	0.31722
995.837	4.97095	-2.43311	3.48788	0.22965
999.833	4.95689	-2.29429	3.48798	0.30411
1003.836	4.99386	-2.21089	3.42712	0.23257
1007.835	5.06602	-2.41405	3.46840	0.44160
1011.833	5.16812	-2.15101	3.45269	0.42667
1015.861	5.21614	-2.02357	3.49386	0.38432
1019.832	5.15384	-1.98294	3.48781	0.22424
1023.830	5.29942	-2.17925	3.48551	0.31071
1027.870	5.25458	-2.00079	3.53884	0.24534
1031.840	5.25960	-2.13886	3.50175	0.17965
1035.832	5.28985	-2.02114	3.60410	0.22811
1039.835	5.26952	-2.02051	3.61874	0.32782
1043.835	5.35881	-2.14796	3.68564	0.28004
1047.834	5.39185	-2.21360	3.73127	0.46564
1051.834	5.41982	-2.22768	3.55117	0.69304
1055.836	5.37729	-2.34526	3.68171	0.65057
1059.835	5.33751	-2.51402	3.69770	0.51181
1063.835	5.36897	-2.47186	3.63797	0.77101
1067.841	5.33153	-2.56308	3.68569	0.65394
1071.833	5.45228	-2.50567	3.59963	0.67600
1075.836	5.36749	-2.59298	3.53646	0.74446
1079.831	5.40198	-2.68926	3.43988	0.84981
1083.830	5.38213	-2.66826	3.42609	0.83894
1087.842	5.30936	-2.57011	3.45611	0.75943
1091.840	5.17742	-2.59716	3.39287	0.63723
1095.829	5.21397	-2.79286	3.38904	0.51865
1099.834	5.18924	-2.63104	3.34190	0.48680
1103.831	5.07821	-2.55742	3.26985	0.24191
1107.836	4.99928	-2.56480	3.25033	0.30634
1111.837	4.95177	-2.65125	3.19739	0.19169
1115.838	5.10066	-2.75711	3.14179	0.21785
1119.834	4.97630	-2.44965	3.15214	0.12093
1123.833	4.88466	-2.54938	3.22544	0.07731
1127.834	4.89294	-2.74667	3.24368	-0.00690
1131.833	5.03186	-1.92541	3.24113	-0.05721
1135.830	4.96199	-2.71464	3.35612	-0.03143
1139.857	4.85953	-2.55249	3.44120	0.11581
1143.833	4.90220	-2.58091	3.57617	0.16435
1147.829	4.90156	-2.01308	3.74394	0.20353
1151.833	4.90496	-2.33439	3.69770	0.25524
1155.832	5.02915	-1.97358	3.75066	0.27771
1159.869	4.96443	-1.88824	3.74404	0.42284
1163.825	4.92179	-1.86413	3.80085	0.46717
1167.833	4.98485	-1.28275	3.63777	0.55823
1171.836	4.95504	-1.82828	3.61916	0.47664
1175.829	4.90750	-1.39195	3.77681	0.58314
1179.827	4.89227	-1.44832	3.80102	0.60571
1183.832	4.92206	-1.47381	3.71706	0.53421
1187.839	4.86951	-1.63804	3.65979	0.58247
1191.835	4.98241	-1.43894	3.66582	0.56013
1195.840	5.00556	-1.75825	3.66780	0.55023
1199.831	5.04624	-1.88739	3.68804	0.51729
1203.831	5.04819	-2.09834	3.68337	0.45265
1207.834	5.05201	-1.88038	3.66184	0.36285
1211.831	5.04959	-2.06677	3.70885	0.36077
1215.824	4.97046	-1.89461	3.72348	0.25501
1219.846	5.05905	-2.13596	3.72946	0.33029
1223.838	5.05196	-2.25805	3.72823	0.34536
1227.828	5.01748	-2.23558	3.70336	0.20857
1231.828	4.99704	-2.28147	3.72014	0.15431
1235.833	4.99554	-2.41780	3.61026	0.18161
1239.844	4.96674	-2.50031	3.53988	0.13150
1243.829	4.94859	-2.39654	3.54428	0.12247
1247.827	4.91733	-2.29480	3.52605	0.11783
1251.731	4.93563	-2.05450	3.59921	0.17544
1255.708	5.07392	-2.34849	3.50929	0.11608
1259.704	5.16627	-2.44910	3.54235	0.18829
1263.711	5.23160	-2.44978	3.51980	0.17751
1267.704	5.31827	-2.19988	3.54655	0.16007
1271.723	5.28908	-2.15240	3.55016	0.15112
1275.706	5.44434	-2.33478	3.55545	0.14504
1279.711	5.56982	-2.22581	3.57637	0.16458
1283.708	5.53441	-2.20065	3.59468	0.17566
1287.709	5.56460	-1.79177	3.58544	0.16666
1291.700	5.57222	-2.20113	3.60422	0.16199
1295.705	5.56364	-2.40334	3.52111	0.12647
1299.701	5.54420	-1.97481	3.55342	0.17383
1303.707	5.56979	-1.73545	3.54153	0.11354
1307.702	5.58481	-2.26822	3.56358	0.07232
1311.700	5.55416	-2.19683	3.48966	0.10278
1315.705	5.55219	-1.74444	3.40081	0.13472
1319.702	5.50997	-2.34257	3.37378	-0.22092
1323.716	5.47424	-2.32066	3.28889	0.13702
1327.711	5.43231	-2.18001	3.32812	0.11104
1331.702	5.31954	-2.28565	3.45939	0.04509
1335.703	5.34836	-2.50753	3.38813	-0.06705
1339.705	5.16342	-1.88351	3.59950	0.03239
1343.703	5.23955	-1.37142	3.46543	0.07101
1347.696	5.23211	-1.57100	3.45875	0.04078
1351.722	5.21400	-1.85634	3.50064	-0.07776
1355.699	5.14803	-1.89443	3.55142	0.15032
1359.713	5.11337	-1.90388	3.45593	0.02361
1363.707	5.11868	-1.70141	3.63920	0.04325
1367.744	5.12944	-1.64639	3.66352	0.12516
1371.705	5.13252	-1.71644	3.67025	0.04181
1375.704	5.19096	-1.63466	3.64118	0.06539
1379.697	5.12486	-1.60228	3.58386	0.04948
1383.707	5.16351	-1.61504	3.56299	0.04702
1387.708	5.10733	-2.03927	3.40677	0.15374
1391.711	5.05779	-2.10684	3.55053	0.23326
1395.711	5.05247	-2.07784	3.55332	0.32651
1399.706	5.03147	-2.31551	3.53154	0.32961
1403.703	4.94078	-2.46962	3.59486	0.33259
1407.714	4.88545	-2.55268	3.63270	0.33977
1411.702	4.88215	-2.51803	3.68658	0.26556
1415.703	4.79620	-1.96529	3.51216	0.27369
1419.696	4.79760	-1.71107	3.59671	0.28800
1423.702	4.79785	-2.44249	3.63488	0.25434
1427.699	4.80793	-2.40931	3.52583	0.25816
1431.703	4.82648	-2.26233	3.56245	0.16193
1435.697	4.92824	-1.93598	3.54625	0.17956
1439.705	5.14032	-1.60148	3.55184	0.10888
1443.700	5.03041	-1.74819	3.47663	0.02929
1447.703	5.27215	-2.09948	3.58672	0.06565
1451.761	5.24708	-1.76643	3.52326	0.02664
1455.700	5.03728	-1.64388	3.46043	0.01573
1459.694	5.25699	-1.80677	3.49933	-0.01560
1463.710	5.22035	-2.22039	3.46995	-0.04594
1467.702	5.11127	-1.91313	3.44602	-0.08642
1471.697	5.18879	-1.89345	3.54272	-0.03053
1475.707	5.14399	-1.91561	3.55510	-0.07577
1479.698	5.04839	-2.49822	3.63255	0.16318
1483.698	5.08503	-2.95993	3.60781	0.02458
1487.705	5.14613	-2.82234	3.61673	0.12648
1491.707	5.07360	-2.93448	3.62951	0.14250
1495.704	4.99460	-2.86856	3.62954	0.06646
1499.697	5.02016	-2.64203	3.58240	0.19714
1503.713	4.99248	-2.88635	3.57258	0.16103
1507.699	4.99423	-2.89864	3.53894	0.24241
1511.711	5.07673	-2.86954	3.51018	0.33399
1515.699	5.09522	-2.89160	3.42999	0.33793
1519.694	5.11521	-2.90975	3.43407	0.41006
1523.701	5.19322	-2.83996	3.49161	0.34726
1527.699	5.15706	-2.76274	3.44053	0.37452
1531.717	5.12895	-2.84977	3.44035	0.38106
1535.706	5.16076	-2.91917	3.41387	0.40402
1539.704	5.21260	-2.87828	3.38607	0.40467
1543.699	5.27169	-2.90192	3.34823	0.44688
1547.698	5.35133	-2.92840	3.40559	0.48955
1551.713	5.37288	-2.94670	3.50551	0.51335
1555.698	5.33573	-3.04074	3.45818	0.56861
1559.704	5.33544	-3.02545	3.44389	0.55188
1563.696	5.32114	-3.02315	3.46296	0.57615
1567.699	5.31767	-3.02092	3.42003	0.60075
1571.737	5.34966	-3.02330	3.39896	0.63923
1575.696	5.38147	-2.88695	3.40024	0.64662
1579.701	5.36769	-2.72227	3.38726	0.57885
1583.703	5.36336	-2.70804	3.34420	0.40196
1587.693	5.37000	-2.48825	3.37972	0.37246
1591.707	5.33541	-2.47276	3.37477	0.41691
1595.730	5.34405	-2.45403	3.34437	0.25459
1599.696	5.34848	-2.38000	3.35743	0.26074
1603.703	5.36147	-2.29513	3.40539	0.23347
1607.697	5.42749	-2.28228	3.50269	0.26231
1611.708	5.54789	-2.14219	3.86032	0.24436
1615.698	6.60465	-2.00552	5.35224	0.35661
1619.707	9.35022	-2.02482	7.96006	0.80749
1623.700	11.13480	-1.65309	9.48480	0.91895
1627.707	11.26345	-1.40877	9.62347	1.03186
1631.695	11.73681	-1.45577	9.81648	0.54373
1635.701	11.99847	-1.46863	10.04709	0.31287
1639.698	11.72591	-1.52274	10.04230	0.40844
1643.704	11.99716	-1.47777	9.99342	0.54375
1647.695	11.74830	-1.31011	10.01946	0.48063
1651.702	11.62821	-1.30049	10.06809	0.54507
1655.698	11.66863	-1.28660	10.17579	0.56044
1659.707	11.74137	-1.23709	10.17033	0.47202
1663.747	11.81382	-1.21917	10.27431	0.49465
1667.704	11.75006	-1.22947	10.32894	0.42265
1671.697	11.86215	-1.25541	10.37801	0.42898
1675.706	11.85388	-1.24575	10.41810	0.44626
1679.694	11.80459	-1.22487	10.43728	0.49305
1683.698	11.95132	-1.11379	10.52161	0.56068
1687.699	11.88133	-1.05900	10.54322	0.60627
1691.698	11.97997	-0.90612	10.55550	0.59638
1695.695	12.13232	-0.77576	10.51971	0.59850
1699.701	12.13183	-0.70335	10.48572	0.65513
1703.719	12.24355	-0.46233	10.55179	0.65403
1707.699	12.31405	-0.48362	10.58066	0.66606
1711.697	12.32805	-0.35783	10.58596	0.69142
1715.691	12.43540	-0.35838	10.55217	0.65474
1719.700	12.38202	-0.28482	10.58188	0.65443
1723.695	12.33939	-0.30336	10.48929	0.64732
1727.717	12.32928	-0.39924	10.46057	0.63808
1731.710	12.28436	-0.61543	10.42972	0.68310
1735.701	12.29751	-0.54340	10.45622	0.77244
1739.700	12.19996	-0.63615	10.51487	0.82032
1743.701	12.14568	-0.54033	10.52070	0.91437
1747.693	12.07047	-0.60169	10.51763	0.96664
1751.693	12.08150	-0.58903	10.44168	0.95552
1755.705	12.03778	-0.57552	10.39009	0.84577
1759.695	12.03194	-0.52532	10.37570	0.86961
1763.695	12.02582	-0.52419	10.34991	0.78018
1767.701	12.09235	-0.38871	10.36639	0.64374
1771.719	12.06622	-0.30154	10.33927	0.59440
1775.696	12.13396	-0.15949	10.35126	0.61831
1779.702	12.12046	-0.17502	10.37582	0.52338
1783.695	12.13757	-0.18376	10.37549	0.43136
1787.688	12.16477	-0.12721	10.39405	0.35510
1791.698	12.18917	-0.17597	10.49735	0.30224
1795.694	12.22601	-0.72151	10.48989	0.27107
1799.700	12.24934	-0.97896	10.51324	0.25478
1803.689	12.24472	-0.84082	10.53823	0.28920
1807.693	12.24000	-0.99276	10.52787	0.30094
1811.692	12.22187	-0.85546	10.55121	0.39547
1815.719	12.31362	-0.94928	10.53687	0.46160
1819.694	12.33764	-0.88226	10.51453	0.48286
1823.702	12.34979	-0.86761	10.46897	0.37584
1827.697	12.40796	-0.92931	10.42461	0.36893
1831.694	12.34699	-0.90529	10.38168	0.35346
1835.709	12.36708	-0.84695	10.48739	0.31459
1839.693	12.37463	-0.76954	10.48708	0.29541
1843.694	12.39731	-0.75229	10.50030	0.28432
1847.709	12.47245	-0.64082	10.58469	0.21996
1851.692	12.46604	-0.55304	10.65621	0.13043
1855.701	12.49836	-0.54710	10.67497	0.14041
1859.690	12.40605	-0.45331	10.68525	0.09787
1863.697	12.42643	-0.43003	10.82251	0.07283
1867.697	12.73975	-0.48188	11.08708	0.04831
1871.697	13.08324	-1.24702	12.37806	-1.68563
1875.701	13.37752	-3.48754	13.32813	-3.58564
1879.693	13.29558	-4.58491	13.39727	-4.68479
1883.699	13.46104	-4.54518	12.92696	-6.35470
1887.691	13.53392	-5.25675	13.16567	-6.45022
1891.703	13.35001	-5.86203	13.20621	-6.80542
1895.689	13.53434	-6.20715	12.72405	-7.15876
1899.700	13.57098	-6.30117	13.14753	-7.35331
1903.700	13.62209	-6.14983	13.09541	-7.38835
1907.695	13.69047	-5.86163	13.00537	-7.41363
1911.700	13.66231	-6.08634	13.02207	-7.35661
1915.698	13.68143	-6.14135	12.92298	-7.45466
1919.692	13.69399	-6.13529	12.87728	-7.53378
1923.691	13.68516	-6.24407	12.78687	-7.59975
1927.691	13.70692	-6.24994	12.65151	-7.58508
1931.695	13.68944	-6.30317	12.60441	-7.62949
1935.693	13.72957	-6.31011	12.55453	-7.67731
1939.702	13.72477	-6.32066	12.49907	-7.68357
1943.689	13.74149	-6.29835	12.44306	-7.66569
1947.697	13.73807	-6.34236	12.41897	-7.66899
1951.697	13.73154	-6.35978	12.41293	-7.67844
1955.702	13.78314	-6.35410	12.39904	-7.67899
1959.693	13.76554	-6.39209	12.42463	-7.64380
1963.688	13.79917	-6.40078	12.43260	-7.61992
1967.698	13.81085	-6.40986	12.45833	-7.58193
1971.693	13.83264	-6.40045	12.52795	-7.57505
1975.687	13.89309	-6.33103	12.52757	-7.52393
1979.716	13.84544	-6.33685	12.62511	-7.49553
1983.688	13.85592	-6.30613	12.63315	-7.47711
1987.694	13.83718	-6.32520	12.63679	-7.47212
1991.711	13.82840	-6.30666	12.68921	-7.45547
1995.692	13.78771	-6.36530	12.72752	-7.43756
1999.690	13.77497	-6.39675	12.72171	-7.47087
2003.692	13.81125	-6.38825	12.64680	-7.52126
2007.693	13.78569	-6.37696	12.63296	-7.57123
2011.685	13.83559	-6.30008	12.58919	-7.55402
2015.720	13.78244	-6.35204	12.62445	-7.53528
2019.687	13.65139	-6.49591	12.62232	-7.55014
2023.702	13.66737	-6.54865	12.56850	-7.56663
2027.688	13.57387	-6.67151	12.55923	-7.55729
2031.697	13.43458	-6.90908	12.48745	-7.53195
2035.688	13.49749	-6.85341	12.37285	-7.47927
2039.694	13.49713	-6.86948	12.18353	-7.56544
2043.688	13.42885	-6.92835	12.25903	-7.47892
2047.692	13.46336	-6.85898	12.31431	-7.42423
2051.746	13.51004	-6.76863	12.31900	-7.38122
2055.690	13.57147	-6.76283	12.34373	-7.33101
2059.696	13.59370	-6.68811	12.44119	-7.28314
2063.692	13.63953	-6.63830	12.37491	-7.32081
2067.690	13.70263	-6.50683	12.28986	-7.27792
2071.708	13.75680	-6.45511	12.15915	-7.27801
2075.694	13.81352	-6.47435	12.07692	-7.26964
2079.705	13.81965	-6.40323	12.20913	-7.26385
2083.689	13.91014	-6.35349	12.27728	-7.22364
2087.694	13.90487	-6.44787	12.32032	-7.21170
2091.691	13.93029	-6.46605	12.32333	-7.19608
2095.685	13.93363	-6.53024	12.33004	-7.18828
2099.685	13.91448	-6.55751	12.34707	-7.19362
2103.705	13.88560	-6.65499	12.35746	-7.18780
2107.573	13.87599	-6.67464	12.35019	-7.16061
2111.567	13.87962	-6.71722	12.38410	-7.15465
2115.568	13.88511	-6.71952	12.43298	-7.14766
2119.566	13.86224	-6.76578	12.44373	-7.13953
2123.569	13.84193	-6.79965	12.47799	-7.13336
2127.561	13.83510	-6.82504	12.48222	-7.11593
2131.563	13.82216	-6.80708	12.48431	-7.10008
2135.573	13.82569	-6.80626	12.52085	-7.08420
2139.566	13.81076	-6.80153	12.51856	-7.08381
2143.572	13.79667	-6.82104	12.51125	-7.07312
2147.562	13.81361	-6.81632	12.50314	-7.08184
2151.566	13.80570	-6.84310	12.49618	-7.07852
2155.571	13.81528	-6.83240	12.50789	-7.07467
2159.571	13.79175	-6.87631	12.51451	-7.06481
2163.563	13.83271	-6.86400	12.53677	-7.04739
2167.588	13.88495	-6.85760	12.53885	-7.05108
2171.563	13.86245	-6.86175	12.54140	-7.06270
2175.567	13.88015	-6.85113	12.54970	-7.05313
2179.561	13.90635	-6.82620	12.50633	-7.07117
2183.565	13.94200	-6.79353	12.48871	-7.06587
2187.559	13.89348	-6.83347	12.46774	-7.05178
2191.567	13.90756	-6.81204	12.48246	-7.03870
2195.561	13.89833	-6.77858	12.42522	-7.03278
2199.566	13.90048	-6.76739	12.40524	-6.99700
2203.569	13.93144	-6.69294	12.39182	-6.95656
2207.566	13.88493	-6.73503	12.34543	-6.93052
2211.560	13.86490	-6.73406	12.31338	-6.89326
2215.567	13.88355	-6.69872	12.29043	-6.84097
2219.562	13.92639	-6.60640	12.23706	-6.77173
2223.563	13.86724	-6.69776	12.20297	-6.76889
2227.564	13.83327	-6.74556	12.16261	-6.74506
2231.563	13.83096	-6.76830	12.15825	-6.69826
2235.560	13.79672	-6.80729	12.12691	-6.62465
2239.566	13.75441	-6.91039	12.15879	-6.60953
2243.572	13.69300	-6.98267	12.08857	-6.58689
2247.560	13.67644	-6.96655	12.02176	-6.60221
2251.602	13.65238	-7.00337	12.00172	-6.57620
2255.567	13.62957	-7.02514	11.95149	-6.54199
2259.560	13.62111	-7.04047	11.89252	-6.51030
2263.564	13.56704	-7.10120	11.84347	-6.57237
2267.561	13.55276	-7.10791	11.80628	-6.59716
2271.564	13.53967	-7.08791	11.78799	-6.60537
2275.566	13.53061	-7.07563	11.76380	-6.62299
2279.562	13.53312	-7.05396	11.71908	-6.69031
2283.564	13.51963	-7.04488	11.69436	-6.67292
2287.566	13.53852	-7.00511	11.70102	-6.65281
2291.568	13.51895	-7.00477	11.71484	-6.63172
2295.560	13.51605	-7.00814	11.74047	-6.62023
2299.564	13.51189	-6.99236	11.82506	-6.61997
2303.557	13.49528	-6.97692	11.83581	-6.65002
2307.582	13.49256	-6.95250	11.88333	-6.61010
2311.564	13.49070	-6.94936	11.83029	-6.59923
2315.559	13.50865	-6.96284	11.83106	-6.54974
2319.562	13.54047	-6.97442	11.76433	-6.49921
2323.566	13.58786	-6.95895	11.78386	-6.47738
2327.567	13.56015	-6.96540	11.75384	-6.45613
2331.559	13.55501	-6.96145	11.82556	-6.43005
2335.561	13.56570	-6.94727	11.74508	-6.42121
2339.562	13.57063	-6.93591	11.74116	-6.38451
2343.565	13.48641	-6.99263	11.70868	-6.37610
2347.562	13.44315	-7.00062	11.70797	-6.35672
2351.578	13.46496	-6.98661	11.78913	-6.32048
2355.558	13.51107	-6.92373	11.85119	-6.25753
2359.557	13.48425	-6.77974	11.88532	-6.13704
2363.570	13.41105	-6.40707	11.79674	-5.56501
2367.563	13.22961	-4.36363	11.32505	-2.45377
2371.589	13.32682	-1.76830	11.15219	-1.69574
2375.559	13.20475	-1.74372	10.74745	-0.01472
2379.554	13.11295	-0.24160	10.43452	1.86159
2383.569	12.97922	1.55544	10.40207	2.27160
2387.558	13.03786	1.76359	10.27167	2.55072
2391.555	12.87456	-0.02686	10.31513	2.49454
2395.565	12.75925	0.02886	10.40080	2.40933
2399.561	12.67641	0.22641	10.36197	2.36043
2403.555	12.70388	0.47317	10.42799	2.41004
2407.570	12.65859	0.43337	10.27501	2.52629
2411.586	12.66696	0.63081	10.14362	2.71209
2415.561	12.57850	0.91170	10.07687	2.90964
2419.557	12.54873	1.03364	10.08904	3.07732
2423.556	12.57602	1.06817	10.15343	3.04068
2427.563	12.56351	1.14496	10.18214	3.15855
2431.557	12.48497	0.87070	10.28416	3.13529
2435.573	12.42534	1.00407	10.20094	3.20718
2439.559	12.34868	0.99898	10.19678	3.24357
2443.565	12.39359	1.05051	10.13640	3.19256
2447.558	12.39916	1.01659	10.08765	3.16773
2451.570	12.40408	0.92680	10.07225	3.14846
2455.571	12.37529	0.97643	9.99931	3.27578
2459.557	12.41462	1.22671	10.03077	3.21732
2463.556	12.38360	1.43788	10.11406	3.19783
2467.559	12.37321	1.48055	10.16461	3.14549
2471.557	12.32269	1.79659	10.13119	3.09672
2475.565	12.35891	2.07558	10.11820	3.09941
2479.556	12.42607	2.20735	10.08681	3.07487
2483.559	12.44508	2.15975	10.11069	3.00510
2487.556	12.45239	2.11843	10.01546	2.95078
2491.567	12.36215	2.20891	10.08981	2.84661
2495.557	12.33610	2.28871	10.12123	2.94977
2499.557	12.28472	2.24903	10.13513	2.93888
2503.570	12.30760	2.26251	10.14756	3.00290
2507.557	12.37205	2.26646	10.19144	3.00990
2511.564	12.30959	2.31492	10.22760	3.08725
2515.559	12.38064	2.27206	10.18286	2.97052
2519.564	12.33108	1.83696	10.05397	2.93642
2523.569	12.34067	1.21417	10.04742	2.92774
2527.555	12.33949	1.46141	10.07432	3.00312
2531.559	12.37903	1.67619	10.15050	2.99494
2535.558	12.42157	1.65999	10.19640	2.87145
2539.580	12.42094	1.69362	10.09535	2.85486
2543.556	12.44543	1.54559	10.10001	2.88115
2547.559	12.40654	1.65414	10.13898	2.88351
2551.568	12.33989	1.65614	10.13489	2.88572
2555.556	12.32897	1.85712	10.13703	2.92637
2559.556	12.29268	1.89650	10.13501	2.98474
2563.558	12.24149	1.94854	10.24103	2.92071
2567.557	12.18462	2.10074	10.30982	2.97262
2571.558	12.16252	2.08896	10.38490	2.99631
2575.566	12.12658	2.15623	10.43872	2.98480
2579.557	12.09728	2.15887	10.34480	2.91795
2583.554	12.08404	2.20903	10.35409	2.91611
2587.559	12.09958	2.24980	10.38240	2.84326
2591.573	12.11247	2.27628	10.41815	2.76406
2595.556	12.12336	2.34347	10.41256	2.82061
2599.555	12.10473	2.34757	10.43865	2.71907
2603.556	12.06401	2.40811	10.34429	2.70277
2607.565	12.04915	2.42862	10.30788	2.62457
2611.550	12.05440	2.40465	10.20769	2.56324
2615.554	12.08383	2.40538	10.12000	2.54607
2619.560	12.13206	2.39881	10.11709	2.51030
2623.561	12.36996	2.10698	10.24305	2.47575
2627.550	12.67090	1.74258	10.43433	2.12132
2631.560	12.64553	0.16754	10.93581	1.79208
2635.555	13.00188	0.32170	11.56936	0.69633
2639.576	12.94851	0.23483	11.37646	0.77353
2643.557	13.00806	0.53576	11.28591	0.65157
2647.555	13.12079	0.68692	11.59163	0.80020
2651.556	13.21526	0.79453	11.46566	0.76406
2655.560	13.20491	0.58016	11.62178	1.00537
2659.568	13.27591	0.56553	11.63182	0.61850
2663.562	13.33680	0.69954	11.63782	0.57188
2667.549	13.35811	0.44828	11.67874	0.40685
2671.561	13.36309	0.30945	11.73585	0.40138
2675.556	13.37479	0.15603	11.73604	0.46196
2679.564	13.35543	-0.19830	11.66023	0.47100
2683.559	13.33932	-0.52174	11.58746	0.60358
2687.561	13.35856	-0.51998	11.61737	0.63321
2691.561	13.36631	-0.47009	11.61820	0.39214
2695.558	13.34547	-0.48532	11.62018	0.39041
2699.549	13.35778	-0.26686	11.45462	0.31473
2703.569	13.37535	-0.25340	11.41323	0.31643
2707.549	13.28576	-0.29374	11.43848	0.35181
2711.565	13.21851	-0.35487	11.38705	0.40089
2715.552	13.20726	-0.18127	11.36346	0.42952
2719.557	13.17765	-0.19266	11.43741	0.45693
2723.550	13.17936	-0.08110	11.50627	0.50517
2727.589	13.20371	-0.02821	11.56552	0.49075
2731.565	13.16863	0.09901	11.64713	0.48343
2735.552	13.17816	0.15003	11.80210	0.54664
2739.556	13.15929	0.21095	11.83488	0.56807
2743.564	13.18543	0.33380	11.88898	0.58019
2747.553	13.13992	0.27013	11.77967	0.55461
2751.557	13.18529	0.29149	11.81703	0.48790
2755.554	13.24543	0.32090	11.75812	0.45835
2759.558	13.28108	0.28366	11.66563	0.46948
2763.553	13.35280	0.31948	11.58298	0.43751
2767.557	13.41563	0.30085	11.64475	0.36236
2771.555	13.46524	0.32000	11.68955	0.34902
2775.557	13.51701	0.33690	11.66737	0.27134
2779.548	13.54007	0.28070	11.65746	0.18442
2783.582	13.55325	0.10706	11.64842	0.21434
2787.551	13.59788	0.04408	11.55840	0.21059
2791.551	13.64377	-0.01760	11.59403	0.25077
2795.554	13.60901	-0.14742	11.60639	0.24241
2799.555	13.55743	-0.23531	11.65984	0.21022
2803.567	13.55599	-0.33631	11.76331	0.22532
2807.550	13.45918	-0.41745	11.78017	0.18733
2811.560	13.46022	-0.47469	11.83186	0.19270
2815.553	13.38233	-0.57178	11.83569	0.17017
2819.586	13.31196	-0.59489	11.82138	0.18302
2823.552	13.24652	-0.67356	11.79441	0.23643
2827.572	13.25350	-0.65762	11.75091	0.21158
2831.557	13.23377	-0.65893	11.74903	0.23119
2835.550	13.21566	-0.66447	11.75153	0.20798
2839.549	13.25479	-0.65416	11.72174	0.21830
2843.550	13.30790	-0.58216	11.62937	0.28997
2847.552	13.34110	-0.51330	11.54218	0.25559
2851.553	13.38804	-0.46410	11.50258	0.30800
2855.555	13.47824	-0.33693	11.48611	0.30743
2859.552	13.50964	-0.34065	11.44313	0.32390
2863.553	13.52921	-0.30226	11.41683	0.36112
2867.553	13.56964	-0.20061	11.42365	0.40088
2871.552	13.60538	-0.13653	11.42663	0.44194
2875.555	13.64867	-0.10765	11.40181	0.47971
2879.553	13.64181	-0.06711	11.42346	0.51170
2883.545	13.49871	-0.04985	11.37080	0.46812
2887.579	11.49786	-0.13911	11.04166	0.50784
2891.588	10.17257	-0.30820	7.79244	0.53975
2895.552	7.99878	-0.78672	7.00917	0.57289
2899.549	6.63281	-1.64303	4.98174	0.50373
2903.549	5.89321	-2.35258	4.68072	0.56376
2907.555	5.69669	-2.47486	3.65141	0.51920
2911.572	5.34617	-2.72061	3.16750	0.45533
2915.555	5.46782	-2.65611	2.97844	0.43938
2919.548	5.64402	-2.76183	3.16060	0.42905
2923.550	5.90075	-2.60767	3.73574	0.36916
2927.560	5.83471	-2.70781	3.57782	0.32350
2931.545	5.80184	-2.55250	3.47079	0.18315
2935.554	5.60099	-2.57017	3.24974	0.09953
2939.555	5.56069	-2.55359	3.22408	-0.01322
2943.555	5.35106	-2.43316	3.14882	-0.00702
2947.550	5.30013	-2.31527	3.18415	-0.05672
2951.558	5.26283	-2.14587	3.20585	-0.11080
2955.659	5.24115	-2.02184	3.27195	-0.07123
2959.566	5.30798	-2.08120	3.31462	-0.10672
2963.432	5.24078	-1.95479	3.31254	-0.13550
2967.423	5.28817	-2.01504	3.31954	-0.15455
2971.424	5.22820	-1.94664	3.28375	-0.12079
2975.425	5.20578	-1.90004	3.30084	-0.06792
2979.430	5.18121	-1.88848	3.22918	-0.10199
2983.424	5.19276	-1.82619	3.21312	-0.08068
2987.446	5.20829	-1.76140	3.17670	-0.09044
2991.438	5.28249	-1.77365	3.24454	-0.14193
2995.424	5.31184	-1.76855	3.23321	-0.12769
2999.440	5.35180	-1.89626	3.29023	-0.14557
3003.419	5.38016	-1.89884	3.33698	-0.18446
3007.425	5.37903	-2.13926	3.34578	-0.13788
3011.428	5.35180	-2.29618	3.36992	-0.14660
3015.442	5.32073	-2.30892	3.28382	-0.15726
3019.427	5.30114	-2.20948	3.30163	-0.12062
3023.467	5.30604	-2.27177	3.28427	0.02146
3027.426	5.37512	-2.20731	3.41041	0.07709
3031.421	5.43425	-2.26104	3.47626	0.15780
3035.420	5.48253	-2.27516	3.53735	0.24635
3039.426	5.49483	-2.27336	3.46024	0.32890
3043.433	5.44606	-2.26826	3.46125	0.38036
3047.431	5.48698	-2.20246	3.38251	0.36863
3051.422	5.46382	-2.14835	3.29018	0.40598
3055.428	5.52625	-2.08556	3.22275	0.41920
3059.419	5.56296	-2.03166	3.19308	0.46100
3063.433	5.56748	-1.99056	3.12781	0.45393
3067.424	5.57928	-1.94747	3.15322	0.45384
3071.417	5.52514	-1.89737	3.12088	0.45951
3075.435	5.49576	-1.87387	3.08189	0.42757
3079.418	5.45821	-1.83880	3.03276	0.46856
3083.438	5.43128	-1.82408	3.12081	0.50819
3087.426	5.43233	-1.81147	3.21884	0.51182
3091.445	5.39084	-1.80873	3.21953	0.53724
3095.427	5.38626	-1.82374	3.35058	0.56771
3099.437	5.32562	-1.83801	3.36087	0.56755
3103.419	5.30978	-1.86322	3.40873	0.55101
3107.425	5.25520	-1.87641	3.46066	0.54592
3111.419	5.21501	-1.87468	3.47018	0.53907
3115.428	5.20625	-1.90247	3.50882	0.45524
3119.421	5.19623	-1.92519	3.54690	0.45994
3123.429	5.15345	-1.91929	3.56235	0.38545
3127.418	5.12100	-1.91602	3.55810	0.32636
3131.427	5.14269	-1.92518	3.52190	0.28865
3135.421	5.11620	-1.94800	3.52267	0.24073
3139.424	5.10453	-1.91283	3.48934	0.22945
3143.430	5.13774	-1.88650	3.49302	0.22117
3147.441	5.13355	-1.83759	3.50180	0.22273
3151.418	5.18355	-1.86921	3.50407	0.23433
3155.432	5.25360	-1.87138	3.51147	0.25723
3159.454	5.26740	-1.86839	3.50984	0.34579
3163.439	5.31866	-1.83035	3.53903	0.39955
3167.422	5.33337	-1.75637	3.56410	0.14427
3171.450	5.40634	-1.66081	3.60596	0.02830
3175.415	5.41790	-1.61539	3.63290	-0.08514
3179.432	5.48096	-1.50439	3.61693	-0.02366
3183.427	5.51612	-1.40313	3.62388	-0.09220
3187.419	5.52195	-1.59457	3.61396	-0.35552
3191.418	5.43268	-1.61968	3.59691	-0.32565
3195.421	5.39581	-1.57748	3.60897	-0.36711
3199.446	5.34257	-1.71480	3.62566	-0.33548
3203.418	5.32073	-1.73100	3.63589	-0.38679
3207.428	5.32474	-1.96070	3.64439	-0.38324
3211.418	5.14185	-1.87467	3.57379	-0.32953
3215.425	4.81754	-1.80832	2.25840	-0.25152
3219.419	1.39445	-1.25146	0.21092	0.68297
3223.423	-1.62344	0.21096	-1.91496	0.69769
3227.462	-2.05943	0.41212	-3.98040	1.65692
3231.424	-4.23303	0.72003	-4.87330	1.25052
3235.413	-4.57598	0.50415	-6.11805	1.20103
3239.425	-5.11551	0.25488	-6.38047	0.95112
3243.419	-5.50636	0.10386	-7.45687	0.73984
3247.423	-5.34658	-0.16215	-7.18081	1.19009
3251.441	-4.81998	-0.09578	-6.53382	1.44282
3255.422	-4.85381	0.00082	-6.17246	1.56322
3259.413	-4.90550	-0.00166	-5.95152	1.54858
3263.426	-5.21727	0.08322	-5.87833	1.53507
3267.419	-5.41460	0.01878	-6.38981	1.30628
3271.428	-5.59430	0.06692	-6.36435	1.28141
3275.417	-5.44933	0.00821	-6.48727	1.25413
3279.418	-5.69227	-0.01558	-6.82065	1.24751
3283.424	-5.95201	0.05423	-7.14729	1.23705
3287.428	-5.97641	0.11163	-6.89483	1.34860
3291.422	-5.87422	0.13598	-6.83856	1.21473
3295.486	-5.91263	0.18879	-6.73130	1.15815
3299.421	-5.91221	0.23496	-6.55293	1.12982
3303.416	-5.85129	0.24153	-6.67835	1.16540
3307.415	-5.89785	0.26171	-6.68462	1.19766
3311.422	-5.87786	0.27914	-6.66631	1.26919
3315.430	-5.79858	0.29572	-6.70355	1.05956
3319.428	-5.89235	0.31572	-6.67850	1.05172
3323.417	-5.82596	0.36819	-6.70254	0.79085
3327.421	-5.77293	0.37161	-6.61898	0.79162
3331.427	-5.73686	0.40353	-6.53811	0.74175
3335.420	-5.71728	0.43365	-6.50908	0.92341
3339.428	-5.69517	0.46512	-6.47017	1.04596
3343.419	-5.66192	0.49999	-6.44711	0.99092
3347.416	-5.70930	0.55745	-6.44319	1.00470
3351.428	-5.69625	0.62476	-6.49506	0.96253
3355.426	-5.65752	0.63895	-6.53926	0.95586
3359.419	-5.60340	0.65120	-6.59030	0.92847
3363.449	-5.52077	0.68918	-6.63022	0.97076
3367.427	-5.42560	0.69906	-6.64897	0.99777
3371.433	-5.33554	0.70636	-6.66533	1.02100
3375.444	-5.26076	0.66570	-6.77103	1.03571
3379.420	-5.30894	0.64843	-6.75130	1.02921
3383.416	-5.23017	0.68231	-6.77203	1.02512
3387.424	-5.22729	0.68211	-6.80066	1.06502
3391.417	-5.20679	0.65583	-6.90158	1.11646
3395.431	-5.17046	0.58158	-6.93132	1.15658
3399.417	-5.13176	0.53769	-6.96162	1.20056
3403.420	-5.17976	0.50120	-6.95409	1.24856
3407.432	-5.25960	0.46108	-6.93640	1.23788
3411.419	-5.37246	0.45686	-6.93924	1.28650
3415.421	-5.48787	0.42766	-6.95296	1.30734
3419.419	-5.66260	0.39344	-6.95333	1.28628
3423.422	-5.66231	0.40103	-6.94266	1.23708
3427.416	-5.83078	0.37001	-6.97895	1.22345
3431.419	-5.88866	0.32566	-7.03504	1.15139
3435.418	-5.85514	0.29367	-7.03122	1.05252
3439.418	-5.99949	0.29772	-7.04618	0.96676
3443.414	-5.93527	0.28606	-7.06894	0.95791
3447.419	-5.93090	0.26673	-7.05005	0.89185
3451.425	-5.81693	0.20949	-7.07794	0.87148
3455.426	-5.72677	0.12892	-7.08830	0.83155
3459.418	-5.51750	0.09607	-7.03399	0.80342
3463.412	-5.67153	0.11743	-6.99837	0.76930
3467.419	-5.78507	0.12675	-6.80509	0.77499
3471.417	-5.58388	0.15494	-6.79356	0.84561
3475.419	-5.58911	0.21375	-6.61954	0.93814
3479.420	-5.74392	0.23856	-6.54499	1.04346
3483.414	-5.92402	0.36533	-6.60301	1.16252
3487.432	-5.51954	0.35775	-6.61797	1.26004
3491.419	-5.56701	0.32671	-6.65201	1.25569
3495.423	-5.40717	0.34161	-6.65860	1.35634
3499.418	-5.50252	0.30394	-6.78730	1.51156
3503.417	-5.41436	0.33236	-6.59131	1.39163
3507.424	-5.50473	0.30559	-6.51878	1.16706
3511.416	-5.72266	0.36756	-6.65081	1.17058
3515.415	-5.63444	0.11019	-6.60451	1.03186
3519.415	-5.32459	-0.17997	-6.68670	1.01790
3523.417	-5.45204	-0.22928	-6.67586	0.86381
3527.414	-5.42628	-0.21692	-6.76045	0.74462
3531.413	-5.36700	-0.20331	-6.68039	0.77512
3535.416	-4.59862	-0.32806	-5.61674	0.90457
3539.432	-2.01806	-0.52395	-3.25431	1.62751
3543.420	-0.18985	-0.67112	-1.05895	1.04752
3547.413	2.32979	-1.00977	0.81761	1.25597
3551.419	4.00529	-1.76545	3.22366	0.84404
3555.421	4.88966	-1.67925	3.64123	0.43831
3559.422	6.00899	-1.23670	3.93562	0.21154
3563.421	5.87759	-1.56051	3.82934	-0.06112
3567.416	5.52278	-1.35902	3.50603	-0.15730
3571.417	5.35571	-1.13065	3.04410	0.01707
3575.420	5.12779	-1.20315	3.19185	0.14422
3579.416	5.37197	-1.12065	3.36817	0.05581
3583.419	5.50161	-1.08926	3.39480	0.02897
3587.412	5.94089	-1.47989	3.81162	-0.02383
3591.413	6.05270	-1.34226	3.92082	-0.02608
3595.417	6.14751	-1.55646	4.19292	-0.05365
3599.413	6.25774	-1.71251	4.11782	0.01249
3603.428	6.30725	-2.26352	4.06737	0.06918
3607.418	6.36523	-2.29471	4.26674	0.11491
3611.413	6.40886	-2.23100	4.26166	0.18035
3615.409	6.24725	-2.21478	4.16226	0.28662
3619.412	6.42018	-2.11669	4.21121	0.31684
3623.422	6.46346	-2.18123	4.26585	0.31743
3627.424	6.47208	-2.12374	4.30630	0.38171
3631.416	6.32468	-1.97411	4.30193	0.44730
3635.418	6.17533	-2.01440	4.27772	0.42160
3639.413	6.26245	-2.00309	4.18711	0.28232
3643.419	6.18924	-1.86898	4.14547	0.23337
3647.418	6.23415	-1.99062	4.11122	0.21521
3651.446	6.15058	-1.95517	4.15162	0.14179
3655.412	6.07457	-2.33256	4.17299	0.19004
3659.425	6.20541	-2.30806	4.17623	0.19316
3663.413	6.18178	-2.55637	4.12409	0.22048
3667.417	6.18659	-2.38825	4.02717	0.17163
3671.413	6.09739	-2.31909	3.91311	0.06832
3675.429	6.13127	-2.35942	3.90605	0.03201
3679.410	6.17614	-2.33636	3.95261	0.10474
3683.417	6.17519	-2.32864	4.17931	0.15296
3687.410	6.27089	-2.45474	4.03680	0.15933
3691.416	6.17823	-2.48991	3.98847	0.15022
3695.406	6.14680	-2.46959	3.89199	0.16742
3699.416	6.21083	-2.43125	3.89876	0.16729
3703.442	6.24134	-2.37940	3.86247	0.10795
3707.442	6.33699	-2.36318	3.97822	0.02702
3711.417	6.22655	-2.37207	3.93206	0.02898
3715.414	6.23670	-2.37293	3.93712	-0.00835
3719.407	6.22888	-2.35174	3.94461	0.03272
3723.419	6.35417	-2.36998	3.98874	-0.02509
3727.421	6.38219	-2.37367	3.98904	-0.07799
3731.409	6.31845	-2.37887	4.00961	-0.17803
3735.410	6.29048	-2.36068	3.97301	-0.03748
3739.412	6.30262	-2.34526	4.04446	-0.06313
3743.412	6.43189	-2.37145	3.97345	-0.05625
3747.417	6.39016	-2.37834	4.02727	-0.10431
3751.430	6.28682	-2.38560	4.04759	0.04360
3755.411	6.19037	-2.41442	4.08384	0.15117
3759.419	6.17354	-2.36473	4.09671	0.16230
3763.413	6.34719	-2.36730	4.12359	0.04783
3767.411	6.35314	-2.36296	4.15312	0.33560
3771.419	6.24445	-2.41361	4.19092	0.49973
3775.417	6.21843	-2.37538	4.18010	0.22949
3779.408	6.29237	-2.34832	4.14804	0.29456
3783.425	6.40405	-2.36011	4.25677	0.41737
3787.410	6.37854	-2.28890	4.32735	0.52747
3791.414	6.20742	-2.29000	4.29505	0.53616
3795.420	6.28996	-2.24064	4.28278	0.47088
3799.408	6.38158	-2.13327	4.19262	0.55581
3803.411	6.42873	-1.90510	4.35257	0.65603
3807.411	6.35792	-1.81795	4.30196	0.65835
3811.413	6.34868	-1.98497	4.28251	0.57291
3815.283	6.38246	-2.50067	4.10881	0.55790
3819.287	6.33201	-2.28918	4.33488	0.59039
3823.280	6.35903	-2.28103	4.35709	0.60417
3827.289	6.31821	-2.25748	4.34075	0.58558
3831.287	6.29161	-2.18043	4.17055	0.51424
3835.287	6.47142	-2.08008	4.20928	0.38171
3839.322	6.43704	-2.08690	4.29285	0.39736
3843.301	6.35844	-2.18301	4.28310	0.54990
3847.293	6.24690	-2.00656	4.16697	0.38424
3851.287	6.41109	-2.11682	4.22979	0.24856
3855.289	6.44148	-1.99855	4.30576	0.26954
3859.281	6.38913	-1.82157	4.34065	0.30714
3863.290	6.16895	-1.87466	4.21725	0.34184
3867.283	6.53573	-1.86975	4.22730	0.45855
3871.288	6.51650	-1.77060	4.24223	0.61066
3875.283	6.46728	-1.63859	4.16571	0.67579
3879.297	6.12757	-1.52721	4.23606	0.62605
3883.285	6.49509	-1.47846	4.21476	0.70461
3887.285	7.14064	-1.47815	4.99967	0.85471
3891.286	9.10877	-1.64443	6.37202	0.97780
3895.291	9.72337	-1.58923	6.88553	0.99536
3899.286	9.01731	-1.59200	6.94235	0.97874
3903.288	7.91964	-1.74636	6.55542	0.95511
3907.345	8.06154	-1.73916	4.81229	0.85993
3911.303	7.44369	-1.77576	5.34567	0.77239
3915.290	7.85974	-1.81141	5.76278	0.64995
3919.291	8.46832	-1.68514	5.66292	0.60082
3923.281	8.76481	-1.67741	6.30823	0.62927
3927.295	8.08421	-1.68039	6.13777	0.47233
3931.291	8.38294	-1.62312	6.28217	0.48522
3935.286	8.34254	-1.41784	6.25348	0.40971
3939.282	8.26959	-1.26821	5.91472	0.40048
3943.288	8.36044	-1.04446	6.05842	0.41525
3947.291	8.34803	-1.63184	5.87194	0.35829
3951.284	8.37206	-1.54001	5.94833	0.42715
3955.286	8.42224	-1.50179	6.06428	0.40096
3959.291	8.45864	-1.27192	5.95513	0.38992
3963.312	8.49411	-1.24188	6.15154	0.41807
3967.277	8.35974	-1.10914	6.01873	0.37930
3971.282	8.42850	-1.12823	6.03285	0.47823
3975.306	8.43807	-0.85513	6.04735	0.46139
3979.341	8.43178	-1.41575	5.90607	0.46079
3983.279	8.46337	-1.55235	6.07317	0.52015
3987.283	8.46796	-1.45710	5.90323	0.51136
3991.277	8.39639	-1.44143	6.08038	0.48503
3995.302	8.46230	-1.31419	6.13407	0.54346
3999.274	8.46896	-1.00237	5.96873	0.58702
4003.297	8.36975	-1.00314	5.90428	0.60523
4007.286	8.30347	-1.12233	6.18669	0.64187
4011.282	8.29081	-0.88417	6.10696	0.63996
4015.286	8.42889	-1.36849	5.90168	0.63170
4019.286	8.24750	-1.60329	6.09700	0.62733
4023.283	8.54137	-1.76336	6.09358	0.61614
4027.276	8.32910	-1.67024	6.03412	0.57057
4031.288	8.38991	-1.51422	6.03658	0.49676
4035.280	8.39421	-1.69052	5.99794	0.55969
4039.284	8.19883	-1.79808	6.09108	0.50392
4043.316	8.18487	-1.78222	6.02158	0.50204
4047.279	8.39120	-1.71357	6.10389	0.43622
4051.298	8.34473	-1.64716	6.05947	0.65882
4055.281	8.45407	-1.72707	6.04230	0.69909
4059.286	8.36110	-1.70990	6.06725	0.66660
4063.284	8.35427	-1.73648	5.99942	0.60374
4067.281	8.31625	-1.76495	6.00646	0.72330
4071.287	8.24874	-1.71351	6.02281	0.70759
4075.279	8.23231	-1.80233	6.14028	0.82976
4079.280	8.40266	-1.79101	6.18129	0.78640
4083.288	8.42804	-1.76154	6.13856	0.72770
4087.301	8.46492	-1.79646	6.13826	0.68600
4091.283	8.38928	-1.83181	6.12909	0.71012
4095.279	8.34939	-1.85003	6.09498	0.61097
4099.278	8.34733	-1.86762	6.08269	0.54075
4103.285	8.39943	-1.87484	6.05125	0.47525
4107.278	8.45674	-1.89779	5.99529	0.46583
4111.301	8.46925	-1.86298	5.99259	0.40888
4115.283	8.47381	-1.86306	5.84063	0.36435
4119.287	8.48114	-1.84562	5.87074	0.33951
4123.281	8.44543	-1.84235	5.82218	0.31346
4127.284	8.39234	-1.83074	5.75912	0.35293
4131.279	8.37565	-1.80928	5.66813	0.37432
4135.285	8.37541	-1.77094	5.64594	0.38687
4139.297	8.37504	-1.73189	5.62662	0.38325
4143.284	8.50646	-1.63508	5.64479	0.49048
4147.282	8.57122	-1.52072	6.06222	0.66472
4151.292	11.19287	-1.03404	8.05458	0.70743
4155.308	12.19581	-0.23105	9.66750	0.79755
4159.293	14.58936	1.38859	12.01637	0.93871
4163.275	14.65618	1.48972	12.54207	0.64550
4167.289	15.09224	1.71701	12.78606	0.75329
4171.278	15.16666	1.23909	13.09209	0.57159
4175.281	15.27065	1.23618	12.93236	0.46884
4179.306	14.69295	0.93482	11.89411	0.55919
4183.276	14.33553	0.98399	11.65970	0.62863
4187.283	14.00083	0.96596	11.68036	0.32406
4191.277	14.52953	1.02377	12.15562	0.21605
4195.282	14.86054	1.04431	12.75155	0.11442
4199.273	15.27771	1.19725	12.74931	0.02988
4203.300	15.32615	1.19053	12.96020	0.04422
4207.287	14.86822	0.97099	12.29727	0.11414
4211.292	14.46482	0.88017	12.44484	0.07750
4215.280	14.32488	0.61439	12.43551	0.11177
4219.281	14.39282	0.39324	12.49770	0.29571
4223.275	14.49309	0.21482	12.51037	0.19744
4227.278	14.54251	0.19300	12.58692	0.11440
4231.289	14.50618	-0.01075	12.57422	0.11467
4235.280	14.51765	-0.04518	12.63440	0.04432
4239.283	14.64173	0.00565	12.62270	0.07643
4243.282	14.49441	-0.12534	12.52019	0.14640
4247.739	14.42472	-0.18933	12.47913	0.23859
4251.298	14.42416	-0.23994	12.55264	0.04041
4255.277	14.43261	-0.34343	12.54131	0.00652
4259.282	14.46463	-0.32444	12.53627	0.03047
4263.295	14.46459	-0.34619	12.52646	0.01293
4267.272	14.48192	-0.36628	12.58330	0.00102
4271.275	14.50844	-0.34648	12.50148	0.06960
4275.290	14.55865	-0.31906	12.43204	0.08454
4279.273	14.46957	-0.30706	12.44666	0.07821
4283.283	14.43228	-0.31660	12.43968	0.12613
4287.279	14.40901	-0.24614	12.46763	0.24804
4291.292	14.40884	-0.19906	12.42915	0.21427
4295.277	14.46621	-0.14211	12.34377	0.23993
4299.277	14.49709	-0.03681	12.35121	0.22339
4303.282	14.46210	0.02551	12.39094	0.38567
4307.279	14.53100	0.18654	12.35516	0.14091
4311.271	14.44695	0.13225	12.32826	0.12454
4315.298	14.33800	0.12555	12.33754	0.16446
4319.282	14.28110	0.13772	12.39108	0.21746
4323.279	14.46610	0.19167	12.34678	0.10154
4327.271	14.47250	0.18146	12.26100	0.00219
4331.278	14.50314	0.29294	12.24874	-0.02176
4335.298	14.35237	0.17547	12.32724	-0.00362
4339.283	14.42148	0.19248	12.35763	-0.07794
4343.285	14.31253	0.12598	12.38853	0.02488
4347.282	14.34021	0.09517	12.33589	-0.03299
4351.321	14.36861	0.05775	12.18163	0.03000
4355.285	14.30014	-0.09249	12.25218	0.05660
4359.270	14.35205	-0.04145	12.30606	0.16028
4363.281	14.44657	-0.02459	12.40110	0.11365
4367.275	14.37229	0.15264	12.39213	0.15555
4371.286	14.36739	0.25805	12.37044	0.14804
4375.282	14.37790	1.18688	12.06349	0.26072
4379.285	14.41969	0.82551	12.15967	0.30338
4383.279	14.44250	0.88784	12.29168	0.30184
4387.278	14.44634	0.57890	12.42953	0.36722
4391.276	14.42290	0.88347	12.41009	0.35621
4395.280	14.40072	0.83333	12.38026	0.42464
4399.275	14.38845	0.85773	12.30794	0.46567
4403.276	14.30578	0.94789	12.23628	0.70757
4407.295	12.72742	0.83932	10.20505	2.42889
4411.278	9.00656	1.51997	7.59778	3.43675
4415.273	6.03896	4.97927	4.08611	7.28780
4419.281	3.32995	7.54820	3.12393	8.97753
4423.281	2.98574	6.45952	0.80667	10.14264
4427.273	0.97100	7.23030	0.62943	9.72065
4431.279	0.17596	7.56442	0.51255	9.59003
4435.270	0.45070	7.49081	0.10664	10.10163
4439.295	1.41377	7.59201	0.18231	10.42394
4443.277	4.22550	6.84941	2.03400	9.90681
4447.274	4.94317	6.32324	2.49753	9.50650
4451.284	3.47989	5.90627	2.31113	9.34854
4455.282	2.75977	6.36586	1.17793	9.78668
4459.281	1.23511	7.39574	0.42527	10.50096
4463.276	0.29113	8.05520	-0.23083	10.62106
4467.271	0.26798	8.39678	-0.60156	10.80419
4471.279	0.29076	8.20270	-0.46683	10.94978
4475.277	0.16030	8.46142	-0.33861	10.97215
4479.272	0.66206	8.09777	-0.32752	10.69245
4483.278	0.76330	7.86953	-0.57890	10.90465
4487.290	0.80129	7.69224	-0.44852	10.88850
4491.287	0.95812	7.54693	-0.37434	10.79280
4495.274	0.88423	7.56366	-0.19886	10.82425
4499.277	0.94217	7.55543	-0.22584	10.84760
4503.279	1.12330	7.28677	-0.06946	10.72030
4507.275	1.05267	7.49270	-0.00114	10.60542
4511.276	1.20656	7.36457	0.13652	10.49982
4515.276	1.14590	7.71683	0.18802	10.32949
4519.275	1.05185	8.17146	0.20569	10.45529
4523.288	1.15337	8.00561	0.30587	10.37074
4527.271	1.12725	8.32346	0.19258	10.60558
4531.282	1.14007	8.23170	0.22827	10.54425
4535.273	1.22151	8.19647	0.19822	10.67516
4539.273	1.26966	8.19914	0.24386	10.50386
4543.283	1.30218	8.23642	0.12873	10.62146
4547.271	1.31342	8.32102	0.16511	10.70690
4551.284	1.39006	8.37791	0.08709	10.66381
4555.278	1.37010	8.42198	0.02713	10.84933
4559.303	1.40705	8.41769	0.05110	10.82948
4563.274	1.37811	8.34215	-0.03896	10.92498
4567.272	1.34765	8.33747	-0.05693	10.93061
4571.273	1.38498	8.32771	-0.01591	10.88936
4575.271	1.47186	8.28362	-0.09771	11.11614
4579.267	1.48726	8.25819	-0.18181	11.08691
4583.287	1.52481	8.22121	-0.14077	11.25191
4587.293	1.44743	8.15340	-0.07671	11.18936
4591.275	1.32865	8.15499	-0.06209	11.22153
4595.268	1.23469	8.08449	-0.10515	11.20597
4599.277	1.05200	7.99791	0.04266	11.05388
4603.270	1.09160	7.84068	0.11979	11.06200
4607.272	1.28425	7.75718	-0.04219	10.96089
4611.271	0.83927	7.83081	0.04745	10.49137
4615.270	0.39000	7.21289	-0.29895	9.86734
4619.273	-0.25433	4.11119	-0.79565	6.72949
4623.272	-1.66071	3.77743	-1.02685	3.89879
4627.279	-1.61684	0.29390	-1.11591	2.46898
4631.281	-2.12017	-1.58180	-1.73338	0.79593
4635.272	-2.24889	-0.57380	-1.78163	0.11455
4639.272	-2.21402	-1.46044	-2.66231	0.14596
4643.277	-1.79296	-1.72376	-2.12431	0.24889
4647.273	-1.69825	-1.72621	-2.10411	0.44779
4651.286	-1.53347	-1.63248	-2.76901	0.58775
4655.276	-1.29715	-1.50205	-2.83405	0.98675
4659.286	-1.58287	-1.49456	-2.98958	0.81099
4663.275	-1.67690	-1.60355	-3.09062	0.63807
4667.273	-1.55464	-1.78927	-3.08879	0.53771
4671.153	-1.84431	-2.03919	-3.05501	0.40786
4675.148	-1.91065	-2.10385	-3.17487	0.08957
4679.152	-1.70502	-1.83712	-3.12143	-0.00546
4683.147	-1.62386	-1.48808	-3.10144	-0.13637
4687.146	-1.61486	-1.37958	-3.08508	-0.06355
4691.140	-1.66227	-1.37165	-3.16881	0.10294
4695.152	-1.73658	-1.36026	-3.21555	0.30340
4699.144	-1.74702	-1.80222	-3.21124	0.37825
4703.170	-1.88001	-1.79851	-3.30502	0.17467
4707.143	-1.92007	-2.14645	-3.04105	0.10998
4711.149	-1.75900	-2.34035	-3.08498	0.14908
4715.164	-1.88167	-1.66060	-3.02130	0.02779
4719.150	-1.87366	-1.30728	-2.94069	0.27854
4723.190	-1.84629	-1.29194	-2.85569	0.18259
4727.149	-1.93430	-1.25032	-2.88596	0.15494
4731.152	-1.93651	-1.45794	-2.81813	0.27661
4735.140	-1.96432	-1.54999	-2.89562	0.38923
4739.143	-1.98336	-1.39514	-2.95859	0.30022
4743.154	-1.98549	-1.45162	-3.07758	0.30217
4747.144	-1.90078	-1.74927	-2.84160	0.28271
4751.141	-1.84099	-1.60133	-2.86950	0.32007
4755.166	-1.89744	-1.62919	-2.87722	0.38579
4759.143	-1.85152	-1.80961	-2.89547	0.37732
4763.163	-1.83687	-1.91234	-2.91458	0.35044
4767.168	-1.77834	-1.99174	-2.92416	0.39488
4771.142	-1.73542	-2.10552	-2.90765	0.43318
4775.140	-1.65718	-2.22302	-3.00401	0.37822
4779.144	-1.66480	-2.27480	-3.02103	0.37494
4783.167	-1.68030	-2.27309	-2.97562	0.33962
4787.143	-1.65847	-2.31418	-2.98091	0.30463
4791.151	-1.67464	-2.35434	-2.96436	0.30789
4795.144	-1.71362	-2.37051	-3.11777	0.30588
4799.147	-1.70799	-2.41177	-3.23761	0.29411
4803.145	-1.69852	-2.43859	-3.33621	0.28577
4807.142	-1.69445	-2.43986	-3.36045	0.31926
4811.145	-1.72716	-2.40622	-3.40823	0.30329
4815.149	-1.74603	-2.36903	-3.59463	0.31233
4819.144	-1.80278	-2.32752	-3.61812	0.34784
4823.145	-1.82676	-2.24849	-3.64007	0.38497
4827.168	-1.84664	-2.22193	-3.61406	0.43297
4831.153	-1.84193	-2.12340	-3.64568	0.49718
4835.155	-1.72889	-2.00149	-3.69106	0.56440
4839.147	-1.62168	-1.91268	-3.59191	0.60868
4843.144	-1.14724	-1.97096	-3.49856	0.63322
4847.144	-1.40204	-1.90324	-3.43509	0.66577
4851.145	-1.48962	-1.83761	-3.33245	0.64327
4855.139	-1.55110	-1.78234	-3.33606	0.57431
4859.143	-1.35569	-1.80114	-3.34346	0.51250
4863.146	-1.55988	-1.73288	-3.29129	0.43401
4867.148	-1.57855	-1.82190	-3.25669	0.41497
4871.145	-1.62971	-1.93748	-3.24459	0.43423
4875.139	-1.54869	-1.86376	-3.27643	0.40358
4879.159	-1.54919	-1.90133	-3.23944	0.48152
4883.173	-1.45616	-1.93836	-3.26008	0.46709
4887.171	-1.41812	-1.93812	-3.27111	0.56750
4891.148	-1.42776	-2.00391	-3.26008	0.56888
4895.137	-1.50413	-1.96578	-3.19726	0.47640
4899.146	-1.31721	-1.97594	-3.22359	0.48549
4903.141	-1.27691	-1.97158	-3.20033	0.41515
4907.142	-1.35335	-1.90971	-3.13454	0.39984
4911.139	-1.35278	-1.82807	-3.12764	0.10749
4915.149	-1.26540	-1.74533	-3.11121	0.16225
4919.146	-1.19696	-1.59664	-3.08033	0.15000
4923.148	-1.26438	-1.56592	-3.01413	0.08807
4927.173	-1.16034	-1.57623	-2.92829	0.05820
4931.145	-1.10078	-1.54086	-2.88054	0.04090
4935.138	-1.06929	-1.50791	-2.84893	0.03475
4939.148	-1.26545	-1.51719	-2.83635	0.09319
4943.141	-1.44872	-1.49716	-2.76997	0.08000
4947.157	-1.47690	-1.64248	-2.72058	0.13093
4951.140	-1.57426	-2.12350	-2.67122	0.24514
4955.149	-1.59283	-2.00215	-2.64289	0.43786
4959.140	-1.71218	-2.07734	-2.68289	0.30019
4963.169	-1.61808	-2.08992	-2.66221	0.38541
4967.143	-1.88586	-1.86572	-2.70270	0.45077
4971.144	-1.83087	-2.03789	-2.84826	0.40575
4975.139	-1.84322	-2.01855	-2.84321	0.38540
4979.151	-1.87574	-2.05128	-2.88104	0.38067
4983.139	-1.84627	-2.05350	-2.89168	0.31486
4987.148	-1.86327	-2.00648	-2.88485	0.28267
4991.140	-1.79819	-1.93513	-2.88713	0.26915
4995.171	-1.83655	-1.91234	-2.90235	0.09922
4999.138	-1.83112	-1.83246	-2.97022	0.05028
5003.140	-1.81173	-1.80322	-3.02442	0.04390
5007.157	-1.82083	-1.75237	-3.00126	0.01918
5011.134	-1.81684	-1.77379	-2.99346	-0.01946
5015.156	-1.79691	-1.78924	-2.93656	-0.02184
5019.138	-1.78215	-1.79936	-2.91851	-0.04117
5023.141	-1.62911	-1.84201	-2.87967	-0.02338
5027.140	0.64275	-1.83762	-0.16965	0.02696
5031.142	3.43459	-1.87943	1.18257	0.20397
5035.142	5.86745	-1.75079	3.97723	0.14715
5039.144	6.71392	-1.92705	5.19500	0.25955
5043.139	6.92770	-2.11863	5.29090	0.18916
5047.147	6.68984	-2.25224	4.96509	0.10851
5051.169	5.87882	-2.50241	4.30225	0.03184
5055.148	5.76993	-2.35408	3.18522	0.06225
5059.136	5.48745	-2.34374	2.94213	0.04095
5063.140	5.58474	-2.39081	3.46713	0.11601
5067.139	5.87712	-2.51259	3.71127	0.10016
5071.136	6.22174	-2.67781	4.23044	0.08089
5075.168	6.59787	-2.68690	4.37900	0.05416
5079.145	6.64354	-2.70566	4.31477	0.02592
5083.134	6.38271	-2.76647	4.25921	-0.01323
5087.145	6.41312	-2.76566	4.03241	-0.04680
5091.146	6.29972	-2.75440	3.97178	-0.00840
5095.145	6.44554	-2.74689	4.01186	0.05434
5099.138	6.47171	-2.76690	4.11868	0.04724
5103.139	6.51844	-2.75940	4.19556	0.12932
5107.147	6.54528	-2.76551	4.22468	0.19721
5111.136	6.50393	-2.73231	4.22977	0.23936
5115.137	6.54181	-2.63241	4.22984	0.35858
5119.139	6.48686	-2.58226	4.23335	0.48769
5123.145	6.42920	-2.51222	4.34956	0.39136
5127.134	6.37013	-2.46161	4.33843	0.44808
5131.143	6.38153	-2.35879	4.39501	0.44720
5135.145	6.38903	-2.24566	4.39321	0.48317
5139.141	6.34312	-2.21824	4.42785	0.45860
5143.137	6.33878	-2.17365	4.42392	0.49187
5147.138	6.40099	-2.16532	4.35440	0.58611
5151.153	6.36226	-2.17244	4.28145	0.63870
5155.160	6.40925	-2.18494	4.26719	0.60239
5159.146	6.55217	-2.21195	4.30223	0.61945
5163.137	6.54680	-2.33687	4.30418	0.48695
5167.140	6.55716	-2.44688	4.09473	0.39074
5171.144	6.56713	-2.71371	4.19983	0.40472
5175.139	6.56721	-2.77915	4.14633	0.34055
5179.136	6.51665	-2.34433	4.11194	0.27395
5183.138	6.64141	-1.93639	4.06757	0.29793
5187.140	6.71395	-1.97857	4.10466	0.29618
5191.142	6.62708	-1.82773	4.19511	0.18175
5195.137	6.62486	-1.71712	4.26859	0.10792
5199.298	6.62165	-1.68971	4.43872	0.17315
5203.143	6.51003	-1.85845	4.38874	0.15004
5207.143	6.46375	-1.77527	4.39336	0.33182
5211.142	6.46463	-1.79468	4.50530	0.32216
5215.140	6.49112	-1.81634	4.51706	0.38161
5219.138	6.45985	-1.84073	4.56370	0.36164
5223.140	6.51334	-1.79564	4.59396	0.41025
5227.134	6.46816	-1.94623	4.60311	0.42632
5231.142	6.45657	-2.01462	4.57825	0.38571
5235.138	6.54732	-2.09505	4.52318	0.47112
5239.140	6.60681	-2.17429	4.47587	0.45191
5243.135	6.59398	-2.31149	4.49800	0.42036
5247.133	6.60928	-2.35858	4.45402	0.39541
5251.202	6.69515	-2.43637	4.38975	0.33685
5255.146	6.73449	-2.54102	4.33150	0.26039
5259.154	6.77604	-2.66051	4.35987	0.24175
5263.143	6.78688	-2.70888	4.29910	0.18666
5267.142	6.75982	-2.78146	4.29720	0.12481
5271.141	6.75862	-2.88190	4.32604	0.05419
5275.148	6.76831	-2.88844	4.32496	0.12550
5279.137	6.73270	-2.39465	4.35822	0.06080
5283.136	6.66766	-1.56161	4.35997	0.02671
5287.139	6.65500	-1.81954	4.35338	0.03585
5291.142	6.65794	-1.88640	4.35940	0.03578
5295.140	6.64861	-1.76549	4.36710	0.32723
5299.139	6.60135	-1.94431	4.37238	0.35782
5303.132	6.57024	-1.80649	4.35449	0.46784
5307.141	6.54026	-1.93580	4.37966	0.42144
5311.136	6.51537	-1.95932	4.37322	0.57745
5315.135	6.50489	-2.08926	4.37098	0.59596
5319.137	6.48360	-2.03313	4.36399	0.52479
5323.142	6.44542	-2.09345	4.35758	0.57895
5327.133	6.47110	-2.14794	4.38593	0.64354
5331.151	6.46480	-2.29024	4.38993	0.71144
5335.145	6.47563	-2.44299	4.39967	0.74888
5339.155	6.50173	-2.51627	4.47237	0.74705
5343.151	6.52520	-2.55716	4.54217	0.75604
5347.135	6.54406	-2.63213	4.28041	0.80279
5351.204	6.57943	-2.74465	4.29838	0.82061
5355.148	6.63585	-2.76316	4.33878	0.82653
5359.136	6.67772	-2.79628	4.23688	0.86064
5363.128	6.71914	-2.85937	4.28688	0.89499
5367.139	6.73187	-2.87901	4.22804	0.91964
5371.133	6.73358	-2.94745	4.20360	0.97103
5375.138	6.65294	-3.00977	4.19309	0.97453
5379.141	6.63059	-2.98600	4.25709	0.98186
5383.139	6.60203	-3.01879	4.21767	1.00497
5387.144	6.50344	-3.05327	4.21047	0.99604
5391.135	6.50281	-3.07351	4.26329	0.99699
5395.145	6.49428	-3.07494	4.29685	1.00789
5399.132	6.40719	-3.10181	4.31563	1.01188
5403.141	6.32088	-3.16254	4.35936	1.02852
5407.134	6.27346	-3.16534	4.39582	1.05549
5411.129	6.27559	-3.20275	4.39802	1.06376
5415.136	6.34052	-3.17813	4.42395	1.05523
5419.132	6.34518	-3.15884	4.45424	1.05915
5423.151	6.40302	-3.16257	4.46159	1.05735
5427.138	6.48548	-2.89078	4.45343	1.03285
5431.130	6.38896	-2.80364	4.44839	0.98855
5435.133	6.49886	-2.78796	4.51267	0.93202
5439.134	6.89245	-2.93737	5.99932	0.96612
5443.129	9.15512	-2.64210	7.16737	0.95561
5447.132	11.34466	-2.15855	8.98842	0.99322
5451.135	12.71425	-1.05007	11.21704	1.06589
5455.139	13.86034	-0.57974	11.61916	1.01000
5459.131	14.40775	-0.32652	12.57422	0.85952
5463.142	14.62954	-0.55010	12.66280	0.58132
5467.132	14.36937	-1.07995	12.66237	0.42163
5471.138	13.75151	-0.64411	12.37555	0.59303
5475.187	12.73257	-0.70803	11.49440	0.75486
5479.137	12.81084	-0.45528	11.45162	0.55495
5483.129	13.33309	-0.08397	11.84594	0.68229
5487.130	13.83788	-0.00048	12.14262	0.56164
5491.132	14.02155	0.08686	12.13842	0.67118
5495.134	14.02536	0.10702	12.24069	0.61942
5499.131	14.03652	0.29254	12.17295	0.56136
5503.135	14.05355	0.51669	12.10715	0.54306
5507.147	14.06569	0.56132	12.07742	0.61360
5511.140	14.11491	0.51520	12.07355	0.49244
5515.136	14.18174	0.64587	12.13541	0.56307
5519.132	14.24093	0.66317	12.11987	0.48393
5523.130	14.25124	0.73140	12.11890	0.44785
5527.023	14.27916	0.77054	12.12310	0.37611
5531.012	14.28548	0.77292	12.05506	0.40548
5535.005	14.29221	0.85078	11.98536	0.39312
5539.305	14.28023	0.86583	11.94543	0.41248
5543.020	14.28834	0.84757	11.95617	0.47202
5547.008	14.21990	0.59237	11.94434	0.32793
5551.023	14.21523	0.50242	11.94909	0.33062
5555.011	14.15115	-0.06891	11.95688	0.34724
5559.022	14.14814	-0.23392	11.95377	0.25453
5563.011	14.09159	-0.29572	11.95536	0.25137
5567.005	14.06726	-0.42466	12.00728	0.18509
5571.004	14.02347	-0.42671	12.02653	0.19557
5575.005	13.98625	-0.47344	12.06745	0.18436
5579.009	13.97760	-0.42844	12.12452	0.16844
5583.008	13.95769	-0.41343	12.17587	0.09456
5587.003	13.92152	-0.41916	12.21468	0.07539
5591.021	13.85957	-0.39315	12.23244	0.07370
5595.017	13.75149	-0.40716	12.22940	0.06181
5599.002	13.73915	-0.32603	12.24235	-0.04616
5603.002	13.75921	-0.27708	12.22862	-0.11623
5607.003	13.74516	-0.20218	12.26398	0.24233
5611.008	13.74086	-0.09098	12.25984	0.30610
5615.012	13.76570	0.00734	12.25526	0.25878
5619.005	13.80837	0.14237	12.26488	0.40332
5623.002	13.82178	0.24142	12.24953	0.31116
5627.008	13.92384	0.62080	12.20449	0.41703
5631.009	13.88549	0.58354	12.17122	0.37128
5635.007	13.95243	0.31102	12.21651	0.37556
5639.003	13.99150	0.01861	12.19941	0.36271
5643.010	14.01006	-0.37977	12.19572	0.34797
5647.028	13.98968	-0.31955	12.27441	0.31419
5651.002	13.97082	-0.12392	12.32212	0.50667
5655.010	14.06462	0.31820	12.23592	0.23915
5659.001	13.96704	0.10608	12.29998	0.41538
5663.011	14.08491	0.42243	12.30452	0.01554
5667.004	14.00492	0.34793	12.31815	0.43749
5671.007	13.92082	-0.27983	12.35237	0.48535
5675.037	13.89622	-0.39294	12.39696	0.16115
5679.012	14.07296	-0.04493	12.29313	0.36834
5683.009	14.23573	0.35782	12.27770	-0.10540
5687.003	14.04047	-0.26336	12.33762	0.13864
5691.006	14.09420	-0.31900	12.49273	0.63015
5694.999	14.11801	0.08890	12.46372	-0.11030
5699.010	14.13790	0.32291	12.50458	0.46374
5703.025	14.22965	-0.16133	12.47979	0.38925
5707.006	14.17472	-0.23459	12.57318	0.22665
5711.004	14.14602	0.03952	12.65411	0.54357
5715.007	14.17059	0.61570	12.64165	-0.07039
5719.003	14.20287	-0.18891	12.67886	0.35126
5723.012	14.20740	0.05304	12.66965	-0.23233
5727.001	14.07615	0.31734	12.43417	0.21233
5731.008	13.46916	-0.36393	11.14087	-0.06910
5734.998	10.12017	-0.64082	9.72691	0.45081
5739.007	8.51773	-0.38472	7.39235	0.16782
5743.021	7.74837	-0.11732	6.77379	0.74489
5747.000	8.06098	-1.66328	6.61313	0.25246
5751.022	9.60152	-1.10951	7.03027	0.67315
5755.002	9.98519	-0.75612	8.74590	0.49006
5759.017	10.50599	-1.17744	7.80704	0.41344
5762.999	10.23969	-1.24047	8.70536	0.44615
5766.997	10.02454	-1.21579	7.85253	0.49768
5771.013	9.82313	-1.25516	7.60258	0.41891
5775.000	9.76495	-1.74076	7.50147	0.54502
5779.003	9.42658	-1.56314	7.37646	0.43648
5783.033	9.53315	-1.35757	7.48305	0.63020
5787.011	9.67261	-1.06440	7.38549	0.59843
5790.999	9.55589	-1.47471	7.57832	0.54448
5795.005	9.68975	-1.64664	7.77597	0.78796
5799.006	9.61050	-1.48030	7.63386	0.84614
5803.017	9.53371	-1.39419	7.66802	0.74817
5806.997	9.55770	-1.41348	7.65310	0.83335
5811.011	9.55041	-1.32356	7.61156	0.90747
5815.003	9.56144	-1.17274	7.69393	0.95809
5819.007	9.62772	-1.18326	7.60117	0.78178
5823.000	9.49171	-1.09547	7.62994	0.69904
5827.001	9.51005	-1.06579	7.51505	0.89329
5831.000	9.52145	-1.02974	7.58261	0.74475
5835.014	9.59891	-1.01452	7.54210	0.40867
5839.007	9.54315	-1.05973	7.51322	0.41895
5843.000	9.50103	-1.05041	7.51254	0.58828
5847.012	9.48297	-1.03787	7.38339	0.60078
5851.014	9.52265	-1.04742	7.54908	0.61897
5855.012	9.45836	-1.10621	7.44001	0.50321
5859.002	9.48480	-1.33680	7.43588	0.59418
5862.996	9.36950	-1.48686	7.47526	0.47479
5867.006	9.51954	-1.54369	7.35952	0.42030
5870.999	9.43460	-1.83244	7.48776	0.45351
5875.003	9.35223	-1.79138	7.43225	0.51327
5879.007	9.49494	-1.97565	7.48985	0.67202
5883.006	9.46896	-1.93719	7.47207	0.48869
5887.011	9.52693	-2.09799	7.35510	0.40010
5891.000	9.48833	-2.14879	7.53242	0.54547
5895.004	9.31721	-2.15052	7.36955	0.61758
5898.999	9.45218	-2.22203	7.38324	0.42346
5903.037	9.23089	-2.21548	7.30136	0.37336
5907.009	9.44754	-1.96522	7.40045	0.53277
5910.999	9.35783	-1.16069	7.38158	0.46998
5915.004	9.47333	-1.64882	7.37934	0.40432
5919.004	9.45377	-1.16483	7.35146	0.33559
5922.999	9.38240	-1.50047	7.30090	0.22614
5927.008	9.36783	-1.64396	7.24876	0.37271
5930.999	9.41308	-1.57520	7.40474	0.46974
5935.034	9.41219	-1.80601	7.31067	0.46801
5939.012	9.44964	-1.64898	7.34714	0.40154
5942.996	9.34582	-0.48986	7.25348	0.16094
5947.070	9.50061	-1.40152	7.35043	0.33763
5951.012	9.49748	-1.24856	7.37194	0.36007
5954.999	9.49772	-1.45454	7.33530	0.35199
5959.009	9.46119	-1.57944	7.40919	0.53747
5963.017	9.55751	-1.74010	7.43603	0.58343
5967.005	9.55770	-1.76218	7.47595	0.44581
5971.005	9.52673	-1.49328	7.46353	0.38786
5975.003	9.52577	-1.05048	7.47853	0.45493
5978.996	9.38513	-1.41892	7.47870	0.49077
5983.002	9.50303	-1.19722	7.42837	0.48206
5987.001	9.48487	-1.41692	7.46172	0.39515
5990.997	9.50679	-1.34874	7.49373	0.46102
5994.999	9.41752	-1.39392	7.49176	0.49325
5998.998	9.47922	-1.44212	7.46128	0.42691
6002.999	9.53839	-1.37009	7.50856	0.54205
6007.004	9.50264	-1.38491	7.47278	0.51776
6011.000	9.49315	-1.33907	7.44140	0.50525
6015.040	9.45421	-1.35078	7.44420	0.59954
6019.004	9.37820	-1.39197	7.45999	0.76132
6022.998	9.46759	-1.34343	7.50756	0.45125
6027.002	9.47845	-1.04629	7.50915	0.53205
6031.015	9.46850	-1.42123	7.54257	0.71063
6034.998	9.42941	-1.22132	7.51971	0.77195
6039.002	9.45230	-1.75547	7.47012	0.73078
6043.011	9.50484	-1.75425	7.58156	0.97196
6046.996	9.38936	-1.65666	7.53988	0.80002
6051.026	9.45172	-1.60772	7.44108	0.87507
6055.006	9.37440	-1.41301	7.65880	1.00039
6058.996	9.36409	-1.44758	7.57330	0.87345
6062.993	9.35752	-1.08994	7.42793	0.77803
6066.997	9.25079	-1.00156	7.25736	0.86370
6070.997	7.27751	-1.99559	5.54314	0.81057
6075.000	5.05420	-1.86341	2.86178	0.85160
6078.998	3.35043	-1.94122	2.09259	0.89566
6083.032	2.61248	-1.86072	1.57654	0.91730
6086.992	3.18047	-1.85952	1.68803	0.77312
6091.002	4.54634	-1.75267	1.79128	0.78264
6095.010	5.17252	-1.58136	3.51676	0.96266
6098.996	5.54024	-1.54893	3.87243	0.78971
6102.997	5.48671	-1.67190	3.60128	0.68844
6107.006	4.60049	-2.02918	3.04665	0.79296
6110.992	4.33949	-1.94241	2.67422	0.95082
6114.995	3.67393	-1.90823	2.38804	0.77229
6118.997	3.81765	-1.86643	2.38747	0.75568
6123.004	4.21229	-1.73555	2.35576	0.68284
6126.992	4.22039	-1.59368	2.70092	0.81573
6131.000	4.53406	-1.34254	2.65389	0.82780
6135.001	4.34312	-1.24957	2.51405	0.64570
6139.010	4.21911	-1.46686	2.67397	0.73931
6143.000	4.26536	-2.05643	2.78934	0.69221
6146.996	4.26082	-1.93821	2.65547	0.86944
6151.059	4.18632	-1.81796	2.55101	0.71057
6155.010	4.12372	-1.81850	2.59344	0.62221
6158.995	4.23048	-1.74603	2.58757	0.54487
6162.998	4.27205	-1.78456	2.55136	0.53493
6166.991	4.25754	-1.67296	2.55921	0.56680
6170.995	4.29261	-1.69484	2.63997	0.67123
6175.019	4.28397	-1.76245	2.67566	0.63649
6179.001	4.28125	-1.75976	2.77557	0.80240
6182.990	4.38933	-1.78101	2.83024	0.51659
6187.002	4.51531	-1.64454	2.80506	0.49799
6191.002	4.51983	-1.59861	2.82756	0.56856
6194.995	4.48828	-1.58497	2.75086	0.59336
6198.993	4.52651	-1.56015	2.74747	0.59982
6202.999	4.49760	-1.54304	2.90171	0.68574
6206.997	4.51706	-1.55772	2.84509	0.75052
6210.999	4.59965	-1.54151	2.92151	0.81265
6214.999	4.53717	-2.15616	2.91052	0.75767
6219.010	4.52390	-1.90345	2.95047	0.93633
6222.996	4.52427	-1.94967	2.86356	0.60882
6226.994	4.51859	-2.05061	2.85556	0.53130
6230.997	4.45760	-2.10880	2.85056	0.49678
6234.993	4.43224	-2.09024	2.86311	0.51506
6238.992	4.51415	-2.11970	2.95381	0.54363
6243.000	4.56459	-2.11314	3.00556	0.64380
6246.992	4.50476	-2.05585	2.90515	0.56606
6251.010	4.50498	-2.13872	2.90393	0.55155
6254.986	4.53948	-2.16981	2.84160	0.48859
6259.009	4.69068	-2.14603	2.78067	0.53299
6262.993	4.57403	-2.10678	2.72236	0.46280
6266.993	4.60530	-2.12653	2.69423	0.49178
6271.000	4.59063	-2.20146	2.66959	0.52172
6275.003	4.56866	-2.02771	2.64559	0.50165
6278.994	4.61228	-2.02949	2.61248	0.41921
6282.992	4.51620	-1.76492	2.63856	0.38922
6287.002	4.45910	-1.80748	2.63544	0.35057
6291.052	4.45686	-1.69464	2.71255	0.38075
6294.992	4.39338	-1.49210	2.78807	0.28912
6298.999	4.38176	-1.51953	2.71872	0.30185
6302.988	4.36624	-1.49899	2.75715	0.29295
6307.009	4.36427	-1.50704	2.79322	0.30642
6311.003	4.42866	-1.48188	2.76430	0.33410
6314.994	4.52639	-1.50367	2.78443	0.36442
6318.988	4.45989	-1.49722	2.85482	0.42101
6323.006	4.51270	-1.63798	2.87725	0.49148
6326.999	4.60227	-1.71910	2.93015	0.58900
6330.990	4.56365	-1.95645	2.90232	0.64006
6334.997	4.61287	-2.06395	2.88302	0.67950
6338.999	4.62771	-1.75514	2.88851	0.73669
6343.001	4.67611	-1.86658	2.89477	0.73619
6347.005	4.57566	-1.64598	2.93153	0.80478
6350.998	4.37093	-1.54238	2.97460	0.86868
6355.026	4.42099	-1.54619	3.02484	0.94795
6358.996	4.12357	-1.55727	3.04306	0.96987
6362.990	4.28083	-1.65092	3.03242	0.96794
6366.990	4.26252	-1.50789	3.01700	0.97026
6370.991	4.40478	-1.59304	2.95012	1.00456
6375.002	4.51450	-1.66624	2.88945	0.99459
6378.866	4.39565	-1.60423	2.89916	0.88348
6382.872	4.43993	-1.73565	2.88938	0.86135
6386.882	4.34381	-1.67765	2.84789	0.81928
6390.874	4.23488	-1.79640	2.87591	0.85749
6394.870	4.36456	-1.87080	2.89312	0.81088
6398.873	4.17453	-1.94748	2.84529	0.69302
6402.865	4.27844	-2.02390	2.80439	0.60718
6406.866	4.30230	-2.06395	2.79733	0.52489
6410.873	4.20119	-2.16225	2.78968	0.50489
6414.865	4.33352	-2.18929	2.78112	0.47487
6418.869	4.26588	-2.21198	2.78602	0.35690
6422.877	4.18410	-2.23523	2.82598	0.36856
6426.867	4.17193	-2.23056	2.71139	0.36852
6430.870	4.14670	-2.27263	2.65857	0.33413
6434.869	4.16907	-2.31183	2.58997	0.26343
6438.870	4.15184	-2.22351	2.48440	0.18570
6442.871	4.16579	-2.10100	2.51391	0.16603
6446.864	4.27328	-2.29121	2.43270	0.18759
6450.882	4.32128	-2.23575	2.38217	0.21791
6454.866	4.37130	-2.10867	2.37746	0.20523
6458.879	4.43719	-1.73929	2.52404	0.23420
6462.880	4.45135	-1.80559	2.54254	0.26503
6466.867	4.47055	-1.54809	2.59443	0.30235
6470.869	4.43974	-1.51429	2.68455	0.38285
6474.874	4.58479	-1.46122	2.64943	0.31802
6478.873	4.57581	-1.62888	2.77233	0.58261
6482.870	4.58274	-1.64386	2.80833	0.54390
6486.864	4.62604	-1.84902	2.73893	0.63754
6490.866	4.60624	-1.70392	2.75145	0.69717
6494.875	4.61447	-1.75025	2.77344	0.75662
6498.861	4.55793	-1.78701	2.73291	0.78548
6502.870	4.50843	-1.85524	2.74695	0.81634
6506.868	4.51004	-1.87548	2.69378	0.88587
6510.880	4.51112	-1.92801	2.69185	0.89698
6514.867	4.48002	-1.98448	2.68980	0.92880
6518.866	4.44484	-2.05460	2.67306	0.91834
6522.865	4.38963	-2.12146	2.56609	0.86779
6526.876	4.40461	-2.22249	2.50489	0.85971
6530.864	4.39701	-2.22894	2.56347	0.86397
6534.867	4.35709	-2.20739	2.49872	0.86510
6538.894	4.34235	-2.15817	2.58514	0.87331
6542.864	4.28429	-2.21205	2.65275	0.89441
6546.863	4.23986	-2.22257	2.70418	0.91018
6550.868	4.19060	-2.19304	2.77686	0.91067
6554.875	4.23199	-2.19827	2.86289	0.91936
6558.871	4.19297	-2.28486	2.98007	0.88922
6562.868	4.23633	-2.18430	2.92859	0.89152
6566.871	4.30053	-1.46470	2.90948	0.87789
6570.867	4.32052	-1.63578	2.85187	0.84200
6574.861	4.43675	-1.76850	2.78382	0.82887
6578.866	4.41963	-1.79990	2.81771	0.79607
6582.860	4.28402	-1.87038	2.90104	0.72128
6586.879	4.44129	-2.03987	2.83029	0.74115
6590.865	4.57127	-1.73353	2.70693	0.73961
6594.864	4.52355	-1.30975	2.67085	0.70017
6598.871	4.46500	-1.46079	2.60166	0.53314
6602.874	4.49603	-1.58030	2.59648	0.65048
6606.866	4.54079	-1.44180	2.60045	0.73868
6610.858	4.38492	-1.34209	2.57927	0.68295
6614.866	4.47701	-1.57234	2.57538	0.56106
6618.867	4.41418	-1.88490	2.64099	0.59210
6622.871	4.37004	-1.65865	2.71216	0.83429
6626.865	4.45195	-1.40050	2.80030	0.77487
6630.863	4.46394	-1.59784	2.73563	0.61263
6634.862	4.48503	-1.66418	2.78396	0.63854
6638.872	4.47180	-1.84600	2.84962	0.69180
6642.866	4.56683	-1.54801	2.82590	0.71373
6646.860	4.57502	-1.63334	2.79488	0.70127
6650.876	4.50964	-1.76417	2.77280	0.77935
6654.863	4.55006	-1.67242	2.79300	0.76904
6658.876	4.47097	-1.52576	2.70995	0.73279
6662.862	4.50150	-1.79789	2.77507	0.82278
6666.861	4.56091	-1.23719	2.70557	0.81727
6670.863	4.61973	-1.58478	2.71270	0.72256
6674.871	4.55300	-1.80467	2.71275	0.69335
6678.862	4.52266	-1.39772	2.75861	0.84525
6682.868	4.55492	-1.55801	2.85056	0.78347
6686.862	4.48806	-1.66098	2.78929	0.72249
6690.866	4.46421	-1.39045	2.85457	0.70431
6694.862	4.32424	-1.33281	2.76549	0.68237
6698.867	4.38203	-1.87412	2.80451	0.61892
6702.862	4.43436	-1.37974	2.86873	0.65859
6706.865	4.55275	-1.50193	2.80471	0.65098
6710.872	4.50234	-1.58224	2.80399	0.46312
6714.868	4.52335	-2.11381	2.81897	0.53518
6718.864	4.60486	-1.51125	2.81632	0.69550
6722.866	4.50964	-1.42458	2.89245	0.73605
6726.865	4.40456	-1.16868	2.75296	0.95969
6730.868	3.69217	1.03072	2.53209	1.91031
6734.870	2.95403	2.17533	0.57334	4.17682
6738.858	0.05534	5.16416	0.42629	6.21950
6742.874	-1.26334	7.25897	-2.60040	9.72537
6746.862	-3.43336	9.32355	-4.20706	12.05035
6750.862	-5.40159	10.72969	-5.26022	13.42499
6754.850	-5.35623	11.11825	-5.44062	14.21292
6758.871	-5.12582	11.15799	-5.31632	14.55205
6762.867	-4.61186	10.90266	-3.29481	14.04574
6766.864	-3.72316	9.95679	-2.92267	12.99988
6770.859	-3.55468	9.44120	-3.11344	12.10894
6774.867	-3.67867	9.64239	-4.66457	12.81249
6778.858	-3.35024	9.61898	-4.55887	12.83070
6782.861	-3.44293	9.69264	-5.09515	13.63886
6786.857	-4.56257	10.81820	-4.49381	13.84694
6790.864	-4.96790	11.05354	-4.92326	14.27522
6794.858	-5.28340	11.13116	-4.40436	13.92727
6798.862	-5.13289	11.13171	-4.42760	13.85723
6802.863	-4.50143	11.15696	-4.51356	13.88989
6806.868	-4.70599	11.17021	-4.61709	13.89910
6810.862	-4.74358	11.21004	-4.68459	14.02811
6814.853	-4.58057	11.25957	-4.56701	13.59289
6818.860	-4.80056	11.20599	-4.62081	13.52168
6822.863	-3.84453	10.79651	-4.69586	13.76673
6826.861	-3.96029	10.57437	-4.67443	13.78916
6830.860	-4.25240	10.63073	-4.61418	13.65416
6834.857	-4.23809	10.77747	-4.33989	13.48820
6838.864	-4.72162	11.09873	-4.60994	13.79414
6842.856	-4.91747	11.18766	-4.68642	13.57433
6846.857	-4.28920	10.79165	-4.71395	13.57039
6850.918	-3.95513	10.30557	-4.57009	13.50954
6854.856	-4.26872	10.52910	-4.60883	13.56418
6858.870	-4.95721	10.77526	-4.69100	13.70339
6862.858	-4.89584	10.87151	-4.47380	13.65104
6866.862	-4.54308	10.82195	-4.50713	13.63121
6870.855	-4.19052	10.22845	-4.41869	13.80911
6874.866	-3.86961	10.48630	-4.40090	13.71759
6878.861	-4.14574	10.71491	-4.51248	13.78839
6882.858	-4.37996	10.93340	-4.15836	13.64601
6886.876	-4.89072	11.03338	-4.07088	13.64287
6890.863	-5.00945	11.10833	-4.19413	13.75468
6894.868	-4.66531	11.00771	-4.07105	13.71403
6898.861	-4.48882	10.47693	-4.17127	13.68822
6902.861	-4.18988	10.25651	-4.35119	13.90263
6906.864	-4.16700	10.34632	-4.16900	13.67621
6910.859	-4.00551	10.38997	-4.14342	13.69456
6914.857	-3.98227	10.30977	-4.16026	13.72141
6918.858	-4.54387	10.61509	-4.18642	13.64236
6922.864	-4.74151	10.78381	-3.98701	13.55102
6926.857	-4.32476	10.80055	-3.95454	13.45466
6930.866	-4.33019	11.00554	-4.04589	13.28762
6934.855	-4.31684	11.03874	-4.40986	13.55266
6938.874	-4.79506	11.26587	-3.96595	13.42453
6942.866	-4.46075	11.17216	-4.11159	13.40115
6946.853	-4.35210	10.54017	-3.90029	13.51247
6950.900	-3.96718	10.58236	-3.87435	13.52838
6954.858	-4.33197	11.01229	NaN	NaN
6958.856	-4.45017	11.61288	NaN	NaN
6962.859	-4.18674	13.32788	-2.70599	14.61154
6966.865	-3.21416	13.55368	NaN	NaN
6970.865	-3.29258	13.49272	NaN	NaN
6974.861	-2.21328	11.33436	-2.65176	14.57694
6978.853	-3.23450	11.23034	-3.49025	14.54844
6982.860	-3.31667	11.33981	-3.53775	14.71668
6986.857	-3.11856	11.23160	-2.77753	14.83883
6990.863	-2.97680	11.46078	NaN	NaN
6994.852	-3.25941	11.68879	NaN	NaN
6998.859	-3.10413	12.32960	NaN	NaN
7002.855	-2.99529	12.26242	NaN	NaN
7006.879	-3.03719	12.39475	NaN	NaN
7010.868	-2.90955	12.24910	NaN	NaN
7014.887	-2.91218	12.37585	NaN	NaN
7018.880	-3.20095	12.70131	NaN	NaN
7022.863	-3.21847	12.65512	NaN	NaN
7026.858	-3.22445	12.62169	NaN	NaN
7030.865	-3.40408	12.74189	NaN	NaN
7034.877	-3.23821	12.69288	NaN	NaN
7038.862	-3.22136	12.72623	NaN	NaN
7042.857	-3.30579	12.71377	NaN	NaN
7046.851	-3.09602	12.48644	NaN	NaN
7050.865	-3.29157	12.49717	NaN	NaN
7054.855	-2.45921	11.94384	-2.43424	15.21088
7058.878	-2.47120	11.62526	-2.25176	15.07474
7062.861	-2.62100	12.01767	-2.34495	15.05436
7066.859	-3.22084	12.35684	NaN	NaN
7070.860	-3.41098	12.48709	NaN	NaN
7074.863	-3.43227	12.50885	NaN	NaN
7078.863	-3.13642	12.49532	NaN	NaN
7082.854	-3.19291	12.49428	NaN	NaN
7086.863	-3.26844	12.33049	-2.29126	15.10021
7090.854	-3.18482	12.18615	NaN	NaN
7094.872	-3.18069	12.16789	-2.28150	15.10857
7098.855	-2.70862	11.99772	NaN	NaN
7102.864	-2.08342	11.42997	NaN	NaN
7106.860	-3.33134	12.61325	-2.32278	15.17716
7110.856	-3.19232	12.58321	-2.07162	15.05043
7114.850	-3.33015	12.50996	NaN	NaN
7118.859	-2.56161	12.26290	NaN	NaN
7122.855	-2.90485	12.38436	NaN	NaN
7126.859	-2.57892	12.04976	NaN	NaN
7130.849	-2.49240	11.90370	-1.98112	15.07767
7134.859	-2.24341	11.91533	NaN	NaN
7138.898	-2.28901	11.62339	-2.03236	14.98849
7142.860	-1.92951	11.31451	-2.04679	14.80890
7146.864	-2.32097	11.79785	-2.01870	14.79633
7150.857	-2.12947	11.65384	-2.00423	14.84244
7154.843	-2.07955	11.57522	NaN	NaN
7158.865	-2.03033	11.52453	-2.07886	14.92947
7162.865	-2.18198	11.54308	NaN	NaN
7166.859	-4.43211	11.42031	NaN	NaN
7170.858	-6.73620	11.43748	-4.88976	14.07836
7174.857	-8.99416	10.58357	-5.34380	12.02534
7178.856	-6.87516	8.13185	-7.02360	11.32984
7182.854	-11.99189	10.52681	-5.61787	8.60769
7186.854	NaN	NaN	NaN	NaN
7190.853	NaN	NaN	NaN	NaN
7194.850	NaN	NaN	NaN	NaN
7198.857	NaN	NaN	NaN	NaN
7202.858	NaN	NaN	NaN	NaN
7206.867	NaN	NaN	NaN	NaN
7211.037	NaN	NaN	NaN	NaN
7215.150	NaN	NaN	NaN	NaN
7219.294	NaN	NaN	NaN	NaN
7223.289	NaN	NaN	NaN	NaN
7227.403	NaN	NaN	NaN	NaN
7231.262	NaN	NaN	NaN	NaN
7235.219	NaN	NaN	NaN	NaN
7239.862	NaN	NaN	NaN	NaN
7243.939	NaN	NaN	NaN	NaN
7247.963	NaN	NaN	NaN	NaN
7252.152	NaN	NaN	-17.78303	9.79041
7254.887	NaN	NaN	-19.54202	9.90893
7258.727	NaN	NaN	-17.83913	9.63891
7262.736	NaN	NaN	-17.92068	9.50348
7266.736	NaN	NaN	-17.62765	6.52554
7270.731	NaN	NaN	-17.06313	6.18367
7274.730	NaN	NaN	-16.18281	6.24424
7278.728	NaN	NaN	-15.79671	5.86576
7282.732	-19.93582	8.97420	-14.64368	6.19732
7286.726	-22.33845	10.37704	-15.31293	6.56162
7290.724	-18.49184	8.11942	-15.16927	6.87989
7294.734	-19.41840	8.00369	-15.48849	7.12515
7298.731	-19.26920	7.82171	-15.82164	6.97834
7302.738	-19.36839	7.98040	-15.27249	6.80994
7306.737	-15.21536	6.80990	-15.13737	7.01182
7310.735	-15.28986	6.34690	-15.28686	7.16309
7314.726	-16.10076	6.30946	-15.35646	7.00638
7318.730	-17.52308	7.08863	-15.30625	7.17352
7322.721	-15.55063	6.66759	-15.35690	7.09824
7326.743	-16.75163	6.83760	-15.51227	7.02620
7330.724	-15.96466	6.98494	-15.29312	7.03948
7334.763	-16.56009	7.01425	-15.16800	7.04466
7338.723	-17.16292	7.31110	-15.12072	6.98060
7342.729	-16.63095	7.12806	-15.00021	6.99090
7346.721	-16.43681	7.19542	-15.32082	7.01752
7350.746	-16.80860	7.34387	-15.37084	6.99889
7354.724	-16.94763	7.42921	-15.42066	6.98519
7358.725	-17.26839	7.43292	-15.50151	7.05265
7362.724	-16.80275	7.54751	-15.14618	7.07165
7366.734	-17.27864	7.99932	-15.15069	7.13190
7370.724	-17.03554	7.91310	-15.37870	7.24570
7374.763	-16.55616	7.71498	-15.40821	7.29072
7378.739	-16.54538	7.77727	-15.34517	7.28078
7382.741	-16.69609	7.76427	-15.21705	7.31623
7386.729	-16.67437	7.70019	-15.05855	7.18259
7390.734	-16.28571	7.74545	-14.92139	7.27519
7394.735	-16.63393	7.77043	-14.96795	7.28029
7398.725	-16.63501	7.70645	-15.10404	7.27107
7402.733	-17.05374	7.77696	-15.04420	7.09189
7406.723	-16.96291	7.87789	-15.13531	7.25911
7410.727	-16.63403	7.82087	-15.03547	7.21267
7414.727	-16.69810	7.74907	-15.08139	7.21279
7418.727	-16.79309	7.72711	-15.12657	7.21892
7422.724	-16.51310	7.75598	-14.87953	7.09279
7426.729	-16.52731	7.64722	-14.90341	6.88600
7430.729	-16.74601	7.69511	-14.75818	6.94793
7434.728	-16.83861	7.64763	-14.90758	6.93691
7438.725	-16.83754	7.60036	-14.99922	7.07930
7442.734	-16.71526	7.56493	-15.07584	6.98823
7446.783	-16.61021	7.47523	-14.89923	7.10206
7450.735	-16.07828	7.14209	-14.85614	7.17826
7454.726	-16.36041	7.36189	-14.71247	7.01909
7458.720	-16.47876	7.31243	-14.60232	6.84894
7462.741	-16.47559	7.28564	-14.68703	6.97824
7466.728	-16.49209	7.22690	-14.61211	6.92865
7470.722	-16.39785	7.17786	-14.59823	6.96458
7474.730	-16.50382	7.16821	-14.57771	7.01045
7478.725	-16.29724	7.04979	-14.61392	7.08299
7482.725	-16.35861	7.04100	-14.63500	6.97629
7486.730	-16.30734	7.15549	-14.49718	7.02537
7490.722	-13.86839	7.09758	-12.78623	6.91964
7494.723	-10.25586	4.20368	-9.54189	5.73424
7498.729	-6.59126	3.33090	-6.73334	3.95447
7502.727	-4.67355	-0.54960	-4.04253	1.72634
7506.726	-2.42111	-1.50067	-1.91303	-0.55778
7510.728	-0.65873	-2.18542	-0.62215	-0.47950
7514.734	0.64498	-2.57625	-0.49110	-0.95120
7518.732	2.30600	-2.71823	0.49148	-1.36508
7522.724	2.55869	-2.17169	1.15523	-1.02851
7526.722	2.60463	-2.69674	0.89535	-0.88137
7530.723	2.50308	-2.58625	-0.10610	-0.75751
7534.726	1.09983	-2.38760	0.28399	-0.84107
7538.751	1.79259	-2.46806	0.63387	-0.72797
7542.719	2.26819	-2.52768	0.67278	-0.78394
7546.724	2.59277	-2.69278	0.82535	-1.03492
7550.731	2.69480	-2.95770	1.05602	-0.99335
7554.726	2.94574	-3.07632	1.09971	-1.10992
7558.727	2.63586	-3.30101	1.14843	-0.89330
7562.723	2.74841	-3.16591	1.19152	-0.91551
7566.719	2.81820	-3.06373	1.22352	-0.88928
7570.726	2.94433	-3.17834	1.05230	-0.94604
7574.719	3.04932	-3.22395	1.11931	-0.88856
7578.726	2.71852	-3.34819	1.07170	-0.97745
7582.728	2.75574	-3.43977	1.22878	-0.96691
7586.719	2.80493	-3.34260	1.20400	-1.06828
7590.727	2.93349	-3.33394	1.18721	-0.95441
7594.719	2.87557	-3.33048	1.20286	-0.96379
7598.728	2.95965	-3.42596	1.13047	-1.00085
7602.722	2.83212	-3.39975	1.09683	-1.04145
7606.746	2.83501	-3.39945	1.05451	-1.03624
7610.723	2.90547	-3.49644	1.07830	-0.93381
7614.719	2.90844	-3.39565	1.14546	-0.94511
7618.721	2.89091	-3.42762	1.11318	-1.02167
7622.725	2.95824	-3.30414	1.13221	-1.05457
7626.720	2.85890	-3.37438	1.12246	-1.03155
7630.724	2.88802	-3.22432	1.20341	-0.93687
7634.717	2.82286	-3.38999	1.15084	-0.97911
7638.729	2.84016	-3.50067	1.02183	-0.94503
7642.724	2.86289	-3.17142	1.09443	-1.02441
7646.752	2.88027	-3.43070	1.10874	-1.03153
7650.751	2.91490	-3.33182	1.18984	-0.98844
7654.728	3.00745	-3.26048	1.20740	-0.96759
7658.719	2.89086	-3.27856	1.10395	-1.08848
7662.726	2.96572	-3.31020	0.96688	-1.06811
7666.721	2.87007	-3.33752	0.98484	-1.04645
7670.729	2.90626	-3.32138	1.02615	-1.09569
7674.727	2.97520	-3.33787	1.05585	-1.12704
7678.725	3.04878	-3.33535	1.14997	-1.13535
7682.725	3.11217	-3.28059	1.21043	-1.17702
7686.727	3.05306	-3.34060	1.16022	-1.14446
7690.726	3.05828	-3.31756	1.15243	-1.09773
7694.722	3.10050	-3.29037	1.09832	-1.06139
7698.719	3.13949	-3.30173	1.06647	-1.08134
7702.719	3.19190	-3.27498	1.07468	-1.06063
7706.717	3.16023	-3.27285	1.17011	-1.10386
7710.728	3.14714	-3.26478	1.16570	-1.18494
7714.757	3.10888	-3.31486	1.15645	-1.16148
7718.724	3.00891	-3.39460	1.15620	-1.20960
7722.739	3.11324	-3.45882	1.11727	-1.15643
7726.728	3.05288	-3.47571	1.11313	-1.01857
7730.726	3.06085	-3.30754	1.04568	-1.04951
7734.724	3.10636	-3.48658	1.04597	-1.09566
7738.719	3.03138	-3.42178	1.04503	-1.12516
7742.735	2.99863	-3.58678	1.09319	-1.11613
7746.720	2.92874	-3.20815	1.05235	-1.08264
7750.720	2.92587	-3.38867	1.02131	-1.11836
7754.715	2.89198	-3.57995	0.95301	-1.02619
7758.715	2.93181	-3.35803	0.93167	-1.02670
7762.729	3.00052	-3.41154	0.90086	-1.07936
7766.724	3.06751	-3.30076	0.84553	-1.10344
7770.728	3.01257	-3.30922	0.86572	-1.18532
7774.723	2.94988	-3.16064	0.91011	-1.05574
7778.724	4.36893	-2.15646	1.55896	-0.67477
7783.096	6.20668	-0.34315	2.85286	2.18613
7786.725	7.20443	1.05481	4.28481	5.15190
7790.714	7.52415	3.80313	4.67786	6.69250
7794.726	7.45579	5.03593	5.06695	7.20741
7798.717	7.63069	7.23462	6.28982	7.79466
7802.720	8.81809	6.08292	6.62970	8.18456
7806.726	9.16240	6.14117	6.78346	8.49631
7810.719	8.43477	7.15656	6.82271	9.19047
7814.715	8.94663	7.05173	7.13060	8.65327
7818.715	8.53923	6.99116	6.92860	9.17007
7822.719	8.09547	7.23901	6.84429	8.87878
7826.765	8.53207	7.01671	6.96477	8.70701
7830.715	8.51595	6.73853	7.25064	8.87761
7834.721	8.67318	6.83445	6.89248	9.06895
7838.717	8.72619	6.98988	7.05564	9.32406
7842.720	8.74782	7.12233	7.14504	9.26816
7846.715	8.81923	7.24229	7.10589	9.49929
7850.737	8.62816	7.50921	7.01817	9.45976
7854.734	8.66828	7.47572	7.16107	9.30427
7858.716	8.58180	7.35153	7.18027	9.62126
7862.722	8.64844	7.26051	6.93689	9.49090
7866.726	8.72105	7.50832	7.11002	9.56659
7870.719	8.64924	7.50196	7.06513	9.73485
7874.719	8.58859	7.50107	7.04198	9.70818
7878.721	8.66661	7.47853	7.17807	9.45639
7882.717	8.72876	7.29708	7.05721	9.73259
7886.730	8.65067	7.35507	7.06171	9.80004
7890.781	8.61729	7.34077	7.03658	9.85137
7894.721	8.63544	7.47045	6.95494	9.78557
7898.716	8.20795	7.76358	6.87320	9.88165
7902.716	8.58204	7.61524	6.99856	9.73679
7906.719	8.52384	7.75664	7.07517	9.62074
7910.711	8.48085	7.62001	7.01758	9.73247
7914.721	8.37332	7.52734	7.08705	9.51315
7918.784	8.58769	7.35724	7.16297	9.57661
7922.727	8.49937	7.39337	7.11032	9.57246
7926.720	8.25856	7.75811	7.04675	9.57066
7930.716	8.26655	8.35306	7.17570	9.49304
7934.737	8.14366	7.99223	7.15139	9.59864
7938.714	7.99766	8.06845	7.10941	9.76540
7942.723	8.13466	7.95209	7.17551	9.64003
7946.728	8.28935	8.01296	7.23611	9.50588
