time (ms)	lx (deg)	ly (deg)	rx (deg)	ry (deg)
0.000	0.89674	-5.01344	-1.21263	-2.50760
3.983	0.71630	-4.99211	-1.09916	-2.45245
7.988	0.75771	-4.97569	-1.14687	-2.50667
11.984	0.84267	-4.94606	-1.33403	-2.55719
16.002	0.87436	-4.96149	-1.32981	-2.62280
19.997	0.99122	-4.99602	-1.23965	-2.67036
23.988	0.98092	-5.03136	-1.25302	-2.67013
27.986	1.15659	-5.17586	-1.27750	-2.61264
31.983	1.01920	-5.17230	-1.26542	-2.60316
35.996	0.89398	-5.16021	-1.26463	-2.57259
39.986	0.81655	-5.18395	-1.24461	-2.52522
43.983	0.80404	-5.16003	-1.25542	-2.46236
47.989	0.90391	-5.18538	-1.25190	-2.43736
52.001	0.86682	-5.22112	-1.42258	-2.61863
55.988	0.86255	-5.23839	-1.33693	-2.59344
59.984	1.05830	-5.25492	-1.10365	-2.45279
64.000	1.89667	-4.60266	-0.69290	-2.37253
67.986	4.28362	-3.69631	1.66033	-1.25512
71.991	5.44153	-2.99314	2.75249	1.03599
75.977	5.67651	-2.54284	3.05345	1.04437
79.998	5.77743	-2.69711	2.95569	0.93057
83.981	5.15930	-3.16787	2.19814	0.37715
87.994	4.22609	-3.45332	1.83625	-0.07441
91.979	4.14547	-3.49217	1.83543	-0.27908
95.983	4.43189	-3.34541	1.97547	-0.15117
99.995	4.94585	-3.28248	2.18788	-0.40566
103.989	5.41608	-3.00894	2.48178	-0.09238
107.985	5.58331	-2.84115	2.54239	0.03818
111.989	5.40363	-2.79812	2.84026	0.06510
115.981	4.84011	-2.80486	2.63073	-0.00591
119.987	4.88986	-2.79682	2.63586	0.03855
123.976	4.87786	-2.71504	2.71154	-0.07628
127.993	4.80655	-2.79494	2.76047	-0.07836
131.990	4.84529	-2.69718	2.75477	-0.04234
135.981	4.90183	-2.62679	2.25174	-0.01671
139.981	4.92341	-2.63326	2.55247	-0.01360
143.992	4.86014	-2.62624	2.55899	0.04235
147.986	4.91316	-2.63626	2.46436	0.06497
151.984	4.84038	-2.73139	2.45822	0.08006
155.994	4.84809	-2.79092	2.40929	0.06475
159.981	4.86487	-2.88278	2.50536	0.04610
163.984	4.90624	-2.95659	2.56258	0.00084
167.987	4.96201	-3.06454	2.53144	-0.00211
172.391	4.98696	-3.07366	2.51373	-0.02708
175.984	5.06282	-3.14670	2.57112	-0.06017
180.007	5.03787	-3.22384	2.65882	-0.05744
184.012	4.99728	-3.25271	2.66075	-0.07203
188.005	5.02765	-3.05809	2.72427	-0.06717
191.999	4.93750	-2.84817	2.75336	-0.09236
195.989	4.94228	-2.92638	2.78775	-0.07803
199.982	4.95948	-2.71179	2.84843	-0.08423
203.983	4.94748	-2.77391	2.83445	0.04594
207.986	4.94716	-2.65367	2.80144	0.05669
211.981	4.91846	-2.57801	2.78416	0.09983
215.999	4.93780	-2.60071	2.77389	0.15773
219.980	4.91536	-2.50014	2.73236	0.18700
224.010	4.87872	-2.50213	2.71278	0.24863
227.984	4.91634	-2.48706	2.71411	0.28688
231.991	4.90885	-2.47881	2.72248	0.34789
235.979	4.92445	-2.54062	2.72620	0.34838
239.983	4.95622	-2.59118	2.76242	0.33152
243.982	4.90696	-2.77324	2.72236	0.34891
247.975	4.90528	-2.83267	2.78226	0.33844
251.979	4.86505	-2.94491	2.82548	0.34632
255.981	4.88550	-2.94292	2.87326	0.38214
259.978	4.86552	-2.95012	2.93178	0.39311
263.980	4.85167	-2.96253	2.97908	0.37985
267.985	4.85963	-2.96976	2.95678	0.35432
271.984	4.84437	-2.96160	2.97413	0.36950
275.982	4.96455	-3.00054	2.96317	0.35337
279.978	4.92262	-2.95503	2.96361	0.37489
283.991	4.91674	-2.95795	2.92527	0.40823
287.985	4.96169	-2.90027	2.87203	0.42798
291.983	4.93817	-2.85738	2.82784	0.41531
295.981	4.92925	-2.80842	2.72256	0.43061
299.981	4.92275	-2.79802	2.69495	0.37247
303.992	4.87729	-2.79016	2.55438	0.38614
307.984	4.92664	-2.79487	2.54618	0.37452
311.986	4.91738	-2.81387	2.29641	0.40074
315.981	4.93987	-2.84035	2.26636	0.38490
319.974	4.96627	-2.95368	2.27996	0.39965
323.986	4.93080	-3.06718	2.23335	0.40095
327.980	5.02546	-2.98069	2.19737	0.37961
331.978	5.01484	-2.86722	2.20847	0.35649
335.979	5.06107	-2.88597	2.19142	0.32868
339.983	5.13375	-2.88022	2.21938	0.29168
343.982	5.19089	-2.88944	2.23258	0.28406
347.977	5.24737	-2.87447	2.29845	0.26197
351.981	5.24228	-2.82056	2.25697	0.22627
356.002	5.29154	-2.82944	2.30122	0.22711
359.982	5.32353	-2.77393	2.35858	0.21829
363.863	5.30805	-2.72379	2.38390	0.21627
367.853	5.34041	-2.70945	2.40615	0.20026
371.853	5.32065	-2.68912	2.41016	0.20480
375.851	5.33864	-2.69904	2.40412	0.23851
379.851	5.34078	-2.68348	2.40887	0.28973
383.857	5.30490	-2.65092	2.44031	0.29884
387.859	5.30734	-2.65494	2.47180	0.25633
391.873	5.25249	-2.71734	2.60285	0.24915
395.855	5.23187	-2.72963	2.66194	0.25083
399.857	5.18875	-2.66547	2.72181	0.25772
403.895	5.14557	-2.63628	2.79273	0.30295
407.863	5.18247	-2.62764	2.72543	0.35613
411.851	5.13959	-2.57392	2.69775	0.27070
415.855	5.17686	-2.65065	2.41165	0.20102
419.857	5.21968	-2.62753	2.77542	0.09638
423.855	5.21053	-2.61359	2.75772	0.02700
427.849	5.18628	-2.85621	2.76109	0.02720
431.889	5.18897	-2.87577	2.70812	0.11788
435.858	5.21865	-2.76107	2.48988	0.22266
439.854	5.33997	-2.83188	2.56827	0.28955
443.882	5.38095	-2.79021	2.62997	0.27283
447.862	5.41140	-2.70948	2.68747	0.25147
451.858	5.49092	-2.55952	2.93631	0.22357
455.851	5.51487	-2.38826	2.99324	0.26016
459.851	5.52207	-2.26763	2.92337	0.33172
463.850	5.47778	-2.01636	2.82209	0.37350
467.856	5.45622	-1.88252	2.79060	0.43722
471.850	5.45088	-1.73938	2.71238	0.46365
475.849	5.45550	-1.92196	2.69621	0.42745
479.860	5.47626	-2.00557	2.88480	0.42276
483.873	5.47926	-2.10813	2.97121	0.28826
487.851	5.40727	-2.04850	2.97218	0.26411
491.863	5.38080	-2.23936	2.83192	0.24851
495.857	5.29093	-2.59098	2.88052	0.18067
499.858	5.18690	-2.76012	2.80721	0.09503
503.852	5.05388	-2.59082	2.78203	0.06344
507.850	5.02034	-2.63554	2.77753	0.04979
511.888	4.89786	-2.67227	2.78102	0.08426
515.849	4.89232	-2.61379	2.78731	0.19739
519.863	4.83531	-2.56063	2.89950	0.17290
523.851	4.80204	-2.56209	3.09941	0.21845
527.857	4.84105	-2.43598	3.20182	0.21677
531.850	5.04686	-2.70723	3.27529	0.16525
535.864	5.04900	-2.59881	3.15560	0.20938
539.854	5.10371	-2.45776	3.18237	0.14678
543.852	5.22483	-2.73736	3.16760	0.10788
547.849	5.28817	-2.59643	3.29770	0.09370
551.855	5.05496	-2.62695	3.22760	0.10346
555.844	5.09771	-2.56384	3.28917	0.14719
559.848	5.21284	-2.49775	3.32041	0.14765
563.858	5.07365	-2.60309	3.27984	0.17448
567.870	5.04223	-2.56502	3.25374	0.16853
571.847	5.03065	-2.57142	3.19600	0.17988
575.848	4.93391	-2.51702	3.16485	0.25546
579.851	4.85487	-2.42548	3.15407	0.21770
583.857	4.80561	-2.29906	3.13155	0.16344
587.857	4.82567	-2.34584	3.17072	0.21469
591.857	4.77461	-2.32666	3.14714	0.23504
595.853	4.79016	-2.18454	3.20236	0.23731
599.850	4.80418	-2.16966	3.22863	0.23390
603.862	4.80872	-2.12684	3.23534	0.29325
607.857	4.84514	-2.13135	3.26799	0.27337
611.853	4.87665	-2.12713	3.25528	0.30624
615.850	4.90439	-2.12036	3.29649	0.24143
619.854	4.88478	-2.13692	3.31435	0.22500
623.848	4.92605	-2.19387	3.32743	0.23601
627.848	4.92812	-2.25128	3.32649	0.26358
631.850	4.93258	-2.39702	3.31333	0.23478
635.853	4.91287	-2.45067	3.31897	0.15768
639.883	4.94854	-2.49737	3.28224	0.12960
643.850	4.95571	-2.64590	3.24813	0.09641
647.851	4.96765	-2.78365	3.28375	-0.07162
651.855	5.03228	-2.80252	3.28951	-0.19139
655.847	5.13456	-2.90046	3.34638	-0.11230
659.848	5.26024	-2.81564	3.36861	-0.17178
663.849	5.31214	-2.87237	3.40583	-0.12303
667.847	5.36747	-2.87470	3.44688	-0.16862
671.887	5.42508	-2.92429	3.56850	-0.17118
675.860	5.51260	-2.93894	3.68045	-0.15546
679.845	5.56404	-2.99761	3.73275	-0.13469
683.845	5.56426	-2.98831	3.71384	-0.08466
687.854	5.61215	-2.92855	3.76707	-0.08525
691.855	5.62962	-2.80703	3.77814	-0.10273
695.853	5.62004	-2.68886	3.69056	-0.08208
699.859	5.53847	-2.70965	3.64340	-0.08241
703.846	5.51794	-2.64913	3.58005	-0.06850
707.858	5.40798	-2.60619	3.49725	-0.04008
711.845	5.41217	-2.47675	3.37343	-0.05328
715.898	5.40921	-2.21361	3.20590	-0.10197
719.845	5.39524	-2.16601	3.19843	-0.10984
723.858	5.40540	-2.46835	3.03143	-0.12377
727.851	5.35448	-2.42527	3.13449	-0.16192
731.842	5.30104	-2.44484	3.02249	-0.16812
735.854	5.32929	-2.51973	3.03563	-0.20640
739.852	5.33615	-2.45308	3.24835	-0.07904
743.849	5.41800	-2.70637	3.37185	-0.07402
747.841	5.46903	-2.66544	3.35229	-0.01419
751.853	5.52254	-2.55746	3.39188	-0.08955
755.852	5.55860	-2.64761	3.16230	-0.05952
759.847	5.53124	-2.67508	3.41696	-0.00776
763.850	5.54585	-2.76533	3.49495	0.08649
767.845	5.57611	-2.81227	3.44389	0.08381
771.852	5.57355	-2.93903	3.46911	0.10147
775.864	5.62859	-2.72179	3.49448	0.02190
786.576	5.60253	-2.34605	3.49817	-0.22117
790.077	5.60485	-2.22874	3.36337	-0.57913
794.369	5.56276	-2.24327	3.42411	-0.02853
797.022	5.52598	-2.26425	3.44221	-0.09483
799.854	5.48516	-2.39304	3.43541	0.01734
803.857	5.44844	-2.50652	3.42334	0.00479
807.849	5.47375	-2.60393	3.39807	0.12852
811.853	5.47840	-2.54234	3.41021	0.36989
815.861	5.48322	-2.46130	3.39883	0.06179
819.850	5.49050	-2.45756	3.42710	0.02840
823.849	5.55447	-2.51496	3.45099	0.08910
827.873	5.61458	-2.60444	3.35657	0.11991
831.845	5.63437	-2.71394	3.35271	0.14400
835.844	5.81793	-2.72678	3.31694	0.13518
839.843	5.85848	-2.76437	3.26698	0.12987
843.849	5.76286	-2.80620	3.26703	0.12990
847.848	5.73878	-2.84934	3.31182	0.06693
851.843	5.72812	-2.88927	3.30787	0.03265
855.847	5.56950	-2.94916	3.31551	-0.00201
859.904	5.48710	-3.00824	3.46469	0.00987
863.858	5.33787	-3.02398	3.59713	0.01141
867.843	5.26440	-3.04958	3.68312	0.03938
871.843	5.21449	-3.02670	3.64531	0.10225
875.848	5.18783	-3.05222	3.81681	0.10364
879.844	5.09451	-3.02873	3.80157	0.13074
883.847	5.04784	-3.07303	3.86660	0.10485
887.846	5.00184	-3.07218	3.90212	0.10512
891.850	5.04339	-2.96715	3.94041	0.12827
895.845	5.12139	-2.94293	3.94352	0.14366
899.855	5.13126	-2.84515	3.93218	0.18687
903.852	5.17471	-2.79891	3.95088	0.18900
907.867	5.25601	-2.68271	3.92074	0.17478
911.849	5.30724	-2.62363	3.87932	0.12810
915.844	5.34425	-2.56520	3.87186	0.09632
919.843	5.44458	-2.69869	3.77162	0.04795
923.853	5.44761	-2.68854	3.72388	0.04734
927.842	5.42874	-2.79423	3.66300	0.06581
931.845	5.37025	-3.02727	3.49142	0.03567
935.838	5.41977	-2.83882	3.47329	0.03949
939.860	5.45137	-2.86922	3.27799	0.03265
943.856	5.53466	-2.78451	3.10012	0.00953
947.847	5.59061	-2.81237	3.10831	-0.01722
951.838	5.56347	-2.79170	3.07337	-0.05000
955.854	5.56942	-3.03140	3.23801	-0.02856
959.846	5.70251	-3.32946	3.21337	0.02898
963.858	5.75789	-3.29703	3.27912	0.05165
967.841	5.73396	-3.33610	3.27816	0.08132
971.844	5.63181	-3.20251	3.31356	0.09161
975.846	5.74035	-3.34972	3.26960	0.08328
979.845	5.73065	-3.29941	3.41389	0.13596
983.842	5.81179	-3.31894	3.34759	0.13969
987.859	5.74888	-3.14514	3.37517	0.15948
991.847	5.75138	-3.20007	3.43259	0.18355
995.852	5.62847	-3.20240	3.53157	0.22669
999.849	5.50950	-2.54335	3.46001	0.22430
1003.844	6.59324	-1.61724	4.25487	0.72571
1007.849	8.34592	-1.07627	5.41231	1.81731
1011.843	9.42315	0.80358	6.55591	3.49679
1015.846	10.73282	1.59871	7.48539	3.78892
1019.839	10.12181	1.26350	7.93552	3.62567
1023.858	10.01780	1.18596	7.81819	3.38212
1027.849	9.62401	1.16511	7.40528	3.18228
1031.840	8.70228	0.90316	7.35554	3.16274
1035.843	8.87345	0.68128	7.21137	3.09360
1039.860	9.43982	0.83906	7.40352	3.16569
1043.845	9.88020	0.92969	7.51961	3.24380
1047.839	9.96896	1.01669	7.57469	3.24025
1051.839	10.00584	0.96075	7.41319	3.58118
1055.846	10.10843	0.92341	7.44413	3.62805
1059.839	10.03917	0.86260	7.29516	3.61844
1063.862	10.07269	0.82081	7.26444	3.70183
1067.840	9.99313	0.79383	7.20003	3.54462
1071.852	10.06350	0.77218	7.16679	3.89979
1075.845	10.09891	0.76059	7.16779	3.99190
1079.836	10.14249	0.75893	7.06286	4.01691
1083.850	10.08034	0.77549	6.98211	3.99747
1087.847	10.04591	0.71703	6.95005	4.05388
1091.841	9.95716	0.65269	6.93247	3.84268
1095.845	9.89359	0.62712	6.88052	3.63338
1099.846	9.82072	0.65289	6.77093	3.43928
1103.844	9.76028	0.62948	6.73446	3.47563
1107.850	9.64125	0.63249	6.71067	3.39987
1111.842	9.51903	0.62258	6.67610	3.41344
1115.841	9.42752	0.61505	6.69388	3.38422
1119.840	9.37965	0.65499	6.67764	3.32884
1123.845	9.33985	0.66767	6.74479	3.27651
1127.839	9.30619	0.65219	6.77896	3.31558
1131.904	9.28306	0.65694	6.88641	3.30447
1135.848	9.32023	0.69931	6.91319	3.30553
1139.835	9.35114	0.70589	6.97971	3.34523
1143.846	9.30124	0.69258	7.05679	3.39410
1147.839	9.32096	0.67413	7.15535	3.43141
1151.849	9.34954	0.68211	7.19911	3.46291
1155.841	9.33608	0.66598	7.29724	3.46268
1159.841	9.35232	0.67615	7.38031	3.48749
1163.834	9.42293	0.64861	7.45736	3.53038
1167.855	9.46718	0.64774	7.47514	3.54707
1171.846	9.48396	0.67734	7.52981	3.54064
1175.840	9.51611	0.74596	7.50922	3.43213
1179.836	9.51804	0.77969	7.50108	3.18782
1183.840	9.54134	0.77518	7.51000	3.03765
1187.840	9.62483	0.80590	7.49790	2.87188
1191.844	9.63238	0.85595	7.49044	2.85419
1195.849	9.70128	0.90637	7.44967	2.68680
1199.874	9.78599	0.94056	7.40504	2.64624
1203.871	9.86601	0.95668	7.42105	2.58739
1207.843	9.87415	0.98015	7.34748	2.56284
1211.839	9.90115	1.00843	7.33081	2.51757
1215.844	9.90007	1.01370	7.30864	2.49772
1219.842	9.96025	0.89381	7.42563	2.48951
1223.717	10.91552	-0.03843	8.62639	2.38725
1227.737	12.16864	-0.52501	10.70519	0.95394
1231.717	13.04996	-1.39995	11.90987	-0.63703
1235.713	13.05493	-2.10024	12.28704	-1.52331
1239.736	13.84340	-2.61571	12.30677	-2.25088
1243.714	14.02540	-3.12373	12.52274	-2.52002
1247.712	14.53044	-2.50477	12.91166	-2.57399
1251.715	14.71603	-2.36761	13.13421	-2.48236
1255.723	14.68617	-2.20813	12.61353	-2.59592
1259.708	14.65439	-2.32239	12.20854	-2.64768
1263.717	14.69511	-2.33377	12.42240	-2.72492
1267.735	14.70797	-2.38944	12.56909	-2.74922
1271.716	14.72935	-2.65418	12.61755	-2.76464
1275.715	14.77605	-2.67322	12.73158	-2.85043
1279.721	14.77653	-2.89387	12.65394	-2.90743
1283.709	14.81671	-2.98572	12.85416	-2.98050
1287.729	14.76955	-2.97973	12.82689	-3.04169
1291.721	14.76885	-2.91343	12.89336	-3.04040
1295.715	14.72355	-2.87635	12.85668	-3.04749
1299.718	14.71772	-2.93648	12.97695	-3.08690
1303.709	14.65600	-3.12204	13.00702	-3.07202
1307.728	14.66543	-3.11700	13.06704	-3.04065
1311.716	14.59558	-3.20151	13.08752	-3.09016
1315.712	14.58082	-3.19974	13.05602	-3.16310
1319.713	14.57060	-3.20537	13.00577	-3.14905
1323.722	14.55997	-3.15537	12.99800	-3.15694
1327.712	14.54988	-3.15357	12.99538	-3.12163
1331.715	14.55428	-3.10715	12.93483	-3.09143
1335.764	14.53765	-3.09508	12.87765	-3.11564
1339.715	14.53786	-3.10290	12.87313	-3.13152
1343.717	14.52940	-3.07520	12.82141	-3.08964
1347.716	14.54467	-3.01855	12.77995	-3.07514
1351.710	14.51946	-2.99425	12.72870	-3.12572
1355.729	14.50095	-2.97557	12.69693	-3.11995
1359.712	14.51216	-2.93161	12.66667	-3.09109
1363.724	14.48655	-2.90035	12.66022	-3.07599
1367.712	14.45097	-2.90048	12.65704	-3.06512
1371.713	14.42809	-2.88544	12.64210	-3.08469
1375.717	14.42470	-2.87276	12.63511	-3.11076
1379.711	14.41364	-2.85756	12.62230	-3.08283
1383.715	14.40041	-2.88488	12.63740	-3.07355
1387.708	14.42854	-2.90843	12.62195	-3.10870
1391.729	14.47664	-2.94245	12.59207	-3.12918
1395.712	14.51772	-2.93044	12.70834	-2.94395
1399.724	14.62089	-2.89827	12.81214	-2.89381
1403.752	14.65337	-2.79468	12.84730	-2.86786
1407.729	14.67056	-2.78117	12.87475	-2.90998
1411.715	14.69044	-2.79075	12.92734	-2.88439
1415.710	14.71528	-2.77274	12.92033	-2.88773
1419.710	14.72445	-2.72181	12.97064	-2.70323
1423.712	14.77739	-2.65678	12.90567	-2.72071
1427.718	14.81525	-2.56999	12.86928	-2.68748
1431.711	14.81414	-2.55806	12.87697	-2.66741
1435.735	14.83068	-2.50541	12.91267	-2.64318
1439.711	14.84450	-2.48480	12.78021	-2.64334
1443.714	14.83286	-2.41584	12.71030	-2.67986
1447.718	14.77649	-2.43584	12.65441	-2.65805
1451.705	14.77637	-2.38787	12.68177	-2.58233
1455.727	14.76535	-2.30876	12.62878	-2.54407
1459.710	14.75936	-2.26103	12.61701	-2.44694
1463.722	14.77345	-2.28598	12.59358	-2.47830
1467.713	14.74098	-2.36209	12.62894	-2.49364
1471.758	14.76454	-2.37378	12.63267	-2.45292
1475.722	14.73952	-2.48205	12.48400	-2.55546
1479.708	14.69258	-2.64352	12.31466	-2.52596
1483.713	14.70052	-2.61411	12.27391	-2.55264
1487.735	14.67056	-2.71443	12.25384	-2.54166
1491.711	14.69427	-2.81646	12.15531	-2.51926
1495.722	14.68278	-2.88676	12.15059	-2.58064
1499.715	14.69088	-2.93396	12.15052	-2.57567
1503.707	14.70639	-2.93267	12.16747	-2.60615
1507.720	14.69181	-2.95130	12.14162	-2.61205
1511.716	14.72299	-2.95400	12.11349	-2.60122
1515.714	14.71380	-2.98989	12.12793	-2.60797
1519.707	14.75115	-2.67964	12.14867	-2.60534
1523.717	14.82864	-2.22098	12.23173	-2.59854
1527.709	14.86940	-2.18121	12.28782	-2.61231
1531.721	14.90584	-2.23347	12.36847	-2.59428
1535.705	14.92526	-2.02044	12.39123	-2.61571
1539.714	14.98838	-2.03656	12.44614	-2.61116
1543.711	14.96531	-2.14682	12.48095	-2.61674
1547.713	14.99945	-2.09496	12.52958	-2.64750
1551.708	15.02376	-2.13521	12.55091	-2.61299
1555.711	15.01394	-2.13590	12.57113	-2.60552
1559.707	15.03332	-2.09693	12.59869	-2.61390
1563.715	15.00943	-2.12850	12.62823	-2.60789
1567.707	14.92192	-2.28101	12.67497	-2.61182
1571.716	14.90969	-2.28747	12.70792	-2.62619
1575.706	14.88910	-2.36673	12.68947	-2.59570
1579.713	14.79094	-2.47062	12.71129	-2.59490
1583.707	14.70936	-2.53437	12.73486	-2.60211
1587.706	14.65890	-2.56807	12.70563	-2.60621
1591.709	14.57855	-2.64708	12.67494	-2.57008
1595.728	14.51833	-2.70224	12.67705	-2.60628
1599.711	14.50137	-2.74375	12.71996	-2.62060
1603.708	14.46391	-2.82125	12.70754	-2.63430
1607.741	14.47147	-2.84882	12.67471	-2.64736
1611.725	14.46863	-2.89722	12.67419	-2.64492
1615.714	14.32344	-2.96668	12.45326	-2.61605
1619.720	14.20241	-2.98480	11.57913	-2.66471
1623.706	12.91022	-2.98034	10.34902	-2.25547
1627.701	10.66208	-2.95271	9.21026	-1.68413
1631.720	10.30072	-2.87829	7.90311	-0.96469
1635.708	9.87692	-2.61433	7.57934	-0.71663
1639.734	9.94383	-2.15382	7.39120	-0.41690
1643.708	9.97975	-2.11169	7.89454	-0.25593
1647.712	10.06412	-2.29989	7.91310	-0.29294
1651.707	10.13955	-2.18783	7.53069	-0.32764
1655.716	10.02220	-2.34646	7.33125	-0.39610
1659.706	10.03375	-2.37496	7.13133	-0.39492
1663.705	10.05281	-2.42264	7.19664	-0.44111
1667.709	10.05960	-2.58879	7.20817	-0.46270
1671.705	10.00271	-2.63355	7.18973	-0.41410
1675.707	9.99180	-2.72469	7.15230	-0.38248
1679.705	10.01879	-2.75498	7.08901	-0.41077
1683.711	10.01065	-2.85690	7.16786	-0.45150
1687.707	9.98389	-2.94731	7.06347	-0.52484
1691.705	9.96617	-2.89262	7.06078	-0.59174
1695.767	9.94094	-2.94704	7.03628	-0.58827
1699.715	9.96403	-2.99996	7.07415	-0.63297
1703.707	9.91043	-3.00131	7.07442	-0.60839
1707.701	9.89012	-2.94432	7.13918	-0.61964
1711.707	9.85214	-2.83511	7.12899	-0.47197
1715.713	9.80180	-2.54450	7.09937	-0.38499
1719.715	9.73615	-2.27033	7.16197	-0.34374
1723.704	9.68464	-2.25585	7.20568	-0.34972
1727.704	9.63983	-2.05492	7.20734	-0.44475
1731.708	9.61240	-2.11006	7.23360	-0.23663
1735.721	9.53970	-2.05963	7.26532	-0.14112
1739.707	9.46247	-1.93277	7.32319	0.01388
1743.705	9.43745	-1.89440	7.37270	-0.24525
1747.704	9.38902	-1.87852	7.38759	-0.22787
1751.706	9.32175	-1.84731	7.37111	-0.20161
1755.704	9.31941	-1.81538	7.36164	-0.14414
1759.713	9.29974	-1.82379	7.39808	-0.08750
1763.702	9.32277	-1.86230	7.37836	-0.10461
1767.712	9.33181	-1.85431	7.33532	-0.06551
1771.705	9.40235	-1.90225	7.16752	-0.22636
1775.729	9.47147	-2.00859	7.07388	-0.20224
1779.701	9.54872	-2.06078	6.88754	-0.22183
1783.719	9.52784	-2.19440	6.91596	-0.27142
1787.700	9.60205	-2.26947	6.80844	-0.23428
1791.708	9.63723	-2.54656	6.83766	-0.19363
1795.717	9.70996	-2.54417	6.81524	-0.16099
1799.709	9.72238	-2.67675	6.75101	-0.13634
1803.706	9.74531	-2.76446	6.72053	-0.10765
1807.707	9.78715	-2.76340	6.71601	-0.08366
1811.745	9.82019	-2.81440	6.68834	-0.07582
1815.705	9.82763	-2.88023	6.70827	-0.03852
1819.722	9.81628	-2.85644	6.71897	-0.00948
1823.730	9.77917	-2.90044	6.76148	0.03447
1827.701	9.79110	-2.87278	6.78341	0.05823
1831.704	9.78375	-2.82858	6.80861	0.09440
1835.708	9.78274	-2.72496	6.82936	0.11470
1839.722	9.78573	-2.67927	6.84411	0.13192
1843.707	9.77749	-2.65913	6.87259	0.13251
1847.703	9.78103	-2.55983	6.88979	0.10956
1851.713	9.76064	-2.26454	6.90070	0.10840
1855.705	9.75454	-1.99644	6.92080	0.09258
1859.701	9.73897	-2.06500	6.91662	0.09342
1863.709	9.73472	-1.74677	6.92449	0.10134
1867.711	9.76963	-1.67443	6.91689	0.10568
1871.700	9.76760	-1.74572	6.92557	0.09662
1875.702	9.76727	-1.68343	6.90302	0.08400
1879.703	9.76637	-1.70415	6.86939	0.11117
1883.705	9.75656	-1.79865	6.84463	0.09664
1887.702	9.78380	-1.78778	6.79841	0.09877
1891.702	9.78669	-1.73962	6.78620	0.10285
1895.713	9.79158	-1.84024	6.75972	0.05152
1899.700	9.82137	-2.00323	6.75837	0.00511
1903.706	9.82308	-2.06841	6.75363	-0.05106
1907.715	9.84151	-2.19174	6.77242	-0.13056
1911.702	9.90455	-2.23327	6.78754	-0.26807
1915.702	9.92172	-2.31353	6.79381	-0.33947
1919.705	9.98742	-2.40928	6.82765	-0.40557
1923.705	10.02658	-2.46372	6.89512	-0.53122
1927.697	10.01551	-2.48352	6.91527	-0.55048
1931.715	10.00001	-2.48774	6.96005	-0.60955
1935.708	10.02288	-2.46680	7.01788	-0.57544
1939.701	10.02591	-2.49641	7.07139	-0.60881
1943.699	9.96489	-2.44736	7.15679	-0.61777
1947.741	9.94159	-2.40981	7.17849	-0.61099
1951.705	9.93872	-2.35446	7.27338	-0.56299
1955.700	9.95622	-2.33281	7.33244	-0.49251
1959.700	9.88678	-2.25737	7.38966	-0.43691
1963.702	9.90301	-2.23030	7.47153	-0.34427
1967.717	9.87059	-2.09848	7.53179	-0.22252
1971.711	9.86254	-2.01699	7.58364	-0.15272
1975.702	9.83698	-2.04769	7.59934	-0.06690
1979.700	9.80732	-2.05761	7.61572	0.06465
1983.704	9.74412	-2.08776	7.64657	0.12743
1987.711	9.73263	-2.09537	7.62960	0.24599
1991.710	9.72055	-2.13084	7.63755	0.13159
1995.707	9.68898	-2.08955	7.66056	0.20180
1999.707	9.70147	-2.01990	7.66468	0.22182
2003.701	9.81501	-2.02022	7.66273	0.17308
2007.698	9.78474	-1.89916	7.64915	0.17929
2011.701	9.76686	-1.93627	7.58244	0.17035
2015.709	9.70372	-2.00665	7.41585	0.06978
2019.703	8.17306	-2.05042	7.09416	0.08788
2023.697	7.15489	-2.24045	4.36093	-0.61207
2027.710	4.33814	-3.16266	2.84153	-0.56858
2031.706	2.94193	-3.59460	1.33798	-1.14059
2035.701	1.00928	-4.09908	0.66950	-1.71156
2039.705	-1.13251	-4.93002	-2.06738	-3.07177
2043.705	-1.44088	-6.56570	-2.63537	-4.24737
2047.698	-3.54969	-6.52697	-3.52695	-4.10024
2051.700	-5.43605	-6.63674	-5.47557	-4.88328
2055.705	-5.47348	-6.48196	-5.54540	-4.55485
2059.702	-4.99460	-6.79931	-5.44284	-4.62777
2063.697	-4.51304	-6.70034	-5.47230	-4.50554
2067.717	-4.42239	-6.68738	-5.29371	-4.49114
2071.701	-4.50007	-6.75744	-5.30914	-4.62038
2075.590	-4.77771	-6.79143	-5.38469	-4.72649
2079.571	-5.06592	-6.83906	-5.47021	-4.83720
2083.700	-5.12479	-6.83744	-5.82071	-4.92463
2087.578	-5.26561	-6.88512	-6.02725	-4.91154
2091.573	-5.30065	-6.91356	-5.96932	-4.82333
2095.586	-5.44210	-6.94049	-5.90949	-4.71200
2099.580	-5.34208	-6.96637	-6.19069	-4.73392
2103.576	-5.45533	-6.93271	-6.31068	-4.74042
2107.579	-5.53048	-6.93565	-6.37177	-4.82086
2111.574	-5.52726	-6.94658	-6.26897	-4.80708
2115.581	-5.33918	-6.92735	-6.23211	-4.81637
2119.577	-5.25677	-6.89429	-6.22851	-4.79673
2123.579	-5.40661	-6.84037	-6.01633	-4.70394
2127.572	-4.87150	-6.82258	-5.98781	-4.66454
2131.577	-4.92326	-6.74689	-5.81491	-4.60459
2135.571	-4.86165	-6.73156	-5.85703	-4.59255
2139.578	-4.87572	-6.69616	-5.84370	-4.58141
2143.574	-4.74180	-6.70892	-5.80759	-4.50388
2147.575	-4.75684	-6.71610	-5.80867	-4.47842
2151.608	-4.73111	-6.69642	-5.75249	-4.48326
2155.600	-4.72053	-6.68795	-5.73522	-4.44909
2159.589	-4.79721	-6.66740	-5.73261	-4.49270
2163.574	-4.92176	-6.66210	-5.87061	-4.51841
2167.572	-4.92802	-6.63688	-6.08382	-4.54676
2171.577	-4.99928	-6.61638	-6.10512	-4.63319
2175.579	-5.04220	-6.60540	-6.10129	-4.58675
2179.573	-4.69487	-6.54254	-6.05871	-4.54864
2183.577	-4.59946	-6.54623	-6.05884	-4.51642
2187.582	-4.85002	-6.52478	-5.98800	-4.47963
2191.575	-4.84999	-6.48926	-6.10556	-4.48760
2195.591	-4.76867	-6.51472	-6.20033	-4.44621
2199.581	-4.82377	-6.52987	-6.14695	-4.46957
2203.573	-4.68854	-6.52241	-6.15654	-4.50603
2207.574	-4.74668	-6.54824	-6.15527	-4.59368
2211.590	-4.91395	-6.51526	-6.16569	-4.78699
2215.581	-5.05156	-6.54181	-6.05012	-4.64186
2219.617	-5.13991	-6.53464	-6.06595	-4.61210
2223.577	-5.03462	-6.54005	-5.98604	-4.51511
2227.597	-5.12952	-6.50700	-5.95744	-4.48953
2231.573	-4.89924	-6.56416	-5.96122	-4.53727
2235.569	-4.80719	-6.59603	-5.94160	-4.60396
2239.585	-4.90198	-6.55807	-5.88164	-4.61927
2243.589	-4.66297	-6.59153	-5.84100	-4.58971
2247.578	-4.68918	-6.58197	-5.83206	-4.54975
2251.568	-4.63834	-6.53984	-5.88346	-4.58268
2255.580	-4.73604	-6.57743	-6.28430	-4.57123
2259.580	-5.01115	-6.58849	-6.42670	-4.55378
2263.570	-5.09697	-6.68689	-6.06394	-4.65348
2267.568	-4.85051	-6.69101	-6.07091	-4.69804
2271.579	-4.85076	-6.67020	-6.09974	-4.72336
2275.627	-4.44605	-6.68714	-5.93458	-4.76191
2279.569	-4.45885	-6.66552	-6.02072	-4.75770
2283.574	-4.36777	-6.61495	-6.00111	-4.70883
2287.583	-4.19869	-6.59231	-6.02391	-4.75225
2291.575	-4.14332	-6.58071	-6.06428	-4.73403
2295.575	-4.42195	-6.60058	-6.24212	-4.75166
2299.572	-4.13989	-6.66907	-6.09327	-4.73707
2303.567	-3.64197	-6.60021	-3.72491	-4.51427
2307.587	-0.33977	-6.42473	-2.42624	-4.23121
2311.581	3.40249	-6.26294	0.91463	-3.10814
2315.573	4.58752	-4.52658	2.43107	-1.87063
2319.565	6.24244	-3.55199	3.54957	-2.07198
2323.586	7.97318	-3.17006	5.59420	-1.35707
2327.584	8.29013	-2.95051	6.05427	-1.44931
2331.576	10.00875	-2.84586	8.84036	-1.23144
2335.565	10.73066	-2.79918	8.68739	-1.42781
2339.573	11.50332	-2.45777	9.24525	-1.29646
2343.570	11.97809	-1.76827	9.88422	-1.22997
2347.576	12.12248	-1.58402	9.93068	-1.37176
2351.570	12.07061	-1.63202	9.81455	-1.23508
2355.571	11.77149	-1.62249	9.88307	-1.19692
2359.574	11.81879	-1.74330	9.78990	-1.13366
2363.574	11.95840	-1.65805	9.94380	-1.02022
2367.569	12.15419	-1.58760	10.03087	-1.00977
2371.578	12.23075	-1.71746	10.04090	-0.95543
2375.570	12.29844	-1.60495	10.10718	-1.02550
2379.573	12.30474	-1.56238	9.96403	-1.05167
2383.567	12.37006	-1.49042	9.92846	-1.08817
2387.569	12.43684	-1.51332	9.92047	-1.08088
2391.568	12.40586	-1.64144	9.92646	-1.05656
2395.591	12.30225	-1.75210	9.96756	-1.04275
2399.571	12.28076	-1.76386	9.97780	-1.01857
2403.570	12.25318	-1.87183	9.99041	-1.00018
2407.574	12.19216	-2.00608	10.02066	-0.97709
2411.573	12.11501	-2.07754	10.00812	-1.01417
2415.566	12.15014	-2.05155	10.01015	-1.02155
2419.568	12.06351	-2.09102	9.97262	-1.02341
2423.583	12.05822	-2.20029	10.05996	-1.00982
2427.571	11.97534	-2.20817	10.08597	-1.00272
2431.572	11.97413	-2.24898	10.09792	-1.17074
2435.589	11.94655	-2.29091	10.10492	-1.30083
2439.572	11.94945	-2.28072	10.12356	-1.22569
2443.567	11.95907	-2.31229	10.09164	-1.29281
2447.571	11.98068	-2.34887	10.14448	-1.35008
2451.567	11.99740	-2.37517	10.14283	-1.43968
2455.577	11.98379	-2.40608	10.11437	-1.49178
2459.582	12.01777	-2.38584	10.09912	-1.37709
2463.567	12.10763	-2.25801	10.13424	-1.22550
2467.581	12.26586	-2.13572	10.14203	-1.23675
2471.568	12.27147	-1.94267	10.17007	-1.18491
2475.568	12.35545	-1.69718	10.27215	-1.24548
2479.601	12.38652	-1.59835	10.30096	-1.17706
2483.576	12.34050	-1.56726	10.34852	-1.07809
2487.566	12.39561	-1.70225	10.28669	-1.14168
2491.606	12.43772	-1.77357	10.30050	-1.08292
2495.577	12.43925	-1.74742	10.31544	-1.07048
2499.567	12.45312	-1.73821	10.31249	-1.02848
2503.565	12.48897	-1.67948	10.29611	-1.04877
2507.568	12.46408	-1.73926	10.25793	-1.09546
2511.569	12.42105	-1.75348	10.17892	-1.09835
2515.566	12.40948	-1.89267	10.08014	-1.09336
2519.567	12.37813	-1.97371	10.02422	-1.07491
2523.565	12.32257	-2.21470	9.98247	-1.12175
2527.580	12.28692	-2.26674	9.97178	-1.16804
2531.579	12.21840	-2.36266	9.93776	-1.21118
2535.571	12.26875	-2.28636	9.94175	-1.20703
2539.566	12.27661	-2.21739	9.91120	-1.19319
2543.567	12.32139	-2.23025	9.94055	-1.18844
2547.572	12.32582	-2.26512	9.99619	-1.34549
2551.567	12.34266	-2.44706	10.03286	-1.37527
2555.561	12.28574	-2.75665	10.05491	-1.45699
2559.587	12.26529	-2.85395	10.09073	-1.34573
2563.587	12.21999	-2.88586	10.13013	-1.21378
2567.569	12.28375	-2.81417	10.10446	-1.12846
2571.566	12.24938	-2.77185	10.08135	-1.20541
2575.569	12.29308	-2.72239	10.15951	-1.08663
2579.571	12.24201	-2.70138	10.13472	-1.13242
2583.571	12.18647	-2.62964	10.17615	-1.16987
2587.569	12.18720	-2.54511	10.16834	-1.13372
2591.565	12.18229	-2.41853	10.13265	-1.06863
2595.581	12.26206	-2.40746	10.09277	-0.97426
2599.562	12.49502	-2.18489	10.12423	-0.91973
2603.566	12.73094	-2.14012	10.23202	-0.95235
2607.579	12.74539	-2.08994	10.24887	-0.97058
2611.569	12.74527	-2.03139	10.33370	-0.99405
2615.576	12.71361	-2.02702	10.34506	-0.97278
2619.565	12.77667	-1.94029	10.32474	-0.96939
2623.566	12.71488	-1.86021	10.27934	-0.93634
2627.617	12.39651	-1.70484	9.78647	-0.87539
2631.563	11.39401	-1.62972	7.35107	-0.41578
2635.565	9.74073	-1.19812	6.88573	2.41469
2639.566	8.71923	-0.16228	5.98648	2.93046
2643.566	8.59320	0.48297	5.64481	2.83118
2647.593	8.47736	0.21734	5.51000	2.76316
2651.580	8.47838	-0.13201	5.75185	2.86703
2655.568	8.67151	-0.59308	6.44814	2.88117
2659.564	8.75080	-0.54811	6.73086	2.77461
2663.569	8.73931	-0.33790	6.47882	2.88124
2667.569	8.68824	-0.18330	6.38609	2.89935
2671.562	8.83568	0.07295	6.02688	3.01113
2675.563	8.65133	0.22839	5.92130	3.04932
2679.562	8.61749	0.32330	5.81607	3.23911
2683.568	8.55974	0.50922	5.66924	3.31398
2687.558	8.55292	0.40726	5.67988	3.42141
2691.568	8.64914	0.27222	5.69185	3.47775
2695.623	8.74428	0.46084	5.75659	3.40464
2699.574	8.72617	0.73671	5.69571	3.41712
2703.563	8.72951	0.67199	5.66956	3.49917
2707.563	8.73662	0.63450	5.59789	3.53183
2711.590	8.64776	0.77044	5.56006	3.61134
2715.559	8.62333	0.87574	5.52458	3.57553
2719.574	8.61450	1.04448	5.47127	3.56964
2723.561	8.61528	1.02826	5.48386	3.55673
2727.567	8.60385	1.02127	5.50114	3.56518
2731.563	8.58233	1.13137	5.50503	3.55316
2735.580	8.45223	1.16212	5.54875	3.47033
2739.561	8.39455	1.15893	5.62377	3.35155
2743.573	8.34128	1.09757	5.68234	3.39086
2747.566	8.24050	1.14156	5.68905	3.36155
2751.568	8.29470	1.21743	5.80000	3.25137
2755.568	8.27098	1.30367	5.83852	3.21710
2759.563	8.27290	1.32630	5.90065	3.17687
2763.623	8.37259	1.23603	5.92017	3.10125
2767.565	8.39943	1.18624	5.92439	3.05364
2771.564	8.43953	1.17078	5.93306	3.05699
2775.562	8.41825	1.14608	5.95066	2.98986
2779.577	8.49627	1.11777	5.91781	2.98074
2783.573	8.51984	1.09554	5.87069	2.97626
2787.559	8.50891	1.03428	5.84178	2.92116
2791.568	8.55556	1.09067	5.76401	2.81900
2795.563	8.55629	1.07976	5.78649	2.80377
2799.562	8.48976	1.01430	5.70438	2.84961
2803.563	8.48483	0.97365	5.56672	2.87478
2807.566	8.38250	0.99055	5.60261	3.08898
2811.557	8.34767	1.00192	5.61591	3.07522
2815.580	8.25756	0.97117	5.65744	3.41360
2819.571	8.22132	0.92315	5.63601	3.65653
2823.567	8.18475	0.88074	5.69288	3.53500
2827.567	8.09971	0.83324	5.70244	3.49865
2831.594	8.09263	0.80260	5.76234	3.54568
2835.569	8.08686	0.69116	5.83323	3.51504
2839.578	8.07188	0.60206	5.83058	3.47627
2843.564	8.06200	0.53622	5.87801	3.36747
2847.560	8.08433	0.38175	5.94894	3.17230
2851.559	8.09460	0.38248	6.01714	2.97076
2855.569	8.11685	0.35645	6.06055	2.71134
2859.558	8.15966	0.34702	6.03339	2.83311
2863.561	8.19336	0.33543	6.07184	2.83173
2867.566	8.21833	0.32395	6.07246	2.79818
2871.565	8.31321	0.29412	6.02516	2.74201
2875.566	8.39780	0.30045	6.07255	2.75116
2879.559	8.49964	0.30206	6.22674	3.00914
2883.575	11.49750	0.32191	8.98547	2.85936
2887.561	12.74381	0.34816	10.32311	2.49028
2891.559	13.98800	0.47064	12.09448	2.33574
2895.561	14.35868	0.49399	13.45545	0.94927
2899.587	15.97438	0.50685	13.99405	-0.26735
2903.590	16.18823	0.61745	14.84225	-0.97759
2907.567	16.18203	0.88707	15.06452	-1.01755
2911.560	15.99695	1.03106	15.04003	-0.77509
2915.562	15.80994	1.22131	15.06403	-0.52452
2919.564	15.89354	1.24197	15.15785	-0.38166
2923.565	15.91716	1.10498	17.70336	-0.32078
2927.565	15.96505	0.68539	18.01334	-0.36902
2931.435	15.99622	0.50888	15.07192	-1.40480
2935.450	16.00493	0.58263	15.19253	-1.54729
2939.442	16.06687	0.43981	15.21578	-1.69866
2943.434	16.09563	0.34423	18.50267	-0.42557
2947.436	16.06389	0.89118	18.69989	-0.50131
2951.435	16.11684	1.13890	15.15425	1.96258
2955.441	16.11270	1.03579	17.92592	-0.27745
2959.440	16.14808	0.94999	17.75145	-0.25718
2963.436	16.19510	1.06295	17.85175	-0.29261
2967.465	16.18366	1.50991	17.96651	-0.35250
2971.437	16.21247	1.61527	17.85206	-0.35121
2975.437	16.21684	1.76197	17.99801	-0.45916
2979.434	16.22080	1.67490	17.98889	-0.42187
2983.433	16.19856	1.82464	17.93003	-0.40231
2987.435	16.17649	1.89333	17.92154	-0.40259
2991.432	16.18638	1.93360	17.94171	-0.38347
2995.458	16.17766	1.84958	17.93881	-0.31620
2999.439	16.17054	1.63471	15.84521	2.44104
3003.430	16.19199	1.63063	15.77685	2.42193
3007.438	16.20240	0.90545	16.06534	0.95530
3011.433	16.20904	0.53973	16.24947	0.97518
3015.432	16.21723	0.68953	16.00564	1.04723
3019.435	16.23476	0.71373	16.07189	1.31501
3023.454	16.24654	0.56463	16.05949	1.40662
3027.469	16.26159	0.68558	16.05136	1.49959
3031.433	16.31909	0.68491	16.15662	1.58887
3035.480	16.39340	0.72386	16.28962	-0.59059
3039.447	16.41880	0.69998	16.33697	-0.79990
3043.442	16.45870	0.73290	16.42373	-0.69872
3047.431	16.47856	0.80730	16.61908	-0.15853
3051.431	16.49549	0.97503	16.74415	-0.31231
3055.435	16.54390	1.14706	16.83825	-0.33566
3059.443	16.56237	1.40394	16.91704	-0.07948
3063.431	16.56015	1.53756	16.99229	0.17018
3067.432	16.57814	1.87500	17.09567	0.25753
3071.434	16.60675	2.02992	18.47550	0.29771
3075.441	16.59501	1.39409	17.18924	0.46018
3079.435	16.51760	1.26769	17.27807	0.62962
3083.431	16.52216	0.67469	17.30072	0.97763
3087.435	16.49738	0.64802	17.35620	1.19878
3091.431	16.50608	0.59935	17.38735	1.66160
3095.427	16.50829	0.75685	17.44273	1.86523
3099.445	16.46055	0.75279	17.45027	2.14631
3103.442	16.51550	0.99891	17.67957	0.56090
3107.437	16.52843	1.16435	17.73455	0.43866
3111.430	16.57336	1.18407	17.80296	0.44724
3115.425	16.56768	1.22813	17.72905	0.41290
3119.440	16.59061	1.35111	17.78076	0.41425
3123.437	16.63562	1.51017	17.81284	0.35300
3127.436	16.65134	1.66425	17.85317	0.35270
3131.429	16.69687	1.70223	17.93749	0.38329
3135.431	16.74781	1.71074	17.99363	0.43060
3139.443	16.77687	1.73311	18.02705	0.38681
3143.442	16.82583	1.75545	18.08901	0.38178
3147.426	16.83552	1.80647	17.98494	3.35323
3151.432	16.86410	1.77517	17.92051	3.30369
3155.437	16.83268	1.70339	17.89361	3.25578
3159.441	16.81940	1.61891	17.90282	3.17262
3163.435	16.74883	1.41202	17.93039	3.03854
3167.435	16.64236	1.17663	17.95328	2.97456
3171.441	16.58542	0.81174	17.96348	2.84783
3175.463	16.51251	0.48774	18.05828	2.63242
3179.427	16.36617	0.24743	18.06470	2.49654
3183.430	16.28210	0.40200	18.09242	2.11308
3187.434	16.23567	0.36622	18.14705	2.04000
3191.431	16.23261	0.86817	18.17932	1.76024
3195.451	16.20899	0.81126	18.19950	1.55464
3199.436	16.15877	1.04876	18.26395	1.50193
3203.431	16.15307	1.01749	18.30011	1.36157
3207.442	16.06518	0.89803	18.35218	1.28780
3211.438	16.02305	0.86601	18.40988	1.17357
3215.432	16.04418	1.01778	18.46217	1.12651
3219.435	16.09510	1.17502	18.41873	1.02216
3223.430	16.02174	0.79077	14.87717	-1.07109
3227.433	15.55192	-1.03359	14.71689	-1.65637
3231.434	14.75430	-1.84476	14.41753	-3.25149
3235.450	14.41480	-3.40779	13.63829	-4.94985
3239.438	14.65184	-4.37864	13.42244	-5.63110
3243.431	14.07242	-6.13589	13.33229	-6.38317
3247.428	13.50680	-6.55820	12.88572	-6.81784
3251.442	13.22361	-7.11536	11.54975	-7.36648
3255.429	12.75835	-7.67283	11.11036	-8.04890
3259.453	12.71892	-7.52166	11.20815	-7.99915
3263.430	13.15734	-7.26299	11.26254	-7.59364
3267.434	13.52172	-7.01107	11.31061	-7.46926
3271.429	13.46242	-6.98889	11.33440	-7.52256
3275.451	13.39271	-7.11507	11.25557	-7.74182
3279.428	13.24217	-7.30257	11.12120	-7.86444
3283.439	13.18367	-7.45012	11.22678	-7.78004
3287.430	13.05964	-7.63775	11.41705	-7.77945
3291.438	13.10356	-7.66332	11.29705	-7.86383
3295.428	13.11665	-7.74044	11.43503	-7.84924
3299.441	13.07191	-7.86464	11.45043	-7.78239
3303.427	13.09579	-7.95932	11.44525	-7.72471
3307.429	12.94858	-8.11296	11.43829	-7.71940
3311.435	13.05672	-7.92654	11.34349	-7.71682
3315.434	13.01105	-7.97500	11.29295	-7.70226
3319.428	12.95711	-8.01397	11.36276	-7.65577
3323.428	12.90666	-8.04336	11.32705	-7.62271
3327.432	12.87440	-8.05072	11.37763	-7.61695
3331.439	12.79819	-8.07776	11.29221	-7.66626
3335.428	12.69852	-8.08653	11.25123	-7.65628
3339.429	12.67553	-8.05598	11.31696	-7.59980
3343.429	12.71158	-8.00242	11.33531	-7.59238
3347.448	12.73363	-7.93717	11.35248	-7.57788
3351.426	12.80586	-7.84002	11.42840	-7.50605
3355.432	12.79236	-7.84710	11.44053	-7.40603
3359.426	12.77065	-7.82224	11.51602	-7.21945
3363.433	12.76784	-7.75850	11.54165	-7.05445
3367.425	12.78236	-7.73493	11.50141	-7.10070
3371.432	12.73595	-7.74069	11.22355	-7.11120
3375.452	12.70695	-7.76739	11.43297	-7.11742
3379.429	12.70407	-7.78313	11.35659	-7.19954
3383.427	12.72159	-7.72439	11.40105	-7.22164
3387.430	12.77178	-7.70441	11.42906	-7.13291
3391.427	12.85376	-7.69111	11.49080	-7.02019
3395.485	12.82264	-7.67863	11.34480	-7.01052
3399.429	12.77015	-7.69816	11.08438	-7.11991
3403.440	12.66594	-7.79268	11.02858	-7.05676
3407.428	12.60176	-7.90911	11.06643	-7.03071
3411.436	12.57053	-7.88510	11.16356	-6.89652
3415.427	12.60287	-7.84778	11.29400	-6.79194
3419.430	12.57193	-7.80818	11.00910	-6.94868
3423.430	12.66639	-7.76371	10.89092	-6.88537
3427.423	12.66363	-7.69678	11.13334	-6.85873
3431.441	12.59599	-7.81322	11.12223	-6.90025
3435.428	12.63135	-7.75862	11.14471	-6.85774
3439.462	12.57188	-7.87525	11.25956	-6.88642
3443.460	12.57032	-7.86102	11.00278	-6.99932
3447.432	12.60483	-7.84753	10.94799	-7.12954
3451.419	12.66372	-7.79680	11.00561	-7.22812
3455.445	12.69025	-7.77398	10.97889	-7.31451
3459.426	12.71713	-7.75568	11.01885	-7.27494
3463.433	12.74265	-7.75589	11.14574	-7.26849
3467.430	12.78373	-7.72759	11.27975	-7.30464
3471.434	12.78342	-7.75734	11.30596	-7.29962
3475.424	12.80433	-7.73957	10.97483	-7.32601
3479.424	12.78210	-7.76637	10.85669	-7.31002
3483.426	12.78878	-7.73655	10.87022	-7.23160
3487.430	12.78743	-7.70725	10.87948	-7.03583
3491.424	12.70289	-7.69556	10.96870	-6.95486
3495.474	12.72969	-7.66676	11.04991	-6.81402
3499.438	12.72749	-7.64654	11.12553	-6.77953
3503.427	12.71087	-7.64480	11.36081	-6.66912
3507.420	12.70111	-7.61906	10.96684	-6.79137
3511.446	12.73623	-7.59220	10.85164	-6.90447
3515.476	12.71101	-7.57294	10.82880	-6.85837
3519.424	12.66838	-7.60183	10.93681	-6.90634
3523.427	12.66013	-7.60221	11.01840	-6.85392
3527.475	12.67239	-7.55804	11.08880	-6.76586
3531.425	12.57176	-7.63778	11.08476	-6.73579
3535.439	12.67168	-7.57567	11.13026	-6.73523
3539.434	12.66367	-7.61747	11.11040	-6.73194
3543.424	12.60436	-7.69180	11.03016	-6.77042
3547.428	12.68238	-7.67545	10.89082	-6.97129
3551.430	12.75568	-7.70628	10.79114	-6.97433
3555.424	12.77171	-7.69568	10.85133	-6.82103
3559.425	12.72374	-7.58123	10.51516	-6.42174
3563.426	12.54209	-6.76217	9.93887	-5.68812
3567.426	12.50983	-4.67693	9.34232	-3.97324
3571.429	12.42976	-4.29192	9.12137	-3.31345
3575.423	12.49893	-4.09686	9.56771	-3.25981
3579.463	12.41836	-4.07510	9.63233	-3.26006
3583.428	12.35256	-4.10122	9.55065	-3.15854
3587.447	12.27870	-4.21178	9.52748	-3.08758
3591.429	12.08981	-4.33184	9.50638	-3.18722
3595.429	12.03313	-4.31552	9.44723	-3.07364
3599.427	11.99894	-4.37996	9.42059	-3.03481
3603.431	11.83833	-4.37130	9.37337	-2.96425
3607.422	11.71132	-4.31794	9.22247	-2.95006
3611.427	11.54852	-4.34079	9.27206	-2.82993
3615.419	11.70580	-4.31747	9.37341	-2.80712
3619.437	11.68248	-4.32676	9.33492	-2.76854
3623.430	11.59006	-4.38555	9.34355	-2.79164
3627.428	11.58644	-4.39321	9.36155	-2.72576
3631.418	11.63670	-4.35605	9.32490	-2.72302
3635.429	11.70861	-4.35817	9.23594	-2.70268
3639.423	11.73428	-4.35077	9.21268	-2.70250
3643.427	11.78464	-4.30405	9.09660	-2.71498
3647.445	11.85963	-4.25417	9.10845	-2.69425
3651.424	11.84946	-4.25984	9.11242	-2.55986
3655.429	12.01585	-4.20147	9.11385	-2.56244
3659.422	12.11149	-4.14985	9.08007	-2.58592
3663.428	12.12461	-4.08867	9.11058	-2.54576
3667.428	12.13254	-4.08314	9.25417	-2.51497
3671.426	12.17985	-4.02199	9.31035	-2.52208
3675.422	12.19057	-3.98976	9.41516	-2.44388
3679.416	12.12442	-3.95276	9.48439	-2.43776
3683.421	12.12359	-3.88165	9.54320	-2.40319
3687.422	12.06933	-3.84603	9.47270	-2.38438
3691.421	12.03617	-3.89797	9.57184	-2.36657
3695.441	11.99621	-3.92097	9.56904	-2.41333
3699.420	11.92313	-3.91963	9.53480	-2.42087
3703.424	11.94983	-3.91341	9.56243	-2.41666
3707.435	11.92068	-4.01253	9.56006	-2.41768
3711.422	11.88428	-4.06146	9.52553	-2.41993
3715.429	11.91089	-4.10059	9.48900	-2.40893
3719.423	11.99296	-4.08393	9.41856	-2.40448
3723.427	12.00210	-4.14223	9.40735	-2.44552
3727.424	11.99552	-4.17195	9.39136	-2.43213
3731.429	11.88682	-4.35508	9.37370	-2.44221
3735.418	11.88126	-4.37758	9.35051	-2.43489
3739.437	11.89065	-4.40419	9.32811	-2.45683
3743.429	11.83612	-4.43594	9.36017	-2.52184
3747.429	11.78804	-4.44262	9.35612	-2.58508
3751.425	11.71113	-4.46042	9.32393	-2.73878
3755.427	11.66527	-4.38065	9.36245	-2.76600
3759.420	11.77256	-4.36236	9.35496	-2.78054
3763.424	11.73433	-4.40449	9.33971	-2.82082
3767.417	11.70723	-4.34430	9.26314	-2.89033
3771.424	11.64228	-4.29413	9.22131	-2.98466
3775.418	11.75557	-4.26350	9.11167	-3.02185
3779.323	11.79724	-4.21517	9.05715	-3.05776
3783.316	11.85338	-4.17394	9.15553	-3.10489
3787.309	11.89770	-4.10807	9.12536	-3.12697
3791.299	11.94083	-4.05486	9.08038	-3.12162
3795.306	11.94375	-4.02494	9.10216	-3.07184
3799.298	11.99248	-4.01481	9.06995	-3.06463
3803.301	12.01191	-4.00429	9.02844	-3.03224
3807.298	11.99265	-3.96713	9.04926	-3.06272
3811.308	12.06605	-3.85104	9.11126	-2.96327
3815.294	11.99096	-3.73121	9.06918	-2.89360
3819.299	10.68317	-3.79505	7.49032	-2.60339
3823.297	9.30247	-3.61162	5.78443	-1.08255
3827.302	8.36256	-3.07851	5.40771	-0.28387
3831.324	7.80991	-2.68899	5.39942	0.68350
3835.302	8.23508	-2.92652	5.49064	0.32118
3839.296	8.80209	-3.10358	5.67882	-0.22190
3843.305	8.85458	-3.11124	5.95169	-0.13413
3847.295	8.76675	-2.96813	6.02637	-0.07863
3851.351	8.59281	-2.90922	5.92429	-0.45801
3855.310	8.57702	-2.81056	5.71689	-0.84600
3859.297	8.45779	-2.69174	5.63338	-0.62829
3863.293	8.43018	-2.62711	5.57717	-0.44966
3867.292	8.27674	-2.55180	5.47291	-0.57630
3871.295	8.25581	-2.47960	5.46861	-0.56886
3875.305	8.22000	-2.52013	5.44480	-0.61021
3879.293	8.21043	-2.48965	5.47154	-0.61711
3883.288	8.10817	-2.44874	5.34341	-0.62071
3887.312	8.00151	-2.37577	5.27518	-0.58250
3891.302	7.83261	-2.37721	5.22114	-0.55521
3895.302	7.76535	-2.36090	5.16536	-0.43195
3899.297	8.00061	-2.41247	5.16290	-0.34197
3903.295	7.92717	-2.43025	5.21031	-0.30062
3907.296	8.09294	-2.33439	5.32402	-0.24539
3911.292	8.10425	-2.40997	5.55202	-0.15992
3915.296	8.00645	-2.45037	5.60376	-0.14697
3919.348	8.11505	-2.49543	5.64538	-0.11509
3923.333	8.11778	-2.47965	5.72045	-0.10434
3927.303	8.28743	-2.42189	5.72269	-0.07576
3931.292	8.31589	-2.43227	5.72254	-0.07348
3935.293	8.40072	-2.48818	5.73080	-0.07665
3939.297	8.39899	-2.46881	5.76028	-0.11432
3943.295	8.39258	-2.42708	5.75185	-0.14085
3947.289	8.38879	-2.39768	5.80012	-0.14489
3951.308	8.36304	-2.43986	5.75863	-0.17176
3955.294	8.29720	-2.45315	5.68541	-0.18876
3959.309	8.25664	-2.46089	5.67784	-0.28055
3963.289	8.12576	-2.45892	5.62208	-0.39253
3967.299	8.00134	-2.43052	5.58299	-0.45458
3971.293	7.98264	-2.49116	5.53707	-0.48919
3975.301	8.04847	-2.55271	5.49032	-0.47278
3979.291	8.01051	-2.59720	5.51059	-0.39925
3983.296	7.97025	-2.59962	5.58191	-0.28033
3987.290	7.90180	-2.64655	5.63729	-0.19548
3991.298	7.90664	-2.66526	5.59673	-0.16258
3995.295	7.91322	-2.64419	5.59302	-0.15692
3999.293	8.03146	-2.68244	5.57822	-0.21046
4003.304	8.11257	-2.70198	5.59120	-0.14490
4007.297	8.19611	-2.78021	5.50294	-0.16938
4011.290	8.25207	-2.84680	5.53102	-0.12431
4015.293	8.25717	-2.88331	5.51049	-0.12167
4019.299	8.23916	-2.90059	5.48683	-0.12335
4023.295	8.18823	-2.98554	5.43034	-0.21311
4027.296	8.15212	-3.06703	5.39244	-0.35896
4031.292	8.10311	-3.14499	5.40484	-0.35247
4035.298	8.16343	-3.14675	5.39593	-0.37333
4039.291	8.04066	-3.23355	5.37350	-0.32773
4043.295	8.18217	-3.21871	5.37182	-0.25794
4047.293	8.24217	-3.26608	5.35635	-0.31522
4051.296	8.18779	-3.24613	5.39170	-0.42306
4055.289	8.09044	-3.20162	5.37591	-0.41998
4059.296	7.98956	-3.17165	5.43221	-0.35956
4063.289	8.05604	-3.22087	5.47471	-0.36287
4067.295	8.16746	-3.11910	5.49669	-0.31398
4071.287	8.20087	-3.03860	5.50596	-0.28264
4075.290	8.31720	-2.99558	5.51966	-0.31192
4079.304	8.28335	-3.01447	5.51769	-0.32790
4083.305	8.25447	-3.00768	5.48083	-0.36561
4087.287	8.19907	-3.02058	5.50481	-0.43876
4091.292	8.09151	-3.02112	5.54031	-0.23296
4095.287	8.10228	-3.05267	5.55177	-0.05731
4099.303	8.18606	-3.08354	5.57168	-0.00319
4103.287	8.35337	-3.16033	5.55602	-0.07064
4107.294	8.32172	-3.20902	5.49350	0.05865
4111.286	8.29744	-3.02354	5.43187	0.05583
4115.296	8.18952	-2.99294	5.35497	-0.01158
4119.288	8.05455	-3.02118	5.25404	0.00393
4123.299	8.04202	-2.85769	5.22589	-0.06070
4127.300	8.32604	-2.53940	5.26908	-0.09987
4131.295	8.40269	-2.29266	5.21203	0.03593
4135.292	8.39018	-2.22244	5.42687	0.03530
4139.291	8.26184	-2.09930	5.36503	-0.03570
4143.286	8.06874	-2.24844	5.20807	-0.12153
4147.296	6.45361	-2.11391	3.73186	0.30504
4151.306	4.01174	-2.04201	1.77124	0.79169
4155.303	1.10427	-1.16748	-0.61116	1.51355
4159.295	-0.65816	0.36965	-1.81515	2.02561
4163.300	-0.23763	0.21372	-3.10478	2.46632
4167.294	-1.83330	0.50571	-3.41318	2.67683
4171.297	-2.30975	0.68731	-3.53468	2.74545
4175.292	-2.71983	0.77370	-3.58353	2.76446
4179.298	-1.72027	0.64099	-3.50395	2.90233
4183.288	-1.55948	0.73507	-3.35818	2.83456
4187.288	-1.73279	0.82533	-3.20295	2.82356
4191.292	-1.78714	0.84164	-3.24573	2.86314
4195.299	-2.21288	0.91945	-3.31756	2.89372
4199.288	-2.35521	0.95200	-3.46276	2.99107
4203.290	-2.81157	1.03937	-3.50385	3.04867
4207.294	-3.11824	1.10114	-3.59152	3.05526
4211.302	-2.50984	1.15469	-3.63364	3.06392
4215.294	-2.80132	1.18154	-3.54114	3.04363
4219.287	-2.80484	1.17394	-3.63201	3.01993
4223.304	-3.02940	1.21912	-3.70408	2.87409
4227.299	-3.06263	1.28620	-3.76596	2.85106
4231.306	-2.99000	1.26329	-3.79766	2.85064
4235.291	-2.74851	1.22096	-3.87458	2.69465
4239.288	-2.69099	1.23851	-3.90113	2.62617
4243.293	-2.47831	1.16470	-3.86543	2.79847
4247.287	-2.39517	1.12459	-3.89698	2.83774
4251.295	-2.53003	1.08080	-3.86941	2.91640
4255.287	-2.59785	1.04615	-3.83371	3.01368
4259.290	-2.75868	1.01021	-3.90783	3.05529
4263.290	-2.71223	1.01938	-3.97197	3.07144
4267.286	-2.48378	0.97010	-4.02112	3.14911
4271.303	-2.50031	0.92018	-4.06883	3.20107
4275.289	-2.41207	0.88601	-4.23120	3.17907
4279.298	-2.63747	0.91201	-4.30657	3.21376
4283.291	-2.68504	0.91468	-4.47570	3.23852
4287.285	-2.68883	0.90009	-4.58784	3.24540
4291.297	-2.49478	0.87176	-4.83989	3.25506
4295.290	-2.46662	0.87634	-4.71336	3.23127
4299.292	-2.45418	0.84349	-4.71856	3.20431
4303.290	-2.38392	0.80101	-4.74240	3.20504
4307.292	-2.44341	0.77196	-4.56644	3.18077
4311.290	-2.59002	0.75433	-3.99109	3.17918
4315.282	-2.48260	0.74597	-3.46105	3.12399
4319.300	-2.48163	0.79996	-3.48704	3.05352
4323.294	-2.45064	0.84679	-3.70808	2.98547
4327.292	-2.35380	0.75481	-3.65764	2.92441
4331.297	-2.33764	0.72796	-3.62267	2.89150
4335.299	-2.44905	0.78375	-3.81471	2.80309
4339.287	-2.50977	0.84110	-3.81412	2.75179
4343.299	-2.58957	0.80669	-3.89231	2.72972
4347.286	-2.59884	0.80870	-3.90219	2.68506
4351.287	-2.59262	0.88934	-4.09861	2.65460
4355.297	-2.48317	0.83277	-4.15522	2.63175
4359.286	-2.41893	0.81708	-4.26173	2.60459
4363.289	-2.36368	0.76967	-4.42982	2.61632
4367.286	-2.35085	0.72006	-4.40073	2.67546
4371.291	-2.52223	0.78293	-4.50227	2.72863
4375.293	-2.56149	0.80485	-4.57036	2.77894
4379.289	-2.55651	0.72148	-4.56392	2.88608
4383.300	-2.55279	0.72851	-4.60212	2.98005
4387.293	-2.45854	0.76048	-4.53260	2.94973
4391.287	-2.48542	0.83076	-3.34465	2.92088
4395.291	-2.56926	0.83160	-3.44735	2.94941
4399.287	-2.58841	0.85236	-3.72328	2.95327
4403.288	-2.72380	0.93907	-3.68374	3.00237
4407.287	-2.84296	1.06638	-3.60872	2.98697
4411.283	-2.81511	1.09504	-3.73727	2.97939
4415.298	-2.70369	1.04298	-3.84023	2.95953
4419.296	-2.64973	1.03090	-3.81115	2.93824
4423.284	-2.39720	1.05457	-3.88616	2.90709
4427.285	-2.41415	1.11837	-3.83450	2.81673
4431.289	-2.42973	1.11069	-4.01808	2.73987
4435.324	-2.37974	1.03716	-4.04431	2.80071
4439.283	-2.41093	1.02808	-4.03115	2.82971
4443.287	-2.46927	1.05568	-4.10424	2.78144
4447.283	-2.44940	1.04605	-4.18749	2.85673
4451.287	-2.44033	0.99790	-4.14606	3.00265
4455.279	-2.51983	0.97586	-4.18099	3.11406
4459.294	-2.44472	0.96253	-4.12280	3.15835
4463.284	-2.46872	0.97093	-4.02868	3.13381
4467.290	-2.55651	0.98298	-4.02860	3.24607
4471.286	-2.56842	0.93246	-4.02957	3.24155
4475.281	-2.63908	0.93385	-4.01722	3.34966
4479.284	-2.67078	0.97971	-3.93944	3.42824
4483.295	-2.61961	1.06444	-3.90118	3.41422
4487.293	-1.71079	1.96343	-3.67284	3.66963
4491.280	0.04346	2.76850	-2.83177	5.50366
4495.291	0.73109	3.37305	-1.21338	6.12461
4499.295	0.94445	3.24509	-0.71459	5.86541
4503.291	0.76987	3.00268	-1.43533	5.41151
4507.284	-0.39117	2.19909	-1.86960	4.58081
4511.286	-0.74826	2.44808	-2.02126	4.62904
4515.284	-0.76069	2.51741	-1.98928	4.85187
4519.289	-0.69240	2.94197	-1.41921	4.82565
4523.283	-0.54242	2.94867	-1.42551	4.99394
4527.289	0.27470	2.59992	-1.26158	5.02166
4531.304	0.30833	2.49783	-1.22293	5.06345
4535.294	0.48277	2.56000	-1.26416	4.99900
4539.285	0.53535	2.54503	-1.26006	4.93470
4543.291	0.27121	2.55218	-1.29075	4.89169
4547.295	0.01164	2.60307	-1.32165	4.86585
4551.293	0.40695	2.51884	-1.27825	4.85452
4555.281	0.35357	2.54105	-1.23350	4.82007
4559.285	0.11667	2.68643	-1.20222	4.79077
4563.281	0.26565	2.61673	-1.20807	4.72688
4567.291	0.35633	2.54990	-1.26572	4.80975
4571.281	0.29625	2.57231	-1.33001	4.80247
4575.291	0.24617	2.76607	-1.38540	4.78865
4579.292	0.23011	2.84230	-1.41844	4.76421
4583.296	0.21028	3.03311	-1.50512	4.80623
4587.290	0.22701	3.26190	-1.51831	4.79002
4591.284	0.17357	3.51384	-1.55241	4.82405
4595.282	0.10175	3.77351	-1.59167	4.77522
4599.285	0.03246	3.84435	-1.64784	4.85382
4603.283	0.09058	3.82040	-1.62904	4.85226
4607.288	0.05989	3.90297	-1.63720	4.87547
4611.286	0.01268	3.97460	-1.63906	4.84696
4615.290	-0.00231	3.99572	-1.63876	4.83636
4619.280	-0.00228	4.04312	-1.63018	4.81749
4623.291	0.05018	4.04766	-1.57768	4.84170
4627.282	0.11662	4.03302	-1.48721	4.84354
4631.283	0.11334	4.03386	-1.47898	4.82728
4635.284	0.07413	4.04240	-1.44113	4.81103
4639.161	0.14841	4.02164	-1.31635	4.84944
4643.178	0.25316	3.99469	-1.24818	4.82638
4647.168	0.32372	3.96793	-1.19190	4.82374
4651.153	0.28416	3.95850	-1.07842	4.77891
4655.166	0.31059	3.90675	-0.98196	4.80089
4659.158	0.33516	3.87196	-0.90289	4.89728
4663.154	0.36132	3.79071	-0.83511	4.90883
4667.160	0.31759	3.76824	-0.78689	4.92685
4671.171	0.35846	3.76751	-0.74325	4.95000
4675.156	0.28873	3.64495	-0.70590	4.94753
4679.156	0.27823	3.54389	-0.63471	5.00257
4683.155	0.26994	3.52110	-0.61687	5.05663
4687.162	0.20494	3.49235	-0.61982	4.98093
4691.155	0.17213	3.44700	-0.69293	4.97063
4695.173	0.19395	3.34168	-0.68886	4.96378
4699.154	0.20666	3.21306	-0.64908	4.95077
4703.156	0.27657	3.21730	-0.69039	4.84659
4707.170	0.20221	3.22958	-0.48438	4.68422
4711.158	1.24538	3.23743	-0.03179	4.95715
4715.159	4.93728	2.93467	3.12170	5.63150
4719.158	7.07911	2.97235	5.64869	4.94456
4723.157	8.84290	2.93137	7.68679	5.36099
4727.169	10.75744	2.87596	9.51442	4.00597
4731.154	11.03846	2.80281	9.74058	4.37384
4735.157	12.13135	2.75949	11.18676	3.80091
4739.155	13.27344	3.63530	11.25259	3.36332
4743.148	13.48287	3.38568	12.04813	3.42662
4747.169	13.76333	3.71734	12.61665	3.42196
4751.164	13.91219	3.69847	12.67919	3.44939
4755.162	13.74339	3.79716	12.69556	3.36281
4759.150	13.82178	3.96044	12.25716	3.31787
4763.154	13.84754	4.14826	12.30244	3.29315
4767.159	13.96867	4.30307	12.44995	3.31666
4771.156	14.13762	4.24906	12.75712	3.30190
4775.188	14.31689	4.30228	12.82649	3.38273
4779.178	14.36001	4.35103	12.93776	3.39074
4783.175	14.32819	4.38934	12.89975	3.59600
4787.158	14.27907	4.40538	12.80582	3.75323
4791.150	14.32129	4.32774	12.84553	3.64814
4795.177	14.29219	4.39371	12.85378	3.63550
4799.155	14.20754	4.36149	12.86940	3.68623
4803.150	14.21292	4.35238	12.90051	3.70939
4807.168	14.27306	4.26928	12.90664	3.85583
4811.153	14.12649	4.23820	12.91140	3.81430
4815.186	14.07025	4.24326	12.88362	3.90154
4819.164	14.01228	4.21379	12.81679	3.86442
4823.179	14.02484	4.17859	12.79317	3.89235
4827.158	13.99924	4.08904	12.77322	3.85172
4831.167	14.06481	4.11936	12.81856	3.77145
4835.166	14.05413	4.10588	12.84017	3.73030
4839.159	14.03402	4.08259	12.83116	3.72004
4843.156	14.08092	4.07939	12.82620	3.73710
4847.152	14.08143	4.06477	12.80860	3.74182
4851.152	14.18864	4.13414	12.80081	3.69129
4855.153	14.25019	4.16975	12.79468	3.68182
4859.156	14.28492	4.16219	12.75401	3.66426
4863.152	14.31973	4.14883	12.78089	3.67522
4867.156	14.35212	4.18810	12.75356	3.64013
4871.150	14.34704	4.26041	12.69516	3.66723
4875.154	14.33772	4.24335	12.61129	3.69048
4879.164	14.33005	4.27491	12.61422	3.70061
4883.152	14.34503	4.30560	12.54899	3.74746
4887.156	14.35356	4.30479	12.50633	3.79796
4891.151	14.38761	4.33807	12.46592	3.81981
4895.155	14.36868	4.29907	12.43078	3.86091
4899.156	14.35349	4.23580	12.38777	3.93677
4903.153	14.33436	4.22007	12.37517	3.96643
4907.154	14.32265	4.28541	12.33622	4.02184
4911.175	14.31414	4.22234	12.33214	4.06456
4915.155	14.34664	4.19788	12.34185	4.05827
4919.156	14.36243	4.14313	12.33226	4.11037
4923.157	14.33849	4.21168	12.32298	4.14812
4927.159	14.33800	4.24607	12.31395	4.15285
4931.155	14.32067	4.24863	12.32409	4.14977
4935.150	14.30587	4.28523	12.34652	4.14632
4939.159	14.31500	4.30014	12.35483	4.16170
4943.205	14.31407	4.33281	12.36528	4.12702
4947.151	14.34406	4.36749	12.35891	4.11681
4951.149	14.35107	4.34125	12.37354	4.08693
4955.149	14.36395	4.33844	12.37598	4.08189
4959.152	14.37033	4.33329	12.37375	4.07891
4963.164	14.35780	4.34806	12.38749	4.05836
4967.151	14.40419	4.33175	12.39419	4.06927
4971.150	14.42744	4.29021	12.42449	4.06648
4975.164	14.44115	4.27619	12.41989	4.04122
4979.156	14.46072	4.25428	12.40304	4.04479
4983.150	14.44839	4.27662	12.39826	4.04151
4987.148	14.42176	4.31286	12.40744	4.07913
4991.150	14.40779	4.32347	12.42972	4.10529
4995.156	14.41159	4.29966	12.44538	4.13679
4999.148	14.40833	4.30096	12.46005	4.15519
5003.153	14.37338	4.24828	12.46531	4.22206
5007.204	14.36677	4.15864	12.43244	4.25925
5011.160	14.34839	4.02389	12.40110	4.35549
5015.160	14.35922	4.14491	12.35936	4.33797
5019.149	14.34145	3.97397	12.32163	4.35440
5023.149	14.32204	4.05017	12.32295	4.37381
5027.156	14.30862	3.89288	12.31878	4.37165
5031.161	14.32847	3.86346	12.32165	4.38278
5035.149	14.31661	3.84744	12.28498	4.40048
5039.148	14.30053	3.82190	12.28270	4.40706
5043.149	14.28072	3.78466	12.25666	4.43125
5047.156	14.34587	3.85844	12.25417	4.45084
5051.150	14.38127	3.88779	12.27846	4.43733
5055.143	14.39832	3.93092	12.30026	4.42356
5059.159	14.38374	3.95839	12.32528	4.38863
5063.151	14.43587	3.93865	12.32978	4.38820
5067.157	14.49379	3.89471	12.32025	4.43551
5071.145	14.56430	3.92787	12.33105	4.42561
5075.153	14.76967	3.41465	12.38531	3.39363
5079.207	14.88825	2.49032	13.07627	2.53648
5083.152	14.96807	0.99445	13.52686	1.10967
5087.151	14.80973	-0.84084	13.62739	-1.29828
5091.164	14.83812	-2.09502	13.91418	-1.52716
5095.144	15.01802	-1.95266	14.07137	-1.99735
5099.143	15.20915	-1.91962	14.13101	-2.16387
5103.158	15.26120	-1.75661	14.16086	-2.05545
5107.149	15.35634	-1.44156	14.16359	-1.80391
5111.149	15.40888	-1.10895	14.21090	-1.57640
5115.153	15.50608	-0.98415	14.21836	-1.59274
5119.148	15.46327	-1.52966	14.24133	-1.52158
5123.152	15.35784	-2.08622	14.28212	-1.58531
5127.152	15.36680	-2.10114	14.30135	-1.70136
5131.155	15.37430	-2.18253	14.33038	-1.66143
5135.148	15.44721	-2.17528	14.34585	-1.66047
5139.151	15.46279	-2.18811	14.32477	-1.60958
5143.208	15.40563	-2.14876	14.24545	-1.46644
5147.197	15.41716	-2.00510	14.21460	-1.45446
5151.149	15.38419	-1.90986	14.13227	-1.41188
5155.145	15.49386	-1.82169	14.07606	-1.38096
5159.148	15.55837	-1.88078	14.00714	-1.32484
5163.157	15.56625	-1.92198	13.97762	-1.33241
5167.150	15.62685	-1.77934	13.86153	-1.31989
5171.162	15.75817	-1.71591	13.85311	-1.28169
5175.146	15.72849	-1.74443	13.75418	-1.24069
5179.150	15.74076	-1.71558	13.69251	-1.19447
5183.152	15.80767	-1.62227	13.64035	-1.16869
5187.147	15.83475	-1.55486	13.59985	-1.15440
5191.148	15.85703	-1.52820	13.55013	-1.16285
5195.155	15.86406	-1.57033	13.54556	-1.16466
5199.139	15.85343	-1.53527	13.48465	-1.19762
5203.162	15.83650	-1.50994	13.45167	-1.22771
5207.142	15.86932	-1.43665	13.40199	-1.24314
5211.156	15.86955	-1.41534	13.33269	-1.27866
5215.160	15.84893	-1.37745	13.23746	-1.28758
5219.147	15.85205	-1.31713	13.23243	-1.31778
5223.171	15.87967	-1.27380	13.21630	-1.34267
5227.149	15.88792	-1.21303	13.17240	-1.37551
5231.164	15.92297	-1.15071	13.16814	-1.39144
5235.147	15.94444	-1.09351	13.20336	-1.34591
5239.143	16.00273	-1.02950	13.19437	-1.34854
5243.146	16.01305	-0.95242	13.22011	-1.30094
5247.155	16.05154	-0.92433	13.27837	-1.27602
5251.141	16.07828	-0.85417	13.31514	-1.21449
5255.155	16.10633	-0.82426	13.47676	-1.13447
5259.146	16.10454	-0.82131	13.49366	-1.12876
5263.162	16.13638	-0.77265	13.60620	-1.08037
5267.144	16.14698	-0.76369	13.57546	-1.05263
5271.149	16.12131	-0.77202	13.60655	-0.98708
5275.148	16.08933	-0.80621	13.63651	-1.01078
5279.149	16.07734	-0.82619	13.61712	-1.17986
5283.163	16.04739	-0.91215	13.60191	-1.20871
5287.149	15.98399	-1.00500	13.58955	-1.33383
5291.146	15.90860	-1.07232	13.52787	-1.34477
5295.160	15.84194	-1.14900	13.50359	-1.40980
5299.146	15.78446	-1.22149	13.47012	-1.44028
5303.148	15.80905	-1.25269	13.44343	-1.54811
5307.148	15.78899	-1.25745	13.40314	-1.52518
5311.144	15.73575	-1.28317	13.40290	-1.58323
5315.145	15.71340	-1.31729	13.37958	-1.61920
5319.147	15.69742	-1.30931	13.36925	-1.63215
5323.144	15.69896	-1.30990	13.39283	-1.61349
5327.144	15.67984	-1.31439	13.38708	-1.61623
5331.144	15.69035	-1.28415	13.40643	-1.60545
5335.155	15.72494	-1.24542	13.43324	-1.60773
5339.163	15.73982	-1.19868	13.44385	-1.61862
5343.144	15.77184	-1.16637	13.46078	-1.62006
5347.141	15.71135	-1.14151	13.47315	-1.60442
5351.159	15.65249	-1.11283	13.50689	-1.63891
5355.147	15.68506	-1.07716	13.50880	-1.65773
5359.149	15.65822	-1.07020	13.52372	-1.60884
5363.144	15.63216	-1.08237	13.53235	-1.57520
5367.145	15.63143	-1.05584	13.50176	-1.54672
5371.144	15.63233	-1.04089	13.49833	-1.57241
5375.143	15.62174	-1.02690	13.47449	-1.53844
5379.155	15.65258	-1.01220	13.40568	-1.52234
5383.165	15.58394	-1.05616	13.36659	-1.42527
5387.159	15.56680	-1.07740	13.29937	-1.39678
5391.143	15.56560	-1.00727	13.27308	-1.38313
5395.168	15.59112	-1.00698	13.30324	-1.36036
5399.155	15.58578	-1.01038	13.29828	-1.35486
5403.150	15.60293	-0.99867	13.32016	-1.37810
5407.146	15.66482	-0.92232	13.37005	-1.40722
5411.141	15.72499	-0.92420	13.39565	-1.45493
5415.143	15.81684	-0.91626	13.35818	-1.36474
5419.149	15.80330	-0.96092	13.35694	-1.38314
5423.158	15.82322	-0.97918	13.43885	-1.39953
5427.150	15.89278	-1.00436	13.46085	-1.42734
5431.147	15.99007	-0.97527	13.53812	-1.46867
5435.142	16.07549	-1.01151	13.53216	-1.40721
5439.140	15.88652	-1.15238	13.52538	-1.41604
5443.137	15.93166	-1.27651	13.57476	-1.41370
5447.147	15.83740	-1.53800	13.60880	-1.42491
5451.142	15.67414	-1.53292	13.56615	-1.40091
5455.146	15.61815	-1.72330	13.59363	-1.38568
5459.139	15.69926	-1.72212	13.62137	-1.38151
5463.193	15.71411	-1.63703	13.57569	-1.38248
5467.152	15.65805	-1.80496	13.55510	-1.38325
5471.141	15.30397	-2.07321	13.42247	-1.43446
5475.153	15.18257	-1.92032	13.09212	-1.50696
5479.142	14.13549	-2.22482	12.02392	-1.67472
5483.624	14.03075	-2.16635	11.73602	-1.65345
5487.154	14.37180	-2.19922	12.52975	-1.67660
5491.019	14.91087	-2.04391	12.00379	-1.67444
5495.026	14.93937	-1.99470	12.15808	-1.73679
5499.022	14.75101	-2.10918	12.17667	-1.81284
5503.014	14.60309	-2.13695	12.10409	-1.72253
5507.027	14.65435	-2.17811	12.13880	-1.70447
5511.015	14.31855	-2.20205	12.01552	-1.63675
5515.021	14.50500	-2.10758	11.94453	-1.64476
5519.011	14.45109	-2.14337	11.92234	-1.68655
5523.033	14.54893	-2.09196	11.98113	-1.67548
5527.020	14.58780	-2.06733	12.00770	-1.71484
5531.026	14.62791	-2.00109	11.97306	-1.63052
5535.019	14.62507	-2.02950	12.06370	-1.62021
5539.015	14.61576	-2.02161	12.04977	-1.58877
5543.012	14.61487	-2.02001	12.11515	-1.56501
5547.015	14.64197	-1.99160	12.19270	-1.64127
5551.024	14.68440	-1.96295	11.92880	-1.64082
5555.023	14.66234	-1.98200	11.93258	-1.67840
5559.027	14.66241	-2.02642	12.00773	-1.69998
5563.022	14.63314	-2.13217	11.99013	-1.70323
5567.015	14.56144	-2.13620	12.02860	-1.72154
5571.014	14.51723	-2.18986	11.81066	-1.69516
5575.016	14.45667	-2.20098	11.76461	-1.77386
5579.020	14.42444	-2.25035	11.76195	-1.81261
5583.015	14.41594	-2.28020	11.73507	-1.88755
5587.009	14.37107	-2.35780	11.76630	-1.93059
5591.035	14.35833	-2.42424	11.79125	-2.02468
5595.041	14.35493	-2.46164	11.87135	-2.10086
5599.035	14.35149	-2.52764	11.97410	-1.98069
5603.013	14.34974	-2.55733	11.92897	-1.99416
5607.013	14.38609	-2.58764	11.99882	-1.98760
5611.015	14.39122	-2.58662	12.11052	-2.01732
5615.025	14.34997	-2.65342	12.11351	-1.94656
5619.015	14.31172	-2.70380	12.03729	-2.04086
5623.020	14.28998	-2.74366	12.11572	-2.03927
5627.016	14.20595	-2.82170	12.04011	-2.09856
5631.012	14.23030	-2.86056	12.03204	-2.07595
5635.046	14.20705	-2.88544	12.03619	-2.02281
5639.017	14.18050	-2.92261	12.10805	-2.02909
5643.018	14.17420	-2.97527	12.13707	-2.06827
5647.012	14.14018	-3.03454	12.24441	-2.12508
5651.022	14.15087	-2.96930	12.14307	-2.15454
5655.014	14.16130	-3.00444	12.13429	-2.17904
5659.022	14.29042	-2.98830	12.02651	-2.18902
5663.012	14.17161	-2.98773	12.09206	-2.17082
5667.012	14.14495	-2.98558	12.08717	-2.17280
5671.020	14.17903	-2.93083	12.09147	-2.15268
5675.024	14.11804	-2.94070	12.03833	-2.09867
5679.022	14.11337	-2.93213	12.05459	-2.07320
5683.011	14.19210	-2.88500	12.04324	-2.07926
5687.016	14.09535	-2.92080	12.06197	-2.06409
5691.020	14.13493	-2.86967	12.07752	-2.02306
5695.021	14.12870	-2.90061	12.21300	-1.95678
5699.015	14.15951	-2.90243	12.13441	-1.96847
5703.011	14.13052	-2.90487	12.13341	-1.99767
5707.013	14.25452	-2.86984	12.19749	-1.97091
5711.015	14.14432	-2.90515	12.11676	-1.96634
5715.017	14.18223	-2.92704	12.06036	-1.98370
5719.014	14.13248	-2.93042	12.03028	-2.03118
5723.015	14.15206	-2.93125	12.07042	-2.05847
5727.013	14.04792	-2.94013	11.85680	-2.02522
5731.019	13.87211	-2.91203	10.93500	-2.06824
5735.012	11.74770	-2.96620	9.69962	-1.79301
5739.016	9.00586	-2.99094	7.09438	-1.78145
5743.008	8.54527	-2.93353	6.43878	-0.79754
5747.019	8.02908	-2.91160	5.56559	-0.37627
5751.012	7.41975	-2.86180	5.02804	-0.79006
5755.016	7.35231	-2.74467	4.78304	-0.59782
5759.022	7.88475	-2.67471	5.05528	-0.60273
5763.023	8.59405	-2.73648	5.61352	-0.32406
5767.015	8.62013	-2.63897	5.98132	-0.44249
5771.016	8.49666	-2.67531	5.55516	-0.28395
5775.021	8.28466	-2.64163	5.37485	-0.16586
5779.020	7.95480	-2.57442	5.02516	-0.14119
5783.017	7.96831	-2.54177	5.07619	-0.06554
5787.010	8.02762	-2.53949	5.09118	-0.06997
5791.014	8.03745	-2.60327	5.28613	-0.07198
5795.027	8.20447	-2.69118	5.27112	-0.03580
5799.005	8.04231	-2.76267	5.31558	-0.06267
5803.022	7.96928	-2.89718	5.44222	-0.00114
5807.011	7.89573	-3.04881	5.21474	0.01636
5811.010	7.71591	-3.26898	5.18793	0.07555
5815.014	7.51459	-2.81446	5.16854	0.03361
5819.019	7.60587	-2.73730	5.14362	-0.01874
5823.327	7.56074	-2.74120	5.19650	-0.08075
5827.016	7.54127	-2.68071	5.20620	-0.05113
5831.017	7.51022	-2.79463	5.17452	-0.02787
5835.014	7.46070	-2.78352	5.19362	-0.07543
5839.011	7.49681	-2.71614	5.11755	0.00601
5843.019	7.52840	-2.68811	5.13498	0.01507
5847.008	7.61536	-2.67381	5.08155	-0.00146
5851.016	7.60999	-2.59684	5.13134	0.01022
5855.013	7.70012	-2.54375	5.19002	-0.01854
5859.005	7.80004	-2.53081	5.22475	-0.03304
5863.028	7.83342	-2.56112	5.19788	-0.17949
5867.012	7.82165	-2.57559	5.18715	-0.22248
5871.016	7.71862	-2.65754	4.98159	-0.29449
5875.009	7.33388	-2.70848	4.92087	-0.25748
5879.011	7.48214	-2.74585	4.93489	-0.25462
5883.027	7.38124	-2.74586	4.95051	-0.33871
5887.009	7.40269	-2.81036	4.95728	-0.41761
5891.012	7.36972	-2.85644	4.83038	-0.46661
5895.022	7.41543	-2.95633	4.77786	-0.25198
5899.010	7.40584	-3.07597	4.77404	-0.32013
5903.011	7.38349	-3.08052	4.78380	-0.19533
5907.013	7.33120	-3.09288	4.78360	-0.18480
5911.004	7.36579	-3.07249	4.79371	-0.14308
5915.025	7.38605	-3.08301	4.88429	-0.10342
5919.020	7.49156	-3.04346	4.95051	-0.03097
5923.010	7.59978	-3.01696	4.97659	-0.08157
5927.014	7.78891	-3.00250	5.04272	-0.02374
5931.011	7.75037	-2.95369	5.07185	0.00819
5935.019	7.81965	-2.94250	5.14906	0.04806
5939.005	7.77970	-2.92814	5.18276	-0.03866
5943.013	7.70119	-2.89381	5.16605	-0.23392
5947.011	7.50051	-2.88376	5.15453	-0.33517
5951.014	7.32522	-2.88827	5.15066	-0.41869
5955.006	7.30026	-2.89505	5.14254	-0.40843
5959.201	7.07011	-2.91420	5.10342	-0.46807
5963.063	7.08747	-2.91234	5.05582	-0.52085
5967.020	7.04658	-2.90500	5.04890	-0.49754
5971.018	7.00626	-2.87442	5.00576	-0.50715
5975.033	6.90033	-2.90475	4.95780	-0.48476
5979.017	6.86687	-2.85866	4.96150	-0.49758
5983.008	6.84734	-2.83291	4.91356	-0.49967
5987.006	6.81776	-2.78209	4.90365	-0.42192
5991.020	6.87553	-2.73021	4.92947	-0.47572
5995.013	6.91033	-2.71472	4.90368	-0.36973
5998.998	6.78742	-2.70070	4.72904	-0.45132
6003.020	3.33975	-2.70807	2.11294	-0.40843
6007.008	1.20680	-2.91544	0.51954	-1.60698
6011.013	0.02541	-4.63045	-1.53389	-2.33119
6015.006	-1.99419	-5.92541	-1.89444	-3.26477
6019.008	-3.08602	-6.71569	-3.05269	-3.75234
6023.012	-3.76450	-7.43401	-4.41127	-4.51059
6027.011	-4.97595	-7.84727	-4.98485	-4.98906
6031.015	-6.47686	-7.70026	-5.59361	-5.18518
6035.009	-6.57186	-7.45501	-6.80832	-5.27134
6039.004	-6.60651	-7.54253	-7.14704	-5.09896
6043.012	-6.60698	-7.56578	-6.78336	-4.81121
6047.006	-5.98226	-7.58897	-6.29764	-4.91439
6051.025	-6.20158	-7.49510	-6.22753	-4.78170
6055.012	-6.42163	-7.32329	-6.49494	-4.84637
6059.007	-6.39378	-7.38572	-7.02255	-5.06595
6063.009	-6.40457	-7.46419	-6.61352	-5.31482
6067.007	-6.56182	-7.43490	-6.73914	-5.42433
6071.005	-6.63526	-7.29968	-6.72653	-5.28488
6075.008	-6.46088	-7.23412	-6.80343	-5.20232
6079.008	-6.19591	-7.22009	-6.89284	-5.20595
6083.007	-6.25789	-7.08788	-7.05090	-5.23042
6087.006	-6.50834	-6.91026	-6.77514	-5.55845
6091.026	-6.51145	-6.77090	-6.76562	-5.37005
6095.038	-6.07506	-6.98587	-6.80807	-5.39720
6099.008	-6.23415	-6.74934	-6.95313	-5.44078
6103.009	-6.08841	-7.00244	-6.93046	-5.45635
6107.023	-6.13135	-6.86866	-6.78874	-5.38041
6111.007	-6.37354	-6.96697	-6.74119	-5.33644
6115.010	-6.52196	-7.03532	-6.91312	-5.32930
6119.005	-6.41111	-7.09903	-6.96044	-5.34589
6123.022	-6.44900	-7.15880	-6.69823	-5.35511
6127.007	-6.29673	-7.07561	-6.78172	-5.39522
6131.010	-6.09248	-7.18203	-6.75027	-5.32839
6135.008	-6.49276	-7.20140	-6.96812	-5.30946
6139.016	-6.46414	-7.03245	-6.80237	-5.47749
6143.005	-6.17590	-7.04876	-6.72428	-5.41650
6147.004	-6.07278	-7.13615	-6.84568	-5.40866
6151.013	-6.20028	-7.05192	-6.89671	-5.38561
6155.023	-6.35199	-7.00215	-7.01377	-5.37743
6159.004	-6.27677	-6.81972	-7.16989	-5.45242
6163.008	-6.11935	-6.76090	-6.44513	-5.43709
6167.005	-5.78583	-6.79030	-6.63289	-5.45187
6171.012	-5.92216	-6.78517	-6.58288	-5.43830
6175.012	-5.99910	-6.73451	-6.84470	-5.46368
6179.013	-5.95108	-6.75345	-6.89815	-5.50360
6183.001	-6.10323	-6.75698	-7.07730	-5.49090
6187.044	-6.34368	-6.83323	-6.78644	-5.40279
6191.007	-6.46348	-6.80794	-6.80318	-5.43826
6195.001	-6.18826	-6.87460	-6.85329	-5.45608
6199.014	-6.22790	-6.97896	-6.61141	-5.42713
6203.005	-6.44402	-7.07808	-6.66494	-5.41600
6207.004	-6.26522	-7.15922	-6.74097	-5.42998
6211.004	-6.29153	-7.20824	-6.85309	-5.49701
6215.022	-6.37866	-7.24947	-6.87856	-5.48349
6219.002	-6.46745	-7.32717	-6.92662	-5.41346
6223.004	-6.45027	-7.28277	-6.98069	-5.41402
6227.017	-6.45488	-7.30304	-6.97049	-5.38695
6231.007	-6.31240	-7.24390	-7.08522	-5.44323
6235.006	-6.26738	-7.16816	-7.11916	-5.42942
6239.006	-6.41866	-7.12066	-7.04543	-5.42092
6243.011	-6.19383	-6.89647	-6.70460	-5.36525
6247.005	-3.78709	-7.01035	-5.75915	-5.30460
6251.004	-0.76101	-6.98344	-1.60496	-3.37851
6255.002	1.99734	-6.69132	0.74392	-3.36739
6259.015	3.31274	-5.43573	1.98192	-2.86639
6263.013	5.55465	-4.14120	3.64459	-1.56046
6267.008	6.93626	-3.74065	4.58668	-1.42396
6270.999	7.48009	-3.49063	5.21171	-1.85798
6275.022	8.90899	-3.42876	7.32016	-1.58304
6279.008	9.44076	-3.20445	7.12183	-1.82078
6283.003	9.24385	-3.17149	7.15965	-1.50203
6287.003	9.06068	-3.11773	7.20692	-1.12829
6291.008	8.52528	-3.10072	6.78652	-1.62390
6295.012	8.21060	-3.24035	7.00174	-1.53148
6299.008	8.32106	-3.21089	7.19564	-1.53892
6303.012	8.90923	-3.20249	7.33964	-1.37508
6307.003	9.24822	-3.17264	7.42368	-1.30924
6310.999	9.34618	-3.16364	7.44042	-1.41917
6315.008	9.18451	-3.14159	7.25296	-1.27224
6319.002	9.26928	-3.14771	7.40421	-1.27238
6323.006	9.19612	-3.22444	7.33305	-1.20075
6326.997	9.32876	-3.30970	7.39640	-1.24097
6331.008	9.12810	-3.32706	7.29877	-1.31971
6335.002	9.25178	-3.37111	7.37184	-1.33796
6339.015	9.38342	-3.36081	7.39025	-1.32786
6343.006	9.42088	-3.10949	7.31159	-1.20817
6346.884	9.46377	-2.92683	7.29787	-1.16958
6350.879	9.48840	-2.92970	7.26110	-1.18401
6354.883	9.43868	-2.68214	7.20040	-1.06228
6358.878	9.48002	-2.62764	7.16112	-1.12729
6362.879	9.52951	-2.64800	7.10421	-1.22578
6366.890	9.51691	-2.69072	7.08930	-1.37584
6370.882	9.51160	-2.55129	7.07608	-1.52409
6374.875	9.49132	-2.56352	7.12293	-1.52024
6378.875	9.45430	-2.63772	7.14592	-1.48991
6382.907	9.36056	-2.58032	7.19376	-1.59893
6386.893	9.39144	-2.59815	7.24307	-1.58162
6390.882	9.43716	-2.58098	7.29941	-1.62225
6394.872	9.44443	-2.55719	7.34118	-1.55123
6398.889	9.45276	-2.59018	7.38439	-1.69977
6402.879	9.51679	-2.63944	7.44413	-1.72800
6406.884	9.61860	-2.61435	7.44691	-1.76440
6410.891	9.70958	-2.60194	7.44323	-1.78371
6414.880	9.66928	-2.61784	7.39767	-1.75940
6418.874	9.64977	-2.66102	7.36904	-1.70417
6422.877	9.60051	-2.62503	7.36838	-1.52242
6426.886	9.54583	-2.62066	7.38475	-1.35844
6430.879	9.47205	-2.63590	7.41985	-1.31156
6434.880	9.43658	-2.69003	7.40099	-1.40548
6438.876	9.75743	-2.65508	7.36418	-1.43803
6442.875	9.70905	-2.55723	7.32175	-1.59065
6446.875	9.60034	-2.54913	7.19312	-1.63897
6450.876	9.49221	-2.67749	7.25020	-1.07013
6454.876	9.59211	-3.01546	7.39259	-1.25591
6458.872	9.34031	-3.17267	7.41534	-1.31133
6462.880	9.43368	-3.24231	7.41026	-1.60370
6466.878	9.38187	-3.57055	7.39603	-1.38729
6470.877	9.28980	-3.50053	7.41385	-1.24395
6474.880	9.43358	-3.44000	7.45538	-1.47250
6478.873	9.52297	-3.35188	7.44664	-1.55467
6482.874	9.49132	-3.53475	7.34138	-1.82817
6486.875	9.28925	-3.43512	7.51049	-1.46929
6490.879	9.25187	-3.39423	7.45684	-1.23454
6494.894	9.37829	-3.33281	7.50371	-1.56040
6498.878	9.50368	-3.31179	7.39920	-1.68248
6502.902	9.48499	-3.19370	7.54937	-1.47477
6506.874	9.28084	-3.15086	7.45872	-1.46205
6510.884	9.18818	-3.07824	7.46956	-1.40706
6514.875	9.36083	-3.07372	7.49044	-1.43732
6518.878	9.57479	-2.93194	7.48788	-1.71321
6522.879	9.59904	-2.77749	7.50649	-1.23945
6526.878	9.48850	-2.75367	7.53088	-1.19769
6530.878	9.41284	-2.63835	7.37387	-1.37298
6534.872	9.34539	-2.63977	7.41141	-1.48614
6538.890	9.50916	-2.63441	7.35876	-1.47438
6542.885	9.34128	-2.68176	7.48817	-1.47645
6546.877	9.34285	-2.66744	7.57213	-1.03950
6550.879	9.61506	-2.62780	7.50198	-1.01585
6554.882	9.61870	-2.61002	7.45479	-1.17542
6558.885	9.64576	-2.58270	7.42173	-1.29141
6562.870	9.62478	-2.65234	7.46153	-1.29812
6566.878	9.51643	-3.24107	7.45289	-1.36313
6570.953	9.49914	-3.70389	7.36159	-1.38624
6574.875	9.48347	-3.61067	7.32881	-1.39280
6578.873	9.50554	-3.55621	7.29487	-1.35758
6582.877	9.37660	-3.72698	7.23850	-1.25925
6586.873	9.38093	-3.87846	7.16244	-1.25882
6590.922	9.35493	-3.93044	7.07065	-1.29932
6594.881	9.38890	-3.89570	7.02230	-1.33690
6598.888	9.23911	-3.85567	7.04240	-1.31071
6602.873	9.22025	-3.92848	7.02514	-1.27369
6606.866	9.24041	-3.95587	7.03609	-1.24689
6610.878	9.20598	-3.98621	7.00272	-1.21222
6614.881	9.19179	-4.01622	7.07381	-1.18470
6618.871	9.21004	-4.02827	7.15381	-1.16251
6622.872	9.21295	-4.03099	7.12278	-1.05830
6626.872	9.28361	-4.07957	7.20064	-0.97240
6630.873	9.32929	-4.06862	7.29560	-0.75690
6634.875	9.33169	-3.95472	7.38258	-0.69439
6638.888	9.26343	-3.97543	7.39210	-0.82227
6642.877	9.29875	-3.89622	7.37375	-1.08195
6646.874	9.37209	-3.18897	7.33310	-1.10952
6650.880	9.33589	-3.03516	7.30102	-1.21317
6654.872	9.33410	-3.09669	7.16444	-1.16174
6658.873	9.35285	-2.75242	7.26766	-0.92319
6662.891	9.36399	-2.82143	7.30212	-1.03570
6666.873	9.41129	-2.79699	7.37929	-1.01402
6670.871	9.41356	-2.76285	7.43674	-0.93831
6674.872	9.60936	-2.66554	7.65766	-0.84053
6678.892	11.96581	-2.18407	9.70526	-0.80664
6682.874	12.47394	-2.29658	10.33656	-0.70980
6686.880	12.86317	-1.71582	11.22625	-1.14156
6690.865	12.94301	-1.67334	11.18391	-1.14039
6694.865	12.88940	-1.89195	10.98654	-1.14167
6698.887	12.75524	-2.16106	10.65539	-0.93564
6702.868	12.70674	-2.14741	10.24819	-1.16672
6706.876	12.66786	-1.98086	10.01806	-1.13813
6710.876	12.77020	-1.84942	10.36009	-1.31102
6714.887	12.91121	-1.80652	10.46971	-1.40459
6718.880	12.96017	-1.87059	10.42183	-1.45443
6722.871	12.74749	-2.03413	10.42219	-1.43418
6726.871	12.65545	-2.03085	10.54764	-1.42855
6730.876	12.64248	-2.07199	10.61241	-1.36022
6734.875	12.45426	-2.15573	10.51206	-1.36576
6738.869	12.42685	-2.25254	10.53108	-1.30766
6742.876	12.45106	-2.25289	10.56790	-1.30690
6746.874	12.46893	-2.29626	10.65405	-1.14286
6750.871	12.47960	-2.35551	10.75311	-1.08465
6754.872	12.45016	-2.44039	10.75519	-0.97004
6758.872	12.40794	-2.48606	10.65690	-0.99216
6762.874	12.42598	-2.50410	10.74647	-0.90183
6766.875	12.42953	-2.51661	10.61706	-0.83255
6770.867	12.47688	-2.59383	10.58299	-0.82575
6774.908	12.49803	-2.65397	10.40341	-0.79945
6778.939	12.59930	-2.61554	10.36509	-0.84151
6782.872	12.63601	-2.61652	10.24269	-0.85685
6786.868	12.67291	-2.65079	10.19536	-0.87893
6790.868	12.68082	-2.67260	10.18587	-0.93498
6794.897	12.69110	-2.71739	10.12758	-0.95576
6798.876	12.72105	-2.73755	10.10468	-1.01761
6802.875	12.71698	-2.73007	10.09590	-1.03686
6806.869	12.72919	-2.78022	10.04783	-1.05570
6810.869	12.71377	-2.82188	10.03970	-1.11010
6814.869	12.70579	-2.81520	10.02495	-1.14797
6818.875	12.67435	-2.82038	10.00981	-1.18611
6822.868	12.66025	-2.86649	10.00500	-1.17964
6826.870	12.60384	-2.91867	10.01563	-1.17050
6830.870	12.59354	-2.92711	10.00848	-1.16214
6834.871	12.53395	-2.96821	10.02172	-1.18709
6838.865	12.51276	-2.97692	10.10052	-1.22338
6842.874	12.48535	-2.98498	10.09718	-1.24963
6846.876	12.42993	-3.03987	10.20505	-1.23618
6850.869	12.41578	-3.09565	10.20380	-1.22328
6854.869	12.38720	-3.09347	10.28241	-1.22740
6858.870	12.36331	-3.14631	10.37674	-1.19908
6862.870	12.40143	-3.09870	10.39791	-1.17120
6866.865	12.39357	-3.08514	10.45913	-1.07915
6870.868	12.43561	-3.09918	10.48612	-1.11643
6874.867	12.44531	-3.11963	10.58251	-1.09500
6878.889	12.49072	-3.05738	10.59318	-1.05358
6882.869	12.51662	-3.02654	10.60697	-1.09729
6886.887	12.56689	-3.01875	10.62480	-1.01409
6890.867	12.63799	-3.01499	10.61665	-0.96804
6894.880	12.66169	-2.95513	10.68135	-1.11525
6898.859	12.68151	-2.90400	10.72563	-1.12004
6902.881	12.70669	-2.90732	10.75588	-1.15395
6906.873	12.69660	-2.96130	10.76891	-1.07098
6910.915	12.68099	-2.94318	10.77102	-1.18134
6914.876	12.66934	-2.93739	10.76793	-1.04746
6918.872	12.61190	-2.96006	10.78125	-1.05137
6922.863	12.59018	-2.94316	10.70819	-1.21876
6926.876	12.26860	-2.98266	10.49251	-1.19859
6930.868	10.24867	-3.26439	7.75025	-1.76657
6934.872	8.52484	-4.81431	7.31477	-3.22261
6938.862	8.52345	-5.24634	6.24394	-3.28969
6942.873	8.10506	-5.44498	5.79828	-3.08413
6946.867	7.70341	-5.68440	5.76514	-3.27639
6950.871	7.37433	-5.83143	4.13843	-3.47472
6954.861	6.85167	-6.08353	3.80495	-3.72165
6958.872	6.96404	-6.24530	3.87341	-3.68133
6962.872	7.12569	-6.17951	4.08029	-3.59909
6966.877	7.31049	-6.20690	4.33680	-3.60951
6970.876	7.33764	-6.24881	4.31356	-3.68045
6974.871	7.31965	-6.32742	4.11861	-3.80701
6978.923	7.19793	-6.39562	4.05135	-3.82976
6982.888	7.07197	-6.42401	4.01277	-3.86454
6986.880	7.09627	-6.46645	3.96283	-3.92017
6990.865	6.98389	-6.51035	3.88404	-3.99683
6994.901	6.99140	-6.55370	4.03789	-3.97414
6998.878	6.94166	-6.56999	4.16231	-3.93211
7002.863	6.90238	-6.56206	4.14880	-3.91145
7006.865	6.80976	-6.62515	4.18455	-3.93133
7010.871	6.73708	-6.65304	4.18682	-3.94106
7014.868	6.66256	-6.64716	4.14754	-3.93087
7018.863	6.65194	-6.64267	4.14744	-3.92105
7022.888	6.61695	-6.65413	4.21365	-3.89433
7026.864	6.60965	-6.66518	4.25986	-3.88860
7030.872	6.59900	-6.68381	4.27390	-3.87999
7034.867	6.60786	-6.66925	4.35306	-3.84402
7038.872	6.64763	-6.62934	4.35982	-3.85790
7042.864	6.65845	-6.59259	4.36172	-3.87560
7046.870	6.69892	-6.56738	4.37083	-3.88293
7050.873	6.69601	-6.55572	4.40794	-3.88530
7054.864	6.74738	-6.54729	4.44230	-3.87701
7058.870	6.81326	-6.57492	4.46645	-3.92277
7062.864	6.84292	-6.56570	4.36686	-3.97298
7066.878	6.79728	-6.56859	4.38373	-4.01032
7070.870	6.76341	-6.57525	4.36779	-4.05313
7074.864	6.59233	-6.58116	4.40337	-4.07380
7078.864	6.57953	-6.61512	4.39207	-4.14167
7082.867	6.63494	-6.64405	4.33838	-4.22056
7086.866	6.60825	-6.68373	4.27856	-4.24642
7090.868	6.53967	-6.71844	4.31398	-4.29903
7094.868	6.48850	-6.74664	4.33276	-4.34835
7098.870	6.49350	-6.76566	4.28012	-4.37114
7102.868	6.32294	-6.80039	4.25554	-4.40804
7106.860	6.36729	-6.83879	4.31773	-4.41108
7110.906	6.35979	-6.87183	4.38775	-4.32845
7114.905	6.38371	-6.89758	4.44408	-4.27905
7118.876	6.45816	-6.92554	4.50150	-4.28157
7122.863	6.50895	-6.92071	4.55246	-4.22077
7126.866	6.51728	-6.94176	4.66990	-4.09923
7130.864	6.53747	-6.94406	4.74627	-4.02671
7134.870	6.56806	-6.96578	4.74314	-3.95768
7138.870	6.60828	-6.99158	4.75588	-3.89244
7142.866	6.60798	-7.00066	4.79704	-3.86861
7146.868	6.65208	-6.99454	4.87500	-3.82464
7150.871	6.73042	-6.99516	4.88776	-3.79418
7154.867	6.76623	-7.01241	4.87483	-3.74904
7158.858	6.80208	-7.02930	4.88621	-3.74350
7162.868	6.79613	-7.00775	4.86660	-3.71883
7166.863	6.76288	-7.02581	4.86823	-3.67777
7170.879	6.65750	-7.02644	4.85411	-3.64330
7174.891	6.60176	-7.03899	4.82742	-3.64302
7178.868	6.67968	-7.03755	4.82545	-3.65778
7182.867	6.63801	-6.97492	4.76635	-3.58144
7186.867	6.55621	-6.60663	4.54940	-3.47228
7190.866	6.27969	-5.22678	3.73361	-3.00248
7194.875	6.24217	-4.60841	3.61157	-2.35461
7198.865	6.33071	-4.63516	4.00606	-2.17169
7202.742	6.38190	-4.90187	4.18882	-2.65669
7206.743	6.31519	-5.49436	4.21659	-2.96137
7210.737	6.19449	-5.58960	4.07663	-2.71148
7214.744	6.10806	-5.85531	3.94364	-2.58717
7218.733	6.02835	-5.50986	3.87245	-2.41575
7222.749	6.07793	-5.39446	3.83586	-2.39712
7226.745	6.04409	-5.37109	3.72862	-2.32870
7230.734	5.95074	-5.16441	3.66204	-2.25898
7234.744	6.05246	-4.71619	3.76898	-2.22561
7238.740	6.10365	-4.74834	3.82815	-2.27940
7242.748	6.11083	-4.71657	3.82936	-2.20280
7246.740	6.07425	-4.68569	3.80559	-2.17533
7250.746	6.09815	-4.26979	3.79499	-2.16048
7254.743	6.13655	-4.33474	3.79472	-2.12764
7258.735	6.20749	-4.31127	3.85852	-2.02599
7262.735	6.24261	-4.27976	3.93757	-1.99394
7266.742	6.26277	-4.29240	3.95955	-1.96172
7270.742	6.31159	-4.26586	4.01324	-1.96922
7274.744	6.38128	-4.28569	4.10930	-1.96983
7278.739	6.39315	-4.31054	4.05987	-1.93979
7282.737	6.42638	-4.33472	4.01781	-1.90288
7286.732	6.43202	-4.41836	3.89350	-1.89898
7290.740	6.43366	-4.45730	3.76366	-1.91209
7294.757	6.42591	-4.51195	3.83828	-1.89236
7298.740	6.42792	-4.58419	3.84592	-1.87771
7302.736	6.43417	-4.63134	3.58356	-1.88018
7306.740	6.48931	-4.65379	3.60376	-1.88613
7310.743	6.51422	-4.68682	3.53471	-1.87933
7314.737	6.54283	-4.71098	3.49295	-1.82986
7318.759	6.53005	-4.69474	3.54514	-1.76628
7322.739	6.56711	-4.69572	3.41328	-1.78903
7326.738	6.58626	-4.69426	3.38845	-1.78038
7330.734	6.64170	-4.64676	3.41219	-1.76705
7334.735	6.69055	-4.60810	3.43667	-1.72408
7338.750	6.70859	-4.59057	3.44335	-1.69713
7342.739	6.63810	-4.56263	3.43739	-1.66114
7346.754	6.60522	-4.51831	3.51817	-1.66065
7350.739	6.56814	-4.53300	3.55693	-1.63993
7354.739	6.50254	-4.49831	3.59340	-1.65660
7358.741	6.47622	-4.47903	3.68826	-1.67542
7362.743	6.35832	-4.46131	3.60358	-1.65509
7366.736	6.38018	-4.48479	3.68634	-1.59862
7370.735	6.34172	-4.48858	3.68144	-1.56359
7374.758	6.32750	-4.51666	3.71211	-1.53254
7378.737	6.31590	-4.49320	3.95691	-1.49469
7382.733	8.56588	-4.34502	5.15217	-1.48781
7390.420	10.40293	-4.11306	8.19115	-1.47465
7393.069	12.59065	-2.91030	10.23856	-1.38866
7395.678	13.10914	-3.06429	11.19865	-1.82714
7398.741	14.42376	-2.67798	11.87555	-1.76119
7402.747	14.64571	-2.67515	12.70513	-1.85551
7406.735	15.89283	-2.36968	13.29995	-2.79089
7410.735	16.10360	-2.24114	14.06490	-2.70431
7414.770	16.47899	-2.01494	14.38388	-2.41647
7418.743	16.31148	-2.06738	14.33518	-2.55596
7422.732	15.68939	-2.16735	14.17000	-2.59358
7426.737	15.69514	-2.18776	14.12987	-2.31524
7430.744	15.88711	-2.12257	14.23697	-2.61274
7434.743	15.91962	-2.09994	14.38484	-2.67321
7438.738	15.99074	-2.05608	14.53726	-2.72771
7442.730	16.02593	-2.07576	14.43878	-2.64814
7446.755	16.05782	-2.08964	14.43189	-2.71798
7450.738	15.99218	-2.11912	14.47952	-2.68367
7454.749	16.06039	-2.11875	14.41916	-2.65289
7458.737	15.96289	-2.14307	14.38772	-2.65281
7462.740	15.96039	-2.15679	14.40586	-2.64669
7466.737	15.95933	-2.16205	14.40083	-2.62820
7470.734	15.96174	-2.19049	14.41352	-2.67265
7474.740	15.93299	-2.19443	14.43051	-2.69154
7478.752	15.91833	-2.19881	14.42956	-2.68492
7482.735	15.89574	-2.22128	14.37419	-2.73540
7486.732	15.88732	-2.25246	14.39741	-2.82600
7490.733	15.84539	-2.30126	14.37792	-2.85713
7494.728	15.81463	-2.37126	14.35489	-2.95263
7498.743	15.82292	-2.39706	14.34881	-3.00032
7502.733	15.89776	-2.32235	14.33155	-3.08938
7506.734	15.90740	-2.36800	14.33595	-3.03496
7510.737	15.95853	-2.37226	14.31957	-3.00707
7514.741	15.98484	-2.35352	14.29489	-2.97234
7518.736	16.07771	-2.38870	14.34839	-2.92899
7522.755	16.17219	-2.00329	14.43931	-2.91753
7526.736	16.27085	-1.75677	14.51781	-2.83112
7530.737	16.30698	-1.87953	14.58875	-2.76037
7534.731	16.32705	-1.86897	14.66540	-2.71120
7538.733	16.37330	-1.85190	14.71844	-2.67146
7542.742	16.36521	-1.88318	14.85150	-2.64070
7546.740	16.35331	-1.88527	14.83729	-2.61031
7550.731	16.36082	-1.87948	14.89775	-2.61416
7554.733	16.38166	-1.82563	14.92278	-2.60861
7558.738	16.39826	-1.81737	14.97655	-2.61452
7562.734	16.38675	-1.80369	14.87381	-2.73552
7566.732	16.39472	-1.77592	14.79544	-2.78670
7570.734	16.35929	-1.86416	14.78837	-2.79988
7574.758	16.34798	-1.90909	14.72805	-2.98372
7578.731	16.35246	-1.91696	14.69685	-3.15369
7582.731	16.37188	-1.89724	14.63613	-3.19711
7586.733	16.42186	-1.85920	14.61241	-3.37773
7590.757	16.45585	-1.82915	14.55349	-3.45633
7594.775	16.48134	-1.81055	14.52379	-3.47702
7598.750	16.48627	-1.78413	14.53700	-3.47466
7602.737	16.50202	-1.79667	14.50937	-3.51088
7606.731	16.52903	-1.76767	14.57887	-3.53143
7610.731	16.53115	-1.79524	14.61190	-3.52990
7614.730	16.54549	-1.76626	14.63574	-3.50544
7618.735	16.57543	-1.71587	14.71285	-3.53800
7622.730	16.60078	-1.68377	14.71419	-3.52837
7626.744	16.60552	-1.66954	14.78085	-3.46539
7630.729	16.59852	-1.67049	14.80702	-3.43900
7634.739	16.60301	-1.69029	14.84645	-3.37849
7638.738	16.59850	-1.67446	14.85266	-3.31259
7642.737	16.61327	-1.66898	14.86064	-3.25947
7646.732	16.60926	-1.64736	14.86057	-3.18884
7650.736	16.53717	-1.74425	14.84030	-3.08576
7654.729	16.49437	-2.07434	14.80076	-3.08783
7658.760	16.36967	-2.20866	14.74866	-3.01129
7662.738	16.40799	-2.15327	14.64819	-2.94012
7666.733	16.34890	-2.30403	14.62238	-2.89636
7670.727	16.30183	-2.19081	14.52667	-2.87737
7674.735	16.21236	-2.35940	14.45386	-2.81785
7678.730	16.18139	-2.30440	14.42791	-2.76862
7682.736	16.14199	-2.37787	14.39192	-2.70660
7686.738	16.06428	-2.46390	14.30396	-2.67252
7690.730	15.98156	-2.49756	14.23298	-2.64185
7694.786	15.95509	-2.49417	14.20761	-2.68471
7698.744	15.89402	-2.46366	14.19002	-2.70288
7702.727	15.94745	-2.43555	14.16534	-2.69372
7706.728	15.90968	-2.44648	14.18074	-2.67556
7710.729	15.90137	-2.40095	14.16063	-2.68859
7714.732	15.91521	-2.41767	14.16025	-2.68590
7718.732	15.91911	-2.32516	14.24697	-2.72890
7722.733	16.01034	-2.25788	14.23976	-2.77488
7726.735	16.20043	-1.99369	14.27581	-2.78345
7730.727	16.26763	-1.85178	14.36618	-2.82126
7734.736	16.29511	-1.84762	14.54007	-2.84197
7738.728	16.38298	-1.69960	14.63290	-2.82845
7742.732	16.45777	-1.62575	14.70878	-2.86422
7746.725	16.50213	-1.55969	14.75702	-2.87727
7750.729	16.32636	-2.11957	14.62807	-2.93017
7754.726	14.88185	-2.33188	13.58808	-2.90931
7758.735	14.52688	-1.53759	12.28443	-1.28976
7762.729	11.80569	-1.26333	9.08643	0.27712
7766.737	9.73593	-0.21986	8.74564	1.66830
7770.732	8.85400	0.68809	6.61707	2.68167
7774.734	8.99571	-0.07194	6.56294	2.56093
7778.770	8.55700	-0.19088	6.34143	2.98037
7782.729	8.61880	-0.53349	6.01574	3.05099
7786.729	8.59441	-0.71171	6.15333	3.08640
7790.725	8.63163	-1.02235	6.42861	3.00033
7794.742	8.53887	-0.95779	6.76222	3.04918
7798.738	8.70369	-0.63758	6.65510	2.96636
7802.731	8.52642	-0.76606	6.49082	2.95146
7806.731	8.46490	-0.73594	6.12879	2.96894
7810.735	8.40067	-0.88458	6.11326	3.06406
7814.726	8.30293	-0.90501	6.02320	3.08236
7818.732	8.27681	-0.78704	6.10715	3.07306
7822.725	8.18266	-0.59353	6.06792	3.01499
7826.728	8.25170	-0.82121	6.16211	2.98482
7830.745	8.16875	-0.77592	6.12909	2.93318
7834.726	8.21697	-0.49627	6.10372	2.87095
7838.737	8.16897	-0.12298	6.04266	2.78322
7842.730	8.06701	0.14907	5.94209	2.71525
7846.729	8.02818	0.16924	5.91030	2.52694
7850.736	8.12936	0.28663	5.89539	2.38189
7854.728	8.17892	0.25029	5.89937	2.22682
7858.722	8.19000	0.20896	5.90300	2.14222
7862.947	8.15195	0.26977	5.84048	2.16014
7866.739	8.16175	0.11986	5.86602	2.15340
7870.727	8.14803	0.23226	5.84579	2.01861
7874.721	8.09647	0.42491	5.86244	2.05640
7878.731	8.10827	0.46093	5.86529	2.10238
7882.728	8.12452	0.54580	5.91553	2.11046
7886.728	8.19808	0.51560	5.92582	2.20638
7890.726	8.24057	0.45906	5.93637	2.22465
7894.748	8.26111	0.53730	5.99465	2.28501
7898.727	8.33272	0.55872	6.03250	2.31510
7902.724	8.37174	0.61709	6.06605	2.33018
7906.739	8.46898	0.62856	6.10365	2.39918
7910.722	8.50311	0.68559	6.13169	2.40510
7914.735	8.59194	0.71697	6.15998	2.43774
7918.728	8.59946	0.70151	6.16182	2.43867
7922.734	8.67585	0.68432	6.17823	2.41485
7926.725	8.68708	0.63066	6.18963	2.40163
7930.741	8.72976	0.61654	6.23729	2.36580
7934.734	8.76013	0.63763	6.27390	2.34372
7938.724	8.76515	0.60879	6.30612	2.29041
7942.724	8.76653	0.58215	6.31193	2.25310
7946.741	8.77172	0.56959	6.33309	2.21505
7950.718	8.76598	0.59349	6.32917	2.08549
7954.741	8.72689	0.56590	6.28675	2.01185
7958.723	8.62462	0.50037	6.26880	1.95232
7962.738	8.60366	0.45175	6.28687	1.88586
7966.726	8.55712	0.41655	6.25684	1.82322
7970.723	8.47495	0.45891	6.23812	1.70381
7974.740	8.45359	0.42531	6.21715	1.64408
7978.725	8.41548	0.35478	6.17604	1.64766
7982.724	8.42180	0.40610	6.14847	1.59620
7986.730	8.39117	0.40623	6.13684	1.59438
7990.723	8.40616	0.32534	6.12457	1.55625
7994.735	8.37356	0.30120	6.12933	1.61534
7998.732	8.36285	0.17696	6.15696	1.61911
8002.738	8.34380	0.25845	6.16201	1.64383
8006.725	8.33374	0.25243	6.14531	1.74701
8010.724	8.32665	0.17447	6.17268	1.70000
8014.722	8.34502	0.15152	6.17997	1.79579
8018.741	8.37529	0.08762	6.18549	1.83255
8022.727	8.34577	0.08760	6.20980	1.82918
8026.734	8.33255	0.05382	6.22074	1.77473
8030.722	8.07217	-0.03122	5.92810	1.92146
8034.728	4.83272	-1.01120	3.79875	1.75478
8038.733	2.79575	-2.84605	2.29198	1.38414
8042.720	1.62872	-2.93292	1.58825	-0.77247
8046.723	0.51269	-4.31261	0.01191	-3.01829
8050.720	-0.92748	-6.15951	-1.08316	-3.24364
8054.734	-2.12731	-6.35534	-2.24123	-3.52258
8058.597	-3.50796	-6.47991	-3.30077	-4.57755
8062.603	-4.14344	-6.56317	-3.92462	-4.88170
8066.609	-5.72453	-6.55816	-5.80339	-5.11797
8070.599	-5.47884	-6.64303	-6.05680	-5.04954
8074.596	-5.34818	-6.68421	-5.86759	-4.68539
8078.597	-4.47790	-6.78029	-5.49421	-4.71733
8082.600	-4.67808	-6.92516	-5.35278	-4.81504
8086.598	-4.54698	-7.00253	-5.46246	-4.94386
8090.600	-4.66051	-7.12533	-5.57259	-5.02473
8094.639	-4.93696	-7.24688	-5.75342	-5.07412
8098.595	-5.04351	-7.25305	-5.77811	-5.04822
8102.615	-4.96573	-7.29351	-5.80300	-5.08268
8106.612	-4.92001	-7.25330	-5.94484	-5.10439
8110.598	-4.93585	-7.22039	-6.08097	-5.10133
8114.597	-4.90752	-7.16632	-6.02485	-5.06658
8118.600	-4.82469	-7.16320	-6.20438	-5.11974
8122.603	-4.88727	-7.24201	-6.35687	-5.12856
8126.594	-4.96553	-7.21112	-6.27501	-5.16450
8130.597	-4.91149	-7.19479	-6.34942	-5.22652
8134.620	-4.94935	-7.13570	-6.30220	-5.25494
8138.605	-4.85056	-7.12795	-6.28849	-5.33110
8142.599	-4.74466	-7.08788	-6.22446	-5.31034
8146.604	-4.82676	-7.01012	-6.02777	-5.21594
8150.603	-4.90136	-6.98515	-6.14599	-5.13542
8154.611	-4.86076	-7.00218	-6.15711	-5.14426
8158.599	-4.91836	-7.01939	-6.28822	-5.24423
8162.606	-4.92191	-7.11584	-6.25939	-5.45209
8166.598	-4.82717	-7.15910	-6.08240	-5.58125
8170.625	-4.90878	-7.09667	-6.04053	-5.53385
8174.594	-4.93179	-6.99993	-5.96463	-5.44129
8178.595	-4.87340	-6.98468	-5.90679	-5.35621
8182.597	-4.96098	-7.03867	-5.93647	-5.30599
8186.614	-5.00164	-6.97391	-5.96343	-5.22523
8190.601	-4.98792	-7.13856	-6.09987	-5.28240
8194.599	-4.89237	-7.09562	-6.18951	-5.32375
8198.600	-4.85916	-7.14187	-6.04612	-5.43098
8202.606	-4.96295	-7.41067	-6.13007	-5.44630
8206.602	-4.91481	-7.62104	-5.94281	-5.39256
8210.600	-4.96169	-7.63295	-5.80843	-5.28132
8214.601	-4.97834	-7.69730	-5.89166	-5.22762
8218.596	-5.00046	-7.74539	-6.11456	-5.20608
8222.609	-5.01007	-7.83370	-6.14921	-5.21261
8226.610	-5.08399	-7.73602	-6.13817	-5.33065
8230.599	-5.01568	-7.68775	-6.17055	-5.44052
8234.594	-5.02216	-7.67503	-6.18613	-5.54562
8238.591	-4.98551	-7.79329	-6.11972	-5.52310
8242.609	-5.04531	-7.82094	-6.11910	-5.54935
8246.594	-5.03248	-7.77456	-5.79241	-5.33956
8250.598	-5.01428	-7.71550	-5.83257	-5.30318
8254.595	-4.95061	-7.68174	-6.00752	-5.32875
8258.598	-4.94644	-7.63770	-6.13375	-5.33290
8262.597	-4.99364	-7.62700	-6.21993	-5.43235
8266.595	-4.91711	-7.59365	-6.36609	-5.49255
8270.608	-4.91001	-7.60187	-6.22537	-5.47714
8274.592	-5.01558	-7.61881	-5.88776	-5.43482
8278.597	-5.06954	-7.60450	-5.63717	-5.33607
8282.597	-5.00608	-7.59327	-5.74672	-5.28358
8286.588	-4.92767	-7.47683	-5.82997	-5.24972
8290.614	-4.97406	-7.40405	-5.90995	-5.31504
8294.611	-5.14215	-7.37160	-5.97995	-5.39918
8298.604	-5.15106	-7.26201	-5.96284	-5.39736
8302.595	-4.93612	-7.10069	-5.65597	-5.37063
8306.596	-3.40845	-7.25126	-4.95475	-5.33012
8310.605	-0.05038	-7.26509	-1.20889	-4.41080
8314.598	3.13833	-6.72649	2.24374	-2.66359
8318.595	5.64329	-5.82889	2.93740	-2.42873
8322.593	6.19427	-5.24206	5.19770	-2.05967
8326.599	8.21040	-4.94514	5.10162	-2.56358
8330.594	8.34550	-5.01021	6.47208	-2.62977
8334.598	8.87716	-5.02000	7.13385	-2.68434
8338.601	8.99973	-5.00466	7.05256	-2.80486
8342.600	8.17252	-5.16187	7.01194	-2.79285
8346.589	8.25571	-4.91873	6.87306	-2.75279
8350.592	8.26860	-4.97580	6.94367	-2.40942
8354.600	8.25467	-4.95194	7.03628	-2.49944
8358.609	8.47702	-4.72733	7.10914	-2.59283
8362.604	9.32158	-4.44540	7.21940	-2.71173
8366.594	9.66094	-4.31952	7.10929	-2.77126
8370.594	9.48900	-4.16175	7.05041	-2.76278
8374.599	9.41315	-4.27733	7.10582	-2.73588
8378.619	9.41240	-4.25169	7.10299	-2.64528
8382.591	9.37535	-4.22566	7.10343	-2.59540
8386.597	9.24825	-4.30190	7.10308	-2.51562
8390.588	9.42955	-4.35471	7.18198	-2.44096
8394.618	9.47343	-4.35099	7.22219	-2.49126
8398.596	9.53731	-4.30101	7.26788	-2.53798
8402.594	9.48478	-4.45932	7.31123	-2.46081
8406.619	9.46314	-4.53986	7.30192	-2.42285
8410.587	9.43979	-4.54524	7.36262	-2.41233
8414.590	9.41446	-4.58394	7.40933	-2.38099
8418.593	9.40035	-4.61725	7.43683	-2.37606
8422.591	9.40622	-4.58660	7.43439	-2.46394
8426.595	9.38682	-4.57443	7.42927	-2.49899
8430.598	9.39192	-4.52949	7.38990	-2.50297
8434.596	9.35573	-4.38708	7.33984	-2.54330
8438.604	9.35254	-4.27702	7.31645	-2.57226
8442.589	9.31624	-4.14657	7.25914	-2.56140
8446.597	9.32823	-4.05995	7.20946	-2.58805
8450.593	9.38276	-4.10754	7.18711	-2.55632
8454.593	9.40146	-4.07134	7.17988	-2.52430
8458.592	9.41892	-4.11560	7.16373	-2.54055
8462.591	9.43153	-3.95358	7.10154	-2.51481
8466.595	9.39334	-3.89224	6.99027	-2.47433
8470.591	9.42859	-3.84413	6.97218	-2.44663
8474.628	9.42868	-3.86124	6.92921	-2.49100
8478.602	9.37047	-3.90992	7.02220	-2.44861
8482.591	9.43291	-4.02456	7.02844	-2.46416
8486.591	9.45445	-4.05779	7.04640	-2.44439
8490.592	9.50189	-4.17934	7.10101	-2.45447
8494.626	9.50819	-4.28609	7.12950	-2.46152
8498.599	9.58576	-4.27996	7.13615	-2.51051
8502.595	9.62188	-4.18508	7.16410	-2.48806
8506.587	9.59776	-4.15211	7.18411	-2.51524
8510.595	9.60070	-4.29144	7.15406	-2.52196
8514.610	9.62357	-4.30328	7.19522	-2.48346
8518.608	9.64948	-4.28483	7.21274	-2.40886
8522.661	9.70417	-4.23398	7.17218	-2.37048
8526.593	9.66315	-4.14629	7.14795	-2.28908
8530.597	9.64907	-4.11849	7.07329	-2.38677
8534.600	9.63539	-4.09026	7.02866	-2.50310
8538.592	9.62022	-4.02321	7.07337	-2.53399
8542.620	9.66366	-3.97589	7.02587	-2.52384
8546.592	9.54834	-3.92473	7.02355	-2.51716
8550.596	9.44428	-3.99313	7.04860	-2.53213
8554.588	9.45641	-3.97813	7.08319	-2.54157
8558.594	9.44276	-3.91762	7.09607	-2.54750
8562.593	9.51249	-3.88706	7.07290	-2.57436
8566.603	9.55777	-3.90218	7.12087	-2.61368
8570.590	9.56446	-3.91803	7.08659	-2.63715
8574.594	9.55917	-3.93143	7.11733	-2.62069
8578.587	9.62444	-3.89466	7.12879	-2.58029
8582.598	9.58507	-3.87558	7.08385	-2.52790
8586.608	9.46640	-3.87038	7.06417	-2.49803
8590.586	9.45138	-3.87275	7.04794	-2.50814
8594.602	9.48941	-3.81767	7.01057	-2.49913
8598.589	9.44832	-3.81312	6.97744	-2.51319
8602.602	9.49750	-3.82111	6.93851	-2.55058
8606.588	9.43119	-3.84213	6.93809	-2.58802
8610.594	9.42267	-3.89130	6.93472	-2.59186
8614.621	9.31334	-3.92774	6.95565	-2.60910
8618.587	9.26244	-3.93316	6.95252	-2.67419
8622.590	9.26358	-3.89661	6.90762	-2.73957
8626.583	9.23638	-3.89603	6.84512	-2.77201
8630.604	9.30595	-3.86902	6.86234	-2.77944
8634.598	9.33606	-3.87520	6.82479	-2.72486
8638.588	9.34019	-3.92936	6.85495	-2.78692
8642.592	9.35097	-3.85212	6.88563	-2.77901
8646.592	9.49605	-3.84521	6.91163	-2.74359
8650.601	9.49480	-4.10404	6.90811	-2.62888
8654.589	9.54184	-4.08951	6.96729	-2.36991
8658.598	9.55439	-3.91395	6.98463	-2.42113
8662.586	9.49682	-3.87780	6.99988	-2.35012
8666.588	9.48289	-3.52908	7.09495	-1.50197
8670.592	9.52579	-1.89885	6.98546	-0.68200
8674.587	9.40847	-1.88569	6.80991	0.42564
8678.622	9.27477	-0.73799	6.96203	1.32805
8682.669	9.19169	0.10158	6.81647	1.99940
8686.591	8.93057	0.44644	6.63240	2.36096
8690.591	8.71460	0.63344	6.46358	2.44351
8694.649	8.31013	0.68300	6.31890	2.51429
8698.587	8.27494	0.65944	6.29408	2.40500
8702.600	8.23794	0.64664	6.50575	2.36772
8706.592	8.49583	0.61925	6.70100	2.41885
8710.583	8.37210	0.67206	6.37734	2.77603
8714.595	8.40667	0.82858	6.35702	2.58080
8718.587	8.44494	0.87504	6.32110	2.57511
8722.597	8.47879	1.08173	6.36221	2.65584
8726.596	8.41213	1.33416	6.36060	2.71716
8730.590	8.39778	1.42695	6.38957	2.91685
8734.588	8.40919	1.61115	6.48592	2.81613
8738.591	8.53899	1.39458	6.50655	2.97889
8742.586	8.58117	0.69346	6.55905	3.04330
8746.652	8.60948	0.60347	6.55780	3.01229
8750.587	8.61101	0.71180	6.47872	3.06550
8754.586	8.66814	0.64032	6.46439	3.06724
8758.589	8.68679	0.65659	6.46490	2.97131
8762.588	8.66166	0.79762	6.46637	2.96911
8766.587	8.63575	1.00642	6.41437	2.95210
8770.595	8.71661	0.85595	6.36185	3.02272
8774.621	8.74510	0.87570	6.36459	2.96938
8778.594	8.76110	0.98549	6.29379	3.01390
8782.602	8.75441	1.07551	6.29744	3.05381
8786.591	8.75322	1.16613	6.23491	3.10912
8790.592	8.77284	1.30238	6.19199	3.10098
8794.592	8.77870	1.32200	6.20229	3.11897
8798.591	8.74147	1.36872	6.20798	3.11214
8802.589	8.71814	1.41932	6.17273	3.15833
8806.586	8.67631	1.50037	6.15654	3.22229
8810.589	8.64121	1.53152	6.16415	3.24983
8814.650	8.62993	1.52456	6.18610	3.25994
8818.592	8.61026	1.50770	6.19076	3.33479
8822.584	8.57850	1.49435	6.21024	3.34985
8826.586	8.55930	1.45157	6.23511	3.20677
8830.587	8.54700	1.37527	6.26279	3.16789
8834.581	8.54756	1.36380	6.33508	3.15969
8838.609	8.54125	1.31121	6.33971	3.04105
8842.595	8.55520	1.29655	6.35535	3.01362
8846.582	8.54248	1.29863	6.35344	3.23632
8850.596	8.56845	1.27372	6.36121	3.26091
8854.589	8.62215	1.29993	6.38724	3.26875
8858.592	8.66278	1.31254	6.30266	3.52653
8862.584	8.68131	1.35561	6.27143	3.37423
8866.585	8.73051	1.45006	6.21968	3.50127
8870.593	8.59284	1.38598	6.19221	3.40718
8874.581	8.52010	1.46042	6.07599	3.52513
8878.589	8.35216	1.52685	5.00534	3.34361
8882.669	5.41096	1.82065	0.95145	3.40787
8886.583	5.35566	1.92536	6.20798	4.79620
8890.590	NaN	NaN	5.98191	3.28046
8894.591	NaN	NaN	7.23941	9.12298
8898.601	NaN	NaN	NaN	NaN
8902.600	NaN	NaN	NaN	NaN
8906.596	NaN	NaN	NaN	NaN
8910.458	NaN	NaN	NaN	NaN
8914.466	NaN	NaN	NaN	NaN
8918.461	NaN	NaN	NaN	NaN
8922.467	NaN	NaN	NaN	NaN
8926.463	NaN	NaN	NaN	NaN
8930.451	NaN	NaN	NaN	NaN
8934.465	NaN	NaN	NaN	NaN
8938.514	NaN	NaN	NaN	NaN
8942.623	NaN	NaN	NaN	NaN
8946.457	NaN	NaN	NaN	NaN
8950.481	NaN	NaN	NaN	NaN
8954.509	NaN	NaN	-0.10485	11.37404
8958.469	NaN	NaN	NaN	NaN
8962.462	NaN	NaN	0.25793	7.69524
8966.482	NaN	NaN	0.48388	3.59259
8970.459	6.69630	7.95477	2.93074	2.32766
8974.475	NaN	NaN	3.07676	0.20972
8978.458	NaN	NaN	7.32492	2.29736
8982.461	NaN	NaN	6.56527	1.37338
8986.457	6.79024	-0.94923	3.24217	0.72702
8990.461	5.36437	-1.36175	4.95019	1.17814
8994.469	5.64955	-1.92221	5.75964	0.92372
8998.461	4.76850	-2.10501	5.91955	1.11401
9002.460	4.89030	-1.97580	5.49962	1.12675
9006.462	4.56271	-1.63361	5.75379	1.18050
9010.458	6.64848	-1.48464	5.59769	1.12092
9014.460	7.04760	-1.50469	5.47213	1.13758
9018.553	7.44125	-1.40656	5.52819	1.13930
9022.471	7.48075	-1.28782	5.36432	1.07249
9026.459	7.53440	-1.28345	5.37367	1.05435
9030.456	7.41114	-1.50028	5.35082	1.07294
9034.456	7.60948	-1.43924	5.38292	1.02955
9038.455	7.42612	-1.45824	5.35313	1.02282
9042.463	7.48317	-1.41738	5.28131	1.02022
9046.457	7.45396	-1.37118	5.28241	1.00827
9050.456	7.44755	-1.43818	5.23622	0.98549
9054.459	7.52374	-1.54802	5.26066	0.95510
9058.462	7.58261	-1.60395	5.26642	0.94920
9062.456	7.52000	-1.62917	5.23775	0.96498
9066.465	7.47414	-1.67961	5.22027	0.98873
9070.456	7.42251	-1.74365	5.22640	1.02457
9074.487	7.41468	-1.76901	5.20777	1.02984
9078.462	7.45111	-1.79109	5.23947	1.03323
9082.460	7.56161	-1.72539	5.20499	0.98903
9086.489	7.56681	-1.57482	5.15788	0.87551
9090.463	7.59290	-1.67571	5.12346	0.83824
9094.456	7.57071	-1.71630	5.16024	0.68275
9098.461	7.61785	-1.70546	5.05132	0.72737
9102.457	7.86269	-1.74269	4.91267	0.72703
9106.461	7.82874	-1.77357	4.98492	0.65685
9110.456	7.79432	-1.81246	4.96211	0.66031
9114.460	7.71401	-1.75233	4.89636	0.63971
9118.456	7.65700	-1.75149	4.93657	0.65690
9122.472	7.39564	-1.74067	5.05230	0.60835
9126.457	7.74086	-1.95510	5.08665	0.69013
9130.463	7.92230	-2.17783	5.09330	0.77689
9134.457	7.72944	-2.23691	5.28096	0.84298
9138.456	7.69232	-2.40305	5.27835	0.84731
9142.459	7.88665	-2.27979	5.26804	0.83746
9146.460	7.98673	-2.17048	5.31049	0.87938
9150.457	7.94435	-2.16898	5.30141	0.92896
9154.470	7.96505	-2.19701	5.18116	0.96301
9158.456	7.89198	-2.15051	5.20332	0.97149
9162.463	7.86018	-2.19076	5.31042	0.91651
9166.455	7.90287	-2.25080	5.22424	0.91693
9170.460	7.88473	-2.21718	5.10482	0.91386
9174.456	7.87791	-2.12841	5.15015	0.90380
9178.479	7.97787	-2.08783	5.11053	0.74096
9182.454	7.99435	-1.98873	5.02516	0.61067
9186.458	7.96833	-1.91880	4.96918	0.55305
9190.456	7.92902	-1.84115	4.88040	0.60950
9194.475	7.89255	-1.84109	4.91141	0.64299
9198.455	7.78094	-1.78863	4.91839	0.72207
9202.455	7.83890	-1.81861	4.79851	0.69811
9206.455	7.42639	-2.04505	4.40989	0.49533
9210.456	5.52015	-3.05249	3.52952	0.09938
9214.452	4.37534	-4.54330	1.90559	-2.02637
9218.451	3.93277	-4.92944	1.72974	-2.21627
9222.457	3.84392	-5.51215	1.70715	-2.58112
9226.454	4.08402	-5.47475	1.71521	-2.67671
9230.479	4.37453	-5.49115	2.19930	-2.68010
9234.453	4.67061	-5.38304	1.98266	-2.67891
9238.457	5.06493	-5.46868	2.02245	-2.59687
9242.450	5.15034	-5.23641	1.89632	-2.61268
9246.462	4.84290	-5.10193	1.80742	-2.58785
9250.455	4.82232	-5.20974	1.63908	-2.57238
9254.453	4.57694	-5.23829	1.69116	-2.58637
9258.456	4.49916	-5.36480	1.78049	-2.52485
9262.460	4.59455	-5.37774	1.70760	-2.50430
9266.451	4.54873	-5.35714	1.85331	-2.50817
9270.453	4.54555	-5.28447	1.82361	-2.45553
9274.456	4.57135	-5.31751	1.81205	-2.54796
9278.469	4.81609	-5.26457	1.71784	-2.56740
9282.457	4.76709	-5.23388	1.71474	-2.57846
9286.452	4.70567	-5.29738	1.75215	-2.61350
9290.498	4.63445	-5.34499	1.74841	-2.67210
9294.459	4.58059	-5.35565	1.80623	-2.59578
9298.461	4.52523	-5.40141	1.79604	-2.62814
9302.458	4.55702	-5.40108	1.87309	-2.51136
9306.452	4.53509	-5.45257	1.89930	-2.56481
9310.454	4.53830	-5.49592	1.82480	-2.56170
9314.463	4.57238	-5.51051	1.81667	-2.67929
9318.452	4.64510	-5.48487	1.70045	-2.67311
9322.452	4.67120	-5.41313	1.65773	-2.61105
9326.452	4.67022	-5.40697	1.65431	-2.53436
9330.458	4.64835	-5.40515	1.53885	-2.53619
9334.451	4.73870	-5.51233	1.49393	-2.54323
9338.454	4.73498	-5.50863	1.66222	-2.51224
9342.453	4.77059	-5.40315	1.74888	-2.47117
9346.473	4.63255	-5.52593	1.75721	-2.51854
9350.454	4.61650	-5.50963	1.62535	-2.49828
9354.458	4.69364	-5.58256	1.83548	-2.49904
9358.485	4.74649	-5.58734	1.70918	-2.50658
9362.470	4.62027	-5.59872	1.79943	-2.47569
9366.456	4.73291	-5.55767	1.70722	-2.45799
9370.452	4.64727	-5.62368	1.54713	-2.46388
9374.493	4.57144	-5.64834	1.60263	-2.48055
9378.448	4.59004	-5.61481	1.67853	-2.46702
9382.456	4.68947	-5.59479	1.71308	-2.52219
9386.466	4.77747	-5.62307	1.48074	-2.57156
9390.452	4.75225	-5.59171	1.55055	-2.58824
9394.463	4.74821	-5.32441	1.59410	-2.56756
9398.467	4.75277	-5.30868	1.57463	-2.61086
9402.453	4.83191	-5.27439	1.58535	-2.62984
9406.456	4.81022	-5.21685	1.52221	-2.59824
9410.450	4.76852	-5.13693	1.55499	-2.55709
9414.450	4.78415	-5.11517	1.62748	-2.56048
9418.456	4.81177	-5.20019	1.74546	-2.50236
9422.450	4.81719	-5.15675	1.71434	-2.47094
9426.490	4.75435	-5.15219	1.67839	-2.39577
9430.451	4.72522	-5.10897	1.73333	-2.36391
9434.456	4.67900	-5.09452	1.77521	-2.33643
9438.456	4.65646	-5.18760	1.74831	-2.35588
9442.449	4.65819	-5.23948	1.77020	-2.32781
9446.449	4.62863	-5.28885	1.62068	-2.30919
9450.455	4.57361	-5.34598	1.73274	-2.36413
9454.449	4.41043	-5.35093	1.49646	-2.39317
9458.453	4.22550	-5.23883	1.43443	-2.27623
9462.459	3.71572	-5.10476	0.44743	-2.09016
9466.457	3.37643	-4.76398	0.65881	-1.77144
9470.450	3.38889	-4.69890	0.77890	-1.73423
9474.454	3.72022	-4.84135	0.94636	-1.78725
9478.462	3.87603	-4.85909	1.10050	-1.84837
9482.464	3.71281	-4.42634	1.12539	-2.07330
9486.447	3.36609	-4.73321	0.96666	-1.87413
9490.453	3.31252	-4.22614	0.71466	-1.92570
9494.492	3.39025	-4.10441	0.68094	-1.82147
9498.443	3.24323	-4.45401	0.57213	-1.77489
9502.449	3.14028	-4.09933	0.58637	-1.78479
9506.462	3.21117	-4.41442	0.52183	-1.85839
9510.448	3.31032	-4.06688	0.35926	-1.92440
9514.450	3.46941	-4.18401	0.31761	-1.95544
9518.456	3.50454	-4.12755	0.28009	-2.03079
9522.510	3.46587	-4.21509	0.25078	-2.02834
9526.449	3.34470	-4.11222	0.32821	-2.02014
9530.457	3.32417	-4.12472	0.32064	-1.99413
9534.456	3.42371	-4.16035	0.42480	-1.97435
9538.450	3.42468	-4.13792	0.46718	-1.92001
9542.447	3.48106	-4.11801	0.64134	-1.93852
9546.449	3.53629	-4.05413	0.75431	-1.89791
9550.455	3.58136	-3.89424	0.58853	-1.89711
9554.448	3.59313	-3.95442	0.60265	-1.86655
9558.452	3.60007	-3.86570	0.54277	-1.83286
9562.494	3.54232	-3.83108	0.52054	-1.82272
9566.451	3.50163	-3.74311	0.52031	-1.81219
9570.458	3.50610	-3.76830	0.33714	-1.88678
9574.447	3.47359	-3.85072	0.20919	-1.92304
9578.452	3.45868	-3.82838	0.26026	-2.02874
9582.463	3.45737	-3.82673	0.26607	-1.95080
9586.456	3.44134	-3.85364	0.36032	-1.98238
9590.450	3.48041	-4.09743	0.46214	-1.87200
9594.464	3.45564	-4.16949	0.61873	-1.81196
9598.439	3.48736	-3.84550	0.65915	-1.70158
9602.460	3.41924	-4.11171	0.68816	-1.69854
9606.454	3.51955	-4.01918	0.68101	-1.72049
9610.451	3.49836	-4.04111	0.52406	-1.72915
9614.449	3.52628	-3.88250	0.72062	-1.56104
9618.462	3.51204	-3.93428	0.66670	-1.53466
9622.445	3.47470	-3.90362	0.60744	-1.75256
9626.451	3.43956	-3.85184	0.49004	-1.85964
9630.450	3.42468	-3.82975	0.55233	-1.80178
9634.460	3.38439	-3.90290	0.40087	-1.84898
9638.446	3.40420	-4.04386	0.40561	-1.94522
9642.451	3.33663	-4.04500	0.28719	-2.00312
9646.451	3.33485	-4.12796	0.25440	-2.03544
9650.449	3.27047	-4.28107	0.23495	-2.12063
9654.462	3.24979	-4.31801	0.23445	-2.10813
9658.451	3.19454	-4.31259	0.13411	-2.16886
9662.446	3.18759	-4.42666	0.13605	-2.19861
9666.449	3.15844	-4.44816	0.10158	-2.20479
9670.453	3.19991	-4.46256	0.15518	-2.18514
9674.445	3.35083	-4.35563	0.45989	-2.00226
9678.449	4.46497	-4.38191	1.38188	-2.04414
9682.443	8.13140	-3.56329	4.68119	-0.84311
9686.485	9.14397	-1.38979	6.07192	0.36239
9690.463	11.24392	-0.30714	8.01830	1.94570
9694.454	11.94384	0.31359	8.93750	1.40494
9698.451	13.10831	0.46224	9.60239	1.34011
9702.510	13.72570	0.34664	10.81736	0.94251
9706.459	14.06665	0.46112	10.91708	0.68083
9710.442	13.79747	0.41439	10.92442	0.51907
9714.457	13.37000	0.40581	10.41294	0.76512
9718.443	13.15433	0.45001	10.20498	0.91499
9722.459	12.94492	0.38128	10.07666	1.07798
9726.445	13.07293	0.39793	10.43059	1.08152
9730.451	13.11368	0.45125	10.60886	1.20397
9734.447	13.34225	0.49253	10.83800	1.04543
9738.461	13.40103	0.49364	11.01213	1.02590
9742.448	13.43256	0.49012	11.01218	0.99625
9746.443	13.34695	0.51278	10.82885	1.12539
9750.445	13.25000	0.57746	10.89975	1.14249
9754.451	13.26801	0.51901	10.80613	1.21300
9758.445	13.34051	0.58740	11.02942	1.26118
9762.443	13.43585	0.48414	11.01582	1.25300
9766.481	13.43120	0.58087	11.03499	1.26599
9770.327	13.48162	0.60049	10.99035	1.24614
9774.322	13.50396	0.59683	10.78434	1.26937
9778.334	13.51368	0.58217	10.78693	1.32899
9782.348	13.54319	0.61647	10.67617	1.25316
9786.324	13.59457	0.64428	10.60555	1.25337
9790.331	13.64300	0.68831	10.50383	1.16489
9794.323	13.67667	0.66122	10.49198	1.22296
9798.324	13.69657	0.68817	10.57562	1.17089
9802.318	13.70589	0.70347	10.49191	1.19129
9806.326	13.73903	0.76550	10.46400	1.21301
9810.316	13.70549	0.72042	10.51321	1.15619
9814.323	13.66868	0.70998	10.46198	1.21612
9818.335	13.65146	0.66472	10.51931	1.22410
9822.333	13.61745	0.62707	10.56829	1.24986
9826.323	13.64605	0.58583	10.57438	1.30914
9830.318	13.54119	0.56575	10.59018	1.33251
9834.329	13.57476	0.56028	10.66589	1.37965
9838.326	13.53850	0.49988	10.71985	1.35283
9842.317	13.56702	0.51803	10.60469	1.39892
9846.317	13.58582	0.53497	10.66042	1.36093
9850.317	13.57788	0.49668	10.58970	1.25581
9854.332	13.59096	0.48520	10.47895	1.24282
9858.320	13.61527	0.47735	10.51374	1.26044
9862.335	13.63548	0.49670	10.51566	1.28033
9866.320	13.60641	0.54400	10.48761	1.25693
9870.322	13.51858	0.52570	10.46745	1.25296
9874.324	13.57553	0.49656	10.44713	1.31776
9878.322	13.52707	0.46990	10.51458	1.30888
9882.317	13.50415	0.44924	10.44388	1.35107
9886.318	13.48946	0.45763	10.46861	1.39336
9890.324	13.47643	0.38772	10.49982	1.41439
9894.317	13.45817	0.37221	10.54368	1.48899
9898.318	13.44864	0.35514	10.63264	1.52790
9902.826	13.43251	0.32880	10.66088	1.60092
9906.320	13.45674	0.24877	10.75373	1.64375
9910.323	13.51506	0.19698	10.74422	1.66073
9914.321	13.58174	0.16780	10.80433	1.68035
9918.320	13.61101	0.09158	10.79353	1.68329
9922.325	13.66430	0.00985	10.78245	1.65269
9926.324	13.69432	-0.04696	10.80498	1.54745
9930.317	13.69507	-0.05903	10.77083	1.64870
9934.316	13.72076	-0.06581	10.74690	1.65464
9938.327	13.75980	-0.08723	10.70706	1.63641
9942.326	13.79702	-0.08840	10.67965	1.57954
9946.326	13.83514	-0.06852	10.65697	1.47543
9950.312	13.85325	-0.00244	10.59176	1.40977
