time (ms)	lx (deg)	ly (deg)	rx (deg)	ry (deg)
0.000	1.66487	3.80423	-0.20254	1.44345
3.998	1.81793	3.51066	0.02038	1.19410
7.994	1.74037	3.44990	-0.14503	1.43151
11.995	1.71213	3.48802	-0.00491	1.40238
15.994	1.66886	3.60483	-0.03549	1.54800
19.992	1.76686	3.55114	0.08148	1.34471
23.995	1.65228	3.50005	-0.03591	1.52856
27.987	1.73137	3.46336	0.02244	1.45754
32.003	1.61595	3.56443	0.07721	1.59624
35.999	1.80997	3.53487	0.12342	1.49466
39.991	1.62959	3.41542	-0.32541	1.50678
44.024	1.59846	3.38454	0.12540	1.21725
47.991	1.62316	3.34744	-0.01027	1.44586
51.990	1.58969	3.48249	-0.01417	1.02859
55.988	1.68764	3.31282	-0.66173	1.25862
59.992	1.50623	2.76447	-0.19199	0.86386
63.989	1.34705	1.94957	-0.23507	-0.28196
67.990	0.84756	2.18587	-0.52175	-0.36392
71.990	0.97668	1.45700	-0.40971	-1.00467
75.992	0.94123	1.11558	-0.41619	-0.77629
79.988	0.91765	1.19633	-0.62208	-0.56770
83.988	0.77600	1.19923	-0.47773	-0.73771
87.989	0.86585	1.33272	-0.63687	-0.80168
91.992	0.91877	1.27930	-0.81526	-0.85563
95.990	0.69824	1.48636	-0.80875	-0.92782
99.998	0.67337	1.34159	-0.65454	-1.02334
104.007	0.75898	1.13603	-0.68377	-0.99576
107.993	0.64188	1.24199	-0.69181	-0.80234
111.987	0.61806	1.33661	-0.69702	-0.95005
115.991	0.65489	1.29538	-0.90577	-1.09178
119.988	0.54672	1.29843	-0.87237	-1.01941
123.987	0.71913	1.26601	-0.88034	-0.97942
127.987	0.76886	1.32942	-0.84434	-0.87572
131.987	0.48401	1.37323	-0.70613	-0.87190
135.988	0.38948	1.34287	-0.82592	-1.04364
139.995	0.48359	1.32048	-0.84679	-0.93598
143.998	0.58133	1.31887	-0.82702	-1.00690
147.984	0.65258	1.30129	-0.81759	-0.67610
151.992	0.94755	1.32911	-0.92336	-1.05598
155.991	0.50840	1.33093	-0.99598	-1.05648
159.987	0.44542	1.36936	-0.85170	-0.99853
163.988	0.59322	1.43201	-0.75221	-0.99860
167.990	0.67702	1.40929	-0.79995	-1.18778
172.004	0.84171	1.41281	-0.81516	-1.18407
175.989	0.86994	1.38819	-0.83439	-1.13360
179.991	0.75007	1.38786	-0.88366	-1.16624
184.009	0.71816	1.45913	-0.87423	-1.25210
187.988	0.67960	1.53883	-0.86820	-1.24542
191.988	0.58369	1.51154	-0.74876	-1.28937
195.989	0.91066	1.52186	-0.72660	-1.23965
199.987	0.87696	1.47934	-0.95919	-1.21117
204.000	0.86039	1.47465	-0.88989	-1.20173
207.991	0.75699	1.55060	-0.86709	-1.13687
211.988	0.82195	1.61311	-0.78203	-1.05759
215.986	0.75548	1.63245	-0.69548	-1.08081
220.002	0.86801	1.63777	-0.64846	-1.15511
224.003	1.03702	1.58315	-0.87418	-1.05309
227.992	0.91051	1.61173	-0.86528	-0.86603
231.991	0.71379	1.61839	-0.78327	-0.88105
235.984	0.80729	1.64624	-0.77240	-0.69893
239.992	0.79034	1.68093	-0.80096	-1.00542
243.990	0.72407	1.71476	-0.78290	-0.75927
248.003	0.63948	1.71983	-0.71245	-0.79220
251.985	0.75094	1.57999	-0.78955	-0.94707
255.988	0.76528	1.46183	-0.86309	-0.97664
259.985	0.85992	1.46718	-0.91259	-1.04461
263.991	0.76265	1.05066	-0.91892	-0.98003
267.990	0.66278	1.15145	-0.88996	-0.94653
271.988	0.64158	1.21546	-0.85974	-0.85955
275.987	0.62312	1.26258	-0.89361	-1.09076
279.984	0.62617	1.41772	-0.89674	-1.04993
283.985	0.66655	1.37345	-0.88026	-1.07862
287.987	0.68089	1.30801	-0.92006	-0.99655
291.986	0.67218	0.87792	-1.02144	-1.04629
295.984	0.68853	1.05048	-1.04267	-0.96201
299.985	0.75851	1.11762	-0.97355	-0.91151
304.001	0.71670	1.13418	-1.03669	-1.03116
307.993	0.79215	1.21043	-1.09507	-1.07676
311.997	0.81337	1.17101	-1.11375	-1.15186
315.990	0.89617	1.27760	-1.08212	-1.06132
319.986	0.95254	0.81804	-0.99859	-1.03415
323.985	0.94539	1.04996	-1.00350	-0.94915
327.985	0.87984	1.04151	-1.00556	-0.98656
331.985	0.80086	0.96990	-0.94634	-1.06184
335.988	0.78873	1.10165	-0.93832	-1.06683
339.983	0.77260	1.19151	-0.87309	-1.04946
343.997	0.88155	1.29452	-0.82195	-0.99327
347.996	0.87260	1.47907	-0.86669	-1.04703
351.989	0.81250	1.45409	-0.78781	-0.99862
355.984	0.67104	1.42411	-0.74039	-0.98429
359.988	0.80518	1.45337	-0.77856	-1.08545
363.985	0.82248	1.17461	-0.78871	-1.08255
367.988	0.91550	1.29165	-0.81570	-1.14950
371.982	0.81960	1.34617	-0.77707	-1.12813
375.989	0.82064	1.28371	-0.72598	-1.14595
379.984	0.89518	1.10018	-0.78104	-1.04442
383.989	0.93319	0.72290	-0.75570	-1.03146
387.980	0.95053	0.39683	-0.90024	-1.01145
391.995	0.85823	0.73964	-0.86843	-0.91134
395.985	0.89671	0.80046	-0.94844	-0.88245
399.991	0.88103	0.65060	-0.09379	-0.98607
404.036	0.83709	0.76282	0.01834	-0.84369
407.983	0.79776	0.87454	-0.90728	-0.68915
411.983	0.74221	1.00315	-0.87381	-0.72070
415.983	0.60754	1.11990	-0.95241	-0.56850
419.985	0.63518	1.35248	-1.02856	-0.45200
423.984	0.59295	1.52328	-1.13484	-0.54981
427.988	0.61965	1.54408	-1.08286	-0.67515
431.987	0.60228	1.47407	-1.01193	-0.66697
435.991	0.55572	1.31090	-1.20045	-0.56200
439.987	0.54503	1.19648	-1.21559	-0.44623
443.981	0.64717	1.14733	-0.77866	-0.65913
447.989	0.52652	1.13499	-0.76079	-0.70326
451.985	0.56957	1.26952	-0.41177	-0.78293
455.989	0.53858	1.27904	0.19003	-0.72637
459.980	0.66020	1.18302	0.16471	-0.61134
463.989	0.73603	1.22632	-0.87413	-0.84054
467.989	0.72258	1.28349	-0.98000	-0.89454
471.985	0.58672	1.29907	-0.75255	-0.87683
475.989	0.55907	1.34756	-0.65230	-0.81683
479.980	0.57203	1.47666	-0.59263	-0.85199
483.982	0.50771	1.55998	-0.74012	-0.84367
487.984	0.51381	1.67263	-0.64005	-0.80541
491.982	0.60411	1.88100	-0.65419	-0.75473
495.981	0.60672	1.65793	-0.62506	-0.70296
499.982	0.75029	1.53714	-0.59548	-0.67158
503.999	0.85163	1.49589	-0.62670	-0.71722
507.985	0.78037	0.66090	-0.57659	-0.68316
511.986	0.86858	0.68560	-0.53888	-0.61554
515.987	0.93448	0.54592	-0.45569	-0.61234
519.987	0.93021	0.62224	-0.45232	-0.57154
523.977	0.90944	0.69677	-0.52691	-0.58222
527.982	1.00940	0.61780	-0.46450	-0.59957
531.996	1.01206	0.68438	-0.47086	-0.62817
535.984	1.06418	0.81729	-0.46056	-0.60605
539.990	1.07818	0.73974	-0.46999	-0.63219
543.981	1.04148	0.69831	-0.41477	-0.70035
547.981	1.02253	0.75279	-0.51121	-0.61651
551.985	1.02699	0.85498	-0.58372	-0.61861
555.986	1.01278	0.90442	-1.01318	-0.71523
559.984	0.97197	0.94631	-1.12506	-0.75592
563.980	0.94944	1.06638	-1.03342	-0.73272
567.983	0.95705	1.07974	-0.98325	-0.71981
571.982	0.89828	1.14366	-0.96896	-0.81587
575.979	0.81124	1.18375	-0.90780	-0.75597
579.980	0.70226	1.24237	-1.00836	-0.87565
583.983	0.72240	1.31831	-0.89086	-0.95343
587.981	0.74037	1.38692	-0.94113	-0.93790
591.980	0.74116	1.54233	-0.92418	-0.99165
595.876	0.73955	1.65239	-0.78158	-1.03712
599.863	0.82967	1.80058	-0.69315	-0.95711
603.910	0.83605	1.78529	-0.66526	-0.93508
607.855	0.72977	1.59319	-0.61158	-0.95650
611.857	0.80950	1.52781	-0.60347	-0.94053
615.858	0.84104	1.05404	-0.54175	-0.90618
619.855	0.89977	1.08932	-0.47552	-0.98092
623.855	0.94433	1.39698	-0.43130	-0.96249
627.856	0.98673	1.59958	-0.39896	-0.92354
631.858	0.97564	1.45164	-0.37375	-0.85938
635.852	0.95497	1.64754	-0.40819	-0.86158
639.860	0.83379	1.57008	-0.51289	-0.82977
643.856	0.73655	1.51907	-0.58975	-0.83349
647.864	0.75759	1.59059	-0.58575	-0.84464
651.851	0.76883	1.68093	-0.63575	-0.78514
655.860	0.79652	1.84049	-0.65883	-0.73574
659.860	0.77583	1.89140	-0.67680	-0.70377
663.856	0.79307	1.93393	-0.71796	-0.56451
667.856	0.79372	2.00896	-0.74533	-0.51892
671.857	0.82218	2.07066	-0.78282	-0.50604
675.855	0.84441	2.07869	-0.81923	-0.48959
679.891	0.93661	2.12322	-0.78124	-0.44408
683.858	0.95299	2.15832	-0.75749	-0.46629
687.862	1.03811	2.18173	-0.76342	-0.43178
691.850	1.08220	2.18676	-0.75109	-0.40910
695.852	1.10450	2.21835	-0.75888	-0.43007
699.854	1.11422	2.18788	-0.72489	-0.45874
703.853	1.11390	2.16546	-0.73332	-0.50011
707.857	1.12176	2.16148	-0.75881	-0.53834
711.853	1.15590	2.14702	-0.75275	-0.57067
715.872	1.17495	2.14268	-0.72771	-0.56379
719.861	1.12715	2.19673	-0.74151	-0.55278
723.854	1.09840	2.24180	-0.78402	-0.60112
727.859	1.11139	2.21229	-0.77933	-0.57176
731.855	1.19309	1.98135	-0.77595	-0.52227
735.859	1.15900	1.76216	-0.79027	-0.49976
739.858	1.13199	1.60790	-0.81880	-0.43145
743.856	1.10222	0.85148	-0.83823	-0.36308
747.851	1.08098	0.90994	-0.85111	-0.24625
751.853	1.10475	1.19761	-0.91110	-0.07824
755.856	1.11732	1.03438	-0.90500	-0.13385
759.852	1.08706	1.07210	-0.90952	-0.27194
763.851	1.09455	1.13828	-0.93902	-0.31298
767.852	1.02876	1.25724	-0.86113	-0.22374
771.860	1.00891	1.26089	-0.85300	-0.19663
775.855	0.98616	1.30605	-0.74878	-0.07978
779.852	0.83920	1.38942	-0.81927	-0.11824
783.855	0.94202	1.31707	-0.72012	-0.34405
787.856	0.98100	1.47321	-0.70305	-0.33581
791.849	1.13667	1.46336	-0.70975	-0.36222
795.858	1.14126	1.53503	-0.67230	-0.35889
799.852	1.25292	1.44942	-0.59540	-0.33358
803.853	1.31617	1.44439	-0.55890	-0.28391
807.853	1.38694	1.41975	-0.48123	-0.25437
811.858	1.47784	1.28043	-0.42864	-0.27472
815.856	1.49917	1.32697	-0.41519	-0.20592
819.850	1.44269	1.28763	-0.43472	-0.35264
823.857	1.51541	1.28930	-0.40385	-0.37260
827.852	1.47794	1.28006	-0.42348	-0.32233
831.855	1.44902	1.23645	-0.37767	-0.32579
835.849	1.36246	1.24474	-0.35541	-0.32686
839.856	1.25488	1.06838	-0.34449	-0.36974
843.869	1.29648	1.09980	-0.34576	-0.40259
847.855	1.23067	1.13835	-0.28994	-0.48240
851.861	1.17289	1.10306	-0.27001	-0.53041
855.857	1.10829	1.11692	-0.29304	-0.53741
859.856	1.12802	1.01337	-0.31374	-0.55436
863.848	1.11971	0.88330	-0.31987	-0.53202
867.857	1.10395	0.75727	-0.36489	-0.57622
871.851	1.08024	0.68312	-0.38601	-0.60134
875.855	1.15689	0.67138	-0.47284	-0.61413
879.858	1.16066	0.62115	-0.50676	-0.63328
883.852	1.20432	0.64000	-0.59635	-0.64557
887.856	1.19944	0.56480	-0.71030	-0.68943
891.847	1.14754	0.55602	-0.87401	-0.70187
895.855	1.15704	0.52233	-0.99923	-0.69954
899.853	1.19777	0.47691	-1.13948	-0.62213
903.897	1.18902	0.45530	-1.32017	-0.59319
907.852	1.25959	0.47469	-1.40656	-0.52958
911.849	1.20048	0.52521	-1.29278	-0.68548
915.848	1.22022	0.62665	-1.28874	-0.68215
919.849	1.17733	0.70697	-1.26999	-0.58233
923.852	1.13816	0.81802	-1.20862	-0.62348
927.850	1.14352	0.94943	-1.11770	-0.53585
931.846	1.17996	0.94768	-0.83530	-0.52651
935.859	1.24821	0.94791	-0.84907	-0.45043
939.850	1.43049	1.12741	-0.73878	-0.28360
943.853	1.44694	1.20157	-0.76610	-0.33724
947.850	1.47347	1.24066	-0.74151	-0.14717
951.850	1.45306	1.35878	-0.71243	-0.00763
955.844	1.56191	1.46831	-0.69245	0.28522
959.855	1.67050	1.61753	-0.64436	0.07780
963.849	1.65887	1.66144	-0.64101	0.03923
967.878	1.65882	1.80456	-0.67094	0.04015
971.858	1.67893	1.99164	-0.70280	0.15862
975.849	1.65334	1.98261	-0.68503	0.03774
979.857	1.57939	2.06403	-0.72330	0.08075
983.846	1.42876	2.09256	-0.74635	-0.14339
987.853	1.33368	2.08976	-0.76181	-0.24611
991.849	1.18835	2.12533	-0.80694	-0.40045
995.854	1.04600	2.16277	-0.84917	-0.46042
999.848	1.20346	2.08731	-0.86500	-0.54394
1003.864	1.10601	1.99304	-0.78660	-0.60773
1007.854	1.43359	1.64628	-0.77560	-0.34288
1011.851	1.81882	1.88239	-0.72298	-0.08103
1015.855	1.57882	1.66834	-0.72806	-0.19545
1019.858	1.34338	1.71641	-0.73841	-0.20670
1023.850	1.54162	1.68341	-0.83265	-0.02177
1027.848	1.82755	1.68524	-0.85337	-0.27070
1031.851	1.77147	1.64931	-0.99348	-0.10686
1035.851	1.84071	1.62448	-1.12906	0.01988
1039.847	1.73685	1.58176	-1.48885	0.04844
1043.853	1.72942	1.58306	-1.04076	-0.24924
1047.850	1.62182	1.58312	-0.92862	0.00552
1051.851	1.44582	1.62165	-0.88466	-0.01200
1055.847	1.28494	1.63472	-0.77831	-0.38149
1059.857	1.15935	1.66135	-0.69630	-0.31804
1063.853	1.38515	1.68318	-0.75876	-0.45392
1067.853	1.53247	1.62936	-0.83697	-0.39726
1071.843	1.45202	1.58903	-0.80186	-0.39963
1075.848	1.44230	1.55208	-0.90284	-0.57082
1079.848	1.50534	1.53664	-0.90855	-0.56732
1083.852	1.63135	1.56830	-0.88210	-0.60911
1087.846	1.37620	1.56103	-1.00690	-0.48619
1091.863	1.18264	1.56999	-1.23404	-0.54577
1095.856	1.04124	1.56495	-1.23838	-0.52378
1099.849	1.01372	1.49808	-1.20281	-0.58073
1103.855	1.08435	1.48757	-0.99035	-0.59918
1107.856	1.00563	1.46476	-1.01839	-0.71121
1111.844	1.07617	1.44588	-1.14270	-0.74536
1115.853	1.10177	1.45131	-1.24431	-0.75306
1119.873	0.94653	1.48271	-1.21849	-0.76245
1123.851	0.86165	1.42926	-0.99248	-0.46982
1127.851	0.86796	1.39517	-1.14625	-0.47777
1131.847	0.96777	1.37104	-1.07339	-0.74513
1135.848	1.14077	1.30457	-1.18500	-0.69795
1139.844	1.22901	1.27669	-1.14206	-0.66661
1143.850	1.30047	1.20370	-1.21975	-0.67467
1147.850	1.37580	1.11680	-1.29080	-0.69169
1151.846	1.24342	1.05440	-1.17480	-0.60520
1155.866	1.22677	0.97832	-1.17207	-0.28041
1159.847	1.17250	0.90097	-1.04280	-0.07352
1163.853	1.10102	0.71382	-1.15975	0.07756
1167.850	1.23183	0.73684	-1.25562	-0.10320
1171.847	1.22605	0.79837	-1.24511	-0.14243
1175.845	1.28115	0.85307	-1.33155	-0.15199
1179.845	1.19299	0.87662	-1.41137	-0.15402
1183.845	1.26096	0.83345	-1.51410	-0.28604
1187.853	1.21889	0.76533	-1.50442	-0.28251
1191.852	1.26302	0.80678	-1.33019	-0.11557
1195.844	1.35564	1.00340	-1.39740	-0.11792
1199.845	1.39671	0.89098	-1.45869	-0.05574
1203.845	1.42330	1.07089	-1.43129	-0.19145
1207.851	1.45383	1.56746	-1.40728	-0.25664
1211.846	1.48133	1.11340	-1.51978	-0.32757
1215.849	1.56987	1.69785	-1.45730	-0.31608
1219.863	1.61352	1.71988	-1.38565	-0.40166
1223.848	1.65902	1.39968	-1.33748	-0.47955
1227.852	1.73765	2.42351	-1.28055	-0.46165
1231.843	1.72956	2.25637	-1.24739	-0.44901
1235.852	1.70036	1.50952	-1.25237	-0.49233
1239.846	1.71365	2.16728	-1.18160	-0.53371
1243.846	1.69403	2.35513	-1.09333	-0.58475
1247.844	1.68287	2.36975	-1.10031	-0.61838
1251.846	1.71236	2.38377	-1.04498	-0.67240
1255.845	1.65642	2.46336	-0.95480	-0.74908
1259.844	1.66700	2.58326	-0.93358	-0.78289
1263.844	1.61119	2.58608	-0.89848	-0.81798
1267.846	1.59539	2.26404	-0.91163	-0.72773
1271.851	1.54341	2.54513	-0.87275	-0.71472
1275.845	1.54361	1.82776	-0.82684	-0.68953
1279.844	1.52563	2.52711	-0.82999	-0.72275
1283.850	1.49708	2.63047	-0.84282	-0.65532
1287.848	1.48999	2.79012	-0.89274	-0.59969
1291.843	1.47419	2.61428	-0.84168	-0.47806
1295.851	1.41030	2.74779	-0.89495	-0.28784
1299.847	1.40115	2.73384	-0.98762	-0.25648
1303.842	1.34251	2.72293	-1.02255	-0.21648
1307.850	1.23121	2.60091	-1.03791	-0.11677
1311.847	1.17972	2.56270	-0.99248	-0.15973
1315.849	1.19959	2.18008	-1.00370	-0.17270
1319.860	1.17870	2.03972	-1.04463	-0.13859
1323.848	1.20993	1.76123	-1.02637	-0.08321
1327.842	1.09978	1.69366	-0.99008	-0.14003
1331.846	1.09190	1.67807	-0.95554	-0.08525
1335.838	1.00948	1.55856	-0.92664	-0.16023
1339.847	1.03384	1.56900	-0.94792	-0.26321
1343.864	0.95666	1.54716	-0.88446	-0.27395
1347.844	0.90637	1.16539	-0.90039	-0.20692
1351.850	1.02446	1.23966	-0.94859	-0.16893
1355.848	0.93353	1.30828	-0.96529	-0.24110
1359.842	1.01062	1.23864	-0.91024	-0.15710
1363.843	1.06733	1.32764	-0.86046	-0.20804
1367.844	1.12834	1.15160	-0.64744	-0.28266
1371.843	1.56087	2.03708	-0.67925	-0.18633
1375.841	1.30613	1.86014	-0.79712	-0.12580
1379.842	1.41588	1.91120	-0.83404	0.01297
1383.844	1.23290	2.24765	-0.79104	-0.03285
1387.843	1.22628	1.65071	-0.76374	-0.03161
1391.841	1.24952	1.32058	-0.80511	-0.12801
1395.846	1.05548	1.51842	-0.81774	-0.29617
1399.844	1.05828	1.57080	-0.95544	-0.18413
1403.840	1.15855	1.77846	-1.29742	-0.21404
1407.844	1.31411	1.43019	-1.00424	-0.21399
1411.844	1.53614	1.88633	-0.90651	-0.16249
1415.838	1.46988	2.08341	-0.88183	-0.25380
1419.843	1.14811	2.09909	-0.92393	-0.37877
1423.844	1.06284	1.70944	-1.03813	-0.36996
1427.838	1.23533	1.39875	-0.99809	-0.43091
1431.847	1.23379	1.35957	-0.97522	-0.54110
1435.848	0.99268	1.43698	-1.00486	-0.62742
1439.844	1.03982	1.59638	-1.19750	-0.56302
1443.845	0.94234	1.75580	-1.26917	-0.59249
1447.716	1.36481	1.33855	-1.41633	-0.45134
1451.721	1.50961	1.33598	-1.12338	-0.52905
1455.712	1.29005	1.67264	-0.92234	-0.47114
1459.721	0.95713	1.79585	-0.93981	-0.34466
1463.717	1.04399	1.77218	-1.00489	-0.28860
1467.720	1.14025	1.15612	-0.95135	0.00609
1471.718	0.95301	1.40936	-0.89999	-0.04042
1475.717	0.86806	1.58342	-0.90654	-0.14694
1479.716	0.90545	1.67678	-0.86984	-0.03511
1483.720	0.93601	1.82168	-0.97961	0.05767
1487.740	1.29539	1.68284	-1.05481	-0.01771
1491.721	1.40241	1.63963	-0.84808	0.04311
1495.723	1.13670	2.13075	-0.74166	0.00723
1499.717	0.89336	1.97243	-0.69690	-0.02144
1503.715	1.21102	1.60922	-0.60067	-0.00865
1507.721	1.10703	1.41669	-0.65699	0.02137
1511.714	1.06716	1.40748	-0.70709	-0.01061
1515.716	1.10028	1.71059	-0.77464	0.10617
1519.715	0.92033	1.84998	-0.77444	0.03605
1523.724	0.57806	1.83816	-0.79228	-0.10582
1527.717	1.02863	1.85275	-0.70759	-0.08202
1531.744	1.06716	1.84300	-0.69176	-0.08590
1535.718	1.09584	1.51621	-0.76501	-0.07069
1539.718	1.12320	1.64844	-0.91592	0.04746
1543.710	1.13010	1.37628	-0.92234	0.04348
1547.719	0.92420	1.41655	-0.93378	-0.10997
1551.714	1.13759	1.57577	-0.90014	-0.18222
1555.720	1.13308	1.58762	-0.77238	-0.28492
1559.715	1.18626	1.68028	-0.73283	-0.21629
1563.713	1.19653	1.59965	-0.64397	-0.20628
1567.719	1.16615	1.75679	-0.73290	-0.09735
1571.719	1.12127	1.98760	-0.75002	0.00253
1575.716	1.08803	2.17770	-0.84553	-0.02574
1579.717	1.21172	1.64807	-0.86133	-0.03672
1583.715	1.05468	1.51573	-0.77357	-0.29076
1587.715	1.00548	1.33862	-0.71047	-0.38043
1591.715	0.94884	1.52363	-0.81605	-0.35754
1595.710	0.99772	1.80147	-0.91813	-0.55176
1599.712	0.89716	1.55799	-1.08860	-0.57926
1603.731	0.90036	1.45472	-1.08939	-0.67140
1607.721	0.84066	1.53490	-1.11556	-0.71228
1611.720	0.84781	1.31966	-1.20026	-0.66787
1615.713	0.85188	1.19792	-1.27031	-0.77881
1619.717	0.80803	1.13723	-1.33220	-0.77486
1623.715	0.86711	0.88046	-1.20646	-0.64849
1627.718	0.96435	0.71224	-1.14528	-0.55451
1631.716	1.02350	1.28999	-1.12643	-0.52490
1635.710	1.03789	1.04224	-1.06843	-0.59516
1639.716	1.08743	0.79873	-1.00308	-0.44152
1643.712	1.13747	0.98982	-1.14409	-0.47891
1647.716	1.22221	1.21064	-1.31759	-0.32933
1651.718	1.17984	1.37790	-1.33259	-0.37653
1655.737	1.18780	1.18960	-1.41234	-0.35714
1659.720	1.14040	1.05782	-1.32245	-0.47960
1663.714	1.20591	1.24750	-1.27904	-0.26199
1667.713	1.20782	1.01366	-1.09202	-0.28705
1671.713	1.19718	1.54354	-0.95844	-0.30550
1675.712	1.12635	1.25146	-1.10514	-0.37182
1679.715	1.17592	1.08662	-1.18755	-0.28759
1683.713	1.14925	1.65508	-1.11472	-0.32243
1687.711	1.32322	1.71583	-1.16880	-0.30381
1691.716	1.34710	1.33806	-1.18053	-0.27261
1695.725	1.48568	1.27671	-1.25686	-0.31744
1699.715	1.42189	1.25042	-1.45971	-0.22821
1703.713	1.56754	1.24935	-1.33815	-0.19561
1707.718	1.62584	1.70436	-1.28980	-0.22729
1711.714	1.65453	1.55929	-1.34559	-0.20276
1715.714	1.56119	1.42636	-1.33981	-0.18289
1719.716	1.52994	1.31221	-1.37451	-0.26191
1723.715	1.51878	1.37247	-1.31545	-0.37194
1727.713	1.31657	1.03759	-1.34787	-0.35517
1731.715	1.36985	1.40518	-1.33177	-0.07574
1735.718	1.20477	1.40733	-1.28727	-0.05180
1739.716	1.22975	1.46006	-1.20832	-0.03709
1743.717	1.23935	1.38192	-1.11068	-0.19803
1747.708	1.14389	1.28999	-1.09480	-0.36255
1751.743	1.10003	1.38881	-1.05086	-0.22457
1755.711	1.10026	1.51410	-1.02965	-0.29583
1759.716	1.10112	1.52529	-1.00519	-0.44341
1763.710	1.13593	1.34259	-1.04106	-0.16917
1767.715	1.13218	1.24843	-1.01615	-0.33454
1771.711	1.15337	1.47298	-1.04446	-0.32552
1775.719	1.12812	1.49968	-1.08418	-0.45497
1779.708	1.14635	1.25227	-1.06195	-0.45316
1783.711	1.06374	0.76955	-1.08773	-0.48834
1787.715	1.05979	0.93384	-1.15081	-0.51098
1791.705	1.05215	0.95190	-1.16486	-0.41966
1795.710	1.03325	0.95826	-1.16064	-0.46867
1799.710	0.99127	0.87812	-1.19058	-0.42912
1803.725	0.99070	0.82777	-1.14806	-0.40513
1807.716	1.00050	0.94101	-1.12702	-0.39504
1811.707	0.93023	0.98725	-1.16123	-0.34076
1815.712	1.04126	1.11538	-1.24964	-0.33006
1819.712	1.10358	1.12492	-1.30985	-0.27088
1823.709	0.90014	1.24425	-1.33773	-0.24442
1827.716	0.93812	1.34848	-1.40408	-0.31323
1831.707	0.94802	1.59915	-1.25753	-0.49012
1835.711	0.91909	1.26932	-1.22268	-0.65095
1839.712	0.74588	1.09756	-1.10055	-0.68483
1843.707	0.76876	1.19603	-1.09956	-0.63165
1847.715	0.76044	1.45505	-1.00040	-0.67129
1851.710	0.77915	1.74192	-1.27204	-0.49893
1855.718	0.94021	2.49185	-1.24689	-0.78654
1859.710	0.99300	2.40291	-1.18202	-0.60540
1863.714	0.92793	2.54312	-1.03865	-0.58742
1867.711	1.18401	2.47189	-1.09294	-0.63739
1871.709	1.28723	2.37563	-1.02938	-0.55701
1875.708	1.00352	1.56487	-0.99750	-0.47928
1879.708	1.11164	2.39919	-0.88969	-0.41254
1883.711	1.33366	2.58385	-0.97876	-0.37608
1887.709	1.36848	2.22592	-1.05009	-0.26524
1891.709	1.45465	1.97116	-1.01181	-0.22872
1895.753	1.54110	1.60570	-1.06029	-0.09752
1899.713	1.59095	2.51183	-1.04436	-0.19650
1903.712	1.60660	2.32344	-1.11601	-0.21714
1907.704	1.63549	1.56606	-1.08291	-0.06072
1911.709	1.68548	1.81104	-1.07406	-0.09985
1915.712	1.68161	2.29501	-1.12179	-0.02725
1919.709	1.72689	2.20623	-1.06944	0.05791
1923.708	1.77506	1.97621	-1.10276	0.07414
1927.708	1.82795	1.42080	-1.04520	0.16505
1931.711	1.81550	1.83269	-0.97407	-0.06765
1935.710	1.84349	2.10634	-0.94678	-0.16252
1939.717	1.82859	1.38720	-0.91247	-0.17877
1943.710	1.81671	1.64654	-0.85550	-0.22088
1947.709	1.83228	2.03323	-0.81104	-0.25060
1951.712	1.86987	1.91007	-0.80168	-0.27734
1955.703	1.85519	1.88344	-0.76759	-0.17204
1959.713	1.79651	1.64174	-0.80531	-0.24909
1963.743	1.45723	1.81483	-0.78863	-0.29953
1967.713	1.39857	1.88151	-0.83533	-0.26824
1971.747	1.04270	1.66812	-0.85788	-0.33555
1975.710	1.10395	1.88184	-0.85535	-0.16741
1979.703	1.59368	1.91258	-0.79930	-0.16066
1983.710	1.33865	1.89436	-0.81674	-0.75134
1987.712	1.19304	1.87196	-0.82250	-0.89381
1991.706	0.97665	1.95330	-0.81940	-1.03460
1995.703	1.84366	1.59663	-0.66704	-0.54847
1999.711	3.57021	0.14655	0.92319	-0.90665
2003.724	4.13579	-0.32958	2.69477	-1.60170
2007.711	4.86603	-0.98105	3.37826	-2.21390
2011.711	4.90420	-1.21851	3.36666	-3.50200
2015.706	4.87357	-1.67170	3.08582	-3.39151
2019.710	4.92060	-1.62156	3.18517	-3.53449
2023.708	4.77971	-1.86281	3.00878	-3.38911
2027.713	4.87621	-1.96588	2.98643	-3.34256
2031.709	4.85785	-1.99521	3.03578	-3.28221
2035.708	4.96785	-1.84251	3.20926	-3.28536
2039.705	5.02647	-2.01975	3.14919	-3.17588
2043.708	5.06023	-2.19483	3.19546	-3.08115
2047.706	5.10475	-2.21353	3.19749	-3.10343
2051.705	5.01095	-2.43482	3.21097	-3.26500
2055.706	5.08330	-1.87774	3.19830	-3.03342
2059.708	5.02937	-1.88917	3.23423	-3.01503
2063.711	5.15773	-1.71251	3.26245	-2.99953
2067.710	5.15566	-1.57896	3.37198	-2.91473
2071.706	5.20755	-1.33199	3.47277	-2.91280
2075.708	5.24075	-1.39927	3.41197	-2.88963
2079.706	5.30038	-1.70643	3.35348	-3.02013
2083.705	5.29312	-1.72077	3.40445	-3.17611
2087.706	5.28335	-1.59948	3.37863	-3.21606
2091.723	5.30062	-1.66161	3.44728	-3.15006
2095.708	5.41694	-1.52969	3.45944	-3.13654
2099.706	5.36907	-1.50818	3.45361	-3.38261
2103.713	5.46952	-1.48608	3.53488	-3.40305
2107.715	5.42865	-1.58684	3.50539	-3.34381
2111.737	5.43900	-1.42183	3.44537	-3.48778
2115.713	5.51531	-1.50235	3.39270	-3.52071
2119.704	5.36868	-1.55914	3.41157	-3.53559
2123.708	5.40971	-1.52613	3.41090	-3.51748
2127.702	5.14675	-1.60139	3.43069	-3.51751
2131.703	5.15505	-1.70752	3.40390	-3.38852
2135.707	5.01580	-1.66721	3.41177	-3.40038
2139.708	5.36147	-1.59861	3.40408	-3.40451
2143.701	5.30980	-1.76386	3.44812	-3.28738
2147.709	5.40400	-1.91369	3.44097	-3.18096
2151.708	5.46514	-1.83114	3.49409	-3.26527
2155.707	5.48494	-2.06350	3.59288	-3.17365
2159.711	5.32912	-2.06462	3.63774	-3.08883
2163.706	5.57687	-2.09156	3.75889	-3.09929
2167.711	5.57050	-2.09405	3.79393	-3.06059
2171.708	5.62652	-2.06626	3.70791	-3.02356
2175.706	5.70903	-1.97877	3.79084	-3.05712
2179.704	5.75087	-2.07562	3.81681	-3.00179
2183.704	5.68615	-1.87612	3.86966	-2.96585
2187.705	5.68492	-1.72379	3.85155	-2.97610
2191.713	5.65626	-1.78225	3.87986	-2.99294
2195.709	5.64422	-1.77843	3.79233	-2.95949
2199.740	5.68332	-1.69551	3.78662	-2.97054
2203.719	5.69875	-1.85608	3.79823	-2.98074
2207.708	5.63967	-1.79033	3.67390	-2.97993
2211.702	5.57102	-1.88124	3.51701	-2.98585
2215.726	5.39842	-1.95792	3.63690	-3.10142
2219.709	5.24462	-1.91735	3.56858	-3.21744
2223.709	5.57360	-1.80973	3.29755	-3.12190
2227.706	5.27274	-1.92883	3.27282	-2.99732
2231.703	4.66810	-1.93375	2.96725	-2.84817
2236.187	4.21108	-0.95821	2.63586	-2.89842
2239.724	4.73673	-0.99211	2.39128	-2.82596
2243.710	5.12518	-0.87981	2.31797	-2.99354
2247.703	4.94684	-1.31145	2.20924	-2.98720
2251.705	4.88678	-1.40701	1.99446	-2.84989
2255.698	4.76966	-1.23427	1.90770	-2.70720
2259.707	4.56040	-1.25343	2.32243	-2.63000
2263.702	4.33206	-0.96172	2.40330	-2.49498
2267.707	4.30174	-0.78736	2.31896	-2.59467
2271.698	4.20323	-0.80470	2.47772	-2.63612
2275.713	4.17852	-0.80639	2.47155	-2.63338
2279.702	4.48821	-1.03510	2.46840	-2.56892
2283.706	4.57998	-1.09214	2.38174	-2.48573
2287.708	4.40813	-0.95266	2.31361	-2.50250
2291.704	4.26413	-1.03568	2.23323	-2.40764
2295.703	4.24011	-1.11298	2.39981	-2.39068
2299.576	4.34305	-1.10394	2.49528	-2.41442
2303.733	4.33377	-1.08352	2.48044	-2.40099
2307.578	4.37707	-0.96630	2.47001	-2.31533
2311.587	4.43905	-1.08356	2.43974	-2.32215
2315.576	4.44830	-1.03791	2.38335	-2.30472
2319.586	4.41576	-1.33721	2.45904	-2.53348
2323.573	4.33002	-1.40536	2.19457	-2.86714
2327.581	4.25285	-1.25071	2.24671	-2.60348
2331.577	4.21313	-1.21324	2.21469	-2.62108
2335.581	4.07053	-1.09483	2.20463	-2.72426
2339.572	4.19847	-1.16377	2.31696	-2.71105
2343.615	4.28049	-0.99816	2.23211	-2.68445
2347.589	4.29961	-1.14338	2.30509	-2.87995
2351.573	4.30697	-1.14872	2.31056	-2.80579
2355.582	4.22111	-1.36333	2.25902	-2.84695
2359.581	4.16463	-1.38374	2.30667	-2.88376
2363.589	4.34534	-1.39481	2.24250	-2.81865
2367.573	4.34374	-1.50810	2.23927	-2.79886
2371.597	4.34213	-1.58302	2.23724	-2.78817
2375.581	4.49381	-1.58592	2.26125	-2.77950
2379.580	4.49672	-1.66718	2.13613	-2.78072
2383.576	4.55041	-1.45564	2.04803	-2.82872
2387.575	4.52508	-1.45542	2.23340	-2.75273
2391.575	4.55453	-1.50826	2.22017	-2.65898
2395.578	4.58740	-1.59920	2.17581	-2.57265
2399.627	4.62966	-1.37654	2.10374	-2.46017
2403.584	4.67863	-1.55009	2.00936	-2.40856
2407.578	4.61531	-1.54454	2.04624	-2.21217
2411.570	4.61262	-1.59058	2.11190	-2.29365
2415.579	4.65252	-1.57069	2.18099	-2.26119
2419.576	4.58348	-1.64775	2.29034	-2.17681
2423.577	4.56447	-1.65462	2.33061	-2.13732
2427.575	4.52032	-1.62445	2.37731	-2.22754
2431.576	4.54913	-1.64646	2.40600	-2.25756
2435.584	4.51943	-1.70388	2.41829	-2.31404
2439.574	4.48248	-1.66872	2.45881	-2.34713
2443.579	4.45323	-1.63727	2.48673	-2.34842
2447.578	4.41238	-1.62318	2.47913	-2.49202
2451.576	4.51043	-1.57670	2.49084	-2.66225
2455.575	4.45905	-1.55072	2.50784	-2.74103
2459.573	4.47898	-1.46915	2.37994	-2.86776
2463.574	4.50069	-1.45854	2.34426	-2.79279
2467.592	4.49965	-1.38761	2.19437	-2.91150
2471.576	4.60079	-1.30860	2.12833	-2.96676
2475.574	4.48845	-1.30187	2.06508	-2.95492
2479.575	4.47385	-1.27924	2.04163	-2.96655
2483.575	4.43692	-1.24820	2.00336	-2.92679
2487.579	4.49992	-1.29932	1.99781	-2.88378
2491.579	4.54027	-1.27729	1.97932	-2.76447
2495.575	4.50328	-1.24952	2.03848	-2.62742
2499.573	4.49265	-1.41310	1.99052	-2.59436
2503.589	4.50905	-1.34479	2.10942	-2.44750
2507.571	4.47205	-1.39467	2.06416	-2.48396
2511.578	4.42960	-1.39616	2.02123	-2.74042
2515.573	4.30665	-1.34783	2.09076	-2.75561
2519.576	4.35181	-1.28400	2.10714	-2.64170
2523.576	4.33034	-1.33664	2.08627	-2.51565
2527.574	4.41709	-1.38215	2.13212	-2.40996
2531.618	4.46603	-1.23532	2.27439	-2.52021
2535.585	4.39217	-1.32920	2.22493	-2.46107
2539.569	4.36432	-1.39859	2.38437	-2.45326
2543.577	4.44672	-1.33356	2.55738	-2.44484
2547.576	4.42067	-1.22725	2.41185	-2.58233
2551.572	4.59273	-1.24070	2.37862	-2.57231
2555.572	4.54895	-1.15919	2.36980	-2.67027
2559.572	4.54671	-1.17806	2.45275	-2.73909
2563.575	4.48897	-1.22516	2.39111	-2.69673
2567.576	4.40421	-1.29137	2.52760	-2.84407
2571.578	4.49297	-1.26343	2.44274	-2.90232
2575.572	4.49477	-1.25996	2.29919	-2.90461
2579.571	4.48732	-1.30992	2.26906	-2.88879
2583.578	4.47743	-1.22874	2.13527	-2.88868
2587.573	4.53744	-1.09964	2.19849	-2.94077
2591.577	4.75672	-1.09531	2.46360	-3.00258
2595.574	5.31108	-1.22855	3.77421	-2.96067
2599.572	6.86802	-1.43323	4.79016	-2.92612
2603.574	6.94435	-1.53532	4.92792	-3.05638
2607.574	6.63641	-1.31471	4.54237	-3.12121
2611.581	6.33660	-1.26803	3.91872	-3.11658
2615.617	6.74746	-1.41455	4.30847	-3.02344
2619.569	6.66171	-1.37101	4.51736	-3.00799
2623.570	6.59841	-1.44172	4.35491	-3.08043
2627.573	6.58876	-1.42255	4.38356	-3.24386
2631.570	6.77492	-1.34292	4.16137	-3.22780
2635.569	6.67032	-1.54086	4.27382	-3.19213
2639.571	6.64048	-1.63462	4.29251	-3.22498
2643.573	6.58589	-1.59948	4.26632	-3.22946
2647.573	6.42160	-1.50915	4.25030	-3.47079
2651.579	6.52985	-1.51968	4.16450	-3.50396
2655.574	6.60113	-1.53646	4.21528	-3.40830
2659.571	6.58771	-1.35271	4.22454	-3.40075
2663.576	6.53473	-1.43561	4.16509	-3.39009
2667.570	6.49332	-1.51051	4.15722	-3.47256
2671.575	6.43197	-1.53436	4.12535	-3.45692
2675.568	6.36055	-1.62603	4.22752	-3.50264
2679.572	6.38013	-1.61232	4.29401	-3.51290
2683.574	6.31777	-1.64060	4.31980	-3.56154
2687.567	6.38484	-1.65502	4.34194	-3.55869
2691.575	6.41339	-1.57846	4.33927	-3.53536
2695.575	6.32571	-1.57180	4.36999	-3.48342
2699.575	6.33434	-1.51600	4.46431	-3.52548
2703.589	6.29462	-1.59304	4.45276	-3.49079
2707.565	6.31740	-1.62962	4.49802	-3.55553
2711.570	6.33027	-1.61201	4.51916	-3.56616
2715.581	6.41021	-1.50783	4.51665	-3.57155
2719.576	6.50303	-1.44081	4.51376	-3.59414
2723.571	6.63658	-1.35616	4.50103	-3.58165
2727.570	6.83541	-1.31681	4.49805	-3.61497
2731.569	6.68408	-1.24852	4.49608	-3.62850
2735.574	6.71160	-1.20726	4.52543	-3.63134
2739.572	6.67875	-1.21580	4.52284	-3.61051
2743.573	6.66112	-1.21030	4.52076	-3.55287
2747.565	6.56326	-1.17083	4.51847	-3.50533
2751.574	6.43020	-1.11245	4.50705	-3.42184
2755.571	6.39481	-1.06088	4.51904	-3.25845
2759.574	6.31367	-1.07127	4.52843	-3.28700
2763.565	6.39582	-1.06505	4.48182	-3.08546
2767.574	6.39695	-1.10701	4.49210	-2.89761
2771.570	6.36699	-1.14996	4.53356	-2.90439
2775.573	6.41638	-1.17665	4.55988	-2.95661
2779.578	6.49624	-1.23757	4.62128	-2.94968
2783.577	6.62500	-1.32873	4.58688	-2.93471
2787.570	6.71476	-1.42406	4.71794	-2.90847
2791.572	6.68144	-1.37046	4.88624	-2.91593
2795.564	6.74144	-1.43710	4.93415	-2.95809
2799.574	6.68896	-1.51517	4.94085	-3.09101
2803.585	6.77643	-1.54163	5.04794	-3.29916
2807.572	6.80624	-1.55071	4.99147	-3.39095
2811.568	6.75727	-1.57350	4.84859	-3.46836
2815.570	6.51067	-1.50067	4.78807	-3.52661
2819.580	6.40734	-1.49799	4.73241	-3.71315
2823.564	6.57759	-1.48808	4.68836	-3.78616
2827.567	6.42310	-1.44622	4.66314	-3.79653
2831.571	6.41817	-1.36020	4.53406	-3.86816
2835.600	6.51339	-1.34976	4.45577	-3.89607
2839.566	6.48771	-1.29845	4.41134	-3.91194
2843.582	6.63088	-1.19520	4.37515	-3.91506
2847.573	6.82868	-1.10745	4.33976	-3.86913
2851.577	6.65350	-1.19596	4.30527	-3.82816
2855.566	6.72859	-1.19333	4.33021	-3.75427
2859.572	6.71439	-1.22213	4.36002	-3.69424
2863.574	6.84920	-1.23809	4.38874	-3.61896
2867.568	6.88993	-1.24760	4.38255	-3.58844
2871.562	6.83193	-1.24612	4.39957	-3.56935
2875.572	6.82992	-1.30955	4.45436	-3.49712
2879.569	6.78294	-1.35336	4.46778	-3.45949
2883.567	6.76160	-1.33085	4.49711	-3.44296
2887.565	6.51851	-1.23347	4.56096	-3.42267
2891.566	6.41626	-1.14427	4.61440	-3.46412
2895.569	6.34621	-1.19972	4.62167	-3.47011
2899.568	6.33449	-1.17000	4.69509	-3.51791
2903.584	6.29965	-1.15635	4.70047	-3.55894
2907.573	6.31095	-1.11722	4.74215	-3.61933
2911.562	6.27444	-1.09184	4.84440	-3.64562
2915.566	6.27962	-1.10578	4.86675	-3.60155
2919.572	6.33392	-1.13253	4.89185	-3.55076
2923.567	6.41077	-1.11367	4.89254	-3.56622
2927.570	6.53014	-1.10319	4.96319	-3.46882
2931.562	6.62179	-1.18268	4.90742	-3.38358
2935.570	6.74386	-1.21944	4.90319	-3.59317
2939.566	6.84876	-1.24378	4.91644	-3.58696
2943.574	6.86887	-1.25409	4.83528	-3.58843
2947.562	6.94580	-1.23852	4.63119	-3.58265
2951.570	6.74180	-1.28750	4.75482	-3.58118
2955.567	6.61156	-1.33434	4.77996	-3.54883
2959.570	6.72832	-1.41426	4.70638	-3.54218
2963.561	6.67471	-1.49899	4.69852	-3.72423
2967.569	6.78047	-1.62468	4.67614	-3.78694
2971.569	6.73784	-1.79352	4.64842	-3.84673
2975.562	6.68066	-1.69744	4.66265	-3.95303
2979.571	6.68592	-1.80064	4.70626	-4.03507
2983.618	6.73752	-1.81514	4.71023	-4.15396
2987.572	6.71791	-1.85888	4.58871	-4.05894
2991.567	6.70266	-1.96087	4.48653	-4.09392
2995.566	6.71772	-1.87633	4.59036	-4.14597
2999.562	6.71233	-1.63527	4.54881	-3.99318
3003.580	6.69248	-1.56148	4.62288	-4.05253
3007.569	6.69270	-1.74985	4.62843	-3.98872
3011.566	6.70428	-1.84697	4.66346	-4.04338
3015.566	6.71419	-1.90662	4.80541	-3.97799
3019.568	6.72592	-2.20334	4.92745	-3.96326
3023.569	6.75828	-2.43699	5.00093	-3.88942
3027.587	6.72004	-2.34659	4.71612	-3.85137
3031.573	6.77068	-1.65319	4.87007	-3.78671
3035.572	6.73226	-1.52234	4.85487	-3.71145
3039.565	6.72022	-1.43051	4.79129	-3.70457
3043.565	6.77717	-1.67526	4.80781	-3.71274
3047.567	6.80423	-1.95851	4.83213	-3.71411
3051.645	6.87653	-1.69993	4.90262	-3.73816
3055.571	6.97057	-1.65174	4.88372	-3.74499
3059.558	7.01255	-1.46061	5.05479	-3.72707
3063.569	6.87844	-1.53134	4.88961	-3.75519
3067.568	6.77834	-1.53541	4.82956	-3.79248
3071.573	6.74667	-1.45216	4.88491	-3.79407
3075.558	6.69179	-1.42445	4.82599	-3.81878
3079.570	6.79073	-1.43563	4.76184	-3.81736
3083.564	6.72893	-1.46533	4.83856	-3.83495
3087.568	6.76253	-1.49517	4.84036	-3.84941
3091.559	6.85380	-1.44528	4.78188	-3.80880
3095.579	6.92816	-1.45622	4.80145	-3.79934
3099.570	6.93770	-1.48219	4.69327	-3.79207
3103.569	7.04814	-1.53485	4.67291	-3.77536
3107.567	6.84972	-1.62297	4.66524	-3.73114
3111.569	6.84123	-1.59270	4.67572	-3.71261
3115.563	6.85165	-1.62178	4.70444	-3.69722
3119.590	6.89473	-1.72437	4.66497	-3.76093
3123.562	6.82278	-1.65299	4.72130	-3.79651
3127.567	6.97013	-1.59113	4.81093	-3.80775
3131.566	9.74661	-1.36685	6.45944	-3.75067
3135.560	9.85616	-1.32514	8.34849	-3.58438
3139.561	11.83417	-0.98276	9.29807	-3.84157
3143.565	12.16026	-1.41946	10.83797	-3.75437
3147.566	13.19835	-0.91792	12.86220	-3.92130
3151.563	14.87445	-1.02064	12.78012	-4.67234
3155.461	15.11896	-1.09401	13.70111	-4.69559
3159.449	16.15525	-0.82842	14.06210	-4.48134
3163.433	16.01890	-0.65973	14.15003	-4.43409
3167.441	15.49317	-0.62018	13.95914	-4.53894
3171.438	15.31955	-0.68835	13.41490	-4.62237
3175.439	15.20677	-0.76937	13.63859	-4.54782
3179.433	15.66774	-0.78589	13.88745	-4.54454
3183.436	15.75081	-0.82505	13.93473	-4.66743
3187.439	15.82708	-0.79555	13.92840	-4.68186
3191.440	15.83386	-0.83549	13.96891	-4.72013
3195.437	15.78821	-0.91043	14.03248	-4.65885
3199.436	15.90477	-0.86363	13.99625	-4.63656
3203.451	15.86482	-0.88265	13.98139	-4.60272
3207.440	15.86695	-0.93567	13.90880	-4.62115
3211.433	15.88523	-0.96120	13.87040	-4.63658
3215.442	15.91624	-0.97422	13.93871	-4.61445
3219.449	15.94789	-0.97217	13.90822	-4.62878
3223.443	15.89157	-1.00293	13.85147	-4.56991
3227.436	15.85726	-1.05274	13.56040	-4.49802
3231.437	15.77612	-1.07573	13.51180	-4.38492
3235.437	15.75375	-1.09626	13.51698	-4.25914
3239.442	15.73603	-1.11936	13.42742	-4.29652
3243.444	15.68410	-1.25846	13.43923	-4.16165
3247.436	15.66597	-1.18405	13.49382	-4.07455
3251.438	15.66910	-1.17320	13.42798	-4.21553
3255.502	15.61113	-1.42434	13.32696	-4.14732
3259.440	15.60401	-1.50145	13.26928	-4.12995
3263.440	15.57118	-1.58859	13.23502	-4.12328
3267.439	15.54812	-1.54999	13.29147	-4.05448
3271.440	15.55066	-1.47569	13.39121	-4.01026
3275.433	15.57954	-1.47883	13.44017	-3.99011
3279.439	15.55278	-1.51876	13.40882	-4.07976
3283.444	15.54052	-1.50335	13.36516	-4.17978
3287.432	15.43388	-1.41596	13.36821	-4.14558
3291.439	15.35461	-1.47395	13.28134	-4.18534
3295.434	15.40207	-1.42487	13.30562	-4.24813
3299.439	15.39386	-1.48171	13.35233	-4.26333
3303.452	15.33239	-1.46187	13.39856	-4.27604
3307.438	15.34543	-1.48362	13.43651	-4.19014
3311.435	15.39155	-1.46969	13.48031	-4.19389
3315.434	15.39778	-1.40076	13.51515	-4.22918
3319.440	15.50472	-1.11251	13.48667	-4.16717
3323.457	15.52845	-1.07739	13.46576	-4.08342
3327.441	15.55904	-1.00443	13.48958	-3.88539
3331.430	15.47346	-0.95933	13.52473	-3.90889
3335.439	15.43206	-0.96096	13.60191	-3.86003
3339.434	15.49365	-1.15946	13.67009	-3.93645
3343.438	15.44444	-0.88766	13.69303	-3.88255
3347.440	15.41787	-1.01084	13.73613	-3.93052
3351.434	15.31962	-0.94497	13.83884	-4.00232
3355.439	15.46367	-0.79455	13.64321	-3.88368
3359.429	15.35662	-0.86875	13.47829	-3.82609
3363.439	15.47854	-0.94954	13.52674	-3.83431
3367.439	15.31258	-0.89179	13.51433	-3.91077
3371.440	15.40106	-0.90966	13.54169	-3.98387
3375.429	15.35713	-0.93359	13.64227	-4.09041
3379.438	15.35279	-0.98162	13.45446	-4.08719
3383.434	15.32643	-0.90421	13.42383	-4.12638
3387.438	15.30256	-0.93774	13.39057	-4.11639
3391.435	15.33380	-1.04812	13.26126	-4.06870
3395.435	15.35240	-1.15531	13.23502	-3.97909
3399.436	15.44430	-1.06200	13.22025	-3.98374
3403.451	15.54718	-0.97668	13.22338	-4.02502
3407.434	15.57832	-0.91427	13.23977	-4.03794
3411.440	15.62243	-0.88622	13.24795	-4.04808
3415.468	15.56786	-1.00752	13.24247	-4.01339
3419.442	15.68635	-0.87728	13.25453	-3.97791
3423.434	15.67809	-0.79279	13.28618	-3.96610
3427.433	15.75295	-0.78071	13.31965	-3.94606
3431.434	15.68628	-0.85014	13.37900	-3.94043
3435.437	15.77980	-0.78355	13.47712	-3.92680
3439.429	15.79221	-0.78190	13.56660	-3.94083
3443.439	15.76414	-0.79281	13.55972	-3.96751
3447.437	15.62623	-0.88171	13.59919	-4.01166
3451.442	15.50269	-0.83663	13.60231	-4.05049
3455.429	15.51207	-0.90819	13.55494	-4.03553
3459.433	15.37351	-0.85778	13.52107	-4.07908
3463.432	15.40486	-0.91072	13.45839	-4.11203
3467.433	15.34363	-0.92603	13.40143	-4.10204
3471.435	15.30300	-0.94874	13.36831	-4.07124
3475.428	15.25478	-0.96859	13.32501	-4.06737
3479.436	15.24910	-0.98443	13.19985	-4.02711
3483.431	15.24369	-0.94426	13.17219	-4.00224
3487.435	15.24655	-0.90901	13.08628	-4.02095
3491.432	15.28363	-0.93574	13.02761	-4.02559
3495.440	15.31868	-0.97361	12.97882	-3.96679
3499.431	15.34386	-0.98746	12.93896	-3.95445
3503.430	15.35747	-1.02402	12.90414	-3.96134
3507.436	15.32643	-1.04389	12.85869	-3.93252
3511.430	15.34658	-1.12971	12.83427	-3.91991
3515.434	15.35863	-1.12910	12.80369	-3.94681
3519.426	15.41423	-1.15423	12.77728	-3.92793
3523.436	15.39573	-1.22095	12.76255	-3.96033
3527.451	15.38722	-1.27546	12.77627	-3.93470
3531.437	15.39153	-1.30658	12.77516	-3.92680
3535.434	15.36382	-1.32994	12.83385	-3.85361
3539.432	15.35027	-1.33441	12.85926	-3.85026
3543.432	15.35501	-1.34709	12.94924	-3.82060
3547.438	15.32722	-1.33439	12.96154	-3.76672
3551.431	15.28125	-1.39488	13.07038	-3.66164
3555.436	15.26824	-1.42873	12.94961	-3.66455
3559.427	15.30993	-1.40272	12.91048	-3.67666
3563.436	15.24233	-1.41918	12.84083	-3.67275
3567.431	15.25224	-1.36314	12.83446	-3.63689
3571.434	15.29663	-1.21005	12.84626	-3.56840
3575.431	15.27868	-1.10360	12.84541	-3.43426
3579.430	15.34432	-1.06620	12.95756	-3.52562
3583.433	15.35224	-1.08657	12.87732	-3.55937
3587.431	15.59575	-0.76719	12.85053	-3.53325
3591.429	15.48052	-0.76920	12.90994	-3.59843
3595.431	15.52082	-0.98844	13.02813	-3.66906
3599.433	15.57509	-1.17355	13.27440	-3.61225
3603.449	15.58654	-1.07704	12.99213	-3.65616
3607.434	15.60072	-0.86105	13.02302	-3.68587
3611.429	15.66215	-0.70587	13.00957	-3.72597
3615.434	15.70006	-0.64962	13.13065	-3.79918
3619.431	15.72844	-0.70770	13.00561	-3.83977
3623.429	14.51870	-0.69080	12.09643	-3.87629
3627.435	13.30110	-0.71864	10.48094	-3.94344
3631.425	10.58327	-0.99816	9.46355	-3.94307
3635.434	9.78496	-1.55632	8.35529	-3.98833
3639.430	9.24012	-1.83485	7.37135	-4.04895
3643.434	9.13044	-1.98004	7.04988	-4.00426
3647.426	8.76648	-2.39565	6.25588	-4.01878
3651.430	8.33630	-2.50486	6.03577	-4.01837
3655.434	8.46320	-2.58153	6.09270	-3.96262
3659.439	8.51392	-2.66394	6.32306	-3.93398
3663.460	8.78163	-2.63470	6.12467	-3.96241
3667.436	8.82807	-2.56054	6.04730	-4.01971
3671.429	8.55974	-2.65739	5.92451	-4.20744
3675.431	8.32684	-2.66076	5.85043	-4.31343
3679.433	8.01569	-2.76543	5.71522	-4.15701
3683.431	7.99364	-2.78210	5.68325	-4.19844
3687.431	7.99442	-2.85660	5.70878	-4.18448
3691.453	7.96237	-2.87050	5.68851	-4.21133
3695.429	7.98717	-2.87923	5.67113	-4.19791
3699.437	8.18188	-2.88979	5.72328	-4.16202
3703.443	8.18976	-2.88331	5.69893	-4.20263
3707.435	8.16924	-2.83581	5.61964	-4.41809
3711.425	7.83237	-3.15936	5.47737	-4.42904
3715.431	7.81573	-3.27627	5.37800	-4.36980
3719.433	7.83278	-3.44127	5.31165	-4.46531
3723.431	7.95886	-3.32028	5.34695	-4.43424
3727.428	7.98077	-3.40846	5.32589	-4.40449
3731.752	8.06132	-3.28420	5.38954	-4.44163
3735.429	8.02224	-3.58792	5.45137	-4.41214
3739.429	8.12704	-3.39953	5.39214	-4.43133
3743.435	8.04336	-3.49516	5.39701	-4.43167
3747.427	8.02854	-3.44270	5.45740	-4.42294
3751.431	8.14704	-3.53690	5.41276	-4.38084
3755.423	8.17332	-3.44661	5.41140	-4.37960
3759.425	8.20257	-3.33791	5.46559	-4.45686
3763.429	8.32344	-3.19854	5.49539	-4.47835
3767.427	8.23384	-3.28083	5.54393	-4.49961
3771.426	8.17758	-3.22233	5.51956	-4.52703
3775.426	8.17208	-3.17559	5.51627	-4.52912
3779.430	8.16654	-3.10748	5.48912	-4.56367
3783.430	8.14059	-3.12623	5.49522	-4.54354
3787.466	8.17882	-3.09530	5.48474	-4.57960
3791.436	8.23692	-3.10446	5.46448	-4.58843
3795.429	8.24149	-3.03488	5.45405	-4.58628
3799.432	8.29394	-3.00157	5.48164	-4.58081
3803.426	8.28228	-3.05048	5.54811	-4.55619
3807.428	8.25367	-3.07691	5.56886	-4.49055
3811.429	8.33190	-3.04997	5.61411	-4.43035
3815.427	8.39843	-3.02857	5.62603	-4.40981
3819.425	8.46424	-3.01040	5.64722	-4.36247
3823.430	8.40509	-3.00949	5.66233	-4.35466
3827.440	8.39520	-2.98174	5.65590	-4.32966
3831.434	8.42539	-2.96562	5.65277	-4.29995
3835.427	8.39982	-2.94334	5.64663	-4.29542
3839.426	8.21461	-2.88404	5.67221	-4.27633
3843.436	8.18225	-2.88179	5.67204	-4.25752
3847.429	8.11262	-2.84588	5.66106	-4.24496
3851.430	8.13568	-2.76034	5.64457	-4.25914
3855.425	7.96200	-2.66890	5.63304	-4.26911
3859.427	7.88643	-2.67713	5.62291	-4.30047
3863.430	7.78516	-2.85659	5.51184	-4.69518
3867.798	6.91295	-6.17925	5.36535	-5.34583
3871.437	5.22869	-7.02397	3.45304	-7.57143
3875.433	4.37557	-8.05307	4.08298	-8.42955
3879.422	3.77913	-11.50595	3.89827	-9.50138
3883.431	3.53157	-13.87234	3.48303	-10.14600
3887.425	3.32785	-14.41612	3.10290	-11.63235
3891.430	-19.99372	-12.16709	3.37287	-11.97678
3895.421	-19.99372	-12.13163	3.17173	-11.92728
3899.431	3.29213	-14.91177	3.08075	-11.76852
3903.427	3.20550	-14.73993	3.17730	-11.46037
3907.436	3.24182	-14.51526	3.08260	-11.55673
3911.426	3.09409	-14.69616	3.12546	-11.59447
3915.424	-19.99372	-12.16751	3.13969	-11.63988
3919.422	-19.99372	-12.14701	2.96772	-11.60567
3923.423	-19.99372	-12.16986	2.81853	-11.54142
3927.426	-19.99372	-12.11440	2.80602	-11.60735
3931.424	-19.99372	-12.10299	2.82457	-11.56671
3935.430	-19.99372	-12.10187	2.78008	-11.57809
3939.430	-19.99372	-12.10067	2.74566	-11.54895
3943.426	-19.99372	-12.09667	2.78914	-11.54775
3947.428	-19.99372	-12.09102	2.81863	-11.56695
3951.424	-19.99372	-12.08044	2.83061	-11.57253
3955.422	NaN	NaN	2.82538	-11.47000
3959.425	NaN	NaN	2.80372	-11.50791
3963.424	NaN	NaN	2.77297	-11.51907
3967.444	NaN	NaN	2.84568	-11.53119
3971.432	NaN	NaN	2.90824	-11.55183
3975.427	NaN	NaN	2.96448	-11.57727
3979.420	NaN	NaN	2.99309	-11.55126
3983.429	NaN	NaN	2.99487	-11.54800
3987.424	NaN	NaN	2.95183	-11.47483
3991.432	NaN	NaN	2.96035	-11.45918
3995.419	NaN	NaN	2.96188	-11.51598
3999.427	NaN	NaN	2.91879	-11.59500
4003.887	NaN	NaN	2.91683	-11.65381
4007.303	NaN	NaN	2.94282	-11.65097
4011.303	NaN	NaN	2.99019	-11.65948
4015.301	NaN	NaN	2.87004	-11.69060
4019.298	NaN	NaN	2.81598	-11.66828
4023.297	NaN	NaN	2.70669	-11.66323
4027.299	NaN	NaN	2.76473	-11.66135
4031.298	3.01930	-15.20115	2.82432	-11.66153
4035.304	-19.99372	-12.07800	2.91713	-11.63562
4039.299	-19.99372	-12.07800	2.94911	-11.49147
4043.300	3.10826	-13.72841	2.88770	-11.23919
4047.299	3.03343	-13.36549	2.88871	-10.84143
4051.296	3.25322	-13.11143	2.86022	-11.00519
4055.297	3.23264	-13.52533	2.83214	-10.97338
4059.300	3.08060	-13.60590	2.93156	-11.01023
4063.296	2.98052	-13.87615	2.88512	-10.91805
4067.296	3.03311	-13.87764	2.98985	-10.94291
4071.297	3.12267	-13.92237	3.01702	-10.86091
4075.300	3.06362	-13.69981	2.97911	-10.74709
4079.304	3.07543	-13.67683	2.91975	-10.70817
4083.298	3.13380	-13.48909	2.93349	-10.70593
4087.297	3.14736	-13.37719	2.92886	-10.63312
4091.299	3.16285	-13.53649	2.90379	-10.70796
4095.316	3.14496	-13.56185	2.95213	-10.73300
4099.300	3.07525	-13.50485	2.94020	-10.72990
4103.298	3.14580	-14.02541	2.96668	-10.67826
4107.306	3.14246	-14.00799	2.98930	-10.66954
4111.299	3.17698	-13.84441	2.98591	-10.64157
4115.303	3.19143	-14.45697	3.06360	-10.62777
4119.303	3.21869	-14.42324	3.01309	-10.63832
4123.303	3.22477	-14.62814	3.14041	-10.74075
4127.300	3.18264	-14.47881	3.07815	-10.76024
4131.299	3.19781	-14.26495	3.12702	-10.83337
4135.332	3.23690	-14.31047	3.18272	-10.88342
4139.302	3.26079	-14.29749	3.24199	-10.87770
4143.292	3.31106	-14.23361	3.21065	-10.93487
4147.296	3.24345	-14.18326	3.20600	-10.95862
4151.297	3.33223	-13.99479	3.18301	-10.99513
4155.314	3.36419	-13.94967	3.11517	-10.99217
4159.308	3.30267	-14.11309	3.10007	-10.88328
4163.298	3.30084	-13.89977	3.02559	-10.88146
4167.300	3.30468	-13.90259	3.01700	-10.77092
4171.290	3.27257	-13.84487	3.05004	-10.72300
4175.298	3.15627	-13.81782	3.05840	-10.69691
4179.298	3.13915	-13.83779	2.96173	-10.63861
4183.298	3.01539	-13.81465	2.91629	-10.66411
4187.293	3.11316	-13.86024	2.82722	-10.67043
4191.298	3.12484	-13.90957	2.75029	-10.61118
4195.295	3.04323	-14.24153	2.77941	-10.60397
4199.298	-19.99372	-12.78327	2.74274	-10.55400
4203.310	-19.99372	-12.59781	2.76255	-10.56793
4207.299	-19.99372	-12.46171	2.71701	-10.61991
4211.304	-19.99372	-12.35696	2.73880	-10.62775
4215.295	-19.99372	-12.27384	2.63210	-10.63513
4219.333	-19.99372	-12.20741	2.73865	-10.73259
4223.305	3.03224	-14.55844	2.85549	-10.80328
4227.294	3.13227	-14.47265	2.75185	-10.81203
4231.294	2.98163	-14.27646	3.05546	-10.80177
4235.294	3.01881	-14.16208	2.84489	-10.85905
4239.298	3.01395	-13.95023	2.78488	-10.87235
4243.297	3.00136	-13.46822	2.74571	-10.86229
4247.300	3.02977	-13.79399	2.59980	-10.90168
4251.308	3.08812	-13.56241	2.76089	-10.88798
4255.302	3.22534	-13.85251	2.67321	-10.91575
4259.289	3.30982	-13.96571	2.66709	-10.91829
4263.298	3.23732	-13.92808	2.70686	-10.92096
4267.294	3.24281	-13.99156	2.54583	-10.90405
4271.298	3.13311	-13.89474	2.71686	-10.92939
4275.296	3.13600	-13.85135	2.65560	-10.95445
4279.298	3.10661	-13.86868	2.66516	-10.96645
4283.291	3.06545	-13.85057	2.77248	-10.96375
4287.299	3.02910	-13.84183	2.84685	-10.97209
4291.299	3.05590	-13.76371	2.78968	-10.98152
4295.294	3.12222	-13.68526	2.71297	-10.97644
4299.292	2.95505	-13.53934	2.69423	-10.94144
4303.305	2.15718	-13.30891	1.71630	-10.50091
4307.301	-0.27959	-11.00435	-0.53498	-10.38371
4311.292	-0.81960	-8.54394	-2.14387	-7.89422
4315.300	-2.34334	-6.85994	-3.89360	-6.98262
4319.293	-2.83093	-6.78761	-4.48811	-6.51039
4323.298	-3.95671	-6.70076	-5.73635	-5.89705
4327.293	-5.58823	-4.80979	-7.04130	-4.80879
4331.299	-5.87764	-2.72257	-7.60307	-4.43908
4335.314	-5.97853	-2.40348	-8.07389	-3.73857
4339.296	-5.88967	-2.30475	-8.12396	-3.35163
4343.292	-5.78087	-2.26908	-8.03343	-3.25635
4347.299	-5.82717	-2.30503	-7.67818	-3.39125
4351.292	-5.98250	-2.28516	-7.36684	-3.51890
4355.295	-6.09901	-2.16679	-7.40511	-3.43741
4359.287	-6.34196	-1.96295	-7.97028	-3.26936
4363.297	-6.43246	-1.72074	-7.90328	-3.08714
4367.293	-6.34687	-1.79956	-7.94642	-3.06804
4371.302	-6.49541	-1.70592	-7.95755	-2.88199
4375.289	-6.49744	-1.53767	-7.90991	-2.86460
4379.295	-6.54443	-1.61510	-7.71601	-2.78877
4383.293	-6.63656	-1.44146	-8.02942	-2.77852
4387.295	-6.65928	-1.41776	-8.20401	-2.79311
4391.291	-6.71143	-1.27381	-8.39982	-2.69072
4395.297	-6.71676	-1.29069	-8.38746	-2.66505
4399.292	-6.71801	-1.27130	-8.49799	-2.58336
4403.292	-6.70244	-1.22544	-8.57986	-2.58303
4407.293	-6.66359	-1.23831	-8.63042	-2.59082
4411.298	-6.66034	-1.16155	-8.64420	-2.60115
4415.301	-6.67121	-1.21104	-8.70012	-2.60870
4419.288	-6.68545	-1.22810	-8.77284	-2.59339
4423.291	-6.68678	-1.20498	-8.77327	-2.59001
4427.294	-6.68822	-1.17058	-8.79291	-2.58857
4431.291	-6.69662	-1.33056	-8.78648	-2.58369
4435.294	-6.68766	-1.50223	-8.78845	-2.56466
4439.293	-6.68766	-1.71451	-8.80369	-2.58014
4443.291	-6.70616	-1.88641	-8.79880	-2.60515
4447.290	-6.69946	-2.00136	-8.79831	-2.59424
4451.301	-6.73001	-1.99968	-8.79863	-2.60527
4455.296	-6.76439	-1.95507	-8.80660	-2.59717
4459.294	-6.82520	-1.92429	-8.83202	-2.59425
4463.288	-6.77120	-2.10048	-8.83328	-2.64462
4467.298	-6.79195	-1.99910	-8.86350	-2.66861
4471.294	-6.84825	-2.00577	-8.88867	-2.69006
4475.289	-7.03044	-1.72293	-8.91081	-2.71211
4479.636	-7.08681	-1.58805	-8.82567	-2.75179
4483.309	-7.32517	-1.58325	-8.60443	-2.82249
4487.297	-7.37770	-1.56228	-8.53943	-2.75141
4491.286	-7.32612	-1.42242	-8.46677	-2.70912
4495.299	-7.30793	-1.51605	-8.45958	-2.72150
4499.292	-7.15650	-1.51621	-8.33083	-2.77078
4503.291	-7.21862	-1.46589	-8.37815	-2.78960
4507.291	-7.29709	-1.53113	-8.31691	-2.81366
4511.292	-7.28205	-1.59399	-8.33656	-2.83858
4515.290	-7.37965	-1.60155	-8.32543	-2.86748
4519.289	-7.37565	-1.67388	-8.31601	-2.92462
4523.294	-7.29582	-1.70070	-8.31963	-3.05541
4527.291	-7.25218	-1.78012	-8.35675	-3.00427
4531.290	-7.16595	-1.81819	-8.32072	-3.12032
4535.305	-7.15191	-1.82768	-8.33049	-3.18312
4539.292	-7.13866	-1.83325	-8.30092	-3.20478
4543.318	-7.03093	-1.82161	-8.30760	-3.21519
4547.291	-6.66954	-1.98413	-8.30864	-3.17550
4551.287	-6.62517	-2.07295	-8.29487	-3.07424
4555.294	-6.60536	-2.09725	-8.21240	-2.93019
4559.291	-6.56297	-2.04967	-8.20323	-2.78941
4563.288	-6.61286	-1.99338	-8.18473	-2.74672
4567.286	-6.65488	-2.08653	-8.17884	-2.50522
4571.287	-6.63093	-2.05799	-8.15278	-2.66212
4575.291	-6.54519	-2.05305	-8.17556	-2.71530
4579.293	-6.56157	-2.07322	-8.19730	-2.66467
4583.288	-6.56520	-2.11793	-8.21300	-2.73124
4587.287	-6.63712	-2.12181	-8.19584	-2.85755
4591.290	-6.73811	-2.10543	-8.17906	-2.90910
4595.286	-6.79493	-2.06829	-8.18602	-2.82200
4599.293	-6.86141	-2.00081	-8.19912	-3.07057
4603.304	-6.90989	-2.03722	-8.19720	-3.13324
4607.291	-6.92875	-2.12437	-8.17617	-3.18255
4611.287	-6.94831	-2.08736	-8.15676	-3.27627
4615.287	-6.98998	-2.06303	-8.17889	-3.28763
4619.295	-7.02369	-2.13544	-8.17804	-3.31088
4623.291	-7.03452	-2.28935	-8.18461	-3.35762
4627.284	-7.05259	-2.27983	-8.19932	-3.34154
4631.292	-7.08522	-2.33137	-8.24755	-3.31285
4635.287	-7.09184	-2.54806	-8.32811	-3.27103
4639.291	-7.04909	-3.12590	-8.36399	-3.42420
4643.286	-7.04357	-3.04572	-8.26733	-3.62666
4647.293	-6.98216	-4.84302	-7.76087	-5.92102
4651.288	-6.93826	-7.62403	-7.63004	-7.55859
4655.287	-6.96734	-9.41560	-7.05376	-7.92992
4659.293	-7.00851	-11.78031	-6.93217	-9.30775
4663.289	-7.47741	-13.50620	-7.01903	-11.08547
4667.287	-19.99372	-12.09026	-6.62647	-11.34406
4671.308	-19.99372	-12.08635	-6.63029	-11.94958
4675.294	-19.99372	-12.08441	-6.49813	-12.44901
4679.290	-19.99372	-12.08325	-6.54205	-12.46250
4683.312	-19.99372	-12.08247	-6.54445	-12.06179
4687.292	-19.99372	-12.08189	-6.46951	-11.86680
4691.287	-19.99372	-12.08142	-6.56890	-12.26421
4695.291	-19.99372	-12.08106	-6.49452	-12.28592
4699.282	-19.99372	-12.08075	-6.51309	-12.40933
4703.302	-19.99372	-12.10926	-6.49440	-12.44056
4707.294	NaN	NaN	-6.49313	-12.42837
4711.287	NaN	NaN	-6.50219	-12.35681
4715.286	NaN	NaN	-6.50913	-12.45207
4719.292	NaN	NaN	-6.50680	-12.43934
4723.283	NaN	NaN	-6.46779	-12.47938
4727.288	NaN	NaN	-6.42856	-12.59436
4731.286	NaN	NaN	-6.36979	-12.64548
4735.286	NaN	NaN	-6.36525	-12.70884
4739.286	NaN	NaN	-6.31583	-12.77024
4743.292	NaN	NaN	-6.28158	-12.81963
4747.286	NaN	NaN	-6.28197	-12.83066
4751.292	NaN	NaN	-6.23481	-12.87158
4755.288	NaN	NaN	-6.27890	-12.90318
4759.283	NaN	NaN	-6.20656	-12.91771
4763.314	NaN	NaN	-6.18463	-12.93466
4767.286	NaN	NaN	-6.18281	-12.88220
4771.285	NaN	NaN	-6.25159	-12.75741
4775.283	NaN	NaN	-6.21711	-12.54072
4779.284	NaN	NaN	-6.28682	-12.52037
4783.308	NaN	NaN	-6.37055	-12.49324
4787.289	NaN	NaN	-6.40121	-12.38191
4791.290	NaN	NaN	-6.41971	-12.28186
4795.284	NaN	NaN	-6.46796	-12.29317
4799.288	NaN	NaN	-6.53225	-12.26925
4803.295	NaN	NaN	-6.49428	-12.29630
4807.287	NaN	NaN	-6.56667	-12.27397
4811.284	NaN	NaN	-6.57820	-12.21870
4815.286	NaN	NaN	-6.48529	-12.23500
4819.284	NaN	NaN	-6.60825	-12.23208
4823.288	NaN	NaN	-6.43819	-12.42445
4827.285	NaN	NaN	-6.32196	-12.43884
4831.300	NaN	NaN	-6.28930	-12.53083
4835.285	NaN	NaN	-6.32804	-12.67000
4839.285	NaN	NaN	-6.22822	-12.81519
4843.291	NaN	NaN	-6.16972	-12.80449
4847.284	NaN	NaN	-6.18154	-12.83658
4851.287	NaN	NaN	-6.12965	-12.85898
4855.279	NaN	NaN	-6.22579	-12.92507
4859.288	NaN	NaN	-6.33880	-12.94413
4863.158	NaN	NaN	-6.17344	-12.99421
4867.164	NaN	NaN	-6.23827	-12.94413
4871.289	NaN	NaN	-6.20960	-12.92623
4875.163	NaN	NaN	-6.24202	-12.88850
4879.162	NaN	NaN	-6.23950	-12.81058
4883.160	NaN	NaN	-6.30654	-12.67599
4887.164	NaN	NaN	-6.29752	-12.63045
4891.164	NaN	NaN	-6.24693	-12.69329
4895.161	NaN	NaN	-6.22341	-12.69092
4899.157	NaN	NaN	-6.18642	-12.64943
4903.176	NaN	NaN	-6.20202	-12.60605
4907.160	NaN	NaN	-6.14693	-12.57181
4911.163	NaN	NaN	-6.12313	-12.49072
4915.163	NaN	NaN	-6.11893	-12.45973
4919.161	NaN	NaN	-6.17923	-12.39884
4923.159	NaN	NaN	-6.15740	-12.41920
4927.158	NaN	NaN	-6.12080	-12.42660
4931.165	NaN	NaN	-6.33155	-12.45305
4935.163	NaN	NaN	-6.21509	-12.53147
4939.159	NaN	NaN	-6.23310	-12.50869
4943.158	NaN	NaN	-6.27331	-12.55062
4947.159	NaN	NaN	-6.27045	-12.65401
4951.161	NaN	NaN	-6.32399	-12.65886
4955.165	NaN	NaN	-6.30843	-12.64536
4959.167	NaN	NaN	-6.19348	-12.68210
4963.160	NaN	NaN	-6.24967	-12.72467
4967.174	NaN	NaN	-6.24452	-12.83000
4971.164	NaN	NaN	-6.30213	-12.85356
4975.160	NaN	NaN	-6.23273	-12.92078
4979.158	NaN	NaN	-6.27407	-12.99397
4983.194	NaN	NaN	-6.34324	-12.99954
4987.157	NaN	NaN	-6.30904	-13.00447
4991.159	NaN	NaN	-6.33346	-12.85380
4995.152	-8.07385	-12.89690	-6.83550	-12.48259
4999.165	-8.04762	-11.59050	-7.55618	-10.39707
5003.168	-8.44776	-7.59533	-9.68028	-7.91849
5007.158	-8.50768	-4.28948	-10.16141	-6.67404
5011.156	-8.83713	-3.84867	-10.93325	-5.93714
5015.158	-9.46063	-1.44409	-11.77941	-3.77985
5019.156	-9.07728	-0.73816	-11.10522	-3.54702
5023.160	-9.09674	0.38510	-11.15936	-1.97421
5027.154	-9.14549	0.90940	-10.89087	-1.22314
5031.162	-8.97106	0.69899	-10.89389	-1.81675
5035.158	-8.84545	0.20127	-10.86957	-2.79996
5039.160	-9.22511	0.04447	-10.89494	-3.02249
5043.161	-9.50407	0.36700	-10.92133	-2.87813
5047.157	-9.51457	0.62508	-11.02643	-2.57570
5051.160	-9.62654	0.79982	-11.09205	-2.18035
5055.153	-9.74041	0.83063	-11.10703	-2.13568
5059.159	-9.80255	0.88612	-11.17751	-2.04864
5063.156	-9.74369	1.09409	-11.18527	-2.07369
5067.159	-9.71859	1.03737	-11.23296	-2.11840
5071.153	-9.30945	0.95327	-11.26882	-2.08363
5075.159	-9.35747	0.87331	-11.35098	-2.13420
5079.155	-9.06610	0.92905	-11.40861	-2.10265
5083.164	-9.22052	1.01955	-11.45090	-1.97629
5087.156	-9.14382	1.03809	-11.43653	-1.82448
5091.152	-9.21113	0.96139	-11.42723	-1.76103
5095.160	-9.30445	0.92453	-11.42110	-1.72713
5099.162	-9.37134	0.91438	-11.37588	-1.70362
5103.171	-9.35943	0.89899	-11.29715	-1.66109
5107.159	-9.38344	0.85143	-11.22711	-1.61829
5111.154	-9.33362	0.84010	-11.22797	-1.59934
5115.155	-9.45769	0.84980	-11.25459	-1.57151
5119.158	-9.61853	0.87049	-11.23253	-1.52055
5123.157	-9.71189	0.88628	-11.12481	-1.49239
5127.157	-9.64794	0.91327	-10.94851	-1.59319
5131.154	-9.67012	0.89421	-10.83991	-1.66625
5135.153	-9.64904	0.89350	-10.83137	-1.72897
5139.158	-9.45462	0.90480	-10.73904	-1.83203
5143.155	-9.27685	0.88508	-10.73737	-1.93452
5147.157	-9.11007	0.87255	-10.71394	-1.95735
5151.153	-9.18393	0.86981	-10.71609	-1.97290
5155.159	-9.17827	0.88160	-10.70852	-2.08529
5159.158	-9.21909	0.92659	-10.65400	-2.11352
5163.165	-9.28528	0.92465	-10.68336	-2.15630
5167.162	-9.25050	0.92553	-10.71686	-2.21765
5171.156	-9.35691	0.91726	-10.88417	-2.23252
5175.153	-9.52748	0.98660	-11.05479	-2.23289
5179.154	-9.82486	1.02805	-11.12797	-2.23508
5183.157	-9.73684	1.07203	-11.31319	-2.13735
5187.155	-9.86156	1.07928	-11.33741	-2.06240
5191.153	-9.46780	1.05560	-11.22236	-1.79120
5195.159	-9.48186	1.06144	-11.19347	-1.59617
5199.157	-9.38663	1.07112	-11.22625	-1.76103
5203.152	-9.17454	1.04482	-11.21376	-1.95741
5207.164	-9.50414	1.15403	-11.01103	-2.03685
5211.189	-9.74444	1.22716	-11.09243	-2.14957
5215.155	-9.79942	1.33193	-11.18446	-2.11522
5219.162	-9.77898	1.09887	-11.16872	-2.05292
5223.156	-9.43421	1.05786	-11.19624	-1.80916
5227.152	-9.41571	1.09532	-11.06585	-1.62884
5231.149	-9.35636	1.27270	-11.12326	-1.70721
5235.158	-9.35261	1.30337	-11.03831	-1.70785
5239.155	-9.66590	1.29804	-11.08299	-2.29982
5243.160	-9.93920	1.29362	-10.95665	-1.79448
5247.161	-9.53808	1.26208	-11.07054	-1.88637
5251.153	-9.59908	1.18772	-11.04673	-1.85889
5255.152	-9.44066	1.27295	-11.05185	-1.97893
5259.155	-9.60261	1.25303	-11.06674	-1.69375
5263.156	-9.76616	1.27645	-11.08352	-1.51012
5267.153	-9.45201	1.22513	-11.17512	-1.45369
5271.156	-9.51481	1.19154	-11.41051	-1.65781
5275.148	-9.45590	1.23110	-10.94461	-1.70822
5279.152	-9.54201	1.19728	-10.96222	-1.73622
5283.171	-9.72877	1.25167	-10.98047	-1.70409
5287.155	-9.47452	1.12715	-11.20593	-1.76756
5291.157	-9.53113	1.07185	-11.60380	-1.80623
5295.154	-9.44375	1.16126	-11.63151	-1.65599
5299.157	-9.54211	0.80211	-10.88010	-1.68433
5303.161	-9.62562	0.72252	-11.00534	-1.79621
5307.154	-9.47840	0.48700	-11.25185	-1.81376
5311.156	-9.58562	0.70232	-11.55311	-1.80683
5315.153	-9.32680	0.53623	-11.77513	-1.80052
5319.154	-9.42731	0.60909	-11.07680	-1.82815
5323.149	-9.54332	0.67009	-10.87185	-1.81274
5327.156	-9.58357	0.78834	-10.90676	-1.73099
5331.157	-9.38636	0.52706	-11.09322	-1.66197
5335.155	-9.40692	0.68087	-11.25163	-1.56054
5339.150	-9.19200	0.31256	-10.71545	-1.49594
5343.169	-8.22183	0.97195	-9.90094	-1.64281
5347.159	-5.45585	3.52858	-8.01114	0.66359
5351.148	-4.29204	3.81586	-5.98022	2.67465
5355.155	-2.38199	5.09056	-4.67108	3.41451
5359.151	-1.91581	5.43464	-3.50679	3.53734
5363.171	0.33201	5.89276	-2.09308	3.20398
5367.158	1.17805	6.01271	-1.90579	3.20076
5371.165	0.72657	6.06035	-1.62830	3.09319
5375.160	0.38985	6.21324	-1.74551	3.07061
5379.150	-1.52364	6.33567	-1.86300	3.01608
5383.182	-1.37513	5.56855	-1.85740	3.06666
5387.152	-0.45463	5.64609	-1.93088	3.17271
5391.149	-0.23763	5.95727	-1.83090	3.43773
5395.145	0.46716	6.12515	-1.79812	3.58873
5399.154	1.28214	6.16460	-1.73542	3.99503
5403.162	0.50882	6.19104	-1.70782	4.31515
5407.149	0.18092	6.26534	-1.68992	4.47003
5411.155	-0.19469	6.15649	-1.62329	4.12137
5415.160	0.26155	5.77468	-1.60925	3.54808
5419.147	0.62645	5.80118	-1.65788	3.49017
5423.152	0.46686	5.83112	-1.62723	3.81521
5427.152	0.34501	6.05881	-1.57751	4.06050
5431.182	0.46090	6.10192	-1.56025	4.28903
5435.158	0.38452	6.28966	-1.53027	4.44159
5439.152	0.37993	6.39980	-1.56682	4.64810
5443.145	0.29647	6.47572	-1.60248	4.77283
5447.153	0.20946	6.16570	-1.59390	4.03382
5451.150	0.14843	5.81164	-1.63831	3.71910
5455.157	0.20561	5.68528	-1.65299	3.59259
5459.151	0.21561	5.85749	-1.65937	3.56682
5463.152	0.16834	5.75807	-1.65701	3.56562
5467.167	0.17196	5.74968	-1.61032	3.80201
5471.152	0.21949	5.66621	-1.60429	3.81723
5475.148	0.20070	5.73250	-1.58259	3.89689
5479.150	0.22711	5.75979	-1.56387	3.91777
5483.151	0.16144	5.82079	-1.54869	4.21010
5487.147	0.23912	5.79073	-1.52674	4.25212
5491.148	0.24341	5.99121	-1.50671	4.46633
5495.150	0.22115	6.06409	-1.50140	4.54823
5499.171	0.17549	6.37375	-1.52325	4.59548
5503.172	0.21301	6.45645	-1.56471	3.85833
5507.160	0.17802	5.90985	-1.52732	3.86428
5511.152	0.19365	5.79466	-1.55216	3.94133
5515.148	0.14950	5.94174	-1.59194	4.10634
5519.153	0.10488	6.14780	-1.63219	4.63100
5523.149	0.04284	6.22495	-1.65545	4.95788
5527.153	-0.00901	6.40438	-1.64489	4.69352
5531.158	-0.02378	6.61649	-1.61803	3.99623
5535.152	-0.01037	5.95749	-1.70276	3.89750
5539.156	0.02487	5.86436	-1.77018	4.22856
5543.147	0.04472	5.97443	-1.94012	4.36770
5547.147	0.00268	6.05833	-1.91903	4.36549
5551.151	-0.00881	6.08042	-1.93418	4.16419
5555.149	0.08440	6.09882	-2.00896	4.21968
5559.141	-0.08257	6.02918	-1.97352	4.38300
5563.152	0.10878	5.68969	-1.85668	4.09875
5567.160	0.17288	5.75526	-1.79237	4.03536
5571.152	0.19519	5.90246	-1.83067	4.09955
5575.144	0.21547	6.03399	-1.89964	4.38983
5579.147	0.13585	6.29968	-1.85651	4.48104
5583.155	0.13459	5.84389	-1.79217	4.39602
5587.148	0.04777	5.99714	-2.00854	4.48826
5591.146	-0.08552	6.14188	-2.13185	4.13888
5595.147	0.16757	6.15343	-1.60571	4.25058
5599.145	-0.01737	5.93016	-1.55844	4.54618
5603.162	0.30602	5.69272	-1.51345	4.14059
5607.150	0.06609	6.10236	-1.58978	3.98919
5611.145	0.03576	6.33274	-1.88541	4.17913
5615.145	0.13709	6.20863	-1.94947	4.42812
5619.147	0.18454	5.92251	-1.73812	4.01356
5623.152	0.16402	6.15287	-1.75818	4.15027
5627.145	0.26081	6.19441	-1.59035	3.85111
5631.145	0.31734	5.66975	-1.69455	4.07057
5635.168	0.33915	6.04896	-1.67715	4.44483
5639.145	0.16876	6.17549	-1.83707	4.19174
5643.145	0.41120	5.95854	-1.76351	3.85843
5647.148	0.23373	5.76606	-1.69594	3.95551
5651.145	0.41048	6.05491	-1.81530	4.63682
5655.144	0.34720	6.27957	-1.67816	4.12136
5659.147	0.28694	5.69509	-1.96060	4.22872
5663.153	0.27215	6.01066	-1.70174	4.22737
5667.143	0.19581	5.92464	-1.77114	4.74785
5671.146	0.16809	5.82504	-1.91397	4.28875
5675.148	0.02338	6.11619	-2.03234	4.20102
5679.141	0.17576	5.84164	-1.79024	4.00764
5683.151	0.40519	6.05265	-1.75376	3.73852
5687.146	0.35866	5.68604	-1.96610	4.30430
5691.149	0.18263	6.09820	-1.97748	4.23300
5695.140	0.24976	5.75858	-1.82029	4.24842
5699.150	0.20973	5.97225	-1.83067	4.61339
5703.170	0.29749	5.70446	-1.84971	3.88287
5707.152	0.28485	5.99707	-1.92379	4.42688
5711.154	0.29262	5.66034	-2.21189	4.15052
5715.030	0.17725	5.98812	-1.74660	4.19212
5719.020	0.21547	5.86872	-1.71000	4.00163
5723.018	0.54076	5.82992	-2.03630	4.31832
5727.022	0.33913	5.84535	-1.67980	4.27878
5731.019	0.31496	5.90873	-1.80620	4.00503
5735.016	-0.28942	5.94631	-2.02262	4.17575
5739.020	-1.67072	5.98670	-3.57540	3.95918
5743.022	-5.10017	5.99587	-5.87781	3.76494
5747.023	-6.77338	5.56874	-8.23807	4.06863
5751.024	-7.98622	5.57511	-9.25683	3.77097
5755.026	-10.12036	4.99336	-10.17161	1.10992
5759.021	-10.57949	2.17867	-11.55361	1.00272
5763.019	-11.58610	2.56878	-12.23504	1.29734
5767.023	-12.90227	2.56640	-14.04234	1.04283
5771.020	-13.46155	2.52362	-15.00394	1.06305
5775.025	-13.41974	3.25453	-14.75500	1.28244
5779.018	-13.56967	2.57698	-14.82518	1.22517
5783.022	-12.50295	2.83850	-14.76468	1.13826
5787.020	-13.32512	2.80392	-14.69748	1.53729
5791.021	-13.50051	2.91337	-14.73135	1.37405
5795.024	-13.47789	2.93363	-14.38880	1.25465
5799.020	-13.71465	2.97363	-14.78598	1.25709
5803.022	-13.52871	2.95418	-14.57434	1.06640
5807.018	-13.74378	3.10738	-15.16805	1.40716
5811.018	-13.69008	3.11218	-14.99385	1.33484
5815.050	-13.75772	3.10763	-14.90442	1.28893
5819.019	-13.54312	3.09250	-14.91814	1.12223
5823.016	-13.62244	3.14083	-14.77164	0.89100
5827.016	-13.79269	3.18981	-15.21989	1.18682
5831.017	-13.62786	3.18706	-14.95016	1.35728
5835.024	-13.71861	3.19130	-15.02865	1.16210
5839.020	-13.59298	3.12393	-14.90551	1.32835
5843.021	-13.69839	3.17131	-14.97706	1.26277
5847.022	-13.63667	3.02560	-14.84628	1.17660
5851.018	-13.57666	3.15358	-14.84577	1.16888
5855.020	-13.60294	3.09531	-14.94592	1.02057
5859.013	-13.46047	3.47846	-14.88611	1.51107
5863.022	-13.51300	3.02127	-14.95230	1.09225
5867.018	-13.74332	3.11119	-14.68858	1.19980
5871.016	-13.34566	3.18361	-14.67957	1.00108
5875.016	-13.54347	3.50010	-15.05554	1.12722
5879.081	NaN	NaN	NaN	NaN
5887.019	-13.34940	3.24268	-15.08932	1.07329
5891.019	-13.44615	3.43068	-14.87821	0.99817
5895.014	-13.47050	3.15243	-14.67030	0.96344
5899.022	-13.44507	3.36181	-14.95373	1.12807
5903.015	-13.37646	3.02614	-15.10894	1.19099
5907.022	-13.42444	3.35480	-14.66914	1.09836
5911.015	-13.50140	3.38775	-14.64334	1.24960
5915.022	-13.46486	3.26628	-14.67137	1.12348
5919.024	-13.15143	3.40882	-15.05582	1.23415
5923.020	-13.43517	3.27986	-14.69388	1.17325
5927.011	-13.40239	3.45204	-14.67599	1.12771
5931.019	-13.37726	3.25318	-14.66961	1.01987
5935.019	-13.43787	3.27086	-14.70335	1.17315
5939.034	-13.58324	3.35185	-14.83481	1.18219
5943.019	-13.49336	3.00019	-14.68932	1.20480
5947.015	-13.34984	3.29182	-14.56558	1.05976
5951.018	-13.25458	3.31994	-14.53484	1.14722
5955.015	-13.29387	3.22209	-14.58675	1.19399
5959.019	-13.20435	3.21992	-14.56046	1.15817
5963.028	-13.24553	3.26929	-14.55862	1.23722
5967.037	-13.20063	3.27462	-14.56678	1.32045
5971.021	-13.23045	3.31060	-14.52814	1.29875
5975.018	-13.27153	3.11852	-14.43619	1.31295
5979.015	-13.34383	3.18629	-14.45942	1.42129
5983.021	-13.32790	3.22976	-14.40300	1.43621
5987.016	-13.39271	3.35773	-14.39520	1.43517
5991.020	-13.51802	3.28800	-14.47815	1.49624
5995.015	-13.60646	3.36209	-14.52823	1.45042
5999.012	-13.50345	3.28473	-14.60330	1.42397
6003.025	-13.40927	3.14629	-14.57715	1.36920
6007.032	-13.33929	3.05677	-14.54012	1.30719
6011.015	-13.42601	3.13405	-14.55821	1.29552
6015.019	-13.46742	3.21604	-14.59029	1.36768
6019.015	-13.55158	3.25397	-14.63328	1.42748
6023.016	-13.37582	3.34052	-14.64229	1.36014
6027.014	-13.31380	3.40661	-14.56441	1.30532
6031.019	-13.37286	3.42741	-14.58624	1.38195
6035.017	-13.22441	3.87373	-13.82459	1.82363
6039.009	-13.09574	5.00065	-14.40421	3.29599
6043.367	-12.84944	4.95656	-9.98848	1.61273
6047.027	NaN	NaN	-17.24213	7.31296
6051.022	NaN	NaN	-19.99313	-12.07747
6055.007	NaN	NaN	-19.99344	-12.07744
6059.016	NaN	NaN	-19.99352	-12.07744
6063.014	NaN	NaN	-19.99357	-12.07743
6067.021	NaN	NaN	-19.99361	-12.07743
6071.060	NaN	NaN	-19.99363	-12.07743
6075.014	NaN	NaN	-19.99363	-12.07743
6079.022	NaN	NaN	-19.99366	-12.07743
6083.013	NaN	NaN	-19.99366	-12.07743
6087.019	NaN	NaN	-19.99368	-12.07743
6091.072	NaN	NaN	NaN	NaN
6095.022	NaN	NaN	NaN	NaN
6099.013	NaN	NaN	NaN	NaN
6103.026	NaN	NaN	NaN	NaN
6107.014	NaN	NaN	NaN	NaN
6111.575	NaN	NaN	NaN	NaN
6115.023	0.04328	13.45819	-13.64305	11.17206
6119.015	NaN	NaN	NaN	NaN
6123.017	NaN	NaN	-3.54302	-0.12512
6127.017	NaN	NaN	-4.24756	-0.56791
6131.007	5.58759	0.31406	-4.34297	-1.35433
6135.017	-0.05678	4.19206	-4.50249	-1.60677
6139.014	0.46701	1.43914	-4.09589	-1.04884
6143.017	0.91185	0.60928	-1.58301	-0.93987
6147.008	2.08352	1.62042	-1.05830	-0.92971
6151.017	3.08161	1.87608	1.72820	-0.84775
6155.012	3.99872	2.03387	1.22985	-0.76938
6159.013	2.48797	2.13685	0.61585	-0.78929
6163.012	2.81268	2.12038	0.87396	-1.07410
6167.019	2.65746	1.70023	0.80828	-0.97146
6171.019	3.02618	1.65291	0.72389	-1.12643
6175.011	2.89594	1.79433	0.68322	-0.85012
6179.010	2.91237	1.68511	0.54404	-0.80833
6183.018	2.79337	1.60844	0.17978	-0.70289
6187.014	2.81197	1.67281	0.24413	-0.67956
6191.012	2.95898	1.60215	0.15985	-0.64958
6195.009	3.04197	1.52169	-0.14829	-0.77164
6199.012	2.96124	1.45827	-0.02338	-0.85865
6203.015	2.93401	1.46250	0.05619	-0.82287
6207.028	2.79894	1.41648	-0.03963	-0.72253
6211.021	2.77683	1.44930	0.10366	-0.73418
6215.012	2.73199	1.46213	0.25649	-0.70160
6219.022	2.63539	1.41995	0.34963	-0.76090
6223.016	2.67531	1.44496	0.42951	-0.80665
6227.015	2.71976	1.52798	0.62258	-0.85840
6231.011	2.65964	1.55769	0.54208	-0.92849
6235.016	2.58093	1.55035	0.72861	-0.98847
6239.010	2.64745	1.66091	0.79990	-1.01123
6243.013	2.74618	1.68694	0.73469	-1.01117
6247.010	2.85185	1.71620	0.66863	-1.05071
6251.017	2.99482	1.69629	0.73255	-1.09622
6255.010	3.10911	1.67318	0.65144	-1.16653
6259.008	3.21117	1.68982	0.65796	-1.15570
6263.009	3.24481	1.70149	0.58208	-1.07094
6267.013	3.27462	1.66144	0.51604	-1.08797
6271.011	3.26238	1.60407	0.42961	-1.08167
6275.008	3.27388	1.54875	0.40705	-1.04434
6279.012	3.25627	1.51255	0.36094	-1.01196
6283.013	3.30205	1.37786	0.31066	-1.02759
6287.005	3.17381	1.20847	0.28910	-1.04095
6291.016	3.06187	0.82393	0.27679	-0.99549
6295.015	2.97032	0.68833	0.29277	-0.99269
6299.015	2.86918	1.17207	0.32295	-0.96876
6303.005	2.85423	1.09039	0.35521	-0.97800
6307.026	2.78941	1.05375	0.34762	-1.03881
6311.014	2.74613	1.03977	0.38775	-1.08747
6315.015	2.65956	0.99304	0.49723	-1.18323
6319.016	2.63774	1.06654	0.51949	-1.19790
6323.008	2.57419	1.13382	0.50671	-1.34804
6327.008	2.57251	1.17707	0.58233	-1.36446
6331.008	2.71847	1.21740	0.58935	-1.32309
6335.014	2.83873	1.29196	0.59178	-1.40203
6339.009	2.86482	1.31726	0.57111	-1.31033
6343.046	2.88230	1.29606	0.51825	-1.36222
6347.019	2.90072	1.28564	0.54473	-1.45106
6351.009	2.86420	1.28732	0.40199	-1.32700
6355.008	2.87351	1.25836	0.44815	-1.41602
6359.018	3.00975	1.27545	0.44773	-1.41575
6363.016	3.06172	1.36601	0.47393	-1.30660
6367.010	3.08909	2.28016	0.44805	-0.06595
6371.008	2.95975	4.65689	0.29530	2.76155
6375.018	2.78530	5.59197	-0.46319	3.41885
6379.014	2.35650	6.30810	-1.59854	4.37750
6383.012	1.75453	6.37596	-1.74159	4.06837
6387.014	0.98117	6.37508	-1.08579	3.87322
6391.010	1.01767	6.28769	-1.56156	4.19787
6395.008	1.17758	6.20226	-1.75428	4.07892
6399.008	1.36010	6.07823	-1.58988	4.09799
6403.013	1.30446	5.97164	-1.50284	4.02460
6407.008	1.15972	6.13782	-1.57148	4.05994
6411.009	0.99859	6.37920	-1.69383	4.04860
6415.010	1.00452	6.52206	-1.74147	4.06019
6419.016	0.94242	6.60567	-1.63152	4.25499
6423.005	0.83868	6.73951	-1.59839	4.37053
6427.013	0.82312	6.87489	-1.57607	4.69210
6431.008	0.66273	6.69939	-1.55906	4.71656
6435.004	0.59992	6.78221	-1.63923	4.86920
6439.007	0.85342	6.79278	-1.73420	4.83079
6443.006	0.79588	6.87660	-1.74804	4.94253
6447.037	0.76625	6.94012	-1.80965	4.92304
6451.009	0.41375	6.93561	-2.02319	4.85078
6455.009	0.44661	6.87923	-1.97009	4.82337
6459.009	0.40546	6.78346	-1.89354	4.84529
6463.007	0.21894	6.72141	-1.83759	4.86162
6467.009	0.28275	6.65061	-1.81996	4.80936
6471.002	0.42765	6.53325	-1.81223	4.79010
6475.012	0.84233	6.53648	-1.87175	4.76735
6479.005	0.85895	6.46566	-1.79093	4.69375
6483.009	0.76637	6.38683	-1.67911	4.68628
6487.001	0.84267	6.32062	-1.66319	4.65861
6491.010	0.79352	6.25982	-1.61530	4.60910
6495.007	0.83831	6.19335	-1.60890	4.59546
6499.030	1.02332	6.13981	-1.57729	4.60548
6503.015	1.05545	6.13589	-1.56283	4.59539
6507.010	1.08656	6.04344	-1.55080	4.54013
6511.014	1.09254	6.06117	-1.57481	4.53223
6515.003	1.14097	6.10487	-1.58740	4.51497
6519.007	1.07815	6.24966	-1.59588	4.47987
6523.005	1.08068	6.55952	-1.58408	4.47311
6527.012	1.03211	6.60042	-1.64010	4.42588
6531.005	1.07984	6.54846	-1.64732	4.38356
6535.005	1.05694	6.72125	-1.64630	4.34516
6539.006	1.10688	6.67640	-1.67992	4.36262
6543.015	1.10735	6.76797	-1.74400	4.37932
6547.005	1.03831	6.73448	-1.77100	4.40032
6551.005	1.08944	6.79037	-1.82591	4.39184
6555.005	1.05637	6.86288	-1.83072	4.53146
6559.008	1.00675	6.94317	-1.87458	4.54247
6563.004	1.07398	6.92917	-1.89114	4.62742
6567.005	0.93505	6.95669	-1.92225	4.63600
6570.885	0.98449	6.95213	-1.94421	4.60497
6574.881	1.04126	6.92966	-1.92493	4.70516
6578.884	0.58272	6.94731	-1.92738	4.70950
6582.877	0.54339	6.96662	-1.89776	4.74360
6586.878	0.73094	6.94152	-1.90740	4.65661
6590.895	0.69109	6.89760	-1.90559	4.60596
6594.884	0.47890	6.90007	-1.90398	4.63965
6598.879	0.40852	6.83787	-1.87969	4.53370
6602.885	0.34590	6.83760	-1.89590	4.48600
6606.898	0.37176	6.80412	-1.89054	4.43995
6610.882	0.26731	6.76478	-1.88581	4.39345
6614.884	0.27806	6.75267	-1.86662	4.40633
6618.879	0.19147	6.77751	-1.88033	4.33946
6622.884	0.19320	6.72938	-1.86298	4.31004
6626.878	0.25418	6.70134	-1.84406	4.27477
6630.888	0.17864	6.72816	-1.79738	4.28525
6634.883	0.23668	6.76056	-1.76914	4.31491
6638.882	0.25547	6.75190	-1.71449	4.31027
6642.880	0.40412	6.76472	-1.72500	4.23083
6646.884	0.46348	6.76135	-1.40214	4.29937
6650.879	0.40527	6.76481	-1.48379	4.29277
6654.888	0.40710	6.78789	-1.25741	4.28482
6658.884	0.44415	6.77022	-1.24126	4.22241
6662.917	0.53629	6.74957	-1.12095	4.26047
6666.882	0.58932	6.73863	-1.25691	4.25055
6670.879	0.46880	6.71788	-1.19460	4.26644
6674.886	0.60424	6.65542	-1.11976	4.21914
6678.880	0.61580	6.54792	-1.17307	4.33219
6682.882	0.73970	6.37124	-1.19006	4.56513
6686.878	0.72136	6.20465	-1.26676	4.63984
6690.876	0.68402	6.01883	-1.22156	4.74363
6694.882	0.71886	5.86752	-1.27026	4.85214
6698.878	0.52240	5.98411	-1.30982	4.74009
6702.877	0.48388	6.13578	-1.28207	4.58422
6706.896	0.59526	6.16963	-1.28472	4.69225
6710.882	0.56828	6.33611	-1.24496	4.43556
6714.885	0.66248	6.40442	-1.22112	4.32443
6718.884	0.60116	6.41946	-1.19405	4.79164
6722.876	0.71628	6.33855	-1.13963	4.99003
6726.879	0.75717	6.29704	-1.06838	5.11753
6730.877	0.71131	6.25269	-1.02384	5.10138
6734.877	0.75980	6.07277	-1.06346	5.07630
6738.877	0.69796	6.51458	-0.97804	4.64377
6742.878	0.74052	6.57776	-1.14236	4.56167
6746.877	0.83453	6.48827	-1.22757	5.02572
6750.875	0.84362	6.63737	-1.55588	4.95033
6754.882	0.67270	6.65266	-1.55078	4.80183
6758.885	0.80528	6.56455	-1.66420	5.01862
6762.878	0.82406	6.48876	-1.76624	5.03788
6766.876	0.71925	6.23395	-2.02086	4.83738
6770.877	0.75317	6.36997	-1.70598	4.73001
6774.880	0.65417	6.69208	-1.62973	4.44259
6778.872	0.62642	6.60989	-1.39520	4.61501
6782.899	0.62722	6.54564	-1.34646	4.79499
6786.884	0.72367	6.45584	-1.09237	5.09153
6790.879	0.50575	6.49395	-1.35507	4.96009
6794.879	0.51560	6.31675	-1.36672	4.91963
6798.879	0.71645	6.36766	-1.48235	4.94288
6802.886	0.61146	6.45765	-1.72731	4.78610
6806.883	0.50934	6.47565	-1.54725	4.89255
6810.880	0.24837	6.63575	-1.19006	5.28447
6814.875	0.40355	7.08785	-1.12176	6.59383
6818.878	0.57669	8.41280	-1.15446	7.33037
6822.877	0.61176	8.32918	-1.20718	8.09835
6826.875	0.56855	8.79560	-0.96152	8.19329
6830.876	0.58610	8.31445	-1.18356	8.03035
6834.878	1.05694	8.39663	0.95839	7.85165
6838.881	3.82823	8.40003	1.24262	8.00469
6842.918	4.78772	8.46431	2.55794	8.44669
6846.886	7.09514	8.70798	4.81387	8.51711
6850.878	7.22783	9.21645	5.23105	9.49086
6854.872	9.94004	9.47263	7.04296	9.33243
6858.877	9.78055	9.43903	7.23416	9.33705
6862.880	9.91204	9.16339	7.07847	9.12042
6866.876	9.25613	9.51044	6.87790	8.59261
6870.877	7.83215	9.81015	6.87506	9.54913
6874.876	7.64942	9.84488	6.79295	9.89951
6878.875	8.77165	9.60125	7.11990	9.74507
6882.882	9.43610	9.65305	7.02399	9.62936
6886.935	9.31760	9.67154	7.02802	9.94970
6890.876	9.39755	9.66004	7.04655	9.98991
6894.873	9.49328	9.67139	7.16735	9.76208
6898.873	8.69510	9.78966	7.36762	9.73184
6902.873	8.93825	9.74000	7.02761	9.72055
6906.879	9.25168	9.82781	7.21281	9.74388
6910.880	9.40926	9.81377	6.93567	9.35608
6914.873	9.37228	9.73172	6.97910	9.44158
6918.878	9.00712	9.69064	7.09309	9.30036
6922.875	8.96598	9.73114	7.14006	9.25687
6926.877	9.05461	9.65657	7.34045	9.25845
6930.878	9.09906	9.61958	7.25897	9.15209
6934.870	8.82502	9.58507	7.31594	9.33478
6938.893	8.98925	9.61239	7.10729	9.39013
6942.877	9.01849	9.61253	7.10814	9.33903
6946.874	8.90834	9.60229	7.18682	9.36755
6950.872	8.86650	9.62700	7.22168	9.67031
6954.872	8.96014	9.65211	7.18183	9.39549
6958.876	8.83425	9.72248	7.26591	9.73479
6962.878	8.87462	9.68484	7.29704	9.85626
6966.894	8.89744	9.55390	7.20839	9.72676
6970.882	8.80054	9.46825	7.11973	9.75441
6974.877	8.79339	9.82134	7.00548	9.70315
6978.869	8.95663	9.77844	7.09788	9.64298
6982.878	9.00736	9.65953	7.10685	9.87511
6986.874	8.96174	9.46080	7.12083	9.86641
6990.877	8.60985	9.82308	7.00802	9.72910
6994.875	8.90395	9.83373	7.33073	9.27260
6998.874	8.84467	9.52050	7.24456	9.56902
7002.875	9.00627	9.59935	7.07129	9.89959
7006.875	8.90623	9.74415	6.92486	9.72497
7010.883	9.14215	9.73788	6.97101	9.38555
7014.871	9.00707	9.63199	7.21489	8.93035
7018.876	9.01791	9.56869	7.24009	9.59857
7022.869	8.91035	9.63236	7.05684	9.71494
7026.877	8.94377	9.58548	6.97401	9.41970
7030.872	8.83716	9.45202	6.88834	9.34408
7034.873	8.92600	9.71342	7.08813	9.27042
7038.874	8.84569	9.64409	7.09575	9.56950
7042.875	8.73026	9.70194	7.14746	9.58045
7046.877	8.77756	9.56400	7.02071	9.59932
7050.872	8.88588	9.69161	7.02555	9.55023
7054.876	8.84123	9.61194	7.35512	8.76052
7058.889	10.74633	8.95680	7.66741	8.89432
7063.523	10.40209	7.83761	8.12717	5.24789
7066.875	10.55598	5.33765	8.22825	3.08170
7070.876	10.64182	5.04547	8.24643	2.25291
7074.868	9.74340	2.51336	8.49549	-0.08292
7078.876	10.71418	3.15496	8.52693	-0.21011
7082.873	11.29042	1.66946	8.64502	-1.85437
7086.877	11.16767	-0.50050	8.57723	-2.12868
7090.875	11.16363	0.66439	10.01308	0.43033
7094.874	11.04236	-0.07183	8.38602	0.44362
7098.874	11.15673	-0.28812	8.77407	0.71520
7102.866	11.25142	0.39062	9.36467	4.56866
7106.945	11.24970	0.33662	6.49798	1.62562
7110.881	11.53015	0.18429	7.44979	1.37841
7114.868	11.40429	-0.20454	8.94012	-2.35242
7118.875	11.52452	-0.25551	11.61161	1.17398
7122.869	11.58036	-0.25658	8.61426	-2.71778
7126.868	11.78573	-0.33702	10.61840	-3.47106
7130.875	11.53539	-0.14616	8.49816	-3.40987
7134.874	11.44459	-0.18729	8.63345	-3.21593
7138.869	11.73378	-0.15323	9.31313	-3.17343
7142.870	11.77189	-0.23519	10.60862	-3.18213
7146.867	11.61532	-0.39740	8.83774	-3.09466
7150.870	11.59506	-0.38058	8.75158	-3.09910
7154.869	11.58239	-0.43337	10.01178	-3.26946
7158.871	11.62721	-0.47125	8.83459	-3.21733
7162.869	11.71116	-0.31621	8.91207	-3.32699
7166.872	11.57229	-0.20330	8.99576	-3.32945
7170.878	11.55919	-0.13809	8.90199	-3.20512
7174.873	11.66894	-0.23092	8.97777	-3.20264
7178.869	11.59308	-0.46867	8.83360	-3.31872
7182.871	11.58205	-0.36023	8.93699	-3.21242
7186.869	11.57477	-0.22861	8.71824	-3.35590
7190.868	11.67344	-0.31876	8.93888	-3.29905
7194.869	11.55247	-0.49289	8.79177	-3.27371
7198.871	11.55573	-0.30081	8.52348	-3.07346
7202.869	11.58170	-0.11276	8.76513	-3.13290
7206.883	11.55874	-0.25277	8.67112	-3.02690
7210.877	11.65813	-0.21635	8.61814	-3.37418
7214.893	11.65149	-0.00304	8.65089	-3.17131
7218.888	11.57889	-0.08781	8.59432	-3.42431
7222.873	11.63035	-0.08752	8.87421	-3.34062
7226.869	11.63830	-0.13685	8.73873	-3.16778
7230.871	11.64068	-0.74086	8.66998	-3.39041
7234.870	11.68436	-0.23580	8.82046	-3.13535
7238.868	11.69248	-0.28307	8.81043	-2.92627
7242.868	11.66291	-0.46622	8.65698	-3.20562
7246.873	11.65663	-0.33669	8.69515	-2.92776
7250.865	11.68215	-0.13433	8.72047	-3.08646
7254.878	11.73443	-0.14595	8.57956	-3.28168
7258.871	11.63844	-0.68285	8.62646	-3.33346
7262.873	11.65701	-0.38196	8.70910	-3.37446
7266.871	11.73419	-0.28495	8.73817	-3.45575
7270.873	11.91286	-0.19490	8.85676	-3.32543
7274.866	11.68210	-0.88870	8.75667	-3.28844
7278.868	11.78797	-0.71225	8.91413	-3.45288
7282.870	11.78742	-0.50459	8.67391	-3.45409
7286.867	11.69750	-0.15875	8.76539	-3.37768
7290.867	11.78314	-0.02445	8.65266	-3.38072
7294.868	11.73350	-0.15968	8.87190	-3.37372
7298.873	11.86840	-0.15933	8.71293	-3.34951
7302.869	11.83733	0.03580	8.91769	-3.40877
7306.899	11.66515	-0.00686	9.10923	-3.34946
7310.868	12.03797	-0.07719	8.85473	-3.27646
7314.868	12.54086	0.13191	9.90286	-3.36194
7318.867	14.06130	-0.04773	10.20228	-3.37818
7322.862	15.53845	-0.11472	13.05668	-3.68552
7326.873	15.44444	-0.26862	13.50255	-3.72904
7330.867	15.34831	-0.89614	13.36142	-4.28692
7334.870	14.90317	-1.13167	12.76097	-4.33219
7338.874	14.32321	-0.64576	11.53413	-4.18954
7342.870	14.24825	-0.61257	11.99400	-4.34305
7346.870	14.93242	-0.41299	11.85414	-4.02769
7350.863	15.16717	-0.58976	12.56673	-4.39366
7354.873	14.75911	-1.20371	12.36558	-4.11895
7358.868	14.90301	-0.79714	12.74100	-4.53418
7362.870	14.93916	-0.95202	12.35642	-4.49780
7366.862	14.97101	-0.94216	12.42262	-4.51774
7370.871	14.86435	-1.44973	12.34775	-4.45573
7374.867	14.75096	-1.00873	12.45485	-4.45945
7378.875	14.84519	-0.88602	12.45317	-4.39587
7382.866	14.86402	-1.03781	12.34917	-4.34856
7386.871	14.86437	-0.88678	12.49966	-4.42463
7390.867	14.96075	-0.99402	12.46453	-4.36575
7394.870	14.86493	-1.55192	12.49370	-4.32295
7398.862	14.91126	-0.91244	12.52660	-4.30892
7402.865	15.13057	-0.99081	12.58737	-4.31719
7406.871	14.94076	-1.62558	12.59115	-4.27282
7410.870	14.88871	-0.95441	12.45364	-4.17482
7414.862	15.02503	-0.85454	12.67849	-4.16380
7418.871	15.00332	-1.03582	12.50373	-4.08141
7422.872	15.04584	-1.25332	12.45485	-4.07014
7426.746	14.93914	-1.09805	12.46178	-4.08859
7430.737	15.16067	-1.23272	12.45177	-4.11400
7434.749	15.06066	-1.32183	12.23490	-4.02655
7438.739	14.98294	-1.63800	12.44082	-4.17394
7442.741	14.93756	-1.13576	12.39286	-4.13183
7446.741	14.86959	-1.48922	12.26014	-4.07478
7450.739	14.79247	-0.99768	12.33333	-4.10717
7454.744	15.02821	-1.18559	12.29178	-4.10849
7458.736	14.92396	-1.23064	12.28792	-4.19171
7462.745	14.85447	-1.55769	12.29891	-4.26098
7466.742	14.88136	-1.82820	12.24424	-4.14421
7471.250	14.88139	-1.03312	12.37977	-4.09946
7474.760	14.87884	-1.14570	12.27413	-4.17746
7478.740	14.86258	-1.53166	12.28403	-4.09593
7482.745	14.87990	-0.94780	12.33669	-3.89777
7486.742	14.92690	-0.94862	12.33643	-4.12552
7490.744	15.00952	-1.08581	12.35964	-4.13547
7494.735	14.98970	-0.80068	12.27294	-3.91346
7498.744	14.95985	-0.96165	12.29133	-3.84633
7502.741	14.97738	-0.98723	12.31080	-4.06839
7506.742	15.00730	-0.78053	12.37596	-3.94480
7510.746	14.97136	-0.70767	12.36757	-4.18238
7514.741	14.92665	-1.06710	12.35282	-4.07182
7518.740	15.00304	-1.09760	12.26209	-3.90356
7522.740	14.99730	-1.10392	12.31490	-3.96208
7526.759	14.93219	-1.43351	12.38154	-4.03653
7530.743	14.84399	-1.43671	12.24457	-4.11725
7534.734	14.86928	-1.49040	12.26766	-4.04900
7538.739	14.95579	-1.36907	12.18381	-4.03600
7542.736	14.90925	-1.41058	12.19095	-4.03026
7546.739	14.66324	-1.23238	12.27455	-4.03116
7550.743	14.83956	-0.77562	12.22706	-4.06320
7554.741	14.82773	-1.15406	12.41805	-3.99124
7558.736	14.71069	-1.39152	12.32935	-4.04175
7562.737	14.84046	-1.29680	12.37624	-4.07042
7566.740	14.89819	-1.37858	12.30943	-4.32537
7570.738	15.74463	-1.10016	12.58018	-4.17792
7574.736	14.95688	-1.11413	12.28901	-4.20138
7578.737	14.83158	-1.06071	12.22407	-4.08359
7582.740	14.99392	-0.98957	12.28723	-4.07675
7586.737	14.87341	-1.20317	12.39859	-4.02433
7590.737	14.76127	-1.26096	12.26038	-3.99013
7594.744	14.80542	-1.06470	12.35474	-3.95544
7598.738	15.14652	-0.91151	12.23246	-4.00433
7602.735	15.23630	-1.08877	12.56337	-4.06679
7606.780	16.08679	-1.00076	13.34867	-4.24940
7610.749	17.15353	-1.05309	15.28136	-3.93368
7614.738	18.29602	-1.19542	15.37596	-4.09356
7618.742	18.79471	-0.85880	15.77690	-3.97049
7622.735	17.84296	-0.92874	15.65170	-4.30255
7626.743	17.47082	-0.94895	14.94609	-4.15639
7630.738	17.78100	-0.86611	14.77213	-4.15370
7634.750	17.61890	-0.76105	14.79732	-4.37910
7638.737	17.50379	-0.85519	14.85516	-4.29191
7642.737	17.71191	-0.93531	15.01920	-4.26325
7646.738	17.77347	-0.78322	15.21118	-4.45716
7650.737	17.69074	-1.00349	15.29374	-4.37536
7654.736	17.69439	-1.15982	15.28942	-4.23724
7658.739	17.60916	-0.42255	15.14629	-4.26413
7662.756	17.66247	-0.56396	15.09078	-4.32204
7666.739	17.63570	-0.51200	14.99452	-4.20874
7670.738	17.71450	-0.20667	15.07533	-4.19329
7674.752	17.69556	-0.53252	15.17575	-4.20228
7678.741	17.41650	-0.59858	15.02496	-4.18836
7682.758	17.65677	-0.80866	15.07884	-4.12969
7686.746	17.50808	-1.16183	15.12229	-4.07901
7690.736	17.53854	-0.51062	15.18601	-4.02625
7694.736	17.41578	-0.41041	14.99051	-4.02609
7698.739	17.59108	-0.11964	14.98822	-4.10469
7702.736	17.79309	-0.62755	14.99744	-4.11810
7706.747	17.28029	-0.91123	14.84246	-4.07336
7710.741	17.49171	-0.78037	14.95283	-4.09739
7714.736	17.41015	-0.28334	14.99459	-4.03624
7718.748	17.71921	-0.57467	14.93976	-3.97532
7722.738	17.38658	-0.43426	15.01823	-3.96422
7726.741	17.37442	-0.61089	14.99961	-3.98463
7730.732	17.62458	-0.94422	14.93110	-4.03941
7734.767	17.52148	-0.31381	14.89082	-4.09123
7738.734	17.46270	-0.40066	14.85753	-3.99089
7742.742	17.40683	-0.07393	14.86391	-4.03216
7746.736	17.67853	-0.11220	14.88616	-3.82674
7750.737	17.87027	-0.16170	15.02193	-3.94874
7754.730	17.33171	-0.59665	14.91597	-3.85516
7758.744	17.39779	-0.60727	14.88384	-3.78190
7762.739	17.54272	-0.74727	14.86022	-4.02105
7766.740	17.26456	-0.22738	14.81354	-4.03929
7770.731	17.59092	-0.19656	14.91073	-4.04094
7774.739	17.22287	-0.31237	15.01813	-3.91448
7778.735	17.22035	-0.08573	15.05165	-3.95531
7782.736	17.50133	-0.13217	15.02737	-3.70042
7786.741	17.88873	-0.26826	15.01397	-3.85460
7790.734	17.68043	-0.41107	15.01043	-3.85368
7794.738	17.31846	-0.59632	14.87733	-3.86053
7798.734	17.42267	-0.50611	14.93606	-3.84388
7802.741	17.47521	-0.71933	14.97377	-3.86822
7806.732	17.39483	-0.07529	14.98461	-3.71801
7810.735	17.57892	-0.19306	15.12728	-3.80252
7814.736	17.66684	-0.13617	14.92090	-3.76724
7818.730	17.54549	-0.14131	14.88683	-3.75409
7822.739	17.48117	0.04868	14.84719	-3.72268
7826.733	17.62754	0.10685	14.89321	-3.72270
7830.738	17.52762	-0.20994	15.03283	-3.77512
7834.729	17.58332	0.03790	15.05022	-3.67603
7838.738	17.39467	0.01496	14.97048	-3.67147
7842.739	17.41490	0.01641	14.73262	-3.59589
7846.735	17.49943	-0.08849	14.82145	-3.77883
7850.734	17.58860	-0.22595	14.88904	-3.99344
7854.736	17.61038	-0.10710	14.84012	-3.69218
7858.733	17.44302	-0.31944	14.93629	-3.77230
7862.732	17.36294	-0.63186	15.00209	-3.63615
7866.733	17.36443	-0.35143	15.12823	-3.53123
7870.735	17.27058	-0.77892	14.95487	-3.74363
7874.736	17.52159	-0.77996	14.92649	-3.90306
7878.734	17.44183	-0.70467	14.93182	-3.95269
7882.732	17.31538	-0.70700	14.87967	-3.95585
7886.749	17.36045	-0.43036	15.11135	-3.99381
7890.733	17.38161	-0.38009	15.02163	-3.88129
7894.736	17.26529	-0.59388	15.15926	-3.81933
7898.729	17.25531	-0.64270	15.02432	-3.79324
7902.738	17.23989	-0.88535	14.96492	-3.99987
7906.747	17.27418	-0.71250	14.99419	-4.01310
7910.744	17.36368	-0.61626	14.97335	-3.90216
7914.734	17.30294	-0.79311	14.94405	-3.83702
7918.735	17.33058	-0.77860	15.05332	-3.77622
7922.729	17.26832	-0.86742	15.11838	-3.67068
7926.744	17.23297	-0.85561	15.12231	-3.56658
7930.734	17.17184	-0.83616	14.85259	-3.75337
7934.737	17.09533	-0.88709	14.83979	-3.61934
7938.728	17.14209	-0.96895	14.79396	-3.66327
7942.737	17.26135	-0.99699	14.77992	-3.64731
7946.731	17.26398	-0.99208	14.88150	-3.64780
7950.738	17.32043	-0.86767	15.04894	-3.57115
7954.731	17.20704	-0.91372	14.82282	-3.58376
7958.736	17.18095	-0.94556	14.72492	-3.66223
7962.771	17.28765	-0.78926	14.71521	-3.72316
7966.737	17.25827	-0.63944	14.68069	-3.79811
7970.741	17.10403	-0.66317	14.61102	-3.85488
7974.734	17.33381	-0.57236	14.60983	-3.78378
7978.737	17.37890	-0.58782	14.68298	-3.82332
7982.730	17.44266	-0.56858	14.71433	-3.86333
7986.735	17.39598	-0.46829	14.76078	-3.85593
7990.726	17.23930	-0.49171	14.56934	-3.85913
7994.735	15.28122	-0.55107	12.10760	-3.79909
7998.730	12.64534	-0.56340	10.94464	-3.70498
8002.733	10.86787	-0.51980	9.37728	-3.79957
8006.748	9.28067	-0.49235	7.24632	-3.60354
8010.740	8.40626	-0.60091	6.35290	-3.22497
8014.733	8.04635	-0.74132	5.52131	-3.08452
8018.731	7.47514	-0.78078	5.08980	-3.45402
8022.729	7.21848	-0.85995	4.72435	-2.91297
8026.725	7.66651	-0.95852	4.65668	-2.60826
8030.730	8.11564	-1.01153	5.07530	-2.43793
8034.733	8.10340	-1.04636	5.16058	-2.78603
8038.726	7.58490	-1.18107	5.12432	-2.89404
8042.735	7.10462	-1.13059	4.98753	-2.94455
8046.732	7.04816	-1.27000	4.89198	-2.86017
8050.737	6.79670	-1.38538	4.87030	-2.99682
8054.727	6.78358	-1.45614	4.69268	-3.01032
8058.729	6.76603	-1.53264	4.61033	-2.85973
8062.732	6.81887	-1.57308	4.66985	-2.84143
8066.730	6.78524	-1.61619	4.51258	-2.90440
8070.729	6.74800	-1.63327	4.44775	-2.85837
8074.729	6.79741	-1.67692	4.41618	-2.92042
8078.734	6.76535	-1.92946	4.36274	-2.83195
8082.732	6.79780	-1.94143	4.38252	-2.82977
8086.732	6.84563	-2.08236	4.42210	-2.73513
8090.730	6.86728	-2.03294	4.38627	-2.84370
8094.734	6.93433	-2.10370	4.41203	-2.80915
8098.733	7.00042	-2.19776	4.45404	-2.78403
8102.730	7.00710	-2.19123	4.39777	-2.86481
8106.748	6.96641	-2.27973	4.45871	-2.94906
8110.733	6.87063	-2.17003	4.49896	-2.97321
8114.728	6.87144	-2.21294	4.57036	-3.02961
8118.729	6.83607	-2.24565	4.65442	-3.07506
8122.729	6.87428	-2.23643	4.69539	-3.15420
8126.728	6.79038	-2.24485	4.75960	-3.18072
8130.724	6.88423	-2.22032	4.84329	-3.22046
8134.739	6.81590	-2.23680	4.92105	-3.25679
8138.730	6.85072	-2.25790	4.90765	-3.30337
8142.734	6.86183	-2.24371	4.94770	-3.33248
8146.724	6.87288	-2.15657	5.01600	-3.40141
8150.729	6.95968	-2.13935	4.92750	-3.42389
8154.735	7.00565	-2.04481	4.87150	-3.47976
8158.734	7.01719	-1.93531	4.77446	-3.39488
8162.726	7.06623	-1.85256	4.70357	-3.45369
8166.728	7.11892	-1.83481	4.49230	-3.45888
8170.732	7.14973	-1.89808	4.53832	-3.47762
8174.735	7.20311	-1.59447	4.58548	-3.47838
8178.733	7.23062	-1.60004	4.55808	-3.51072
8182.761	7.26437	-1.52982	4.52165	-3.50445
8186.740	7.27440	-1.50488	4.52607	-3.55492
8190.734	7.29279	-1.55777	4.54232	-3.57786
8194.726	7.30085	-1.56508	4.59667	-3.62955
8198.726	7.29843	-1.53352	4.64650	-3.67962
8202.728	7.32234	-1.61027	4.72144	-3.74152
8206.725	7.35917	-1.69886	4.76352	-3.84940
8210.733	7.35285	-1.76384	4.78531	-3.91140
8214.726	7.36474	-1.77691	4.86510	-3.96244
8218.756	7.33567	-1.80202	4.90769	-4.00570
8222.732	7.32973	-1.89329	4.93997	-4.01795
8226.723	7.26762	-1.95299	4.98046	-4.05015
8230.733	7.22861	-2.00260	4.98256	-4.10363
8234.726	7.22085	-2.02445	5.01051	-4.12803
8238.731	7.27001	-1.99195	5.04353	-4.18318
8242.722	7.33000	-1.99604	5.07441	-4.20629
8246.729	7.33618	-1.99161	5.09133	-4.24357
8250.726	7.28889	-1.97939	5.08887	-4.25573
8254.725	7.30542	-1.95238	5.09677	-4.29488
8258.731	7.29567	-1.92606	5.09217	-4.34160
8262.731	7.34877	-1.93782	5.08746	-4.35768
8266.726	7.34135	-1.84341	5.13988	-4.38793
8270.722	7.38161	-1.84349	5.17385	-4.42428
8274.731	7.42502	-1.78147	5.17499	-4.38137
8278.621	7.44045	-1.77890	5.18505	-4.31855
8282.603	7.40643	-1.82547	5.19581	-4.25359
8286.600	7.21347	-1.80276	5.17897	-4.24152
8290.602	7.18056	-1.80496	5.20260	-4.20983
8294.608	7.18787	-1.86066	5.20327	-4.19112
8298.602	7.16881	-1.96142	5.24075	-4.17022
8302.604	7.13048	-1.90839	5.28935	-4.12130
8306.616	7.06613	-1.91141	5.29674	-4.17376
8310.605	7.02321	-2.00515	5.30343	-4.17137
8314.601	7.05286	-2.06204	5.30242	-4.23032
8318.600	6.95519	-2.31712	5.31760	-4.37742
8322.600	6.94394	-2.63589	5.37583	-4.27273
8326.607	6.99172	-2.54881	5.36043	-4.32521
8330.609	7.03127	-2.31202	5.39915	-4.35927
8334.597	7.09045	-2.40857	5.28443	-4.37522
8338.605	7.18711	-2.35635	5.33170	-4.27695
8342.603	7.24273	-2.33251	5.24649	-4.29887
8346.604	7.31489	-2.41581	5.21710	-4.27512
8350.606	7.29243	-2.47058	5.15588	-4.24241
8354.599	7.32710	-2.27794	5.11735	-4.25416
8358.604	7.23836	-2.22377	5.05262	-4.20865
8362.599	7.10616	-2.12999	4.90321	-4.18800
8366.601	5.59848	-2.11356	4.43315	-4.23666
8370.605	3.83497	-1.95686	1.99151	-4.10927
8374.601	3.02722	-0.80805	0.38025	-3.91713
8378.603	2.48448	-0.50976	0.56123	-3.85903
8382.633	2.10340	-0.54823	0.48785	-3.73016
8386.604	2.25496	-0.32132	0.58640	-3.66359
8390.604	2.31093	-0.50441	0.68558	-3.51385
8394.604	2.22820	-0.74470	0.72625	-3.50541
8398.595	2.19740	-0.57477	0.78675	-3.54278
8402.602	2.25997	-0.63165	0.72235	-3.47647
8406.602	2.24007	-0.49048	0.64555	-3.39722
8410.605	2.19499	-0.44280	0.62077	-3.41026
8414.600	2.15658	-0.38103	0.43001	-3.36520
8418.599	2.07824	-0.42317	0.27163	-3.36650
8422.602	2.05672	-0.46397	-0.04879	-3.35846
8426.598	2.06374	-0.46558	0.22787	-3.33533
8430.606	2.02512	-0.56001	-0.17717	-3.34777
8434.603	2.00316	-0.56394	-0.14086	-3.41288
8438.598	2.03407	-0.58891	0.04951	-3.40249
8442.597	2.01340	-0.59760	0.25572	-3.36029
8446.597	2.00559	-0.63036	0.01228	-3.30306
8450.597	1.97024	-0.76684	0.01181	-3.30163
8454.598	1.96328	-0.78177	-0.00370	-3.27733
8458.602	1.93975	-0.85734	-0.03946	-3.30145
8462.593	1.94134	-0.94938	-0.01005	-3.31844
8466.603	1.92208	-1.00947	-0.01487	-3.30787
8470.625	1.90924	-1.00362	-0.02420	-3.37760
8474.607	1.84580	-1.01987	0.01698	-3.40066
8478.599	1.82733	-1.04751	0.06847	-3.42604
8482.600	1.80747	-1.08328	0.15749	-3.45977
8486.598	1.78828	-1.11013	0.18000	-3.55164
8490.602	1.76202	-1.13356	0.20296	-3.59285
8494.595	1.81783	-1.09496	0.18127	-3.66180
8498.603	1.88569	-1.08690	0.23051	-3.72635
8502.598	2.13224	-1.10536	0.18169	-3.74171
8506.598	2.06300	-1.09416	0.28647	-3.80556
8510.598	2.06017	-1.09041	0.29992	-3.88152
8514.603	2.15450	-1.11755	0.30146	-3.88021
8518.597	2.23937	-1.12992	0.31928	-3.89153
8522.593	2.24587	-1.13672	0.35769	-3.82629
8526.602	2.23987	-1.18180	0.28907	-3.77654
8530.596	2.26522	-1.22084	0.22048	-3.71968
8534.598	2.23501	-1.21062	0.14208	-3.62610
8538.597	2.08674	-1.15789	0.02551	-3.57443
8542.601	2.11822	-1.14570	0.05519	-3.60463
8546.594	2.14518	-1.10825	0.14248	-3.58605
8550.602	2.13078	-1.02297	0.13491	-3.59256
8554.603	2.18592	-0.97708	0.13742	-3.63583
8558.605	2.24867	-1.01169	0.15015	-3.67025
8562.599	2.27196	-0.94046	0.17643	-3.64084
8566.595	2.29666	-0.88261	0.13260	-3.72049
8570.596	2.31505	-0.81567	0.14652	-3.63481
8574.597	2.32246	-0.75944	0.19474	-3.60785
8578.602	2.28130	-0.73588	0.23351	-3.67798
8582.598	2.43095	-1.53549	0.31196	-3.93625
8586.595	2.61914	-3.88705	0.42343	-6.67493
8590.600	2.58571	-6.04789	1.02322	-7.08230
8594.634	2.97772	-6.84856	1.67737	-8.37320
8598.596	2.88368	-8.93223	2.37736	-9.24164
8602.605	2.95468	-11.62140	2.80320	-10.30753
8606.610	3.27225	-12.16116	2.64245	-12.34785
8610.592	2.94294	-14.50902	3.36320	-12.59861
8614.603	-19.99372	-11.84900	3.02398	-12.92468
8618.595	3.02697	-14.69887	3.07110	-12.97009
8622.598	3.27660	-12.67021	3.12383	-12.89574
8626.596	3.19531	-13.15088	3.39757	-12.59714
8630.593	3.03722	-13.67238	3.37116	-12.60435
8634.601	3.19531	-14.29295	3.36352	-12.74942
8638.603	3.02685	-14.54702	3.43724	-12.79354
8642.595	3.14761	-14.57026	3.34598	-12.92144
8646.594	3.33134	-14.48842	3.40212	-13.04176
8650.595	3.32738	-14.52135	3.40259	-12.84063
8654.597	3.25189	-14.52998	3.33804	-12.92453
8658.595	3.27096	-14.54471	3.35481	-12.84891
8662.598	3.01339	-14.59908	3.34667	-12.81599
8666.595	2.85722	-14.49267	3.22297	-12.81229
8670.598	3.23729	-14.50365	3.12568	-12.82646
8674.592	3.44384	-14.56902	3.17901	-12.85592
8678.611	3.57666	-14.60682	3.19378	-12.76699
8682.602	3.40489	-14.63063	3.16248	-12.79056
8686.597	3.30094	-14.64710	3.20313	-12.80595
8690.591	3.05650	-14.58104	3.19096	-12.75643
8695.058	3.10148	-14.56586	3.13816	-12.78583
8698.613	3.39132	-14.52525	3.25407	-12.76178
8702.596	3.43348	-14.55953	3.27838	-12.66443
8706.594	-19.99372	-12.62122	3.26515	-12.67068
8710.602	-19.99372	-12.36964	3.24964	-12.58195
8714.592	3.24847	-14.58730	3.23333	-12.60335
8718.609	3.19066	-14.51738	3.19887	-12.65755
8722.605	3.44288	-14.62318	3.19427	-12.78298
8726.593	-19.99372	-12.26740	3.21359	-12.68312
8730.599	-19.99372	-12.21680	3.25501	-12.63228
8734.594	-19.99372	-12.16771	3.20172	-12.59860
8738.598	-19.99372	-12.13640	3.19830	-12.58032
8742.588	3.38165	-14.38771	3.13303	-12.57260
8746.599	3.26057	-14.48368	3.07246	-12.61757
8750.595	3.29159	-14.63929	3.06261	-12.54838
8754.597	-19.99372	-12.15377	3.03143	-12.48443
8758.593	-19.99372	-12.13393	3.08379	-12.52814
8762.596	-19.99372	-12.11223	3.01363	-12.46144
8766.600	-19.99372	-12.10549	3.18910	-12.51892
8770.596	-19.99372	-12.10453	3.04467	-12.51590
8774.595	3.27764	-14.46914	3.06808	-12.49627
8778.594	-19.99372	-12.11625	3.04848	-12.40786
8782.596	-19.99372	-12.11453	2.92290	-12.37136
8786.596	-19.99372	-12.09694	2.81583	-12.38349
8790.588	-19.99372	-12.08778	2.73018	-12.28555
8794.598	3.25706	-13.61705	2.39507	-12.25963
8798.593	3.28113	-13.58899	3.00651	-12.34234
8802.598	3.27846	-13.57308	3.24325	-12.42308
8806.610	3.16718	-14.31557	3.27875	-12.50111
8810.600	3.32028	-13.87037	3.08421	-12.46964
8814.592	3.27064	-13.76256	3.15300	-12.43043
8818.624	3.11470	-13.98012	3.08238	-12.40492
8822.593	3.07238	-14.21668	3.15501	-12.42911
8826.594	3.25656	-14.18413	3.14281	-12.43334
8830.595	3.46785	-14.16083	3.09824	-12.49529
8834.596	3.33463	-14.36803	3.23620	-12.46835
8838.593	3.35231	-14.40826	3.13417	-12.45961
8842.593	3.13722	-14.64057	2.99752	-12.47333
8846.601	3.15238	-14.68407	2.91037	-12.40418
8850.591	3.48879	-14.80413	2.70792	-12.35043
8854.595	3.35949	-14.78508	2.85106	-12.31797
8858.586	-19.99372	-12.49751	2.99688	-12.27093
8862.590	-19.99372	-12.26359	2.95881	-12.33306
8866.593	-19.99372	-12.18909	2.71800	-12.35611
8870.594	-19.99372	-12.13884	2.82028	-12.39313
8874.590	3.66619	-13.23903	2.84717	-12.31190
8878.595	3.25132	-14.54663	2.77406	-12.20815
8882.592	3.36977	-14.60945	2.84541	-12.21136
8886.601	-19.99372	-12.19353	2.82323	-12.17503
8890.591	-19.99372	-12.17436	2.93945	-12.16097
8894.596	3.52146	-14.27465	3.00329	-12.30856
8898.589	3.70734	-13.66689	2.94314	-12.20702
8902.595	3.42149	-13.73766	2.98968	-12.26146
8906.605	-19.99372	-12.29696	2.96958	-12.24547
8910.600	-19.99372	-12.28940	2.99656	-12.17978
8914.587	3.62333	-14.08538	2.86507	-12.09247
8918.596	3.35889	-14.33575	2.78832	-12.05096
8922.590	3.32894	-14.24842	2.78320	-12.09598
8926.595	3.47332	-13.07791	2.77136	-12.12222
8930.591	3.30406	-14.26752	2.87750	-12.14143
8934.598	3.23477	-14.21549	2.71102	-12.18433
8938.592	3.23093	-14.08708	2.54152	-12.02136
8942.593	3.22030	-14.18418	2.70691	-12.09248
8946.588	2.99519	-14.29535	2.74697	-12.26915
8950.594	3.29399	-14.28376	2.73184	-12.17056
8954.591	3.35469	-14.31767	2.83964	-12.16530
8958.594	3.03269	-14.31622	2.71817	-12.18532
8962.588	3.17366	-14.08643	2.76693	-12.19452
8966.596	3.50143	-14.24093	2.72256	-12.18798
8970.603	3.25921	-14.22788	2.86413	-12.18545
8974.595	2.96314	-14.37695	2.84786	-12.03911
8978.588	3.42816	-14.23252	2.89391	-12.17361
8982.595	3.26720	-14.04238	2.94475	-12.15441
8986.591	3.08367	-14.48269	2.91918	-12.10202
8990.595	3.37643	-14.24463	2.75341	-12.02815
8994.586	3.39287	-14.03566	2.81751	-12.08007
8998.589	3.27645	-14.50202	2.81645	-11.97201
9002.593	3.10131	-14.72201	2.81048	-12.04981
9006.590	-19.99372	-12.65224	2.77802	-12.04638
9010.596	3.26287	-14.62246	2.86331	-11.92705
9014.594	-19.99372	-12.43294	2.78934	-11.98919
9018.596	3.09656	-14.67393	2.81100	-12.01096
9022.586	3.49295	-14.61291	2.76418	-11.99613
9026.595	3.25389	-14.62246	2.74259	-12.03094
9030.592	3.18185	-14.36882	2.75831	-11.98235
9034.615	3.29963	-14.31438	2.75784	-12.01638
9038.595	3.05697	-13.85805	2.81387	-12.05402
9042.589	3.12081	-14.54568	2.83256	-12.00863
9046.591	3.55352	-12.87754	2.81439	-11.93457
9050.586	3.60699	-14.44503	2.82628	-11.97042
9054.592	3.17339	-14.33384	2.85423	-11.91878
9058.592	-19.99372	-12.39886	2.88589	-11.97183
9062.591	3.28773	-14.46170	2.93616	-11.98592
9066.583	3.34361	-14.49738	2.83937	-12.06984
9070.592	2.95832	-14.40162	2.93782	-11.98839
9074.587	3.76552	-14.32295	2.98104	-11.97699
9078.592	3.16594	-13.98657	2.93057	-12.10288
9082.585	3.40333	-14.43155	2.83011	-11.99330
9086.587	3.51350	-12.83461	2.95490	-12.01986
9090.589	3.50526	-14.38676	2.74044	-12.04340
9094.587	3.30465	-14.04909	2.88658	-12.00716
9098.591	-19.99372	-12.34756	2.83729	-12.11058
9102.589	3.27155	-14.61128	2.68836	-12.04246
9106.587	3.40692	-14.54883	2.80724	-12.03944
9110.592	3.07622	-14.36457	2.90000	-12.04641
9114.586	3.54039	-14.06780	2.84469	-12.04806
9118.591	3.06328	-13.73801	2.63774	-11.99882
9122.583	3.55765	-13.77498	2.88027	-11.96538
9126.589	3.19135	-13.70743	2.73702	-11.96669
9130.587	3.17685	-14.08457	2.66706	-11.92763
9134.461	3.38931	-13.08166	2.80736	-11.86551
9138.461	3.34334	-14.28722	2.74365	-11.87738
9142.587	3.23405	-13.83317	2.95515	-11.84478
9146.466	3.34893	-13.83063	2.73194	-11.81869
9150.457	3.27343	-13.99477	2.62004	-11.79886
9154.460	3.45341	-13.75107	2.98277	-11.82120
9158.480	3.39681	-13.86470	2.52317	-11.82704
9162.462	3.29871	-13.91071	2.82734	-11.89436
9166.466	3.34729	-14.07649	2.65614	-11.93985
9170.467	3.42759	-14.03373	2.66615	-11.95057
9174.463	3.29389	-14.15294	3.01824	-11.95537
9178.460	3.30814	-14.43299	2.86596	-12.02043
9182.465	3.31556	-13.97682	2.63116	-12.00563
9186.466	-19.99372	-12.75584	2.75168	-11.93103
9190.457	3.52610	-13.97007	2.70669	-11.88208
9194.465	3.44023	-14.27343	2.71179	-11.98399
9198.461	-19.99372	-12.54259	2.71290	-11.88663
9202.465	3.47104	-14.32248	2.69720	-11.86268
9206.477	-19.99372	-12.37674	2.69638	-11.85325
9210.466	3.46713	-14.53080	2.68163	-11.86026
9214.461	3.28813	-13.41218	2.59215	-11.81274
9218.469	-19.99372	-12.29817	2.76898	-11.87898
9222.473	3.55931	-14.69639	2.67296	-11.93556
9226.468	3.38508	-14.47396	2.74284	-11.77773
9230.462	-19.99372	-12.25832	2.78166	-11.84720
9234.481	3.47062	-13.34868	2.74143	-11.84694
9238.464	3.24664	-14.38152	2.77270	-11.84911
9242.460	3.42933	-13.99627	2.81452	-11.80488
9246.460	3.24288	-14.32052	2.68390	-11.81870
9250.461	3.17158	-14.19266	2.82719	-11.86251
9254.463	3.34801	-14.16931	2.76054	-11.89639
9258.455	3.26047	-14.40004	2.67794	-11.81488
9262.464	3.36960	-13.42279	2.85311	-11.79480
9266.464	3.23752	-14.26805	2.89779	-11.81511
9270.470	3.25654	-13.11146	2.73217	-11.80176
9274.455	1.36352	-13.89072	2.26210	-11.74547
9278.484	-0.22373	-13.86014	-0.65801	-11.63759
9282.466	-2.34946	-12.99536	-2.52963	-11.08905
9286.459	-2.83430	-10.00489	-4.10113	-9.42248
9290.458	-3.71283	-7.19981	-5.70414	-8.45882
9294.461	-5.81614	-5.59246	-8.17605	-6.91113
9298.457	-7.08229	-4.86742	-9.30298	-5.82810
9302.457	-8.13607	-4.31743	-9.90578	-4.47756
9306.465	-9.55934	-2.17367	-11.64520	-3.05763
9310.462	-11.16674	-0.21109	-12.52525	-2.35560
9314.469	-10.45677	0.70804	-13.17633	-1.63265
9318.461	-11.66113	1.04819	-13.35473	-0.89941
9322.461	-11.26490	1.20533	-13.41335	-0.83752
9326.457	-11.58603	1.07016	-13.32573	-0.80174
9330.463	-10.54989	0.93318	-13.10182	-1.14307
9334.460	-11.89846	0.98438	-12.97575	-1.08389
9338.462	-11.63580	1.02890	-13.37573	-1.00367
9342.456	-11.92995	1.06316	-13.30905	-1.02450
9346.458	-12.23943	1.10531	-13.23560	-0.90740
9350.467	-11.90809	1.04864	-13.35757	-0.87535
9354.457	-12.22888	1.00062	-13.48049	-0.73836
9358.461	-11.98099	0.80026	-13.43092	-0.70634
9362.461	-11.97384	0.90743	-13.38956	-0.82823
9366.458	-11.93139	0.61824	-13.48890	-0.68921
9370.456	-12.08530	0.98790	-13.26645	-0.57087
9374.456	-12.07403	1.19784	-13.39205	-0.44594
9378.461	-12.01511	1.26828	-13.42826	-0.79854
9382.461	-12.17475	1.04930	-13.32766	-0.74685
9386.453	-12.10589	1.64115	-13.37965	-0.55225
9390.463	-12.10533	1.21375	-13.58048	-0.63422
9394.461	-12.13313	1.11607	-13.30529	-0.82891
9398.459	-12.02062	1.43577	-13.25312	-0.87827
9402.502	-12.08599	1.31788	-13.40229	-1.00252
9406.466	-12.08475	1.43096	-13.44606	-0.94266
9410.470	-12.08917	1.58050	-13.23734	-1.14592
9414.459	-12.33065	1.52926	-13.35717	-1.21215
9418.463	-12.11669	1.49993	-13.42089	-1.06759
9422.457	-12.06845	1.52898	-13.32411	-1.00074
9426.459	-12.33861	1.54591	-13.27109	-1.12216
9430.460	-12.03418	1.47383	-13.38015	-1.04324
9434.459	-11.90231	1.39256	-13.40849	-1.12786
9438.459	-12.23407	1.40188	-13.29560	-0.84644
9442.496	-12.23256	1.46035	-13.40265	-1.13073
9446.462	-11.91669	1.44052	-13.43503	-1.03102
9450.465	-12.07811	1.34136	-13.28545	-1.01676
9454.485	-12.39833	1.23108	-13.35196	-0.75565
9458.459	-12.23599	1.14856	-13.49366	-0.85191
9462.456	-12.05314	1.12046	-13.62718	-0.70047
9466.465	-12.34673	1.02250	-13.40748	-1.00025
9470.463	-12.16057	1.00083	-13.47517	-0.94131
9474.465	-12.26353	1.02020	-13.46702	-1.01875
9478.462	-12.27799	1.46017	-13.45500	-0.95050
9482.455	-12.21471	1.51831	-13.41519	-0.98335
9486.456	-12.21478	1.28124	-13.39534	-0.41746
9490.458	-12.27465	1.14982	-13.36138	-0.97444
9494.459	-12.12068	1.66774	-13.44770	-0.87082
9498.451	-12.22905	1.54364	-13.36149	-0.85968
9502.459	-12.35498	1.37969	-13.33680	-0.95566
9506.458	-12.20951	1.25600	-13.47165	-1.21128
9510.482	-12.36073	0.75444	-13.49448	-1.95158
9514.457	-12.62282	0.01676	-13.46899	-3.06045
9518.463	-12.73852	0.20718	-13.57220	-2.43223
9522.451	-12.49200	-0.10287	-13.62127	-1.97640
9526.458	-12.46720	0.12627	-13.68689	-2.13525
9530.474	-12.69821	-0.08029	-13.64033	-1.08859
9534.460	-12.86242	0.06429	-13.73903	-1.76534
9538.459	-12.86454	0.07348	-13.80655	-1.91434
9542.454	-12.82512	-0.03339	-13.92533	-2.05409
9546.458	-12.81995	-0.12314	-13.72177	-1.97912
9550.450	-12.80343	-0.11953	-13.77616	-1.93197
9554.460	-12.94009	-0.04069	-13.91556	-1.93344
9558.466	-12.76515	0.05715	-13.65240	-2.06414
9562.458	-12.70966	0.28531	-13.65324	-1.92396
9566.454	-12.67634	0.15356	-13.82695	-1.94391
9570.459	-12.81474	0.45324	-13.85370	-1.96892
9574.456	-12.74303	0.49714	-13.81326	-2.02829
9578.457	-12.71566	0.46840	-13.74582	-2.05471
9582.457	-12.67565	0.32544	-13.98286	-2.13620
9586.452	-12.55200	0.68300	-14.01485	-2.11460
9590.454	-12.81950	0.81571	-13.85812	-2.16176
9594.473	-12.79364	0.58005	-13.84923	-2.11481
9598.462	-12.43897	0.78032	-13.95879	-2.02925
9602.459	-12.67622	0.67011	-14.02945	-2.07178
9606.462	-12.94469	0.49490	-13.82918	-1.95590
9610.453	-12.87145	0.50779	-13.89178	-1.82961
9614.454	-12.54457	0.38484	-13.98075	-2.03804
9618.454	-12.86003	0.16524	-13.93417	-2.10228
9622.457	-12.72815	0.49712	-13.83482	-2.07070
9626.457	-12.90260	0.61339	-13.97575	-2.11862
9630.452	-12.70903	0.60843	-14.06289	-1.80078
9634.458	-12.75526	0.30605	-13.94834	-1.95398
9638.455	-12.47586	0.53521	-14.02844	-1.74315
9642.462	-12.44534	0.44550	-14.05199	-1.72503
9646.465	-13.01816	0.38373	-13.83250	-1.93266
9650.456	-12.50971	0.20089	-13.85374	-1.87411
9654.452	-12.52743	0.36252	-14.01704	-2.07642
9658.456	-12.57418	0.32977	-14.09833	-1.96353
9662.457	-12.62145	0.51183	-13.98424	-1.88932
9666.453	-12.41267	0.49965	-14.08204	-1.65369
9670.489	-12.43857	0.45124	-14.05570	-1.65841
9674.453	-12.88999	0.43647	-13.74521	-1.77074
9678.452	-12.46462	0.39292	-13.79761	-1.76097
9682.457	-12.49039	0.26008	-13.94016	-1.87127
9686.461	-12.51364	0.12268	-14.07228	-1.94503
9690.452	-12.51456	0.20186	-13.80144	-1.96355
9694.457	-12.56082	0.35530	-13.72451	-2.09685
9698.450	-12.57004	0.53514	-13.96288	-1.86747
9702.453	-12.70348	0.41306	-14.03552	-2.00166
9706.449	-12.49171	0.37213	-13.63925	-1.88008
9710.456	-12.59068	0.30974	-14.00903	-1.89217
9714.449	-12.68227	0.19346	-14.01702	-2.02359
9718.455	-12.63253	0.01903	-13.63623	-2.10673
9722.454	-12.56578	-0.14550	-14.00851	-2.15477
9726.455	-12.62792	-0.30383	-14.00879	-1.97463
9730.465	-12.58129	0.10991	-13.81902	-2.05019
9734.453	-12.59387	0.37169	-13.77307	-1.84053
9738.457	-12.65352	0.60151	-13.91411	-1.76568
9742.446	-12.61970	0.15982	-14.11776	-1.98975
9746.456	-12.51991	0.32954	-13.55428	-1.95944
9750.453	-12.54720	0.18347	-13.77378	-2.06486
9754.452	-12.88353	0.24684	-13.77851	-2.13640
9758.449	-12.59623	0.06574	-13.87978	-2.01771
9762.456	-12.48495	-0.11437	-13.75132	-1.77938
9766.455	-12.58614	-0.20083	-13.80348	-1.58236
9770.458	-12.52509	0.25325	-13.98837	-1.90816
9774.447	-12.70718	0.22260	-13.71484	-2.04602
9778.466	-12.59635	0.10947	-13.73006	-2.01592
9782.499	-12.62291	0.15507	-14.10536	-2.13200
9786.460	-12.68482	0.24669	-14.09586	-2.17893
9790.452	-12.59349	0.31701	-13.75359	-2.23332
9794.452	-12.92276	0.34760	-13.89131	-2.13211
9798.448	-12.56481	0.19762	-14.00013	-2.12432
9802.454	-12.36217	0.30261	-13.92176	-2.25302
9806.453	-12.66561	0.29702	-13.79407	-2.13900
9810.455	-12.75873	0.39908	-13.86163	-2.10210
9814.458	-12.46356	0.22822	-14.00587	-2.19423
9818.451	-12.56200	0.14664	-13.94460	-2.23722
9822.451	-12.89128	0.01640	-13.82035	-2.23733
9826.449	-12.53478	-0.11515	-13.90087	-2.25944
9830.454	-12.91899	-0.02846	-13.92926	-2.30332
9834.453	-12.61783	0.00269	-13.87014	-2.29840
9838.454	-12.44709	-0.06306	-13.82632	-2.33968
9842.446	-12.52691	-0.02423	-13.81104	-2.26344
9846.454	-12.58751	0.03965	-13.85119	-2.12267
9850.480	-12.47420	0.18886	-13.89566	-2.24581
9854.453	-12.67700	0.14020	-13.77939	-2.17803
9858.449	-12.54207	0.03689	-13.76865	-2.00281
9862.455	-12.21082	0.16180	-13.90569	-2.04280
9866.452	-12.43935	0.11720	-14.01267	-2.05071
9870.510	NaN	NaN	NaN	NaN
9878.453	-12.39802	0.07727	-13.88397	-2.43105
9882.452	-12.47127	0.05030	-13.94399	-1.96924
9886.453	-12.70045	0.18031	-13.81394	-1.90042
9890.495	-12.97274	1.53019	-14.23303	-1.62205
9894.453	-13.17600	3.33130	-14.59307	1.13699
9898.449	-14.37338	4.28234	-15.91344	3.28939
9902.451	-14.47189	5.31993	-16.21188	2.91495
9906.447	-14.77665	5.29172	-15.87363	2.71942
9910.463	-14.39459	4.52126	-15.47819	3.06664
9914.456	-14.63300	4.55922	-15.56422	2.60139
9918.480	-14.42379	4.78348	-15.37393	2.56897
9922.462	-14.59375	4.49499	-15.45433	2.30191
9926.451	-14.41387	4.40114	-15.71881	2.45586
9930.448	-14.71041	4.42610	-15.81569	2.52484
9934.452	-14.64306	4.82963	-15.50760	2.72933
9938.457	-14.75718	5.16354	-15.67179	2.69257
9942.449	-14.73938	4.78199	-15.58944	2.73885
9946.450	-14.68431	4.52804	-15.63861	2.63168
9950.446	-14.68473	4.54126	-15.70519	2.72466
9954.451	-14.69724	4.64795	-15.84479	2.74141
9958.447	-14.72780	4.83999	-15.39506	2.79609
9962.452	-14.77210	4.71729	-15.57286	2.84014
9966.464	-14.59080	4.61388	-15.64151	2.80947
9970.456	-14.78287	4.54243	-15.53661	2.86843
9974.458	-14.72383	4.70910	-15.62570	2.88927
9978.446	-14.68245	5.05338	-15.78094	2.81697
9982.452	-14.64675	4.79651	-15.83933	2.74580
9986.859	-14.66787	4.66586	-15.81137	2.61979
9990.331	-14.62312	4.63724	-15.69898	2.80259
9994.330	-14.55769	4.59029	-15.69245	2.81333
9998.321	-14.69309	4.57871	-15.57419	2.76707
10002.326	-14.64208	4.62327	-15.70367	2.87791
10006.323	-14.68168	4.61074	-15.76996	2.76347
10010.320	-14.59661	4.48683	-15.84491	2.52643
10014.328	-14.47892	4.56115	-15.88388	2.55958
10018.324	-14.48111	4.60098	-15.76267	2.48516
10022.331	-14.56030	4.26481	-15.65058	2.72961
10026.321	-14.42644	4.21996	-15.63182	2.52003
10030.325	-14.49434	4.10076	-15.61753	2.35874
10034.325	-14.35377	4.16515	-15.68341	2.53076
10038.319	-14.39364	4.13262	-15.73249	2.52533
10042.327	-14.47033	4.18247	-15.74414	2.60619
10046.322	-14.20516	4.16068	-15.55602	2.38413
10050.326	-14.14474	4.04435	-15.59621	2.16812
10054.361	-14.31165	4.07000	-15.57122	2.19903
10058.330	-14.54916	4.14823	-15.51873	2.09348
10062.327	-14.58241	4.23838	-15.63332	2.07205
10066.331	-13.99711	4.17185	-15.77221	2.23813
10070.320	-14.09908	4.20129	-15.77079	1.89419
10074.325	-14.20259	4.40366	-15.59123	2.07321
10078.322	-14.34520	4.46885	-15.64075	1.83557
10082.323	-14.71405	4.59549	-15.58764	1.70237
10086.321	-14.88343	4.69186	-15.60871	1.82959
10090.327	-14.33630	4.59913	-15.75582	1.74924
10094.325	-14.50895	4.50746	-15.84895	1.94513
10098.322	-14.38179	4.70618	-15.77472	1.91262
10102.323	-14.27977	4.82516	-15.56639	1.79020
10106.363	-14.35468	4.89909	-15.61103	1.82847
10110.320	-14.42358	4.83334	-15.64558	1.76938
10114.323	-14.47482	4.86775	-15.61695	1.88137
10118.319	-14.33905	4.68319	-15.61228	1.78253
10122.352	-14.37899	4.61502	-15.64422	1.73936
10126.323	-14.45521	4.56561	-15.67218	1.82317
10130.321	-14.44518	4.62224	-15.83000	1.89287
10134.319	-14.44492	4.66762	-15.78547	1.88660
10138.323	-14.45835	4.81022	-15.73161	1.86586
10142.319	-14.53049	4.76729	-15.48771	1.91223
10146.328	-14.55983	4.57751	-15.53301	1.85774
10150.320	-14.54439	4.39624	-15.42186	1.83555
10154.319	-14.46645	4.14733	-15.48517	1.83451
10158.334	-14.35587	4.00654	-15.50555	1.78465
10162.324	-14.24317	3.94560	-15.45989	1.72656
10166.324	-14.37468	3.94250	-15.44534	1.73274
10170.320	-14.25919	3.91799	-15.44036	1.69083
10174.322	-14.23648	3.96664	-15.46763	1.65189
10178.317	-14.25110	3.89078	-15.49283	1.59840
10182.318	-14.21743	3.88021	-15.48801	1.55685
10186.321	-14.18032	3.91209	-15.55457	1.52372
10190.327	-14.18869	3.88739	-15.68173	1.50370
10194.320	-14.27009	3.96761	-15.68021	1.49840
10198.320	-14.32465	4.01591	-15.71809	1.47188
10202.317	-14.20255	4.10861	-15.77184	1.49006
10206.323	-14.48360	4.14661	-15.81353	1.53061
10210.333	-14.27049	4.23827	-15.68999	1.58054
10214.322	-13.62502	4.24882	-13.99055	1.89242
10218.362	-9.84587	4.37202	-13.46691	2.42672
10222.329	-9.49209	4.52957	-10.30999	2.72150
10226.331	-6.29627	4.73829	-9.49337	3.14104
10230.326	-5.44719	4.84630	-7.48436	3.04727
10234.320	-4.48628	5.00685	-5.80474	3.02289
10238.317	-3.00898	5.06929	-5.49160	3.00888
10242.318	-2.38613	5.22289	-4.36271	3.19198
10246.320	-2.59985	5.54246	-4.66191	3.27671
10250.316	-2.63678	5.67059	-4.33917	3.09463
10254.323	-2.74618	5.80710	-4.24668	3.01788
10258.353	-2.88198	5.69995	-4.47380	3.07799
10262.326	-3.08189	5.81031	-4.23406	3.03120
10266.320	-2.81080	5.82992	-4.27580	3.33674
10270.327	-2.58794	5.86363	-4.05633	3.36319
10274.321	-2.55178	5.92152	-3.76122	3.48625
10278.321	-2.40526	5.93725	-3.78889	3.58091
10282.320	-2.26522	5.97724	-3.82062	3.74731
10286.319	-2.17068	5.97032	-3.76428	3.72573
10290.323	-2.11611	5.92538	-3.65984	3.94428
10294.323	-2.05469	5.89851	-3.73937	3.82419
10298.323	-1.94112	5.88478	-3.82746	3.85730
10302.317	-1.86521	5.88271	-3.90158	3.66519
10306.347	-1.99151	5.86065	-3.88159	3.55037
10310.332	-1.88596	5.81345	-3.76890	3.51710
10314.324	-1.85715	5.78378	-3.85839	3.72784
10318.326	-1.84322	5.77745	-3.76117	3.64287
10322.317	-1.76152	5.75180	-3.79873	3.43985
10326.464	-1.77556	5.76668	-3.87672	3.36038
10330.319	-1.78337	5.71765	-3.88315	3.12319
10334.314	-1.77340	5.58483	-3.87863	3.08074
10338.316	-1.80184	5.50675	-3.89876	3.01379
10342.319	-1.83712	5.44938	-3.80923	3.04301
10346.313	-1.84466	5.39875	-3.74948	3.04300
10350.320	-1.81957	5.39727	-3.66298	3.13154
10354.323	-1.78835	5.27465	-3.60944	3.24115
10358.324	-1.72974	5.27173	-3.52741	3.13043
10362.316	-1.72079	5.24661	-3.48091	3.16743
10366.320	-1.71208	5.16436	-3.49443	3.35935
10370.316	-1.71632	5.14929	-3.52727	3.19860
10374.319	-1.66078	5.10233	-3.47787	3.28476
10378.313	-1.66842	5.12426	-3.55718	3.14420
10382.319	-1.62837	5.15465	-3.52583	3.13721
10386.316	-1.56275	5.16038	-3.55409	3.12077
10390.317	-1.50832	5.16916	-3.51050	3.15768
10394.579	-1.44751	5.17975	-3.59246	3.18072
10398.322	-1.43458	5.21382	-3.62818	3.13468
10402.316	-1.50827	5.22097	-3.59987	3.06332
10406.320	-1.50839	5.17369	-3.61456	2.98724
10410.320	-1.51035	5.19739	-3.59219	3.07551
10414.313	-1.53180	5.18598	-3.56213	3.05105
10418.319	-1.57533	5.14465	-3.56007	3.08848
10422.317	-1.53064	4.97068	-3.51179	3.08891
10426.313	-1.49961	4.99730	-3.49280	3.18217
10430.319	-1.45636	4.94580	-3.49431	3.09851
10434.329	-1.46819	4.99614	-3.62620	3.15472
10438.325	-1.45916	4.91758	-3.63391	3.23953
10442.319	-1.59784	4.95770	-3.65458	3.31655
10446.315	-1.56523	4.99029	-3.71735	3.41084
10450.318	-1.55943	5.03463	-3.73700	3.37004
10454.313	-1.50341	5.08260	-3.76552	3.29919
10458.320	-1.51080	5.06664	-3.86089	3.15501
10462.314	-1.46807	5.11546	-3.86763	3.17584
10466.323	-1.44143	5.19361	-3.87556	3.05909
10470.320	-1.47752	5.17524	-3.87769	2.79121
10474.315	-1.50862	5.18875	-3.86383	2.88333
10478.324	-1.52662	5.15643	-3.79457	2.74891
10482.314	-1.56352	5.16619	-3.77016	2.77281
10486.319	-1.58125	5.16903	-3.72017	2.63481
10490.314	-1.66450	5.12644	-3.68246	2.64640
10494.319	-1.71873	5.09155	-3.62267	2.61183
10498.314	-1.68064	5.06208	-3.59906	2.63613
10502.319	-1.70571	5.07101	-3.53132	2.64538
10506.315	-1.66857	5.04627	-3.49003	2.68542
10510.311	-1.66291	4.99163	-3.49658	2.71270
10514.319	-1.66787	4.96640	-3.45685	2.78653
10518.314	-1.68456	4.99547	-3.48533	2.90360
10522.323	-1.58854	5.17756	-3.48778	3.19839
10526.339	-0.67054	5.38518	-3.00002	4.29162
10530.325	0.39442	6.03976	-2.62236	6.15951
10534.316	0.56793	7.12653	-1.96139	6.44929
10538.317	0.46961	7.31835	-2.37372	6.37166
10542.308	-0.41673	7.06278	-2.16280	6.21219
10546.318	-0.33362	6.93925	-2.08942	5.69061
10550.311	-0.37437	6.75736	-2.02297	5.59828
10554.317	-0.21291	6.80985	-1.98182	5.29844
10558.307	-0.31225	7.03222	-1.95341	5.80364
10562.322	0.30009	7.07290	-1.93430	5.78473
10566.313	-0.15002	7.09365	-1.89235	5.71767
10570.316	-0.19405	7.10279	-1.85110	5.66550
10574.311	-0.15901	7.14222	-1.82807	5.72985
10578.332	-0.07646	7.13558	-1.82115	5.74008
10582.318	-0.00846	7.07373	-1.81230	5.69737
10586.316	0.04435	7.07923	-1.81515	5.80380
10590.312	0.10322	7.09352	-1.79891	5.90015
10594.315	0.05984	7.08317	-1.92557	5.89332
10598.313	-0.12635	7.05781	-1.96546	5.97118
10602.315	0.00062	7.03981	-2.24696	6.00907
10606.314	-0.09746	7.00306	-2.03972	5.94836
10610.323	-0.20872	6.99431	-2.01508	6.03885
10614.319	-0.17005	7.00380	-1.98301	5.88147
10618.312	-0.07356	7.02544	-2.05142	5.56327
10622.315	-0.06130	6.99920	-2.03566	5.39445
10626.314	-0.06860	7.01966	-1.95554	5.52145
10630.316	0.00951	7.03264	-1.99426	5.63234
10634.310	0.09666	7.07771	-2.01796	5.92665
10638.317	-0.07361	7.25756	-1.91001	5.85093
10642.313	-0.04204	7.25864	-1.78225	5.90224
10646.317	-0.17745	7.28328	-1.91467	5.84752
10650.311	-0.14479	7.33707	-1.99796	5.79053
10654.311	0.01506	7.43737	-2.07539	5.97164
10658.315	-0.08306	7.46607	-2.15083	6.08221
10662.307	-0.20735	7.46038	-2.17343	6.09285
10666.314	-0.49088	7.49546	-2.22205	6.12921
10670.313	-0.55515	7.49228	-2.13172	6.22554
10674.315	-0.44686	7.55016	-2.06927	6.30045
10678.308	-0.43413	7.57288	-1.91618	6.24801
10682.316	-0.38727	7.54216	-1.76232	6.27730
10686.317	-0.08587	7.56618	-1.48766	6.34912
10690.324	-0.16794	7.57336	-2.01293	6.37893
10694.309	-0.32493	7.59881	-2.10905	6.36160
10698.310	-0.41616	7.58579	-2.01605	6.38470
10702.313	-0.41125	7.59600	-1.94595	6.44655
10706.310	-0.52629	7.59637	-1.82698	6.52491
10710.325	-0.35439	7.62850	-1.56208	6.50655
10714.315	0.19298	7.62906	-1.62358	6.48554
10718.314	-0.30563	7.62795	-1.92523	6.47515
10722.314	-0.11156	7.63207	-1.91633	6.53498
10726.311	-0.25607	7.59365	-1.77412	6.66052
10730.321	-0.23147	7.51885	-1.79527	6.57864
10734.308	-0.29012	7.49761	-1.78855	6.53037
10738.336	-0.24520	7.34683	-1.91172	6.63364
10742.310	-0.18479	7.18144	-1.80419	6.70980
10746.313	-0.21894	7.11012	-1.74823	6.65120
10750.305	-0.17958	7.21361	-1.58120	6.63313
10754.314	-0.15988	7.25651	-1.79187	6.63195
10758.309	-0.22477	7.28035	-1.91241	6.65295
10762.313	-0.59779	7.62735	-1.69941	6.67889
10766.304	-0.16643	7.48065	-1.77685	6.75132
10770.320	0.04003	7.52526	-0.86605	6.71121
10774.309	3.97637	7.15115	0.33432	6.60157
10778.313	5.36927	6.87558	3.99709	4.92488
10782.313	6.18034	5.71655	4.79115	3.42715
10786.308	7.53986	4.31323	6.92831	2.17659
10790.312	8.36890	1.77466	6.46140	-0.43565
10794.305	9.00360	1.81241	7.07564	-0.76362
10798.314	8.55930	-0.43740	6.78532	-3.46671
10802.309	8.33085	-1.92986	6.91236	-4.58676
10806.311	8.40640	-3.40352	7.22954	-5.64368
10810.310	9.06678	-4.65451	8.74699	-6.62884
10814.312	9.12019	-7.81005	9.26735	-7.31921
10818.313	10.73406	-5.44257	9.11295	-7.70783
10822.307	10.42883	-5.64522	9.33608	-7.89241
10826.313	10.64321	-5.67811	8.79366	-7.79247
10830.304	9.33403	-5.57732	9.07421	-7.56651
10834.314	10.41654	-5.88321	8.99547	-7.80974
10838.308	9.88861	-6.67973	8.98937	-7.73137
10842.190	10.88111	-6.17849	9.13250	-7.68954
10846.189	10.51216	-5.95313	9.21870	-7.85394
10850.183	10.70605	-6.18675	9.00157	-8.06312
10854.187	10.54816	-6.60149	9.13560	-7.99338
10858.186	10.30848	-6.91322	8.97508	-7.89629
10862.190	10.77811	-6.35708	9.01237	-8.07188
10866.185	10.54864	-5.87543	8.85313	-7.98201
10870.187	10.46193	-6.54512	8.87183	-8.00720
10874.183	10.57268	-6.57476	9.04253	-7.94503
10878.188	10.47602	-7.13270	8.75846	-8.09637
10882.184	10.34235	-6.73944	8.84297	-8.07091
10886.182	10.34689	-5.97097	8.95491	-7.94293
10890.182	10.53437	-6.19336	8.73710	-7.94347
10894.184	10.47619	-6.32444	8.85880	-7.91590
10898.183	10.41755	-6.56247	8.76891	-7.83454
10902.186	10.47232	-7.28255	8.85104	-7.87092
10906.184	10.37652	-6.51069	8.89470	-7.94726
10910.178	10.35760	-6.13478	8.84319	-7.83650
10914.189	10.50469	-5.88825	8.90674	-7.63068
10918.181	10.52022	-6.13211	8.96409	-7.98722
10922.187	10.25132	-6.10650	8.94849	-7.81872
10926.179	10.59675	-6.12146	8.93895	-7.55667
10930.187	10.62480	-6.23104	8.92258	-8.09859
10934.181	10.37729	-6.37018	8.94019	-7.82222
10938.187	10.48214	-6.50640	8.92483	-7.76317
10942.192	10.43904	-6.09611	8.95850	-7.86355
10946.183	10.16661	-5.67743	8.91919	-7.56431
10950.187	9.74702	-4.51843	7.96127	-6.91974
10954.178	10.09145	-3.35580	6.57005	-6.21960
10958.187	10.02266	-3.15109	6.81984	-5.39511
10962.184	9.56668	-3.05608	7.74888	-5.11076
10966.220	9.56576	-3.28120	7.42278	-5.87257
10970.184	9.73313	-3.53375	7.10269	-5.69789
10974.180	9.76645	-3.48087	7.34157	-5.19131
10978.184	9.42291	-3.32478	7.07789	-5.72048
10982.176	9.30273	-3.54747	7.27023	-5.69224
10986.191	9.41277	-3.65167	7.31831	-5.65597
10990.180	9.58439	-3.44283	7.18433	-5.39441
10994.189	9.35169	-3.36857	6.97714	-5.29582
10998.182	9.15976	-3.58901	7.17832	-5.26587
11002.179	9.32695	-3.57859	7.17231	-5.43651
11006.177	9.48705	-3.58429	7.20162	-5.63497
11010.196	9.36965	-3.44899	7.17986	-5.44719
11014.180	9.05141	-3.49297	7.03333	-5.30489
11018.185	9.15035	-3.45977	6.93058	-5.41906
11022.180	9.35459	-3.40399	7.21813	-5.37718
11026.183	9.43175	-3.37956	7.22644	-5.33084
11030.181	9.52229	-3.36942	6.97861	-5.34632
11034.185	9.26991	-3.21010	7.03472	-5.31098
11038.179	9.35672	-2.98310	7.11684	-5.31183
11042.184	9.35718	-3.17819	7.05997	-5.27625
11046.176	9.25233	-3.15014	6.98585	-5.27806
11050.179	9.45131	-3.14218	7.04218	-5.24546
11054.182	9.27262	-3.77822	7.01680	-5.25003
11058.179	9.38796	-4.19540	7.09832	-5.34698
11062.178	9.40450	-3.35716	7.24634	-5.32868
11066.183	9.35237	-3.29887	6.92648	-5.30480
11070.186	9.25876	-3.36574	6.93587	-5.40409
11074.211	9.26529	-3.36453	6.98049	-5.21282
11078.187	9.43076	-3.26758	6.98942	-5.27858
11082.177	9.66238	-3.25074	6.95391	-5.33806
11086.179	9.43542	-3.34091	6.97746	-5.34457
11090.181	9.47097	-2.69688	7.02890	-5.56167
11094.178	9.40506	-3.08988	7.13920	-5.60287
11098.178	9.39813	-3.24978	7.15823	-5.44266
11102.181	9.59522	-3.55333	6.62419	-5.40081
11106.179	9.42641	-3.44374	6.91327	-5.23687
11110.196	9.69342	-3.48055	6.94763	-5.45710
11114.185	9.74986	-3.13815	6.91386	-5.46944
11118.178	9.41378	-3.13433	7.12972	-5.38741
11122.178	9.50967	-2.88430	6.95978	-5.47106
11126.178	9.40127	-2.52869	6.74883	-5.50374
11130.182	8.14387	-2.79493	6.33400	-5.31180
11134.179	7.77573	-3.31087	5.94750	-5.26332
11138.179	7.65400	-3.16101	4.70436	-5.20478
11142.180	8.39227	-2.89038	5.79452	-4.92297
11146.185	8.84237	-2.90365	5.51949	-4.80274
11150.186	7.62704	-2.76383	5.79008	-4.84874
11154.184	8.36025	-2.61590	5.81557	-5.03930
11158.180	8.03239	-2.61585	5.82923	-5.00086
11162.180	8.24896	-2.75543	4.56148	-4.81744
11166.178	8.21697	-3.18891	5.26922	-4.75738
11170.174	7.73640	-3.39139	5.64987	-4.67453
11174.176	8.24419	-2.99260	5.14296	-4.75475
11178.216	8.27110	-2.96687	5.57269	-4.51748
11182.180	8.21930	-2.68075	5.27481	-4.58334
11186.171	7.88914	-2.57576	5.25478	-4.66914
11190.181	8.18239	-2.46476	5.58304	-4.78943
11194.183	8.24845	-2.61414	5.16241	-4.69192
11198.180	8.20486	-2.24342	5.28611	-4.50649
11202.173	8.08659	-3.09584	5.10992	-4.63288
11206.182	8.10885	-3.11833	5.22815	-4.56229
11210.193	8.22603	-2.54135	5.41709	-4.67793
11214.183	7.83271	-2.39798	4.96083	-4.53158
11218.189	8.13047	-2.22950	5.39689	-4.36136
11222.185	8.27246	-2.42265	5.16472	-4.63506
11226.175	8.24303	-2.38755	5.26526	-4.83980
11230.180	8.22482	-3.20861	5.67799	-4.68560
11234.177	8.25268	-2.74252	5.05368	-4.45298
11238.183	8.19547	-2.33549	5.40565	-4.62359
11242.176	8.07156	-2.38985	5.36122	-4.64543
11246.176	8.21770	-2.33472	5.37261	-4.95397
11250.175	8.18901	-2.31377	5.22766	-4.60756
11254.176	8.04650	-2.38649	5.23169	-4.52285
11258.177	8.18823	-2.53869	5.38902	-4.69149
11262.171	8.21261	-2.93417	5.29728	-4.62848
11266.181	8.14280	-2.65507	5.36066	-4.44506
11270.177	8.11907	-2.58953	5.32031	-4.46641
11274.185	8.02467	-2.48324	5.25338	-4.78050
11278.182	7.89045	-2.46209	5.41937	-4.66285
11282.183	8.18339	-2.46883	5.04696	-4.39924
11286.180	7.87372	-2.43894	5.25997	-4.54258
11290.172	8.09122	-2.43342	5.51673	-4.47863
11294.181	8.14937	-2.32706	5.09249	-4.41473
11298.177	7.91916	-2.38458	5.38031	-4.44598
11302.175	8.29722	-2.31540	5.07072	-4.60926
11306.174	7.86055	-2.26051	5.10258	-4.24471
11310.192	8.15124	-2.24606	5.36774	-4.50875
11314.182	8.02545	-2.21308	5.09111	-4.56836
11318.177	7.82772	-2.25366	5.08505	-4.35410
11322.183	8.24672	-2.32974	5.50773	-4.38539
11326.175	8.04029	-2.35029	4.82506	-4.40620
11330.180	8.04592	-2.52744	5.01908	-4.40381
11334.171	7.97106	-2.60052	5.27540	-4.53369
11338.181	8.20530	-2.91035	5.03920	-4.39969
11342.177	8.21658	-2.88319	5.18495	-4.42548
11346.178	8.04341	-2.66395	5.26504	-4.65670
11350.181	8.28826	-2.61432	5.03127	-4.45210
11354.178	8.24499	-1.96003	5.30173	-4.49499
11358.183	8.15171	-2.59750	5.22244	-4.21095
11362.176	8.08810	-2.51156	5.19426	-4.46674
11366.175	8.15404	-1.76034	5.00822	-4.47352
11370.177	8.19299	-1.99355	5.12132	-4.32829
11374.177	7.90445	-1.98506	5.30289	-4.34097
11378.200	8.27025	-1.72462	5.16964	-4.49528
11382.173	8.37735	-1.74114	5.12661	-4.29262
11386.175	7.82852	-1.77473	5.22549	-4.32352
11390.173	8.24786	-1.65383	5.11430	-4.41512
11394.172	8.15117	-1.72012	5.04119	-4.17248
11398.173	7.89819	-1.69665	5.17181	-4.19731
11402.183	8.22453	-1.41507	5.27924	-4.31062
11406.196	8.04835	-1.64949	5.15074	-4.47029
11410.170	8.21546	-1.79402	5.12833	-4.20286
11414.175	8.22035	-3.10096	5.13274	-4.26201
11418.175	8.09992	-3.10032	5.19857	-4.24055
11422.183	8.14147	-3.09770	5.14165	-4.45466
11426.172	8.03424	-2.81000	5.38710	-4.43535
11430.175	8.18978	-2.51936	4.93403	-4.29669
11434.174	8.15637	-2.40172	5.12016	-4.23937
11438.169	7.76642	-2.49806	5.28714	-4.29856
11442.183	8.11661	-2.55695	5.33443	-4.41427
11446.173	8.29686	-2.45475	5.10128	-4.51059
11450.176	8.11916	-2.33692	5.24873	-4.61589
11454.168	7.77361	-2.35048	5.11388	-4.30993
11458.177	7.98783	-2.10046	5.20054	-4.50091
11462.173	8.33615	-2.12159	5.15975	-4.51945
11466.177	8.25749	-2.32754	5.14471	-4.69606
11470.176	7.25282	-3.84490	4.87761	-6.12983
11474.175	4.99194	-7.33594	4.42264	-7.69631
11478.171	4.99916	-8.54163	4.12621	-8.84546
11482.181	4.73981	-9.20431	3.64145	-9.71204
11486.175	3.89634	-12.43793	3.11613	-10.89436
11490.178	3.43608	-13.89398	3.20149	-12.15490
11494.174	-19.99372	-12.06117	3.03403	-12.04613
11498.176	-19.99372	-12.06686	2.89705	-12.23297
11502.169	4.14446	-13.99399	3.10393	-12.07277
11506.177	4.03137	-13.00520	2.98599	-12.01680
11510.190	4.00146	-13.60372	2.92371	-11.87964
11514.175	4.12851	-13.71303	2.85388	-11.98356
11518.176	-19.99372	-12.26104	2.76190	-11.83912
11522.172	-19.99372	-12.23388	2.80565	-12.00432
11526.176	-19.99372	-12.21318	2.62870	-12.03908
11530.187	-19.99372	-12.23819	2.62219	-12.16395
11534.176	-19.99372	-12.19592	2.65260	-12.18802
11538.172	-19.99372	-12.19157	2.62729	-12.16390
11542.171	-19.99372	-12.18681	2.58898	-12.22528
11546.172	-19.99372	-12.16109	2.56830	-12.14147
11550.174	-19.99372	-12.13683	2.49733	-12.09304
11554.175	-19.99372	-12.10335	2.48604	-12.20991
11558.173	NaN	NaN	2.56473	-12.33537
11562.171	NaN	NaN	2.56381	-12.27028
11566.182	NaN	NaN	2.52726	-12.17904
11570.180	2.85549	-14.23547	2.53444	-12.24061
11574.175	3.01195	-14.40467	2.59507	-12.18636
11578.168	3.18022	-14.57415	2.60755	-12.21703
11582.200	3.43116	-14.63833	2.65877	-12.18419
11586.172	3.56499	-14.66098	2.75165	-12.21423
11590.170	3.36827	-14.76874	2.65617	-12.22315
11594.189	3.39238	-14.69712	2.79934	-12.21496
11598.174	-19.99372	-12.15872	2.75542	-12.26502
11602.172	-19.99372	-12.15439	2.81008	-12.19145
11606.166	-19.99372	-12.14962	2.70401	-12.16153
11610.181	-19.99372	-12.14455	2.76057	-12.15566
11614.175	-19.99372	-12.12181	2.86960	-12.14533
11618.176	3.84525	-14.76210	2.93606	-12.25806
11622.171	3.93623	-14.13586	2.97651	-12.23293
11626.165	3.56794	-14.45639	2.99123	-12.21130
11630.175	-19.99372	-12.15426	2.97990	-12.19923
11634.170	3.69261	-14.50292	2.98473	-12.11110
11638.173	-19.99372	-12.14189	2.91671	-12.02824
11642.168	3.75632	-14.45708	2.90547	-12.02824
11646.175	-19.99372	-12.15993	2.98460	-12.11960
11650.174	3.37531	-14.67216	2.99492	-12.11702
11654.189	3.32385	-14.78490	3.03949	-12.12740
11658.173	-19.99372	-12.18927	2.97336	-12.13936
11662.171	3.60749	-14.81585	2.88220	-12.06997
11666.169	3.32488	-14.35565	2.82385	-12.08779
11670.168	-19.99372	-12.15111	2.82736	-12.07385
11674.169	-19.99372	-12.14819	2.80951	-12.01841
11678.171	-19.99372	-12.13033	2.81085	-12.04287
11682.170	3.30210	-13.17670	2.86834	-12.11697
11686.194	-19.99372	-12.17396	2.84351	-12.08085
11690.178	3.25204	-14.42718	2.82254	-12.01294
11694.175	3.10765	-14.37814	2.76265	-12.04050
11698.049	-19.99372	-12.19688	2.85368	-12.14011
11702.061	-19.99372	-12.19284	2.84638	-12.07344
11706.047	3.37794	-14.47906	2.85888	-12.03375
11710.048	-19.99372	-12.15642	2.99148	-12.14260
11714.051	3.08332	-14.74507	2.98022	-11.99716
11718.047	-19.99372	-12.16381	2.86990	-12.06274
11722.050	3.10745	-14.55941	2.71808	-12.03401
11726.039	3.01705	-14.68096	2.87009	-12.06722
11730.050	-19.99372	-12.14038	2.69975	-12.00550
11734.043	3.15874	-14.87642	2.88977	-12.06604
11738.052	3.22623	-14.15558	3.04487	-12.09570
11742.043	-19.99372	-12.15955	3.11071	-12.02224
11746.048	-19.99372	-12.15651	2.87955	-11.98263
11750.044	-19.99372	-12.14020	2.84576	-11.99687
11754.070	-19.99372	-12.13770	2.95854	-11.91858
11758.043	-19.99372	-12.12732	3.04756	-11.93840
11762.043	-19.99372	-12.12515	2.86811	-11.91032
11766.044	-19.99372	-12.11190	2.80419	-11.90514
11770.044	3.42829	-14.59097	2.74204	-11.83343
11774.041	3.45002	-14.17424	2.82439	-11.82419
11778.052	3.49834	-14.46210	2.70790	-11.85395
11782.051	3.48721	-14.45724	2.60827	-11.89327
11786.040	3.24840	-14.13631	2.70342	-11.86160
11790.048	3.28325	-14.63982	2.77074	-11.95985
11794.045	-19.99372	-12.18780	2.78166	-11.99425
11798.080	3.25275	-14.50305	2.85789	-11.94746
11802.036	3.43185	-14.23194	2.85249	-11.85736
11806.046	3.33765	-14.35952	2.93634	-11.85610
11810.056	3.34873	-14.33738	2.93205	-11.88759
11814.043	3.23517	-14.48024	2.81593	-11.87196
11818.046	3.04219	-14.50609	2.76109	-11.88705
11822.047	3.10586	-14.59927	2.66201	-11.85680
11826.041	3.19400	-14.68072	3.04934	-11.85672
11830.041	3.15656	-14.34326	3.01435	-11.93593
11834.043	3.11428	-14.38392	3.05325	-11.90625
11838.041	3.17520	-14.31087	3.08691	-11.87338
11842.041	3.17057	-14.34734	3.15439	-11.93763
11846.044	3.00361	-14.46645	3.19548	-11.90466
11850.044	3.02606	-14.73930	3.17294	-11.81746
11854.036	3.06570	-14.77298	2.85076	-11.85835
11858.046	2.55983	-14.85268	2.66082	-11.77503
11862.045	2.60310	-14.18063	2.74318	-11.40990
11866.046	2.77663	-11.41455	2.30271	-11.00164
11870.036	2.88928	-10.84896	2.80904	-9.93115
11874.045	2.79644	-10.72410	0.30754	-9.26107
11878.039	2.97307	-9.90277	-2.27741	-8.89222
11882.045	3.68535	-6.31076	-2.07068	-8.75115
11886.035	-19.99372	-12.22438	5.93674	-8.60050
11890.038	-19.99372	-12.14573	-19.99372	-11.68652
11894.038	-19.99372	-12.12384	-19.99372	-11.89485
11898.044	-19.99372	-12.11051	-19.99372	-12.02092
11902.042	-19.99372	-12.10236	-19.99372	-12.07055
11906.066	-19.99372	-12.04886	-19.99372	-12.07611
11910.038	-19.99372	-12.07394	NaN	NaN
11915.920	-19.99372	-12.07597	NaN	NaN
11918.944	NaN	NaN	NaN	NaN
11926.038	NaN	NaN	NaN	NaN
11930.053	NaN	NaN	NaN	NaN
11934.045	NaN	NaN	NaN	NaN
11938.039	NaN	NaN	NaN	NaN
11942.042	NaN	NaN	NaN	NaN
11946.055	NaN	NaN	NaN	NaN
11950.055	NaN	NaN	NaN	NaN
11954.041	NaN	NaN	NaN	NaN
11958.545	NaN	NaN	NaN	NaN
11962.350	NaN	NaN	NaN	NaN
11966.045	NaN	NaN	NaN	NaN
11970.044	NaN	NaN	NaN	NaN
11974.053	NaN	NaN	NaN	NaN
11978.042	NaN	NaN	NaN	NaN
11982.048	NaN	NaN	NaN	NaN
11986.039	NaN	NaN	-7.79944	10.14485
11990.042	NaN	NaN	NaN	NaN
11998.050	NaN	NaN	-0.90748	-4.08256
12002.041	3.11331	0.30866	2.29547	-3.86814
12006.039	4.18321	-2.56281	-1.59479	-3.64569
12010.073	4.04431	-2.51076	1.19162	-3.67274
12014.043	2.92379	-3.02202	0.48247	-3.47586
12018.040	2.45443	-2.40565	0.57037	-3.89675
12022.044	2.20329	-2.21383	0.40604	-3.56793
12026.039	2.26366	-2.44227	0.30801	-4.20989
12030.048	2.05360	-2.36018	0.51882	-3.93130
12034.049	1.96234	-2.20517	0.11292	-4.21929
12038.037	1.84319	-2.67853	0.16347	-3.85841
12042.042	1.94553	-2.15286	0.11213	-4.24951
12046.034	1.93479	-2.85205	0.30270	-4.19351
12050.042	2.08312	-2.05281	0.12895	-4.25401
12054.037	2.03006	-2.76535	0.18457	-3.73918
12058.043	2.00254	-2.19066	0.18020	-4.12288
12062.036	2.10612	-2.72092	0.08068	-4.39638
12066.037	2.45520	-2.99624	0.22095	-4.25619
12070.043	1.99223	-2.99710	0.11726	-4.24974
12074.047	2.17380	-1.96353	0.18722	-4.20778
12078.035	2.40526	-2.90585	0.14012	-3.99815
12082.038	2.51346	-2.17124	0.19876	-4.33168
12086.039	2.36648	-3.08403	0.28049	-4.19527
12090.038	2.20637	-2.96378	0.30228	-4.21091
12094.039	2.13051	-3.24725	0.13007	-4.31018
12098.036	2.44633	-2.14200	0.20298	-4.21739
12102.038	2.24158	-3.15295	0.29952	-4.19915
12106.040	2.56448	-3.13820	0.13590	-4.19640
12110.037	2.10305	-3.39236	0.13399	-4.37372
12114.037	2.41256	-1.96712	0.11870	-4.42024
12118.041	2.58816	-3.34216	0.23257	-4.11626
12122.037	2.61672	-3.33696	0.05996	-4.23556
12126.056	2.15294	-3.47415	0.11255	-4.34867
12130.040	2.41093	-2.51868	0.10749	-4.41950
12134.036	2.61565	-3.35784	0.03070	-4.59220
12138.035	2.65124	-2.93218	0.06547	-4.52887
12142.036	2.58504	-2.91162	-0.00060	-4.64538
12146.039	2.25010	-3.34692	-0.13022	-4.66993
12150.037	2.52597	-3.41960	-0.00057	-4.80657
12154.039	2.38115	-3.18838	-0.17730	-4.72487
12158.039	2.44821	-3.62810	-0.17008	-4.81003
12162.040	2.54113	-3.02375	-0.03477	-4.85565
12166.035	2.41754	-3.07404	-0.12066	-4.87061
12170.036	2.39852	-3.17002	0.08661	-4.91290
12174.039	2.36500	-2.84991	0.04053	-4.89894
12178.036	2.23722	-3.08646	-0.08473	-4.78579
12182.035	2.44598	-3.02909	0.12243	-4.76673
12186.037	2.30533	-2.92928	0.14590	-4.72292
12190.039	2.29069	-3.23470	-0.02382	-4.63363
12194.037	2.52874	-3.00298	0.27982	-4.66838
12198.040	2.39574	-3.26791	0.26364	-4.65444
12202.036	2.34446	-3.10910	0.18042	-4.65287
12206.038	2.64235	-3.34602	0.13188	-4.65571
12210.037	2.39963	-3.04523	0.06986	-4.61921
12214.035	2.44172	-3.17042	0.04614	-4.59267
12218.045	2.43174	-3.37957	0.19536	-4.63521
12222.041	2.48520	-3.26507	0.18554	-4.66965
12226.034	2.55314	-3.24907	-0.04745	-4.70801
12230.035	2.35578	-3.11237	0.11843	-4.67687
12234.032	2.49290	-3.30014	0.45723	-4.78762
12238.040	2.43602	-3.32174	0.02926	-4.81553
12242.036	2.46355	-3.24436	-0.22457	-4.78971
12246.029	2.48180	-3.76764	0.16983	-4.79996
12250.039	2.41056	-3.64833	0.33454	-4.82734
12254.034	2.44281	-3.38244	0.20963	-4.88213
12258.038	2.40372	-3.71901	0.16161	-4.86123
12262.029	2.45099	-3.37593	-0.00479	-4.85619
12266.083	2.44469	-3.64730	0.17246	-4.91342
12270.042	2.46104	-3.71655	0.28334	-4.96247
12274.035	2.17442	-3.77588	0.21348	-4.97478
12278.040	2.43870	-3.66776	0.19333	-4.97205
12282.038	2.39440	-3.65127	0.17184	-4.94152
12286.032	2.31262	-3.61871	0.28620	-4.99583
12290.032	2.34225	-3.69497	0.33620	-4.97182
12294.033	2.18223	-3.92109	0.34211	-4.97790
12298.388	2.17789	-3.64546	0.31265	-4.95353
12302.049	2.25935	-3.71482	0.36261	-4.98248
12306.036	2.35085	-3.85410	0.28726	-5.02848
12310.034	2.29257	-3.60600	0.27982	-5.03458
12314.033	2.06922	-3.78635	0.34973	-5.05225
12318.040	2.36039	-3.64332	0.28620	-5.06165
12322.043	2.22119	-3.70935	0.22586	-5.11778
12326.034	2.23048	-3.76812	0.41596	-5.18441
12330.033	2.24153	-3.62495	0.28652	-5.23860
12334.035	2.15083	-3.92589	0.12292	-5.27108
12338.036	2.19204	-3.73917	0.15360	-5.34193
12342.045	2.23122	-3.75922	0.01993	-5.35729
12346.038	2.22255	-3.68366	0.05460	-5.35943
12350.037	2.28209	-3.69903	0.21296	-5.38073
12354.029	2.12035	-3.87742	0.14593	-5.35897
12358.039	2.20176	-3.82577	0.17690	-5.36042
12362.036	2.25977	-3.88870	0.21125	-5.38489
12366.039	2.36921	-3.90501	0.26046	-5.31058
12370.034	2.26676	-3.92904	0.24525	-5.30009
12374.035	2.22993	-4.04797	0.32255	-5.28490
12378.032	2.18607	-3.94053	0.37005	-5.21675
12382.032	2.23861	-3.98828	0.40658	-5.18451
12386.035	2.25897	-3.96947	0.36978	-5.14500
12390.033	2.02111	-3.65015	0.07376	-4.96391
12394.031	-0.49403	-3.03555	-2.23273	-4.98323
12398.032	-2.00678	-2.17927	-3.59891	-4.77413
12402.031	-1.53619	-0.95604	-3.86855	-4.04131
12406.038	-1.75575	-0.59936	-3.98946	-3.61075
12410.070	-1.85380	-1.77872	-3.76789	-3.27889
12414.033	-1.25890	-1.66172	-2.38078	-3.55483
12418.029	-0.94720	-1.72720	-2.16949	-4.29247
12422.036	-0.95500	-2.08701	-2.34324	-4.19314
12426.030	-1.16195	-2.04544	-2.73605	-3.87240
12430.034	-1.42429	-1.88752	-3.13670	-3.96827
12434.038	-1.60355	-1.83975	-3.36621	-4.01795
12438.036	-1.53761	-1.82757	-3.51668	-3.94203
12442.031	-1.47558	-1.86877	-3.36960	-3.76027
12446.039	-1.53039	-1.96593	-3.35224	-3.85607
12450.030	-1.41923	-1.67570	-3.25107	-3.68680
12454.031	-1.41325	-1.20037	-3.22235	-3.80470
12458.033	-1.47618	-1.32860	-3.15706	-3.83932
12462.031	-1.52593	-0.75133	-3.24340	-3.71085
12466.028	-1.52454	-0.79027	-3.28486	-3.61985
12470.033	-1.50822	-1.34383	-3.35966	-3.66570
12474.027	-1.47164	-1.48369	-3.34185	-3.65126
12478.036	-1.46856	-1.18058	-3.34944	-3.55865
12482.031	-1.52848	-1.20177	-3.29387	-3.60247
12486.036	-1.47784	-0.88993	-3.22975	-3.61157
12490.029	-1.48930	-1.06902	-3.20389	-3.55850
12494.034	-1.47677	-1.10839	-3.20234	-3.53831
12498.031	-1.31525	-1.47644	-3.21988	-3.51697
12502.309	-1.36300	-1.60910	-3.28363	-3.39556
12506.033	-1.33172	-1.61361	-3.22208	-3.42229
12510.032	-1.35673	-1.48508	-3.22589	-3.42258
12514.028	-1.41618	-1.51746	-3.17287	-3.45044
12518.044	-1.51516	-1.47003	-3.19162	-3.43132
12522.036	-1.40884	-1.58164	-3.18188	-3.43229
12526.027	-1.50931	-1.07197	-3.18094	-3.48139
12530.039	-1.49091	-1.08563	-3.20535	-3.49641
12534.036	-1.51519	-1.33240	-3.24113	-3.45110
12538.026	-1.44376	-1.11233	-3.25288	-3.52588
12542.034	-1.44207	-0.95479	-3.25530	-3.52066
12546.035	-1.46276	-1.18415	-3.23393	-3.57911
12549.913	-1.38860	-1.26511	-3.28133	-3.56241
12553.904	-1.41147	-1.24862	-3.30730	-3.71666
12557.905	-1.40013	-1.25736	-3.33646	-3.61931
12561.907	-1.37563	-0.96805	-3.31299	-3.61283
12565.904	-1.45108	-1.19379	-3.31002	-3.66490
12569.905	-1.35782	-0.96657	-3.29097	-3.69773
12573.913	-1.29171	-1.19782	-3.27663	-3.68975
12577.911	-1.29338	-1.14339	-3.32159	-3.63303
12581.913	-1.32036	-1.30749	-3.27747	-3.62598
12585.904	-1.30603	-0.71695	-3.25953	-3.74401
12589.904	-1.24258	-0.59021	-3.34734	-3.56973
12593.907	-1.32795	-0.84061	-3.23843	-3.57889
12597.902	-1.33550	-1.27157	-3.24345	-3.62368
12601.910	-1.36146	-1.42088	-3.20852	-3.68009
12605.905	-1.35616	-0.76877	-3.26272	-3.73148
12609.909	-1.38158	-0.81464	-3.27346	-3.72516
12613.901	-1.31019	-1.18714	-3.36562	-3.55627
12617.925	-1.32317	-1.12475	-3.23225	-3.56683
12621.910	-1.32977	-0.80035	-3.18400	-3.49080
12625.905	-1.02521	-0.49972	-2.79322	-3.60199
12629.935	1.16555	-0.48633	-0.81290	-2.93376
12633.905	3.96755	0.64012	1.70926	-1.44046
12637.905	6.69872	1.78777	4.12540	0.22819
12641.901	8.34298	2.02606	5.67777	-0.63247
12645.902	10.47825	2.30696	7.47392	-0.19540
12649.905	11.45596	2.61335	7.87416	-0.55704
12653.903	12.67364	2.86267	10.01036	-0.88482
12657.919	13.99176	2.78593	10.46909	-0.88977
12661.909	14.55476	2.84658	11.08261	-1.18005
12665.902	15.72235	2.90425	12.41319	-0.92898
12669.906	15.86714	2.93777	12.36975	-1.09008
12673.903	14.73334	3.17875	12.48362	-0.88133
12677.906	15.29212	3.23159	12.31123	-0.89711
12681.897	15.05434	3.41727	12.53436	-0.79169
12685.907	15.16546	3.35482	12.50087	-0.83136
12689.906	15.41093	3.51418	12.44370	-0.81196
12693.906	15.64896	3.11225	12.49687	-0.90268
12697.897	15.36721	3.32833	12.52677	-0.86140
12701.915	15.49405	3.51253	12.44952	-0.82929
12705.903	15.44195	3.67174	12.49784	-0.76083
12709.907	15.50670	3.61715	12.55559	-0.65864
12713.901	15.37584	3.74317	12.57491	-0.59738
12717.915	15.35468	3.73083	12.60831	-0.60589
12721.906	15.45032	3.82839	12.61920	-0.48177
12725.896	15.49402	3.77664	12.51851	-0.43642
12729.906	15.55354	3.86912	12.55398	-0.38145
12733.900	15.47342	3.74771	12.56179	-0.42454
12737.906	15.47934	3.70325	12.58321	-0.35946
12741.901	15.45239	3.35790	12.57354	-0.30302
12745.907	15.45546	3.41582	12.60037	-0.24908
12749.903	15.38196	3.47965	12.58474	-0.23871
12753.902	15.49225	3.52905	12.56611	-0.25886
12757.899	15.52410	3.35349	12.60895	-0.22688
12761.900	15.53856	3.39224	12.53419	-0.22142
12765.902	15.43902	3.33959	12.58335	-0.25506
12769.901	15.40925	3.37395	12.51224	-0.26200
12773.907	15.39033	3.35740	12.50243	-0.27076
12777.902	15.54851	3.37755	12.60387	-0.22895
12781.917	15.36834	3.46137	12.56273	-0.23517
12785.911	15.49760	3.53616	12.55510	-0.26930
12789.901	15.49492	3.59081	12.43206	-0.27198
12793.900	15.60293	3.60595	12.48887	-0.23604
12797.901	15.54628	3.63806	12.57429	-0.20593
12801.903	15.47130	3.73635	12.52861	-0.19835
12805.900	15.48688	3.84157	12.58198	-0.21488
12809.900	15.45906	3.89961	12.50978	-0.26328
12813.900	15.54856	3.93798	12.42162	-0.25032
12817.914	15.66314	3.97751	12.52357	-0.25243
12821.902	15.59450	4.04958	12.56112	-0.25688
12825.911	15.56367	4.06378	12.55067	-0.20273
12829.901	15.54955	4.07911	12.57881	-0.24056
12833.905	15.57576	4.06876	12.55928	-0.25174
12837.895	15.62977	4.12088	12.41054	-0.28159
12842.381	15.57795	4.17335	12.47891	-0.27877
12845.917	15.54699	3.98705	12.60474	-0.21845
12849.905	15.60816	3.87770	12.57420	-0.21823
12853.897	15.50801	3.85808	12.53639	-0.11595
12857.899	15.52545	3.85094	12.52419	-0.12042
12861.900	15.33975	3.41266	12.70940	-0.07570
12865.903	15.37298	3.74933	12.53289	-0.13606
12869.899	15.38316	3.79065	12.50311	-0.13787
12873.898	15.50121	3.58552	12.63227	-0.16500
12877.900	15.45016	3.49290	12.46950	-0.11464
12881.898	15.35046	3.39202	12.54204	-0.14927
12885.896	15.54006	3.44916	12.51160	-0.07756
12889.898	15.40733	3.47944	12.54928	-0.05273
12893.901	15.31630	3.45251	12.55649	-0.05632
12897.899	15.40173	3.53968	12.57373	-0.16521
12901.897	15.55895	3.34052	12.56195	-0.10769
12905.900	15.48312	3.30003	12.57952	-0.12095
12909.905	15.50633	3.27954	12.57209	-0.06335
12913.902	15.44882	3.31650	12.51165	-0.12651
12917.913	15.43279	3.39765	12.36705	-0.12556
12921.905	15.44306	3.37268	12.40186	-0.08506
12925.895	15.54557	3.50338	12.51151	-0.01424
12929.903	15.49098	3.56626	12.55796	-0.08705
12933.902	15.31274	3.65651	12.52128	-0.10448
12937.902	15.44993	3.80355	12.32750	-0.07208
12941.893	15.48497	3.82528	12.31634	-0.12998
12945.903	15.42514	3.75588	12.26697	-0.12726
12949.903	15.46095	3.63887	12.27706	-0.17475
12953.901	15.44704	3.66199	12.22160	-0.02441
12957.897	15.43572	3.71202	12.25090	0.05665
12961.897	15.41596	3.61513	12.24133	-0.12076
12965.901	15.51596	3.46440	12.29038	-0.40141
12969.900	15.49478	3.12076	12.85289	-0.46822
12973.901	15.37515	2.73894	12.35360	-0.83530
12977.898	15.44633	2.55351	12.16586	-1.01196
12981.897	15.40249	2.77269	12.29602	-1.20814
12985.902	15.46286	2.87211	12.36296	-1.29423
12989.903	15.46699	2.74201	12.52301	-1.23837
12993.905	15.43369	2.65880	12.63688	-0.96582
12997.893	15.41612	2.53485	12.67355	-1.17612
13001.902	15.48711	2.62659	12.73052	-1.25958
13005.897	15.42576	2.58078	12.61441	-1.22882
13009.901	15.36721	2.45851	12.64262	-1.16850
13013.892	15.33527	2.41344	12.62880	-1.34789
13017.912	15.42597	2.50287	12.47309	-1.45205
13021.904	15.38599	2.53644	12.62537	-1.51536
13025.894	15.37792	2.48273	12.75897	-1.25993
13029.902	15.27697	2.36996	12.92720	-1.15833
13033.906	15.31450	2.28938	12.76857	-1.17391
13037.896	15.40989	2.37491	12.68864	-1.11617
13041.897	15.33834	2.35829	12.65760	-1.28534
13045.897	15.32680	2.33509	12.61965	-1.26115
13049.899	15.27455	2.34630	12.51917	-1.24559
13053.896	15.25057	2.34999	12.58455	-1.40431
13057.896	15.24263	2.32789	12.48859	-1.43514
13061.896	15.27527	2.34289	12.59777	-1.24623
13065.935	15.29058	2.33683	12.62315	-1.09537
13069.899	15.33613	2.34826	12.51787	-1.15692
13073.912	15.24993	2.35545	12.48372	-1.29026
13077.901	15.20335	2.38721	12.37844	-1.24510
13081.901	15.06639	2.32156	12.38135	-1.28264
13085.899	15.20214	2.32865	12.36374	-1.28406
13089.890	15.17475	2.28824	12.35670	-1.25588
13093.907	15.26399	2.11747	12.19996	-1.17552
13097.901	15.52886	2.15537	12.36191	-1.14187
13101.892	15.42145	2.25456	12.33098	-1.10214
13105.899	15.40828	2.27027	12.30009	-1.03610
13109.894	15.55766	2.41260	12.29806	-1.16326
13113.901	15.36059	2.34416	12.28853	-1.18971
13117.903	15.57300	2.31328	12.18386	-1.05062
13121.900	15.54372	2.34759	11.85896	-1.01875
13125.898	15.59395	2.50067	11.97220	-1.05429
13129.895	15.62165	2.45559	12.10533	-1.06094
13133.897	15.57371	2.53766	11.98206	-1.00612
13137.891	15.62924	2.56193	12.12734	-1.07022
13141.899	15.57845	2.57955	12.08214	-1.10375
13145.897	15.56805	2.54907	12.10210	-1.11681
13149.894	15.12090	2.55264	11.82371	-1.11507
13153.893	13.11844	2.56320	10.29226	-1.14474
13157.912	9.98473	1.90187	8.04713	-1.13793
13161.901	8.01392	-1.06189	6.24163	-1.56995
13165.890	5.99107	-2.17616	4.55384	-3.46715
13169.899	5.11204	-2.86866	4.06441	-3.94233
13173.893	4.12154	-2.88829	2.84115	-4.40721
13177.898	3.32627	-3.50009	1.82262	-4.47182
13181.896	2.91639	-4.46134	1.19882	-4.47991
13185.899	2.12037	-3.66963	-0.57473	-4.44576
