time (ms)	lx (deg)	ly (deg)	rx (deg)	ry (deg)
0.000	11.41011	-4.00509	9.19084	-2.02566
4.027	11.44127	-3.97275	9.18129	-2.04223
8.029	11.45241	-4.01605	9.19130	-2.04676
11.986	11.44692	-4.02418	9.16866	-2.05926
15.988	11.50694	-3.90073	9.17984	-2.06522
19.985	11.50577	-3.85954	9.17858	-2.09590
23.990	11.59954	-3.76478	9.19319	-2.09417
27.985	11.63613	-3.74950	9.18913	-2.07967
31.981	11.68153	-3.67968	9.22818	-2.03665
35.981	11.35117	-3.64057	9.12558	-1.98634
39.989	10.45905	-3.66333	6.64393	-1.83923
43.988	7.26710	-3.57236	5.26575	-0.26503
47.990	5.32732	-3.12979	2.30258	0.44744
52.029	4.80379	-2.78858	2.35873	0.70243
55.992	5.07185	-2.60337	2.42649	0.69599
59.983	5.11999	-2.84786	2.49850	0.67713
63.983	5.57151	-2.95071	2.92621	0.63444
67.984	5.95675	-2.62852	3.76090	0.55808
71.986	5.77438	-2.65131	4.24201	0.41738
75.985	5.49915	-2.42955	3.94836	0.54646
79.982	5.31871	-2.37112	3.10040	0.53435
83.985	5.26512	-2.39875	2.78530	0.61372
87.994	5.20344	-2.42408	2.67603	0.60067
91.989	5.41273	-2.43889	2.52243	0.60477
95.995	5.57171	-2.50060	2.73335	0.57352
99.981	5.63203	-2.55846	2.64579	0.65313
103.989	5.82717	-2.61483	2.71310	0.66863
107.984	5.83581	-2.56320	2.60636	0.71590
111.981	6.15313	-2.57875	2.85980	0.72718
115.983	6.19648	-2.61752	2.87066	0.78517
120.007	6.17882	-2.65478	2.86826	0.84916
123.988	6.20462	-2.69414	2.77691	0.87089
127.991	6.25340	-2.68948	2.79501	0.89914
131.990	6.29894	-2.70428	2.90062	0.94826
135.987	6.28094	-2.67132	3.00571	0.97077
139.983	6.24009	-2.66726	3.03596	1.00252
143.981	6.19523	-2.64175	3.10893	0.97869
147.986	6.08178	-2.64348	3.12182	0.97414
151.988	6.03488	-2.67924	3.15159	0.93834
155.984	5.96333	-2.57603	3.15506	0.93372
159.981	5.97489	-2.61637	3.16055	0.92819
163.983	5.88402	-2.62090	3.15216	0.86487
167.987	5.85053	-2.69797	3.16352	0.83821
171.983	5.76875	-2.70721	3.18556	0.75899
175.979	5.76055	-2.77102	3.16562	0.67972
179.987	5.70276	-2.74021	3.14734	0.61756
183.986	5.72271	-2.74005	3.12616	0.53067
187.987	5.71512	-2.76655	3.08540	0.45410
191.984	5.72048	-2.82336	3.05798	0.41600
195.988	5.69463	-2.84832	3.03764	0.32117
199.980	5.69875	-2.89245	3.01720	0.27093
203.980	5.66219	-2.90803	2.97218	0.19403
207.979	5.73008	-2.97641	2.91824	0.12766
211.985	5.67062	-2.99810	2.89408	0.10021
215.982	5.66226	-3.04317	2.85024	0.06917
219.979	5.64670	-3.00757	2.80543	0.04706
223.981	5.61458	-3.00125	2.78468	0.00886
228.007	5.61733	-2.98286	2.78344	0.00007
231.994	5.65629	-2.92707	2.78332	-0.00578
235.986	5.61733	-2.86168	2.77671	0.05242
239.981	5.61517	-2.86832	2.76074	0.30792
244.002	5.58432	-2.76377	2.79045	0.33705
247.984	5.61940	-2.74594	2.79783	0.49030
251.993	5.55895	-2.66795	2.86064	0.50772
256.036	5.57694	-2.64728	2.90324	0.59207
259.989	5.50309	-2.60965	2.98109	0.55501
263.987	5.47200	-2.54506	3.02922	0.57116
267.981	5.45850	-2.51991	3.09463	0.60514
271.981	5.50385	-2.56001	3.14080	0.64518
275.978	5.42122	-2.55913	3.14934	0.66068
279.984	5.53781	-2.57939	3.28771	0.60753
283.978	5.52831	-2.56343	3.31798	0.55929
287.979	5.61630	-2.57759	3.36122	0.52258
291.984	5.62643	-2.57643	3.37504	0.45201
295.992	5.63338	-2.55619	3.34922	0.39120
299.982	5.62687	-2.53121	3.31524	0.35221
303.977	5.63822	-2.54311	3.21151	0.30022
307.984	5.60986	-2.55923	3.11465	0.28532
311.982	5.47707	-2.58417	2.98579	0.21592
315.985	5.40688	-2.58444	2.76931	0.16302
319.983	5.34732	-2.61958	2.76356	0.09151
323.996	5.41212	-2.65009	2.63576	-0.01201
327.985	5.51870	-2.64490	2.65850	0.06925
331.980	5.45622	-2.67110	2.83043	0.27013
335.982	5.41040	-2.69275	2.81375	0.34044
339.979	5.41613	-2.70430	2.85410	0.34058
343.982	5.42973	-2.74489	2.91101	0.40938
347.983	5.38587	-2.77414	2.94544	0.45582
351.976	5.35377	-2.79904	2.94854	0.48636
355.983	5.33566	-2.80342	2.92007	0.51258
359.980	5.34922	-2.79998	2.98715	0.59319
363.982	5.37556	-2.81847	3.00257	0.62745
368.001	5.32262	-2.76949	2.98948	0.65917
371.991	5.34882	-2.77505	2.99371	0.67368
375.980	5.35347	-2.75676	2.85858	0.64418
380.001	5.53195	-2.80276	2.62692	0.60839
383.985	5.51774	-2.72309	2.58680	0.58920
387.982	5.56369	-2.74104	2.75452	0.33966
392.040	5.61782	-2.70748	2.78862	0.24591
395.985	5.63065	-2.70372	2.70285	0.22937
399.995	5.61247	-2.64964	2.81669	0.18101
403.976	5.66305	-2.61338	2.77629	0.02815
407.980	5.75350	-2.56917	2.76809	0.01571
411.974	5.75441	-2.50245	2.78490	-0.03125
415.983	5.71524	-2.55842	2.69086	-0.07387
419.983	5.75028	-2.52329	2.72201	-0.13972
423.976	5.70691	-2.48780	2.73533	-0.14475
427.978	5.66809	-2.51558	2.74455	-0.22755
431.984	5.65951	-2.53161	2.67368	-0.21662
435.976	5.62594	-2.54936	2.64299	-0.21290
439.978	5.57798	-2.53760	2.58048	-0.18948
443.978	5.58184	-2.59960	2.52589	-0.16660
447.982	5.58309	-2.65271	2.45034	-0.14742
451.973	5.53953	-2.68282	2.33945	-0.11431
455.981	5.56038	-2.75949	2.21028	-0.09696
459.986	5.58929	-2.91330	2.08414	-0.07057
463.983	5.56886	-2.85735	2.10491	-0.00181
467.975	5.54668	-2.90423	2.05834	0.00517
471.981	5.59927	-3.01494	1.97409	0.03924
475.976	5.55843	-3.02383	1.97337	0.10875
479.980	5.55440	-2.99351	2.05529	0.16139
483.975	5.58653	-3.00218	2.00386	0.21094
487.975	5.56018	-2.84338	2.03846	0.27053
492.007	5.55870	-2.96093	2.10751	0.31899
496.020	5.58272	-2.94540	2.17881	0.24084
499.989	5.57761	-2.91074	2.19425	0.21873
503.985	5.58965	-2.63990	2.29099	0.24298
507.985	5.60662	-2.74089	2.40231	0.21617
511.984	5.63582	-2.75997	2.45921	0.17853
515.977	5.60104	-2.67957	2.47152	0.15524
519.974	5.61239	-2.69536	2.49104	0.15042
523.981	5.63412	-2.68325	2.52963	0.07909
527.982	5.64432	-2.69292	2.52364	0.01398
531.976	5.68376	-2.74218	2.52570	-0.04394
535.977	5.70590	-2.75362	2.46756	0.01445
539.973	5.71618	-2.82952	2.43360	0.21016
543.987	5.71325	-2.82894	2.36368	0.23440
547.977	5.71608	-2.95804	2.31933	0.39445
551.978	5.71804	-2.97517	2.25003	0.46076
555.978	5.72763	-3.04470	2.15881	0.52587
559.982	5.74249	-3.20009	2.15970	0.43151
563.977	5.76030	-3.29068	2.12863	0.46673
567.978	5.74544	-3.34631	2.08042	0.51892
571.981	5.72512	-3.34197	2.02691	0.53490
575.979	5.70011	-3.37846	1.99694	0.61397
579.979	5.69394	-3.47498	1.94984	0.55395
583.974	5.67153	-3.31702	1.92448	0.57253
587.998	5.64683	-3.31909	1.93398	0.54581
591.984	5.59841	-3.21598	1.95430	0.47215
595.984	5.54194	-3.17104	2.07442	0.50685
599.974	5.48243	-2.86618	2.14565	0.47649
603.976	5.29578	-2.67533	2.18183	0.43888
607.978	5.29019	-2.67259	2.13363	0.36527
611.971	5.17543	-2.68276	2.29456	0.24665
615.973	5.15724	-2.60885	2.35434	0.26146
619.973	5.05070	-2.56976	2.37238	0.24435
623.976	5.08200	-2.58208	2.58239	0.29357
627.981	5.09259	-2.58686	2.64223	0.31085
631.980	5.04216	-2.53202	2.74264	0.36853
635.981	5.03647	-2.59876	2.80979	0.36779
639.979	5.01962	-2.69354	2.87242	0.34132
643.971	5.04457	-2.80113	3.03511	0.14970
648.015	5.14973	-2.72297	2.91059	0.21437
651.990	5.24060	-2.75924	2.78097	0.24624
655.978	5.21897	-2.86640	2.90163	0.34377
659.971	5.30419	-2.88176	2.94931	0.41671
664.004	5.31472	-3.01592	2.96888	0.40849
667.977	5.28704	-3.03661	2.91948	0.34550
671.983	5.29907	-3.10198	2.92403	0.34525
675.974	5.33802	-3.20938	2.96322	0.34720
679.972	5.31098	-3.11542	2.87259	0.37901
683.971	5.34789	-2.90273	2.83682	0.30566
687.979	5.36371	-2.67906	2.78253	0.40766
691.978	5.36887	-2.60179	2.76232	0.47011
695.978	5.40877	-2.43545	2.81895	0.46225
699.974	5.42781	-2.34499	2.82858	0.49689
703.977	5.53060	-2.40049	2.76344	0.44956
707.972	5.61074	-2.56668	2.77087	0.46015
711.976	5.71006	-2.48729	2.74363	0.47918
715.976	5.79627	-2.48013	2.67640	0.48057
719.978	5.91779	-2.48263	2.63004	0.40441
723.969	6.05182	-2.64629	2.59970	0.26402
727.977	6.13071	-2.52634	2.55953	0.17437
731.994	6.15397	-2.80199	2.54573	0.12993
735.977	6.19849	-2.85935	2.50950	-0.01288
739.973	6.20111	-2.76152	2.48034	-0.01415
743.973	6.22802	-2.81582	2.39589	0.05698
747.971	6.16682	-2.84547	2.37188	0.00566
751.986	6.13682	-2.80866	2.32340	0.01745
755.979	6.01463	-2.78925	2.46674	-0.07795
759.971	5.76202	-2.70421	2.64218	-0.10602
763.970	5.61797	-2.73462	2.62927	-0.10709
767.975	5.84389	-2.99975	2.74259	-0.03137
771.973	5.74070	-2.74551	2.63012	0.09180
775.970	5.73532	-2.76298	2.68985	0.21170
779.972	5.56726	-2.86659	2.71899	0.07551
783.974	5.64670	-3.00313	2.79270	0.04036
787.977	5.45973	-3.08294	2.81697	0.00434
791.975	5.53672	-3.31636	2.77624	-0.03102
795.974	5.45499	-3.21708	2.84974	-0.06239
799.987	5.41381	-3.39558	2.80895	-0.08113
803.852	5.37711	-3.34061	2.75643	0.13363
807.848	5.40754	-3.33564	2.70463	0.22337
811.847	5.40604	-3.26404	2.70810	0.35010
815.851	5.30417	-3.28192	2.75858	0.14780
819.850	5.27156	-3.30234	2.77238	-0.04053
823.847	5.23878	-3.30797	2.74242	-0.08655
827.844	5.28241	-3.30872	2.80209	-0.06468
831.845	5.24033	-3.28850	2.76178	-0.12437
835.845	5.33236	-3.29723	2.90044	-0.08076
839.850	5.82719	-3.38628	2.90943	-0.03430
843.850	5.34498	-3.38534	3.03566	0.01062
847.845	5.36105	-3.45973	3.06588	0.04645
851.847	5.30267	-3.50120	3.15844	0.06337
855.842	5.25810	-3.59174	3.21785	0.02149
859.846	5.31344	-3.50730	3.28870	-0.07636
863.848	5.33315	-3.55000	3.27383	-0.12241
867.866	5.33502	-3.47770	3.28630	-0.14548
871.844	5.27779	-3.48009	3.25201	-0.14446
875.845	5.29836	-3.46945	3.26235	-0.19227
879.851	5.36686	-3.51020	3.16389	-0.31455
883.855	5.23465	-3.54221	3.16490	-0.28562
887.848	5.26393	-3.59624	2.99096	-0.37508
891.846	5.25313	-3.50288	2.98920	-0.40203
895.844	5.35704	-3.32119	3.17784	-0.27957
899.847	7.14871	-2.13496	3.86185	0.82009
903.842	7.86929	-1.33075	5.78516	2.44126
907.849	9.84915	-0.11649	6.15846	2.69386
911.846	9.44368	-0.51524	6.30637	2.87948
915.849	9.45030	-0.31243	6.68291	2.71187
919.839	9.32229	-0.37382	6.79344	2.78457
923.855	9.06356	-0.14507	7.05797	2.65885
927.873	8.22795	-0.15691	6.88375	2.62916
931.848	8.09929	-0.16463	7.13519	2.50247
935.849	8.59439	-0.14206	7.06459	2.48201
939.850	8.95985	-0.24794	7.13363	2.59852
943.854	9.73043	-0.21251	7.21147	2.42597
947.849	9.95984	-0.12117	7.03846	2.29174
951.848	9.94566	-0.10931	7.06977	2.36663
955.842	9.93484	-0.03730	7.05772	2.46240
959.845	9.71213	-0.20165	6.94584	2.50475
963.851	9.77013	-0.19368	6.97387	2.52983
967.849	9.71271	-0.20207	6.91488	2.64578
971.841	9.27958	-0.41038	7.00521	2.80881
975.841	9.19679	-0.52924	6.91498	2.83485
979.849	9.37716	-0.51053	6.99717	2.88789
983.842	9.32572	-0.54452	6.93897	2.82811
987.846	9.13011	-0.53424	6.86792	2.87906
991.883	9.14196	-0.69137	6.92017	2.84436
995.851	9.06545	-0.78085	6.94386	2.85116
999.841	9.00051	-0.80943	6.94641	2.78254
1003.841	9.03650	-0.78842	7.00722	2.73176
1007.849	8.99862	-0.85056	7.01091	2.85545
1011.844	8.95898	-0.84979	7.01795	2.78945
1015.847	8.98528	-0.82075	7.02822	2.83185
1019.841	9.08179	-0.69735	7.08918	2.83305
1023.841	9.33739	-0.76931	7.03096	2.83124
1027.840	9.44368	-0.77511	6.99010	2.85477
1031.843	9.47773	-0.62520	7.00585	2.83986
1035.847	9.44974	-0.59687	6.96431	2.84811
1039.839	9.34959	-0.35577	6.94252	2.77678
1043.846	9.31890	-0.39118	6.95262	2.77839
1047.846	9.19024	-0.33989	6.94496	2.70869
1051.849	9.22891	-0.43754	7.02086	2.50351
1055.840	9.33282	-0.42777	7.06980	2.44643
1059.840	9.44105	-0.42575	7.06374	2.57426
1063.846	9.42375	-0.43036	7.06642	2.66837
1067.846	9.55686	-0.24188	7.14751	2.56619
1071.884	9.43320	-0.20081	7.21078	2.54184
1075.840	9.38028	0.01444	7.17218	2.53593
1079.845	9.36414	0.03109	7.17934	2.49691
1083.845	9.41878	-0.02084	7.17834	2.46259
1087.839	9.52845	-0.03291	7.16920	2.36299
1091.846	9.54201	0.04509	7.12640	2.46947
1095.848	9.52618	0.08094	7.13202	2.34698
1099.848	9.50858	0.11864	7.09328	2.34152
1103.842	9.49453	0.13026	7.05909	2.28935
1107.839	9.48260	0.19078	7.03614	2.20375
1111.840	9.43112	0.25749	6.91153	2.22387
1115.847	9.39607	0.19022	6.85366	2.16213
1119.840	9.34043	0.18863	6.77572	2.10514
1123.844	9.29343	0.17142	6.75815	2.13614
1127.839	9.19512	0.17612	6.73989	2.11974
1131.848	9.12570	0.28293	6.76341	2.15945
1135.842	9.06267	0.22792	6.77475	2.15105
1139.854	9.05015	0.24046	6.78869	2.19115
1143.845	8.98765	0.35122	6.83983	2.23713
1147.840	8.97668	0.29849	6.78316	2.27950
1151.843	8.97114	0.27451	6.80511	2.26770
1155.839	9.00268	0.16601	6.84683	2.30684
1159.841	9.02963	0.14430	6.89179	2.33371
1163.841	9.06649	0.01448	6.94521	2.39713
1167.844	9.11961	0.00142	7.02597	2.41318
1171.839	9.18784	-0.09329	7.05638	2.47191
1175.846	9.24970	-0.16621	7.10988	2.48617
1179.842	9.33550	-0.27281	7.16034	2.47984
1183.839	9.38912	-0.28882	7.21525	2.47585
1187.841	9.41866	-0.33876	7.24373	2.42887
1191.869	9.51807	-0.44408	7.36262	2.39317
1195.846	9.56407	-0.49178	7.41138	2.33950
1199.839	9.58497	-0.51252	7.47080	2.28986
1203.835	9.62212	-0.58135	7.49259	2.24262
1207.844	9.66479	-0.59990	7.55869	2.16290
1211.857	9.71862	-0.68936	7.58924	2.19507
1215.847	9.53813	-0.77989	7.57761	2.14097
1219.837	8.59060	-0.70395	5.80253	2.13977
1223.838	5.58634	-0.55117	5.16644	2.09927
1227.841	4.19124	-0.72079	2.15983	2.00993
1231.841	2.87138	-0.89724	1.67159	1.93330
1235.840	1.10212	-0.88405	0.60583	1.84419
1239.838	0.33312	-1.24184	-0.14153	1.00725
1243.839	-1.81798	-1.13690	-1.88596	1.63389
1247.838	-1.96717	-1.26516	-3.54724	0.89040
1251.839	-2.30068	-1.38026	-3.80167	0.37608
1255.845	-2.45968	-1.53868	-3.93156	0.48551
1259.843	-2.57125	-1.53223	-3.68849	0.49753
1263.839	-2.51472	-1.59109	-3.42705	0.64214
1267.840	-2.64678	-1.55034	-3.38820	0.55935
1271.836	-2.66536	-1.62996	-3.49137	0.58059
1275.841	-2.91505	-1.58907	-3.56680	0.49311
1279.838	-3.26084	-1.61203	-3.64696	0.49572
1283.839	-3.29218	-1.57477	-3.74273	0.58217
1287.840	-2.94473	-1.61732	-3.79959	0.59973
1291.839	-3.00148	-1.65223	-3.89557	0.64751
1295.842	-2.95163	-1.67635	-3.81029	0.69544
1299.847	-2.88626	-1.69539	-3.84834	0.76071
1303.841	-2.88537	-1.70928	-3.91484	0.84133
1307.840	-2.54534	-1.78997	-4.01934	0.85711
1311.836	-2.57798	-1.78216	-4.03910	0.92957
1315.847	-2.20431	-1.78756	-4.09142	0.93744
1319.842	-2.17204	-1.79457	-4.14310	0.97073
1323.837	-2.23147	-1.81997	-4.17922	0.99724
1327.839	-2.27149	-1.81823	-4.23727	1.01367
1331.842	-2.16042	-1.82204	-4.25571	1.00123
1335.838	-2.22461	-1.85686	-4.27343	1.01112
1339.843	-2.20733	-1.84753	-4.28209	1.00425
1343.858	-2.24715	-1.86666	-4.30726	0.99985
1347.853	-2.32060	-1.83722	-4.30376	0.93198
1351.836	-2.37084	-1.83286	-4.30304	0.87335
1355.840	-2.40407	-1.81757	-4.26822	0.72471
1359.838	-2.39753	-1.80634	-4.17712	0.55029
1363.836	-2.43635	-1.81065	-4.06705	0.66480
1367.837	-2.47905	-1.82230	-4.00744	0.55499
1371.836	-2.54772	-1.81524	-4.02275	0.49899
1375.837	-2.65228	-1.83969	-3.92951	0.45825
1379.861	-2.65577	-1.79993	-3.74765	0.38470
1383.884	-2.67962	-1.80518	-3.71906	0.31407
1387.839	-2.67642	-1.83070	-3.72230	0.27026
1391.836	-2.60664	-1.94248	-3.77505	0.25125
1395.836	-2.46615	-2.06276	-3.85778	0.26255
1399.838	-2.52532	-2.09284	-3.96274	0.30856
1403.833	-2.72407	-1.96652	-3.97029	0.49444
1407.840	-2.52624	-1.95828	-4.05673	0.61340
1411.858	-2.62085	-1.89795	-3.78464	0.45689
1415.841	-2.60067	-1.93434	-3.90375	0.47157
1419.832	-2.60775	-2.02123	-3.73097	0.44449
1423.838	-2.66080	-1.98708	-3.65341	0.49261
1427.842	-2.59646	-1.96115	-3.77896	0.51285
1431.837	-2.54616	-1.96690	-4.00588	0.56528
1435.835	-2.47353	-1.81641	-4.07236	0.65371
1439.840	-2.60627	-1.78936	-4.03470	0.70562
1443.832	-2.63678	-1.74024	-4.05001	0.68052
1447.832	-2.75906	-1.63361	-4.13942	0.67415
1451.839	-2.79832	-1.50598	-3.94251	0.45400
1455.836	-2.53362	-1.67257	-3.89708	0.50085
1459.833	-2.59596	-1.63901	-3.97652	0.53464
1463.847	-2.31584	-1.71273	-4.00339	0.54761
1467.841	-2.40991	-1.64338	-3.76201	0.49131
1471.835	-2.25340	-1.70829	-3.81605	0.43488
1475.832	-2.50766	-1.61062	-3.93697	0.35772
1479.839	-2.28963	-1.54051	-4.01053	0.33895
1483.835	-2.40615	-1.48270	-4.01255	0.25638
1487.839	-2.45790	-1.48411	-3.97704	0.35314
1491.839	-2.54160	-1.55464	-4.02828	0.37384
1495.837	-2.64272	-1.57312	-4.05942	0.50403
1499.833	-2.56664	-1.64400	-4.12384	0.91143
1503.845	-2.33581	-1.72050	-3.85160	0.35563
1507.843	-2.42574	-1.68886	-3.94167	0.37044
1511.832	-2.47251	-1.72318	-3.93860	0.35440
1515.835	-2.44261	-1.71180	-3.84478	0.36931
1519.839	-2.53763	-1.58821	-3.84275	0.37946
1523.835	-2.63787	-1.61013	-3.93638	0.40946
1527.830	-2.49263	-1.72283	-3.97262	0.45488
1531.837	-2.41145	-1.81714	-4.10960	0.53289
1535.838	-2.41323	-1.87172	-4.19376	0.58639
1539.837	-2.43615	-2.01021	-4.25936	0.57060
1543.829	-2.03553	-2.05325	-4.03655	0.58462
1547.840	-1.04920	-2.03886	-2.93431	0.90690
1551.838	0.96179	-1.94057	-0.25942	0.93217
1555.832	2.54083	-1.94115	0.39767	0.80834
1559.832	3.39784	-1.75890	1.73398	0.71993
1563.834	3.97751	-1.85723	1.73190	0.69307
1567.836	3.63547	-1.90861	1.19656	0.61160
1571.843	3.17324	-1.76329	0.94552	0.74193
1575.835	3.07889	-1.66378	0.86783	0.79352
1579.831	2.85187	-1.58963	0.81436	0.87284
1583.833	2.83086	-1.51928	0.75521	0.95083
1587.865	2.78483	-1.34035	0.82977	1.02655
1591.841	2.83549	-1.36177	1.02451	0.84212
1595.842	3.13682	-1.53316	1.37967	0.63069
1599.830	3.54484	-1.50338	1.27949	0.64976
1603.839	3.36001	-1.59958	1.19152	0.69559
1607.832	3.27316	-1.56310	1.08108	0.72801
1611.834	3.12489	-1.43883	1.02258	0.84994
1615.851	3.14949	-1.34355	1.04488	0.88166
1619.836	3.13989	-1.66991	1.10370	0.98330
1623.833	3.25409	-1.69632	1.17475	0.90052
1627.830	3.39861	-1.73699	1.34857	0.88774
1631.878	3.65371	-1.71597	1.38967	0.76113
1635.839	3.55421	-1.68135	1.39862	0.78212
1639.856	3.55105	-1.56148	1.35201	0.84815
1643.835	3.43318	-1.50274	1.23960	0.89131
1647.832	3.35486	-1.38971	1.13491	0.93933
1651.833	3.23170	-1.24411	1.04875	0.97949
1655.838	3.29458	-1.40800	1.11006	0.89222
1659.706	3.44562	-1.56114	1.03449	0.73923
1663.708	3.46140	-1.48542	1.21499	0.67089
1667.705	3.44698	-1.45728	1.37744	0.79330
1671.712	3.38570	-1.37633	1.27398	0.85128
1675.707	3.37282	-1.47088	1.29179	1.22933
1679.713	3.65500	-1.65425	1.33140	1.21402
1683.758	3.56947	-1.68977	1.39889	0.95989
1687.705	3.41182	-1.55306	1.52178	1.00946
1691.705	3.35644	-1.60679	1.53597	0.99781
1695.708	3.23259	-1.62578	1.54190	1.07898
1699.704	3.14016	-1.54595	1.43711	1.13500
1703.706	3.10218	-1.43338	1.46288	1.26289
1707.709	3.31249	-1.18985	1.59616	1.17626
1711.707	3.67423	-1.40493	1.57726	1.05577
1715.705	3.62454	-1.37058	1.61493	0.86546
1719.712	3.62089	-1.35693	1.58264	0.79621
1723.712	3.39720	-1.29621	1.50321	0.73725
1727.707	3.24922	-1.12595	1.40246	0.68068
1731.702	3.22529	-1.12081	1.35655	0.80608
1735.708	3.28894	-1.08389	1.57805	0.79072
1739.710	3.39507	-1.18392	1.45986	0.78975
1743.704	3.44223	-1.26184	1.49946	0.73711
1747.705	3.39038	-1.26677	1.43952	0.79644
1751.729	3.43331	-1.43596	1.45909	0.78977
1755.709	3.45838	-1.54203	1.64060	0.71704
1759.718	3.40813	-1.54013	1.69991	0.77736
1763.711	3.37566	-1.68719	1.78969	0.79784
1767.707	3.47351	-1.65852	1.79619	0.81773
1771.731	3.46785	-1.79599	1.76557	0.83721
1775.729	3.50959	-1.88503	1.82916	0.85806
1779.716	3.49067	-1.84070	1.76242	0.92571
1783.704	3.48338	-1.81841	1.73100	0.96389
1787.709	3.47084	-1.79916	1.70502	1.00490
1791.707	3.44772	-1.70394	1.72552	1.07526
1795.737	3.33834	-1.52961	1.71201	1.19496
1799.715	2.88292	-1.31600	1.59011	1.46636
1803.715	3.23222	-1.42301	1.60342	1.37184
1807.702	3.19368	-1.28609	1.58220	1.37377
1811.707	3.28716	-1.32929	1.57719	1.38961
1815.709	3.25933	-1.34601	1.52288	1.28252
1819.702	3.59369	-1.20395	1.59854	1.36723
1823.709	6.92608	-1.19424	4.51756	1.45603
1827.704	7.72074	-1.17417	6.42261	1.13727
1831.705	10.41362	-1.24545	7.34040	1.29465
1835.701	10.44283	-1.13759	9.25267	1.11238
1839.704	12.03598	-1.30367	9.76575	0.57278
1843.707	12.51551	-1.11595	10.19084	0.22212
1847.704	13.04535	-1.20966	11.87441	0.00917
1851.701	13.23638	-0.92046	11.95648	-0.03182
1855.705	12.96543	-0.41967	11.72998	-0.24610
1859.702	12.85569	-0.51685	11.58467	-0.26283
1863.702	12.75866	-0.32037	11.68179	0.01455
1867.706	12.93208	-0.38658	11.67013	-0.25309
1871.703	12.95801	-0.47652	11.70683	-0.22507
1875.706	13.00132	-0.22190	11.65613	-0.33738
1879.704	13.07422	-0.24841	11.70240	-0.42204
1883.703	13.08637	-0.24252	11.69264	-0.38862
1887.705	13.11344	-0.28988	11.68417	-0.37693
1891.711	13.14586	-0.30642	11.66715	-0.33636
1895.708	13.14242	-0.31261	11.61497	-0.33993
1899.703	13.21202	-0.39315	11.56945	-0.27504
1903.698	13.25242	-0.50253	11.47052	-0.16048
1907.707	13.29671	-0.53078	11.38473	-0.19018
1911.702	13.36443	-0.56094	11.36522	-0.14751
1915.709	13.46282	-0.61590	11.31140	-0.12873
1919.701	13.51809	-0.63059	11.27068	-0.08617
1923.707	13.65765	-0.67387	11.30436	-0.07122
1927.708	13.75245	-0.72008	11.33543	-0.06593
1931.705	13.78167	-0.77605	11.35511	-0.07401
1935.699	13.81801	-0.83151	11.41361	-0.10630
1939.700	13.87468	-0.87479	11.50646	-0.11162
1943.709	13.85812	-0.89254	11.59053	-0.14413
1947.707	13.70498	-0.90596	11.59523	-0.17809
1951.703	13.76802	-0.91033	11.65554	-0.19292
1955.702	13.79021	-0.86433	11.72151	-0.21131
1959.707	13.67267	-0.87695	11.73897	-0.17763
1963.706	13.66946	-0.88010	11.72565	-0.38500
1967.704	13.44895	-0.87418	11.69190	-0.40094
1971.701	13.50591	-0.81123	11.66403	-0.37621
1975.704	13.36105	-0.73183	11.65896	-0.35280
1979.707	13.28634	-0.67971	11.68208	-0.31345
1983.700	13.29478	-0.61314	11.70999	-0.24402
1987.702	13.29229	-0.58611	11.69914	-0.20734
1991.713	13.35285	-0.62984	11.68867	-0.17868
1995.730	13.45202	-0.62555	11.62111	-0.23687
1999.705	13.38221	-1.10621	11.56224	-0.20442
2003.702	13.43327	-0.87363	11.63111	-0.26765
2007.701	13.44691	-0.71727	11.83422	-0.31143
2011.707	13.51816	-0.76329	11.63568	-0.40299
2015.702	13.56061	-0.70932	11.63963	-0.31474
2019.698	13.66571	-0.50683	11.65832	-0.37147
2023.723	13.72777	-0.42016	11.70523	-0.45737
2027.703	13.79386	-0.14272	11.65573	-0.51313
2031.704	13.81172	-0.25890	11.64132	-0.46879
2035.700	13.86406	-0.00837	11.71373	-0.49502
2039.699	13.83617	-0.43869	11.69331	-0.47055
2043.702	13.85683	-0.50774	11.68324	-0.45076
2047.701	13.88226	-0.30429	11.66242	-0.40237
2051.706	13.89189	-0.31356	11.62159	-0.31512
2055.704	13.91516	-0.27419	11.62425	-0.26530
2059.699	13.91268	-0.27967	11.62378	-0.24206
2063.700	13.92166	-0.37597	11.67441	-0.19478
2067.722	13.91626	-0.32414	11.69000	-0.18343
2071.708	13.90525	-0.22558	11.71254	-0.13107
2075.697	13.93466	-0.29211	11.76264	-0.13030
2079.703	13.93338	-0.22495	11.69928	-0.15809
2083.699	13.96771	-0.21662	11.71556	-0.15312
2087.695	13.94621	-0.12972	11.71808	-0.19864
2091.758	13.95565	-0.13469	11.69564	-0.23445
2095.721	13.97765	-0.08350	11.71670	-0.28141
2099.704	13.96164	-0.02214	11.72391	-0.32557
2103.701	13.99435	-0.01013	11.72784	-0.35568
2107.696	13.98316	-0.26162	11.66580	-0.36408
2111.698	13.98935	-0.58072	11.67403	-0.36838
2115.699	13.99281	-0.97863	11.61097	-0.37642
2119.696	13.97134	-1.46933	11.59330	-0.35885
2123.697	13.97505	-1.53076	11.55078	-0.34848
2127.700	13.95035	-1.52427	11.51652	-0.30679
2131.706	13.96767	-1.36088	11.50966	-0.26056
2135.704	13.99442	-1.26845	11.54735	-0.15328
2139.696	13.99358	-1.29602	11.54156	-0.04891
2143.703	14.01501	-1.30677	11.50284	0.03611
2147.700	14.02559	-1.37078	11.49748	0.12251
2151.696	14.04283	-1.32490	11.50768	0.23782
2155.699	14.00335	-1.23741	11.48785	0.26550
2159.738	13.90929	-1.29982	11.48072	0.17078
2163.704	13.82532	-1.37144	11.46935	0.17902
2167.696	13.82155	-1.25847	11.50994	0.13334
2171.699	13.77923	-1.11029	11.53324	0.27198
2175.693	13.80404	-1.09905	11.57350	0.30824
2179.708	13.72341	-1.14735	11.55314	0.32036
2183.704	13.68670	-1.17430	11.49188	0.23479
2187.697	13.53010	-1.14808	11.17257	0.12150
2191.704	12.81832	-1.30504	10.07124	-0.05686
2195.725	12.48987	-1.46954	9.72843	-0.37085
2199.702	12.49055	-1.86116	9.72279	-0.58907
2203.701	13.09581	-2.11964	10.18082	-0.39156
2207.696	12.80504	-1.77323	10.12335	-0.63203
2211.695	13.04278	-1.50293	10.56718	-0.81974
2215.700	12.84107	-1.41475	10.38497	-0.73271
2219.703	12.81103	-1.57689	10.27037	-0.68533
2223.693	12.56931	-1.44325	10.28099	-0.62333
2227.697	12.60249	-1.44403	10.22620	-0.61652
2231.701	12.56368	-1.34123	10.16146	-0.83765
2235.694	12.64137	-1.39978	10.24276	-0.92530
2239.695	12.73573	-1.32436	10.21940	-1.01458
2243.698	12.81150	-1.29272	10.23505	-1.04643
2247.700	12.84560	-1.24659	10.20036	-1.15903
2251.700	12.81939	-1.26687	10.21087	-1.07570
2255.699	12.82753	-1.24714	10.14381	-1.16803
2259.702	12.89206	-1.28640	10.15213	-1.09023
2263.695	12.85168	-1.30963	10.13751	-1.04330
2267.701	12.87006	-1.29714	10.11255	-0.99552
2271.697	12.90376	-1.41021	10.08921	-1.06315
2275.692	12.91482	-1.47761	10.03498	-1.09158
2279.696	12.92656	-1.52149	10.03433	-1.06719
2283.701	12.92953	-1.67333	10.04088	-1.00756
2287.696	12.83366	-1.77837	10.06061	-0.84554
2291.702	12.74511	-1.83868	10.08457	-0.58749
2295.710	12.69904	-1.86171	10.07204	-0.17870
2299.702	12.44332	-1.89604	10.14836	-0.62628
2303.700	12.33259	-1.86117	10.09465	-0.80493
2307.699	12.44607	-1.84912	10.12852	-0.99790
2311.695	12.50018	-1.91775	10.15764	-1.06749
2315.696	12.44889	-1.87062	10.16278	-1.02432
2319.704	12.46592	-1.89503	10.22959	-0.83045
2323.700	12.53225	-1.82752	10.24894	-0.60831
2327.695	12.48140	-2.03159	10.24812	-0.36561
2331.700	12.48909	-2.00253	10.22368	-0.32380
2335.698	12.35351	-1.98589	10.14290	-0.65714
2339.697	12.31507	-2.00457	10.02820	-0.81414
2343.704	9.69733	-2.04008	8.89138	-0.29161
2347.700	8.14142	-2.10940	5.72193	-0.66367
2351.695	4.87296	-2.18420	3.74874	-0.29204
2355.698	4.65274	-2.18938	3.10532	-0.19242
2359.693	1.51881	-2.19385	0.69821	-0.54315
2363.692	1.46955	-2.09301	-0.30699	-0.30703
2367.697	0.05862	-2.20606	-1.34346	-0.03110
2371.702	-1.16808	-2.00255	-2.68754	-0.42643
2375.693	-2.65463	-2.02802	-4.33204	0.15952
2379.694	-3.68676	-1.86562	-5.82886	0.40190
2383.709	-4.35141	-1.94043	-5.91305	0.06409
2387.701	-3.36836	-2.15826	-5.50102	0.13557
2391.696	-3.71753	-2.21720	-4.98196	0.26255
2395.692	-4.17643	-2.11376	-5.05922	0.26505
2399.694	-3.97523	-2.02227	-5.20132	0.22695
2403.697	-4.41864	-1.83416	-5.50498	0.21531
2407.695	-4.29495	-2.02507	-5.48998	0.14334
2411.689	-4.31617	-1.83730	-4.81606	0.40719
2415.697	-4.29295	-1.81486	-5.06919	0.38608
2419.696	-3.89021	-1.94784	-5.12297	0.41171
2423.697	-3.95076	-2.10871	-5.08429	0.33840
2427.697	-3.98104	-2.03605	-5.04809	0.39035
2431.690	-4.18447	-2.01709	-5.02250	0.41130
2435.697	-4.23594	-1.93567	-5.10916	0.49534
2439.697	-4.28881	-1.91532	-5.13464	0.49386
2443.698	-4.25448	-1.84010	-5.10083	0.59367
2447.694	-4.28735	-1.88351	-5.12829	0.68454
2451.692	-4.40174	-1.73947	-5.08902	0.71928
2455.697	-4.26817	-1.65734	-5.16317	0.68733
2459.693	-4.44092	-1.59846	-5.17316	0.68868
2463.694	-4.41292	-1.63432	-5.21892	0.70436
2467.698	-4.42419	-1.45134	-5.26123	0.71369
2471.698	-4.52772	-1.38139	-5.27698	0.71009
2475.722	-4.55004	-1.35981	-5.37005	0.74078
2479.704	-4.59033	-1.33458	-5.42414	0.76458
2483.692	-4.60039	-1.32013	-5.49360	0.81232
2487.696	-4.60461	-1.30955	-5.52600	0.77291
2491.695	-4.64487	-1.31760	-5.69327	0.77343
2495.692	-4.55990	-1.34519	-5.72013	0.75702
2499.700	-4.55386	-1.31321	-5.76681	0.72673
2503.696	-4.53265	-1.36363	-5.90458	0.70742
2507.698	-4.56868	-1.36218	-5.91450	0.60455
2511.702	-4.57080	-1.47318	-5.99058	0.57588
2515.570	-4.54234	-1.41494	-5.99767	0.53191
2519.571	-4.50495	-1.45373	-5.96242	0.61011
2523.570	-4.48170	-1.41416	-5.93839	0.49376
2527.567	-4.36392	-1.13994	-5.76232	0.38069
2531.565	-4.39859	-1.15213	-5.74264	0.36844
2535.568	-4.36118	-1.15374	-5.72635	0.28795
2539.572	-4.35978	-1.18956	-5.55096	0.24042
2543.565	-4.38891	-1.12705	-5.49392	0.17270
2547.570	-4.37996	-1.10339	-5.21838	0.12880
2551.567	-4.36703	-1.18677	-5.23226	0.05476
2555.574	-4.35454	-1.20641	-5.13656	0.01443
2559.571	-4.39516	-1.22638	-5.03317	0.30526
2563.568	-4.48589	-1.11098	-4.96876	0.26691
2567.603	-4.55275	-1.17080	-4.95780	0.34945
2571.573	-4.62180	-1.19963	-4.96216	0.37391
2575.593	-4.67271	-1.29802	-4.89912	0.38912
2579.567	-4.67734	-1.31531	-4.86591	0.27906
2583.563	-4.76729	-1.27569	-4.91063	0.04806
2587.568	-4.80884	-1.26046	-4.85226	0.04343
2591.572	-4.85103	-1.25836	-4.87788	-0.00072
2595.568	-4.88665	-1.24089	-4.87510	-0.02981
2599.568	-4.91031	-1.16173	-4.87288	0.05427
2603.566	-4.91898	-1.12477	-4.87281	0.05994
2607.570	-4.92011	-1.05406	-4.87298	0.04632
2611.565	-4.87066	-1.04231	-4.85743	0.04350
2615.568	-4.87121	-0.97966	-4.86758	0.08371
2619.564	-4.77355	-1.00357	-4.92910	0.03681
2623.569	-4.73641	-0.96787	-5.00982	0.09426
2627.566	-4.67362	-0.96556	-5.00561	0.11268
2631.564	-4.48609	-0.98389	-5.05181	0.16106
2635.607	-4.42720	-0.92608	-5.08929	0.20194
2639.573	-4.35718	-0.89498	-5.20361	0.22069
2643.566	-4.29332	-0.90115	-5.32971	0.26958
2647.569	-4.14051	-0.84764	-5.36088	0.29824
2651.565	-4.14051	-0.88701	-5.36877	0.31699
2655.565	-3.94883	-0.92610	-5.35630	0.31905
2659.565	-3.95710	-0.93504	-5.41878	0.30160
2663.568	-3.83169	-0.94232	-5.37903	0.27995
2667.564	-3.72128	-1.02372	-5.39679	0.21661
2671.565	-3.61394	-1.20938	-5.38007	0.18372
2675.565	-3.55463	-1.18752	-5.36107	0.21472
2679.562	-3.52015	-1.29218	-5.38838	0.29227
2683.571	-3.50121	-1.46909	-5.36811	0.30729
2687.566	-3.49045	-1.58615	-5.35345	0.37046
2691.572	-3.49117	-1.67760	-5.30129	0.31121
2695.564	-3.51797	-1.64687	-5.31113	0.32054
2699.568	-3.67709	-1.62817	-5.35219	0.36200
2703.649	-3.66261	-1.75139	-5.38922	0.42261
2707.572	-3.69284	-1.81626	-5.39057	0.46803
2711.566	-3.81429	-1.82406	-5.40102	0.50139
2715.561	-3.89132	-1.79179	-5.47011	0.55647
2719.568	-3.92969	-1.81881	-5.47363	0.56252
2723.568	-3.95234	-1.85003	-5.48221	0.55344
2727.567	-4.01648	-1.87128	-5.49635	0.60301
2731.563	-4.05258	-1.82673	-5.47068	0.59362
2735.562	-4.05320	-1.79570	-5.46022	0.60785
2739.565	-3.97081	-1.86676	-5.47830	0.59158
2743.568	-3.85829	-1.91290	-5.44751	0.53863
2747.566	-3.70665	-1.95651	-5.43521	0.53760
2751.567	-3.91257	-1.92806	-5.40762	0.45721
2755.565	-3.90652	-1.94454	-5.35628	0.49042
2759.569	-3.85145	-1.97594	-5.30033	0.39536
2763.608	-3.84221	-1.99709	-5.30183	0.37376
2767.579	-3.83969	-2.02844	-5.28214	0.36402
2771.570	-4.11666	-1.97119	-5.30397	0.29357
2775.569	-4.02221	-2.03468	-5.23647	0.26490
2779.564	-3.72561	-2.06776	-4.75950	0.22562
2783.587	0.17251	-2.13732	-2.69237	0.17834
2787.561	0.35087	-2.14768	-0.98675	0.17993
2791.587	0.98904	-2.19129	-0.62625	0.16243
2795.567	1.64816	-2.23248	-0.29302	0.18346
2799.562	1.64025	-2.25697	-0.36998	0.13441
2803.560	1.45678	-2.38918	-0.58305	0.12118
2807.566	1.18177	-2.45124	-0.66422	0.12627
2811.567	1.32758	-2.52933	-0.60518	0.11413
2815.566	1.36809	-2.62965	-0.42043	0.12598
2819.560	1.50249	-2.73288	-0.37551	0.14208
2823.565	1.60714	-2.80753	-0.22686	0.12129
2827.560	1.64662	-2.91620	-0.20653	0.15071
2831.562	1.73175	-3.05986	-0.14161	0.14855
2835.565	1.71079	-2.91697	-0.04447	0.12425
2839.563	1.68101	-2.86372	-0.02919	0.09482
2843.575	1.63127	-2.49525	0.01668	0.06851
2847.580	1.59254	-2.21148	0.02837	0.00241
2851.559	1.62725	-1.83722	0.06386	-0.06563
2855.564	1.64114	-1.91492	0.07520	-0.13324
2859.561	1.64310	-1.86579	-0.00382	-0.19226
2863.564	1.61193	-1.77596	-0.02330	-0.24586
2867.556	1.53590	-1.86085	-0.14915	-0.28663
2871.565	1.49852	-1.81554	-0.17089	-0.34681
2875.559	1.47538	-2.00903	-0.17397	-0.37479
2879.565	1.42662	-1.88531	-0.19601	-0.42235
2883.565	1.36201	-1.90524	-0.29108	-0.41345
2887.560	1.35137	-2.00400	-0.28173	-0.40493
2891.565	1.30764	-2.11263	-0.32771	-0.40721
2895.568	1.32726	-2.12631	-0.18864	-0.31874
2899.575	1.34718	-2.14929	-0.21487	-0.23855
2903.570	1.31682	-2.20404	-0.18025	-0.21084
2907.591	1.31037	-2.27965	-0.04981	-0.11334
2911.578	1.40554	-2.35585	-0.03817	-0.10238
2915.562	1.40232	-2.40002	-0.04753	-0.02771
2919.559	1.35539	-2.40823	-0.05668	-0.03944
2923.558	1.66661	-2.56880	-0.23343	-0.01016
2927.560	1.58904	-2.81509	-0.35164	-0.04080
2931.569	1.49840	-2.71873	-0.47619	-0.06461
2935.562	1.45634	-2.63451	-0.19961	-0.01645
2939.565	1.56598	-2.64064	-0.25361	0.06573
2943.564	1.61181	-2.50702	-0.54391	0.00691
2947.562	1.55182	-2.43953	-0.45666	0.03943
2951.564	1.51975	-2.34125	-0.40179	-0.07561
2955.560	1.39733	-2.35164	-0.46589	-0.19399
2959.563	1.59889	-2.87353	-0.49354	-0.35202
2963.560	1.64107	-2.82243	-0.44713	-0.15595
2967.562	1.54966	-2.89099	-0.36221	0.01016
2971.564	1.41489	-2.70617	-0.30801	-0.00892
2975.588	1.66108	-2.53835	-0.25976	0.04470
2979.619	1.78751	-2.39431	-0.30880	0.01861
2983.559	1.75220	-2.30395	-0.42815	0.04565
2987.555	1.59474	-2.27282	-0.45837	0.05541
2991.589	1.50832	-2.34895	-0.43284	0.05936
2995.564	1.67648	-2.57717	-0.45711	-0.11346
2999.557	1.95557	-3.08684	-0.36266	0.00050
3003.562	1.75877	-2.98081	-0.29677	0.05176
3007.560	1.78535	-2.81139	-0.28153	0.06113
3011.557	2.26606	-2.78668	-0.14903	-0.01590
3015.566	3.53095	-2.54239	1.29926	0.12367
3019.560	5.83382	-2.60821	3.45279	0.32513
3023.558	8.34993	-2.36553	5.26460	0.36854
3027.558	8.48071	-2.06047	6.79046	0.02855
3031.562	9.87442	-1.91913	7.61590	0.05650
3035.556	11.17775	-1.75336	7.98527	0.22932
3039.578	10.77033	-1.61227	8.26877	0.23555
3043.598	10.60164	-1.52500	8.13052	0.39066
3047.620	10.57889	-1.28483	7.87706	0.48111
3051.557	10.48300	-1.35275	8.05755	0.50744
3055.562	10.37573	-1.30150	8.46026	0.26152
3059.556	10.41100	-1.17359	8.56122	0.34278
3063.563	10.50421	-1.11043	8.87554	0.19096
3067.565	10.66225	-1.15011	8.93527	0.19987
3071.557	11.00154	-1.16005	8.88043	0.21684
3075.556	10.83237	-1.16756	8.79710	0.28655
3079.559	10.65513	-1.19529	8.66481	0.33986
3083.556	10.55286	-1.19503	8.59245	0.32096
3087.561	10.50076	-1.20540	8.42962	0.38252
3091.561	10.43174	-1.23779	8.53151	0.38352
3095.561	10.36108	-1.31329	8.36183	0.42165
3099.566	10.64108	-1.32623	8.33100	0.43122
3103.557	10.74439	-1.38966	8.18867	0.42353
3107.556	10.73512	-1.47439	8.21641	0.44431
3111.582	10.67766	-1.55369	8.14884	0.41824
3115.560	10.60778	-1.64022	8.08083	0.36775
3119.556	10.53192	-1.71551	8.01895	0.34734
3123.556	10.61330	-1.67470	8.04511	0.22639
3127.558	10.88233	-1.67062	8.01720	0.21725
3131.561	10.91614	-1.72511	8.04241	0.20173
3135.562	10.96138	-1.63390	8.04793	0.20766
3139.561	10.92961	-1.55324	8.26009	0.16390
3143.555	10.93904	-1.49514	8.50299	0.13917
3147.555	10.93703	-1.43273	8.54120	0.13542
3151.563	10.89812	-1.50105	8.42802	0.02935
3155.557	10.91090	-1.32446	8.55768	0.03133
3159.558	10.86416	-1.24188	8.58522	0.02138
3163.553	10.88494	-1.23599	8.68482	-0.00381
3167.561	10.86450	-1.23705	8.78513	-0.01390
3171.558	10.81255	-1.18877	8.80100	0.00491
3175.558	10.72496	-1.26389	8.74258	-0.03726
3179.600	10.67191	-1.32451	8.71606	-0.14880
3183.575	10.64923	-1.38322	8.62413	-0.19939
3187.554	10.61579	-1.56916	8.59410	-0.22337
3191.562	10.59562	-1.58762	8.58728	-0.26561
3195.557	10.56119	-1.34321	8.55918	-0.26747
3199.552	10.52686	-1.41226	8.49700	-0.26724
3203.560	10.50635	-1.40789	8.45346	-0.27098
3207.554	10.46769	-1.48149	8.43212	-0.26077
3211.557	10.41193	-1.54821	8.35828	-0.24723
3215.552	10.41839	-1.51018	8.28563	-0.24786
3219.561	10.44485	-1.43637	8.27696	-0.24347
3223.558	10.45860	-1.31227	8.33574	-0.24923
3227.551	10.56682	-0.93213	8.33469	-0.21993
3231.554	10.64611	-0.76581	8.35250	-0.16072
3235.560	10.72144	-0.76911	8.38476	-0.09049
3239.554	10.74209	-0.63688	8.37968	-0.04904
3243.556	10.76362	-0.51537	8.37424	0.00991
3247.574	10.74297	-0.46634	8.36574	0.21809
3251.559	10.72259	-0.41649	8.40247	0.48679
3255.552	10.81442	-0.55709	8.48253	0.65297
3259.559	10.80127	-0.53835	8.48634	0.68586
3263.558	10.89365	-0.80190	8.52717	0.49347
3267.554	10.98504	-0.88126	8.53110	0.54057
3271.559	10.98884	-0.92175	8.52382	0.57822
3275.552	10.91789	-0.98286	8.52176	0.57326
3279.556	10.83481	-1.08924	8.57343	0.65748
3283.550	10.76106	-1.37966	8.62494	0.54102
3287.560	10.68878	-1.38838	8.62532	0.50724
3291.555	10.68425	-1.20013	8.65307	0.34557
3295.558	10.65122	-1.34516	8.60385	0.30881
3299.553	10.60490	-1.31565	8.53464	0.19374
3303.557	10.79222	-1.23706	8.56204	0.16284
3307.564	10.84054	-0.88905	8.53438	0.07060
3311.553	10.75184	-0.63498	8.51811	0.00801
3315.609	10.67332	-0.85197	8.58473	0.02619
3319.562	10.67629	-0.84359	8.71795	-0.03065
3323.560	10.62989	-0.79584	8.71560	-0.02508
3327.554	10.58426	-0.77549	8.66549	0.02388
3331.551	10.54792	-0.73904	8.59051	-0.00096
3335.555	10.59116	-0.77435	8.65366	0.10227
3339.554	10.87426	-0.56242	8.81312	0.14733
3343.556	11.92510	-0.34427	10.12298	0.35326
3347.558	13.45853	0.98385	10.45181	1.37927
3351.554	13.88261	1.74459	11.20519	2.39914
3355.557	14.23410	1.49961	11.53456	2.46875
3359.553	14.30822	1.35757	11.52893	2.25164
3363.554	13.96264	1.47679	11.42086	1.97614
3367.426	13.66323	1.29931	11.32144	1.88388
3371.434	13.53284	1.31691	11.20099	1.92711
3375.429	13.60543	1.22588	11.37848	2.08589
3379.427	13.73184	1.36557	11.46792	2.15875
3383.463	13.83638	1.58344	11.46123	2.28034
3387.447	13.81120	1.60996	11.46664	2.31038
3391.433	13.83545	1.61247	11.53355	2.26841
3395.431	13.71352	1.64699	11.46275	2.27997
3399.424	13.64785	1.62906	11.54849	2.24257
3403.425	13.68553	1.65893	11.59611	2.27269
3407.432	13.81221	1.61138	11.68469	2.23676
3411.428	13.80034	1.60864	11.75163	2.16042
3415.425	13.82859	1.72062	11.76975	2.10633
3419.425	13.85880	1.70979	11.76323	2.02081
3423.432	13.83121	1.75278	11.79491	2.10266
3427.425	13.83217	1.78262	11.80519	2.09721
3431.429	13.83348	1.78840	11.77075	2.10829
3435.428	13.79367	1.84420	11.74461	2.05797
3439.430	13.80671	1.88069	11.72450	2.04216
3443.427	13.81998	1.96402	11.77234	2.17141
3447.431	13.80222	2.19399	11.75179	2.16399
3451.428	13.76938	2.19492	11.70397	2.16882
3455.430	13.75100	2.29029	11.71446	2.30680
3459.428	13.72526	2.30298	11.69731	2.34081
3463.427	13.70113	2.35364	11.66344	2.45627
3467.428	13.67173	2.36914	11.67234	2.46107
3471.424	13.65805	2.37658	11.70023	2.50903
3475.425	13.65038	2.43215	11.67874	2.56810
3479.435	13.64209	2.42857	11.68067	2.60963
3483.427	13.62015	2.37730	11.66427	2.63446
3487.429	13.60071	2.32066	11.65765	2.64188
3491.435	13.57354	2.28466	11.62740	2.67622
3495.427	13.60484	2.26446	11.60120	2.69707
3499.424	13.65887	2.22556	11.57591	2.71048
3503.430	13.73261	2.22602	11.57722	2.75282
3507.431	13.75165	2.18480	11.55619	2.74134
3511.425	13.84797	2.14171	11.54690	2.78290
3515.428	13.87744	2.17741	11.51542	2.81773
3519.462	13.93695	2.12998	11.56660	2.81289
3523.432	13.94672	2.09979	11.59503	2.80962
3527.426	13.94696	2.06525	11.64456	2.79511
3531.421	13.97875	2.10734	11.65237	2.77719
3535.424	13.97879	2.15611	11.68024	2.76139
3539.426	13.96386	2.12634	11.67674	2.77391
3543.429	13.93398	2.19342	11.70806	2.69110
3547.422	13.87330	2.23020	11.72036	2.67651
3551.428	13.80662	2.31716	11.70918	2.66057
3555.426	13.69296	2.40108	11.70990	2.52748
3559.433	13.57788	2.42081	11.69971	2.50302
3563.430	13.48087	2.54874	11.66334	2.49533
3567.430	13.40119	2.75379	11.67774	2.46010
3571.431	13.32557	2.70522	11.58627	2.45709
3575.457	13.30602	2.81555	11.53017	2.44750
3579.425	13.27384	2.86415	11.49612	2.40108
3583.421	13.29083	2.85548	11.47126	2.37545
3587.440	13.27833	2.89729	11.47071	2.36446
3591.448	13.28244	2.89862	11.46623	2.31087
3595.425	13.33734	2.89627	11.48225	2.29007
3599.427	13.42662	2.86933	11.43524	2.29991
3603.435	13.58465	2.80291	11.42034	2.34509
3607.424	13.75128	2.64690	11.43162	2.33673
3611.420	13.83711	2.60832	11.42115	2.31505
3615.419	13.98879	2.53839	11.42196	2.30848
3619.420	13.91635	2.35544	11.46952	2.36027
3623.427	13.91610	2.38930	11.45412	2.36783
3627.430	13.98961	2.34750	11.45865	2.41778
3631.427	13.88630	2.29429	11.47128	2.42368
3635.423	13.87309	2.25272	11.42716	2.50953
3639.424	13.85580	2.19905	11.40159	2.67287
3643.433	13.76739	2.12965	11.41824	2.78470
3647.426	13.71474	2.09288	11.39427	2.78746
3651.427	13.61855	2.05496	11.41361	2.82712
3655.462	13.59628	2.01650	11.40489	2.91344
3659.424	13.52189	1.97129	11.43243	2.91744
3663.426	13.51032	1.94486	11.44959	2.94507
3667.422	13.48021	1.93304	11.51776	2.95454
3671.424	13.43139	1.89966	11.56421	2.96075
3675.420	13.46223	1.87015	11.63404	2.99470
3679.428	13.48840	1.83026	11.74532	2.96809
3683.424	13.50722	1.85368	11.75919	2.92640
3687.430	13.50898	1.83192	11.77613	2.87510
3691.457	13.49000	1.81748	11.83493	2.84062
3695.426	13.50192	1.82654	11.89685	2.71458
3699.425	13.46101	1.80875	11.94738	2.63914
3703.425	13.49373	1.81156	11.99552	2.51812
3707.420	13.48655	1.83837	12.00139	2.38768
3711.422	13.50260	1.84589	12.03247	2.35298
3715.425	13.58962	1.84141	12.06026	2.28742
3719.424	13.61914	1.87239	11.91234	2.23660
3723.422	13.62249	1.88925	11.77808	2.23294
3727.441	13.71943	1.88920	11.72696	2.19495
3731.432	13.80376	1.89382	11.60604	2.17123
3735.419	13.88387	1.91980	11.58551	2.16617
3739.425	13.91589	1.89718	11.56243	2.14753
3743.425	13.91766	1.87234	11.45140	2.22194
3747.448	13.89030	1.88208	11.28682	2.29843
3751.435	13.85807	1.81320	11.21868	2.39280
3755.424	13.85096	1.92149	11.20438	2.48608
3759.423	13.80533	1.85575	11.20171	2.46404
3763.426	13.81516	1.86358	11.20003	2.51447
3767.426	13.77490	1.82122	11.28896	2.42914
3771.430	13.77125	1.91704	11.35542	2.42321
3775.420	13.79255	1.92398	11.42320	2.31005
3779.427	13.80844	1.97485	11.40410	2.34756
3783.442	13.74664	2.14491	11.45760	2.48097
3787.422	13.71085	2.34245	11.56288	2.30249
3791.453	13.86343	2.33837	11.63011	2.20454
3795.424	15.21837	2.07480	12.31950	1.41455
3799.427	14.52605	0.24726	14.19795	-0.27477
3803.420	14.46738	-1.28725	13.73662	-1.12270
3807.423	14.83555	-1.55326	13.77129	-1.65063
3811.424	15.14636	-1.58521	13.93228	-2.08742
3815.452	15.27185	-0.94241	13.94308	-2.11347
3819.432	15.42299	-0.82107	13.93606	-2.11021
3823.418	15.53142	-0.23946	13.65411	-2.14901
3827.426	15.57551	-0.24698	13.53793	-2.18929
3831.424	15.54448	-1.06326	13.64131	-2.19749
3835.419	15.50209	-1.33956	13.76746	-2.18566
3839.420	15.34589	-1.77130	13.87632	-2.26442
3843.431	15.36989	-1.94046	13.88871	-2.29949
3847.430	15.42528	-2.06646	13.94920	-2.37080
3851.422	15.37607	-2.30024	14.01330	-2.44324
3855.426	15.35480	-2.40688	14.08388	-2.45273
3859.441	15.33698	-2.40407	14.14366	-2.51438
3863.436	15.34395	-2.36688	14.16357	-2.52388
3867.414	15.30522	-2.38534	14.18097	-2.54037
3871.423	15.32045	-2.35126	14.19709	-2.55315
3875.419	15.31251	-2.37490	14.23424	-2.54191
3879.423	15.31016	-2.50351	14.21542	-2.58479
3883.421	15.34649	-2.52360	14.20224	-2.55876
3887.425	15.37635	-2.58383	14.17425	-2.56608
3891.418	15.41056	-2.66160	14.15351	-2.55633
3895.425	15.44329	-2.66797	13.85791	-2.57577
3899.424	15.50041	-2.59357	13.76420	-2.59502
3903.418	15.51578	-2.59954	13.68061	-2.60404
3907.418	15.49442	-2.69200	13.67264	-2.63427
3911.418	15.48727	-2.60583	13.49777	-2.67802
3915.424	15.47167	-2.53310	13.49312	-2.75466
3919.422	15.49022	-2.48990	13.44958	-2.81604
3923.415	15.47114	-2.50624	13.43709	-2.83391
3927.461	15.45991	-2.50052	13.42524	-2.83451
3931.421	15.44407	-2.43057	13.33372	-2.81120
3935.430	15.43102	-2.38821	13.28557	-2.80686
3939.430	15.40470	-2.40223	13.29553	-2.75970
3943.419	15.34725	-2.43887	13.31490	-2.70683
3947.419	15.31743	-2.52983	13.33913	-2.68109
3951.421	15.33059	-2.46536	13.32839	-2.70318
3955.417	15.34021	-2.49108	13.36720	-2.67839
3959.418	15.33617	-2.56429	13.40455	-2.63632
3963.422	15.32004	-2.63401	13.43726	-2.58902
3967.423	15.29247	-2.69214	13.46245	-2.57471
3971.417	15.26688	-2.69534	13.43660	-2.58165
3975.429	15.28654	-2.69298	13.49732	-2.58994
3979.424	15.27460	-2.64846	13.54211	-2.59469
3983.419	15.25660	-2.63825	13.55229	-2.60039
3987.414	15.28053	-2.61126	13.58803	-2.62388
3991.417	15.36170	-2.37979	13.60285	-2.63329
3995.455	15.30044	-2.44683	13.64809	-2.64710
3999.421	15.36666	-2.15242	13.68555	-2.64824
4003.421	15.35468	-2.08903	13.69125	-2.65598
4007.419	15.36599	-1.97867	13.71879	-2.65155
4011.413	15.42814	-1.77055	13.72348	-2.63972
4015.421	15.48732	-1.62781	13.77118	-2.62534
4019.425	15.46429	-1.52027	13.77111	-2.64781
4023.440	15.52246	-1.51707	13.80283	-2.64384
4027.428	15.51002	-1.46820	13.85190	-2.63456
4031.418	15.51234	-1.38140	13.86996	-2.62694
4035.418	15.47708	-1.33508	13.91586	-2.62763
4039.414	15.50727	-1.30248	13.90256	-2.60508
4043.414	15.43549	-1.28931	13.90123	-2.61429
4047.419	15.46489	-1.27539	13.90588	-2.61077
4051.421	15.46240	-1.24785	13.91893	-2.61924
4055.415	15.43556	-1.25658	13.91467	-2.64355
4059.422	15.42947	-1.26047	13.89585	-2.66093
4063.461	15.38814	-1.33287	13.90705	-2.64966
4067.434	15.39709	-1.32223	13.89968	-2.67017
4071.416	15.34480	-1.33636	13.89566	-2.69400
4075.414	15.33010	-1.35506	13.88766	-2.73482
4079.417	15.27938	-1.40331	13.88593	-2.75715
4083.416	15.28998	-1.39885	13.90298	-2.80260
4087.421	15.32302	-1.40052	13.90029	-2.84233
4091.418	15.32696	-1.38002	13.92690	-2.89525
4095.420	15.30785	-1.38199	13.92522	-2.92433
4099.415	15.30131	-1.39712	13.94158	-2.95104
4103.425	15.30907	-1.38061	13.96612	-2.99656
4107.412	15.36504	-1.26539	13.98015	-3.02033
4111.419	15.39137	-1.30072	13.98660	-3.05805
4115.415	15.40655	-1.31908	14.01552	-3.06324
4119.418	15.49939	-1.48347	14.03225	-3.05239
4123.414	15.51154	-1.67140	14.03687	-3.03079
4127.415	15.58983	-1.53927	14.07959	-3.00383
4131.450	15.59140	-1.85903	14.12660	-2.94198
4135.430	15.60222	-2.17657	14.15780	-2.88621
4139.414	15.58914	-2.29672	14.26278	-2.84920
4143.421	15.73189	-1.77819	14.40682	-2.75760
4147.411	16.08399	-1.29961	14.63184	-2.46263
4151.420	16.35296	-1.23166	14.81119	-2.19707
4155.423	16.31304	-1.05488	14.81219	-2.31352
4159.413	16.13780	-1.24658	14.78997	-2.35299
4163.419	16.30773	-1.02751	14.81896	-2.38791
4167.421	16.30170	-0.92709	14.88968	-2.33832
4171.419	16.36743	-0.90621	14.95656	-2.29490
4175.417	16.40904	-0.88171	14.97500	-2.28622
4179.411	16.50587	-0.77663	14.99746	-2.24709
4183.418	16.52925	-0.75329	15.01913	-2.16272
4187.424	16.55680	-0.70972	15.02050	-2.13363
4191.420	16.53001	-0.63369	15.00276	-2.16684
4195.415	16.48271	-0.59108	14.97078	-2.16934
4199.418	16.45813	-0.55236	14.93856	-2.15495
4203.415	16.46375	-0.45489	14.91409	-2.12383
4207.413	16.45005	-0.43378	14.90744	-2.15243
4211.409	16.44626	-0.38313	14.89165	-2.15434
4215.418	16.42058	-0.32323	14.86421	-2.10667
4219.412	16.37211	-0.26154	14.86391	-2.10339
4223.291	16.31832	-0.22532	14.89434	-2.03944
4227.283	16.26900	-0.18170	14.89664	-2.05225
4231.296	16.20181	-0.14790	14.91286	-2.04233
4235.291	16.14426	-0.12266	14.89886	-2.01896
4239.292	16.10129	-0.12026	14.87376	-2.03383
4243.284	16.05399	-0.11202	14.88987	-2.03524
4247.286	15.97347	-0.18813	14.82743	-2.03172
4251.289	15.88273	-0.26921	14.77345	-1.99820
4255.301	15.86932	-0.25623	14.76245	-1.95018
4259.291	15.82531	-0.26943	14.68361	-1.93681
4263.287	15.78202	-0.40878	14.67713	-1.92482
4267.295	15.74964	-0.45428	14.61562	-1.93592
4271.305	15.71784	-0.46672	14.50839	-1.91908
4275.290	15.69799	-0.48970	14.44383	-1.93091
4279.288	15.67662	-0.53875	14.39161	-1.94627
4283.283	15.68042	-0.57821	14.33826	-1.97444
4287.289	15.70588	-0.56694	14.29608	-1.97421
4291.294	15.82784	-0.56390	14.26711	-2.00412
4295.292	15.86390	-0.54750	14.22326	-1.99626
4299.286	15.90022	-0.53748	14.17040	-2.03243
4303.294	15.95447	-0.51646	14.12448	-2.04442
4307.329	16.16097	-0.40454	14.03318	-2.05046
4311.300	15.82412	-0.40293	14.02260	-2.02017
4315.296	13.60557	-0.74642	10.58711	-1.89641
4319.298	11.68736	-0.51117	10.02735	-1.27720
4323.287	8.77461	-1.89352	6.40349	-0.53859
4327.283	6.86665	-0.74497	5.77755	0.98934
4331.290	5.93929	-1.42855	5.18028	1.26200
4335.298	5.30217	-1.27516	2.58462	1.36657
4339.295	4.27834	-1.58326	2.32241	1.29711
4343.288	2.13014	-1.75410	1.19311	1.44851
4347.284	1.98390	-1.41556	0.51927	1.54620
4351.285	2.00636	-1.52352	0.44242	1.57402
4355.302	2.11876	-1.57066	0.35412	1.60369
4359.295	2.14731	-1.49828	0.77441	1.64181
4363.282	2.30038	-1.62515	0.70439	1.59833
4367.291	2.19747	-1.52914	0.81342	1.56065
4371.286	2.17943	-1.54070	0.69588	1.60395
4375.287	2.10587	-1.51122	0.59967	1.56597
4379.297	2.03913	-1.57491	0.59565	1.58196
4383.291	1.96630	-1.43777	0.55518	1.56213
4387.285	1.90847	-1.38525	0.53046	1.47930
4391.294	1.92297	-1.39849	0.61543	1.36537
4395.286	1.88078	-1.40324	0.69322	1.35691
4399.288	1.88395	-1.39785	0.75881	1.27292
4403.310	1.80380	-1.37771	0.69124	1.22891
4407.340	1.75389	-1.33443	0.71235	1.12139
4411.284	1.74809	-1.35131	0.73258	1.09791
4415.286	1.75934	-1.41587	0.75357	1.07791
4419.282	1.74313	-1.39585	0.77153	1.02639
4423.288	1.74258	-1.39605	0.76779	0.98526
4427.290	1.73849	-1.41134	0.79506	0.97055
4431.286	1.79391	-1.45881	0.81126	0.96704
4435.282	1.90502	-1.49076	0.77791	1.00448
4439.293	1.99560	-1.50036	0.74052	1.01492
4443.291	1.94454	-1.42627	0.68111	0.98913
4447.290	1.98514	-1.40879	0.67427	1.01896
4451.286	2.13559	-1.34884	0.56136	1.07962
4455.284	2.11871	-1.23106	0.43502	1.09496
4459.289	2.13447	-1.20251	0.40159	1.08083
4463.284	2.15779	-1.15506	0.33985	1.08827
4467.282	2.26108	-1.01124	0.29059	1.09168
4471.311	2.32171	-1.04105	0.25478	1.06274
4475.333	2.34575	-0.94823	0.19973	1.08433
4479.285	2.38717	-0.89461	0.15461	1.14204
4483.289	2.32776	-0.83376	0.14156	1.15354
4487.282	2.36931	-0.76436	0.12520	1.20175
4491.300	2.40000	-0.73334	0.05393	1.24445
4495.286	2.38690	-0.69002	0.02105	1.27279
4499.288	2.40134	-0.61515	0.00658	1.26248
4503.284	2.38841	-0.52253	0.00673	1.31096
4507.284	2.44789	-0.44282	0.00290	1.33930
4511.287	2.46882	-0.42770	-0.00519	1.37779
4515.285	2.44697	-0.35819	-0.01228	1.41070
4519.281	2.44675	-0.25767	-0.01497	1.41564
4523.293	2.43231	-0.24285	0.01427	1.40928
4527.289	2.47494	-0.19848	-0.01055	1.43849
4531.282	2.44078	-0.17019	-0.04040	1.43789
4535.282	2.42270	-0.10286	-0.01233	1.43722
4539.285	2.38856	-0.06316	0.02914	1.43792
4543.285	2.33742	-0.05941	0.11441	1.41775
4547.284	2.30306	-0.05522	0.17563	1.36597
4551.284	2.30251	-0.03590	0.24679	1.37348
4555.284	2.21858	-0.02788	0.24788	1.33882
4559.288	2.13462	-0.02478	0.28074	1.30744
4563.289	2.13366	-0.06039	0.31136	1.26231
4567.294	2.13450	-0.10196	0.33134	1.17836
4571.286	2.06647	-0.19111	0.36891	1.07105
4575.283	2.07331	-0.26598	0.39854	1.00388
4579.278	2.00140	-0.38303	0.41502	0.91465
4583.286	2.01667	-0.55795	0.43028	0.82901
4587.304	2.03380	-0.60400	0.39134	0.77828
4591.296	2.03786	-0.63449	0.37951	0.68917
4595.284	2.01037	-0.72739	0.32744	0.66651
4599.277	2.14389	-0.76723	0.30421	0.56934
4603.282	2.18592	-0.87910	0.27317	0.56363
4607.289	2.21630	-0.91590	0.23879	0.58803
4611.282	2.18530	-0.95400	0.26297	0.61725
4615.287	2.20617	-0.97987	0.22207	0.65005
4619.281	2.11623	-0.98338	0.21849	0.70299
4623.287	2.16352	-1.02213	0.22544	0.90706
4627.280	2.10558	-1.01032	0.20700	1.02019
4631.282	2.06376	-1.01370	0.20117	1.02451
4635.281	2.08062	-1.02695	0.18794	1.14308
4639.285	1.99508	-1.01918	0.24842	1.17539
4643.280	1.89962	-1.04784	0.26738	1.28971
4647.287	1.80201	-1.04465	0.30709	1.14774
4651.281	1.78778	-1.05158	0.31074	1.16095
4655.286	1.71273	-1.05853	0.25545	1.19839
4659.280	1.72723	-1.23159	0.24480	1.18850
4663.281	1.68387	-1.25769	0.18670	1.17532
4667.279	1.68989	-1.18251	0.13270	1.08048
4671.286	1.73623	-1.35777	0.10215	1.06126
4675.280	1.74990	-1.33850	0.06145	1.06315
4679.281	1.75037	-1.43678	0.04825	1.01928
4683.279	1.85232	-1.46085	-0.01385	0.94078
4687.281	1.85995	-1.46781	-0.02849	0.91266
4691.286	1.94977	-1.53780	-0.08180	0.91912
4695.290	1.95083	-1.59438	-0.10039	0.92351
4699.281	1.95240	-1.58740	-0.09567	0.92982
4703.282	2.21863	-1.55334	0.14436	0.89907
4707.278	3.62101	-1.58136	1.87597	0.84202
4711.282	5.55644	-1.64292	3.67143	0.81392
4715.280	6.07197	-1.63719	3.98721	0.87047
4719.281	5.87253	-1.63364	3.95335	0.84473
4723.279	5.03757	-1.63606	3.42732	0.82515
4727.282	4.58826	-1.68768	2.30633	0.82844
4731.292	4.33426	-1.77944	2.51844	0.79964
4735.282	4.60579	-1.85845	2.83001	0.77849
4739.278	4.69241	-1.81478	3.11903	0.78080
4743.282	4.77661	-1.81270	3.15877	0.82281
4747.282	4.84711	-1.86740	3.17470	0.84969
4751.279	4.89281	-1.82637	3.21231	0.91604
4755.285	4.95585	-1.80629	3.17977	0.97083
4759.283	4.84792	-1.74934	3.19345	0.87346
4763.278	4.83528	-1.77666	3.15783	0.84710
4767.285	4.81081	-1.80057	3.19449	0.85052
4771.284	4.85167	-1.75509	3.27549	0.84395
4775.302	4.89232	-1.71046	3.31754	0.85292
4779.275	4.91092	-1.67581	3.35085	0.85802
4783.284	4.91518	-1.63340	3.37677	0.90815
4787.277	4.91033	-1.60583	3.39906	0.86810
4791.283	4.89488	-1.55376	3.40915	0.89993
4795.279	4.88478	-1.53627	3.43002	0.86996
4799.283	4.86726	-1.49895	3.44725	0.85382
4803.276	4.83804	-1.49090	3.44948	0.90555
4807.281	4.81813	-1.50594	3.44320	0.93365
4811.300	4.80546	-1.46699	3.42806	0.94083
4815.289	4.81431	-1.48018	3.40512	0.93530
4819.285	4.80859	-1.55196	3.40217	0.93002
4823.280	4.80586	-1.62112	3.39507	0.98773
4827.276	4.78457	-1.64393	3.33913	0.98392
4831.282	4.76707	-1.67352	3.26760	0.99696
4835.276	4.78582	-1.60432	3.15696	0.97242
4839.274	4.78718	-1.57620	3.00066	1.04631
4843.280	4.81086	-1.55104	2.94092	1.09303
4847.283	4.87515	-1.40901	2.83702	1.06204
4851.278	4.90013	-1.37514	2.80592	1.09519
4855.278	4.93093	-1.29871	2.68435	1.10032
4859.280	4.90452	-1.17993	2.67316	1.13157
4863.282	4.92748	-1.04556	2.54497	1.13903
4867.304	4.88222	-0.85546	2.48430	1.12841
4871.285	4.89481	-0.72170	2.38556	1.09707
4875.282	4.90898	-0.64640	2.32724	1.03924
4879.280	4.78713	-0.48102	2.30828	1.01096
4883.279	4.76029	-0.39391	2.26616	0.91892
4887.276	4.72440	-0.29636	2.27763	0.87939
4891.276	4.68351	-0.16883	2.28145	0.84071
4895.289	4.67991	-0.20818	2.27325	0.79725
4899.280	4.66640	-0.19915	2.26938	0.71203
4903.280	4.65333	-0.10355	2.30427	0.63421
4907.275	4.64537	-0.08614	2.33321	0.57993
4911.283	4.64591	-0.13144	2.36851	0.53441
4915.278	4.66223	-0.13367	2.43243	0.48379
4919.275	4.69904	-0.15384	2.45163	0.44918
4923.273	4.70002	-0.18772	2.50920	0.39707
4927.283	4.74622	-0.23932	2.54776	0.35174
4931.277	4.74346	-0.26517	2.57167	0.32355
4935.274	4.77343	-0.33118	2.60406	0.29120
4939.285	4.76926	-0.33578	2.64522	0.25182
4943.285	4.74947	-0.36449	2.66617	0.26026
4947.375	4.74459	-0.40120	2.72025	0.25270
4951.284	4.75911	-0.47290	2.71825	0.26122
4955.277	4.77833	-0.48564	2.72439	0.24151
4959.283	4.72946	-0.49493	2.70673	0.25482
4963.276	4.33118	-0.51522	2.70166	0.46294
4967.275	3.44958	-0.55448	1.09209	1.12457
4971.275	2.15110	-0.60048	-0.34265	0.70609
4975.284	-1.59824	-0.61277	-2.25603	0.79331
4979.282	-2.72679	-0.66540	-3.55154	0.52739
4983.281	-2.77470	-1.22195	-3.83040	0.44067
4987.313	-3.42982	-1.43547	-5.83756	0.24535
4991.285	-4.03905	-1.65066	-6.33557	0.20956
4995.281	-4.00312	-1.55133	-6.10713	0.22049
4999.276	-3.47703	-1.47488	-5.13557	0.23076
5003.276	-3.34467	-1.56725	-4.37818	0.10751
5007.281	-3.66894	-1.72558	-4.44077	0.04246
5011.280	-3.86687	-1.66183	-4.60081	-0.02289
5015.293	-3.97099	-1.76205	-5.03524	-0.09706
5019.276	-3.98892	-1.80243	-5.12427	-0.09071
5023.280	-4.05742	-1.82261	-4.98216	-0.17494
5027.279	-4.03278	-1.80050	-5.03075	-0.17493
5031.272	-4.04381	-1.79629	-4.97172	-0.14710
5035.273	-4.01428	-1.78276	-4.87594	-0.17458
5039.273	-3.95760	-1.79970	-4.81155	-0.18571
5043.279	-3.96861	-1.84596	-4.77355	-0.20546
5047.272	-3.99502	-1.86103	-4.81594	-0.19056
5051.272	-3.87472	-1.89753	-4.76502	-0.19578
5055.272	-3.84468	-1.94433	-4.72790	-0.18497
5059.279	-3.76791	-1.96041	-4.66319	-0.15202
5063.278	-3.66503	-2.00903	-4.63533	-0.09924
5067.311	-3.63317	-2.01998	-4.60081	-0.10495
5071.285	-3.56571	-2.03442	-4.56898	-0.05078
5075.275	-3.53130	-1.94913	-4.50335	-0.00203
5079.153	-3.46795	-1.94701	-4.47578	0.09248
5083.149	-3.40714	-1.90803	-4.49033	-0.09216
5087.154	-3.32239	-1.86721	-4.52612	-0.15814
5091.155	-3.28130	-1.72795	-4.59541	-0.18099
5095.155	-3.21906	-1.66195	-4.63368	-0.18430
5099.149	-3.16367	-1.58251	-4.65540	-0.21297
5103.150	-3.19660	-1.44545	-4.68040	-0.12410
5107.150	-3.18583	-1.38742	-4.78540	-0.09437
5111.151	-3.24311	-1.17228	-4.97312	0.07130
5115.150	-3.25597	-1.12916	-5.03622	-0.06552
5119.148	-3.48296	-1.23278	-5.22389	0.09213
5123.149	-3.82931	-1.16703	-5.22694	-0.12323
5127.153	-4.36493	-1.07951	-5.59066	0.00856
5131.150	-4.40517	-1.01738	-5.55679	0.05938
5135.149	-4.25647	-1.03938	-5.64034	0.10678
5139.153	-4.04018	-1.10835	-5.72994	0.13433
5143.147	-4.10915	-1.33432	-5.78745	0.16421
5147.146	-4.12801	-1.36129	-5.78325	0.18722
5151.181	-4.15966	-1.43909	-5.77413	0.24050
5155.171	-4.12458	-1.61586	-5.76659	0.25124
5159.148	-4.13120	-1.56446	-5.76588	0.31275
5163.145	-4.17630	-1.61090	-5.74293	0.32208
5167.151	-4.13424	-1.68825	-5.69971	0.33170
5171.151	-4.04530	-1.71873	-5.67126	0.35726
5175.151	-4.00546	-1.78840	-5.63965	0.39756
5179.145	-3.97343	-1.80464	-5.65064	0.42260
5183.152	-3.97968	-1.79651	-5.63645	0.47503
5187.174	-3.98640	-1.76487	-5.62734	0.49616
5191.155	-3.98771	-1.75164	-5.60185	0.48923
5195.154	-4.00717	-1.73748	-5.60354	0.46344
5199.147	-4.05804	-1.69099	-5.66904	0.48151
5203.147	-4.09293	-1.67435	-5.70976	0.43250
5207.148	-4.03572	-1.66902	-5.72134	0.40245
5211.145	-3.70267	-1.66388	-5.75023	0.34144
5215.145	-3.12410	-1.72086	-5.77787	0.29346
5219.199	-3.08726	-1.74573	-5.82137	0.22689
5223.150	-3.23066	-1.66270	-5.83161	0.25279
5227.144	-3.12306	-1.70477	-5.75043	0.20795
5231.148	-3.03370	-1.75058	-5.48853	0.10631
5235.150	-3.12309	-1.70117	-5.51428	0.01328
5239.146	-3.00886	-1.66650	-5.30016	-0.03815
5243.150	-3.20352	-1.48861	-5.23044	-0.09527
5247.150	-3.10050	-1.49609	-5.19190	-0.14249
5251.147	-3.07216	-1.35203	-5.20361	-0.14749
5255.154	-3.05504	-1.47825	-4.89025	-0.11810
5259.147	-2.48190	-1.51201	-4.39308	0.07515
5263.145	-0.27954	-1.28430	-1.52186	-0.03696
5267.146	1.10973	-1.62551	-1.02895	-0.01737
5271.150	1.34986	-1.60923	-0.88572	0.06651
5275.150	1.11055	-1.62010	-1.29338	0.17621
5279.149	0.76940	-1.71177	-1.82195	0.33450
5283.145	0.07996	-1.60739	-1.82552	0.23763
5287.181	-0.09848	-1.75392	-1.68059	0.35178
5291.155	0.25401	-1.85872	-1.63239	0.29357
5295.150	0.67623	-1.96856	-1.53803	0.37046
5299.145	0.69032	-2.03829	-1.52513	0.39473
5303.149	0.71546	-2.13925	-1.51271	0.37417
5307.148	0.84024	-2.22406	-1.44555	0.44584
5311.146	0.76565	-2.20706	-1.53399	0.53850
5315.142	0.63568	-2.27247	-1.55422	0.60461
5319.159	0.62523	-2.28100	-1.66450	0.65668
5323.150	0.62474	-2.31846	-1.57818	0.63453
5327.142	0.61853	-2.31390	-1.50938	0.64270
5331.149	0.67732	-2.28927	-1.53924	0.69430
5335.145	0.77995	-2.36368	-1.56298	0.75320
5339.148	0.79203	-2.31064	-1.59462	0.82476
5343.143	0.85503	-2.24953	-1.59499	0.86959
5347.148	0.79625	-2.22944	-1.56910	0.93057
5351.147	0.74434	-2.18077	-1.49431	0.97081
5355.388	0.71335	-2.14384	-1.45185	0.96839
5359.150	0.63116	-2.09544	-1.30161	0.93107
5363.145	0.65846	-2.09307	-1.36583	0.86364
5367.145	0.61176	-2.01894	-1.40197	0.81883
5371.149	0.62890	-1.99141	-1.46303	0.77894
5375.146	0.64168	-1.99128	-1.46214	0.68305
5379.154	0.55203	-1.96016	-1.47682	0.71069
5383.155	0.59580	-1.93434	-1.49587	0.61806
5387.146	0.53947	-1.87980	-1.50790	0.54794
5391.146	0.51364	-1.84121	-1.59212	0.51677
5395.142	0.46023	-1.79788	-1.67214	0.48260
5399.143	0.43830	-1.75541	-1.69500	0.47577
5403.150	0.45262	-1.70467	-1.72495	0.48530
5407.150	0.37635	-1.64577	-1.75674	0.54442
5411.148	0.16395	-1.63810	-1.77578	0.62190
5415.143	0.14600	-1.54780	-1.76175	0.74103
5419.144	0.16402	-1.52684	-1.71702	0.78267
5423.152	0.16387	-1.42055	-1.62539	0.85654
5427.143	0.07339	-1.32447	-1.46648	0.85258
5431.144	0.10835	-1.20935	-1.43882	0.52056
5435.145	0.11481	-1.14586	-1.31684	0.09639
5439.147	0.12332	-0.93944	-1.20385	0.31765
5443.150	0.28394	-0.93110	-1.08740	0.31880
5447.144	0.27049	-1.56663	-0.96482	0.39290
5451.140	0.39579	-1.81890	-0.87381	0.30344
5455.149	0.61940	-1.76363	-0.78928	0.36731
5459.141	0.75754	-2.00696	-0.79077	0.39103
5463.146	0.71077	-1.84323	-0.82007	0.32231
5467.142	0.80652	-1.68447	-0.81449	0.07151
5471.145	0.88810	-1.58292	-0.87786	0.11556
5475.143	0.88349	-1.63612	-0.93505	0.22607
5479.144	1.11879	-1.76814	-1.12313	0.27744
5483.140	1.13122	-1.73020	-1.15337	0.32456
5487.150	1.26954	-1.72227	-1.23578	0.39346
5491.182	1.20800	-1.70139	-1.29864	0.49163
5495.143	1.20135	-1.67287	-1.37166	0.60856
5499.140	1.27066	-1.66176	-1.40738	0.63967
5503.146	1.28135	-1.55921	-1.38895	0.68908
5507.144	1.26555	-1.52672	-1.40078	0.66394
5511.139	1.19745	-1.47025	-0.89116	0.66056
5515.141	0.95710	-1.55553	-0.92716	0.70753
5519.148	0.70407	-1.58592	-0.89200	0.69558
5523.142	1.05892	-1.40447	-0.70784	0.63055
5527.149	1.11100	-1.31772	-0.72106	0.61807
5531.140	1.00591	-1.75711	-0.79811	0.64527
5535.148	1.08569	-1.72867	-0.89515	0.52938
5539.142	1.02660	-1.70005	-0.95299	0.75658
5543.140	1.00065	-1.88325	-0.82855	0.81081
5547.140	0.91532	-1.99601	-0.87649	0.96566
5551.141	0.88987	-1.81359	-0.67424	0.55011
5555.146	0.75191	-1.47834	-0.86833	0.22158
5559.142	0.77357	-1.35505	-0.99965	0.26728
5563.147	0.71347	-1.16329	-1.02072	0.21421
5567.148	0.67843	-1.11166	-1.06927	0.18335
5571.177	0.55632	-1.05545	-1.15655	0.29040
5575.145	0.52394	-0.83993	-1.17771	0.36187
5579.139	0.46862	-0.75149	-1.21516	0.14320
5583.140	0.43152	-0.81013	-1.18602	0.17604
5587.145	0.36836	-1.00741	-1.15292	0.37022
5591.143	0.32962	-1.04656	-1.17257	0.25144
5595.140	0.31357	-1.12630	-1.17741	0.21097
5599.140	0.34216	-1.02252	-1.00161	0.29586
5603.142	0.40958	-1.22793	-1.09614	0.47040
5607.140	0.79255	-1.45390	-1.09906	0.45132
5611.144	1.11353	-1.50625	-1.04037	0.50628
5615.143	1.06748	-1.50406	-1.06587	0.49440
5619.141	0.44269	-1.40966	-1.06508	0.45294
5623.141	0.41760	-1.49631	-1.04501	0.50596
5627.141	0.26076	-1.63839	-0.94946	0.52093
5631.145	0.45386	-1.64357	-0.93011	0.49596
5635.144	0.59625	-1.66714	-0.93877	0.46170
5639.140	0.70412	-1.61522	-0.98110	0.36271
5643.136	1.18297	-1.66807	-0.98534	0.38150
5647.143	1.37647	-1.57881	-0.89599	0.34180
5651.144	0.77104	-1.57207	-0.74377	0.34818
5655.143	1.10229	-1.51139	-0.85163	0.37547
5659.137	0.86731	-1.42174	-0.98080	0.40942
5663.141	0.94182	-1.47877	-0.92537	0.46120
5667.142	0.39375	-1.41119	-1.18971	0.50762
5671.140	0.29352	-1.26398	-1.19966	0.43428
5675.135	0.29086	-1.28941	-1.40869	0.43047
5679.143	0.09892	-1.26737	-1.46313	0.50697
5683.139	0.14692	-1.26901	-1.54353	0.57652
5687.142	0.23395	-1.21168	-1.56952	0.59224
5691.146	0.28235	-1.22506	-1.60213	0.60400
5695.144	0.37668	-1.29988	-1.43508	0.62560
5699.147	0.30942	-1.53638	-1.44599	0.64679
5703.142	0.17400	-1.50724	-1.44178	0.64535
5707.138	0.12369	-1.50926	-1.46635	0.62957
5711.142	0.11677	-1.55818	-1.43337	0.55941
5715.140	0.56342	-1.18272	-1.35797	0.55399
5719.142	0.63218	-1.14823	-1.25567	0.61283
5723.138	0.94683	-1.19439	-0.85575	0.59227
5727.141	2.42307	-1.35681	-0.65300	0.59391
5731.138	2.08054	-1.68665	1.05505	0.64284
5735.141	2.55955	-1.88218	1.87455	0.93437
5739.138	3.91934	-1.70353	-0.83094	0.61818
5743.137	6.83663	-0.25755	-4.58693	8.32114
5747.139	-5.35150	1.21823	-5.92451	12.20762
5751.136	-6.35363	-1.79917	NaN	NaN
5755.143	NaN	NaN	NaN	NaN
5759.140	NaN	NaN	NaN	NaN
5763.165	NaN	NaN	NaN	NaN
5767.138	NaN	NaN	NaN	NaN
5771.137	NaN	NaN	NaN	NaN
5775.148	NaN	NaN	NaN	NaN
5779.142	NaN	NaN	NaN	NaN
5783.156	NaN	NaN	NaN	NaN
5787.158	NaN	NaN	NaN	NaN
5791.145	NaN	NaN	NaN	NaN
5795.316	NaN	NaN	NaN	NaN
5799.147	NaN	NaN	NaN	NaN
5803.162	NaN	NaN	NaN	NaN
5807.332	NaN	NaN	NaN	NaN
5811.565	NaN	NaN	NaN	NaN
5815.636	NaN	NaN	NaN	NaN
5819.781	NaN	NaN	NaN	NaN
5823.893	NaN	NaN	NaN	NaN
5828.876	NaN	NaN	NaN	NaN
5833.102	NaN	NaN	NaN	NaN
5836.919	NaN	NaN	NaN	NaN
5840.752	NaN	NaN	NaN	NaN
5844.589	NaN	NaN	NaN	NaN
5848.471	NaN	NaN	NaN	NaN
5852.294	NaN	NaN	NaN	NaN
5855.768	NaN	NaN	NaN	NaN
5859.274	NaN	NaN	NaN	NaN
5863.140	NaN	NaN	NaN	NaN
5867.185	NaN	NaN	-8.99588	13.42837
5871.140	NaN	NaN	NaN	NaN
5875.134	NaN	NaN	-1.84265	12.69342
5879.141	NaN	NaN	NaN	NaN
5883.136	-1.83020	-5.72220	5.92275	-0.79258
5887.132	3.06466	-2.61230	5.68443	-1.17180
5891.140	5.06767	-2.58323	4.19089	-1.49386
5895.140	7.57783	-2.12594	3.28650	-1.73999
5899.139	7.97451	-2.29849	3.05491	-1.50657
5903.139	8.18008	-2.75387	3.33255	-0.91806
5907.136	6.91141	-2.38678	4.81507	-0.99360
5911.140	6.09116	-2.58987	0.58821	-1.39543
5915.132	5.00364	-2.46645	4.63691	-1.28276
5919.134	4.47082	-2.56814	1.88484	-1.40932
5923.139	4.61230	-2.72888	1.87217	-1.38587
5927.140	4.69430	-2.63898	2.35937	-1.45154
5931.009	5.42444	-2.62685	3.00302	-1.26573
5935.007	5.26529	-2.64124	3.07228	-1.20402
5939.013	5.28136	-2.81386	3.06140	-1.05546
5943.012	5.46126	-2.91866	3.01499	-0.99237
5947.017	5.61691	-3.03517	3.05402	-0.94780
5951.017	5.46244	-3.08322	3.04120	-0.95732
5955.009	5.49979	-3.17610	3.14701	-0.92574
5959.011	5.60315	-3.23136	3.24798	-0.89105
5963.015	5.56173	-3.14756	3.25219	-0.89422
5967.036	5.63208	-3.05970	3.32528	-0.83992
5971.013	5.65766	-2.99908	3.40133	-0.79330
5975.007	5.65786	-3.10804	3.44973	-0.79864
5979.009	5.63355	-2.83210	3.45304	-0.80900
5983.007	5.65214	-2.97218	3.48904	-0.83256
5987.009	5.61271	-2.99238	3.44110	-0.89120
5991.027	5.57955	-2.93890	3.44587	-0.91852
5995.012	5.56126	-3.04952	3.41904	-0.95991
5999.009	5.58004	-3.03462	3.32624	-1.05724
6003.008	5.52554	-3.09140	3.18967	-1.13107
6007.014	5.56760	-3.25833	3.03833	-1.18387
6011.008	5.68937	-3.26625	3.04053	-1.29359
6015.006	5.77472	-3.33993	3.16698	-1.30802
6019.009	5.70846	-3.31841	3.29787	-1.25451
6023.005	5.76057	-3.28250	3.35639	-1.28967
6027.007	5.79551	-3.37575	3.40388	-1.34591
6031.019	5.83503	-3.47033	3.41333	-1.41033
6035.050	5.65282	-3.58054	3.44886	-1.49257
6039.022	5.44480	-3.66900	3.48790	-1.57041
6043.008	5.50011	-3.65573	3.52390	-1.64041
6047.014	5.47734	-3.62502	3.52919	-1.70488
6051.008	5.18030	-3.66219	3.56947	-1.66187
6055.010	5.13318	-3.60887	3.59011	-1.73503
6059.006	5.13602	-3.49187	3.54415	-1.34311
6063.012	5.15842	-0.80116	2.98735	1.63063
6067.007	4.80394	2.11234	2.82759	3.39781
6071.010	4.40673	3.45748	2.64136	6.17521
6075.016	3.89510	6.33388	0.71781	8.95189
6079.010	2.53783	6.84080	0.62709	9.24304
6083.006	-0.13397	8.68921	-0.34035	11.96608
6087.005	-1.15868	10.62555	-2.05430	13.70731
6091.015	-0.64153	9.62621	-1.97334	13.05821
6095.014	-0.96251	9.58287	-2.01318	13.28212
6099.007	-1.07165	9.40696	-1.88658	12.98553
6103.010	-0.58637	9.08916	-1.37912	12.05547
6107.008	-0.52225	9.12428	-1.66931	12.30418
6111.009	-0.73474	9.33300	-1.99292	13.11519
6115.010	-1.38748	9.79327	-1.71803	13.09249
6119.015	-1.56920	10.32588	-1.66941	12.76635
6123.008	-1.69351	10.42223	-1.72567	12.85267
6127.012	-1.87064	10.69293	-1.90854	13.05183
6131.049	-1.26617	9.93901	-1.82281	13.02833
6135.020	-1.18755	9.88076	-1.80886	13.13930
6139.007	-1.29983	10.02326	-1.72986	13.11652
6143.014	-1.39979	10.31364	-1.71372	13.21087
6147.007	-1.16860	10.13708	-1.72582	13.22082
6151.006	-1.37687	10.36257	-1.65788	13.14285
6155.008	-1.41169	10.40256	-1.60972	13.13388
6159.014	-1.29995	10.35596	-1.67194	13.18989
6163.006	-1.26941	10.44189	-1.63095	13.16830
6167.011	-1.16865	10.37627	-1.61910	13.07015
6171.042	-1.04138	10.34026	-1.57163	12.88913
6175.012	-1.02893	10.40980	-1.54601	12.86636
6179.006	-0.97690	10.42111	-1.51623	12.64950
6183.002	-0.96958	10.43267	-1.53046	12.66181
6187.003	-0.83890	10.31122	-1.51474	12.64310
6191.034	-0.86108	10.35358	-1.49212	12.60851
6195.011	-0.93785	10.32151	-1.60494	13.08306
6199.007	-0.84635	10.21954	-1.68573	12.96445
6203.005	-0.98048	10.16145	-1.70422	12.86097
6207.003	-0.94063	10.10576	-1.82487	13.00000
6211.006	-1.11531	10.04426	-1.98070	13.28922
6215.005	-1.27599	10.07586	-2.23333	13.57403
6219.002	-1.32386	9.97927	-2.28103	13.56307
6223.005	-1.48324	9.94051	-2.31636	13.46871
6227.003	-1.43808	9.90394	-2.58459	13.67326
6231.006	-1.54361	9.93763	-2.37149	13.56439
6235.009	-1.54460	9.93483	-2.48497	13.55749
6239.025	-1.38342	9.90104	-2.51985	13.48613
6243.011	-1.39235	9.90076	-2.47053	13.38110
6247.010	-1.38967	9.90841	-2.35291	13.60615
6251.007	-1.32617	9.89126	-2.40399	13.94294
6255.008	-1.06086	9.92583	-2.22161	13.76567
6259.007	-1.15659	9.97854	-2.19598	13.74863
6263.006	-1.13844	10.01646	-2.22104	13.89044
6267.004	-1.08805	10.06772	-2.19499	13.84501
6271.006	-1.04305	10.08797	-2.17631	13.95124
6275.005	-0.96460	10.03647	-2.22926	13.95909
6279.015	-0.91130	10.03207	-2.26552	14.03073
6283.009	-0.90125	10.02903	-2.29760	14.04111
6287.003	-0.97926	10.07764	-2.40602	14.10129
6291.035	-1.03389	10.11834	-2.33871	14.04411
6295.020	-1.04895	10.14709	-2.38026	13.94225
6299.013	-1.22883	10.17415	-2.48304	13.98000
6303.003	-1.35497	10.19204	-2.47702	13.89517
6307.052	-1.49520	10.18775	-2.58727	13.99011
6311.015	-1.78562	10.22213	-2.68336	14.02663
6315.006	-1.89260	10.22061	-2.67350	13.89269
6319.006	-2.09120	10.28957	-2.67194	13.85422
6323.008	-2.39277	10.36968	-2.59846	13.71382
6327.003	-1.99325	10.37467	-2.49840	13.49759
6331.003	-2.14766	10.42730	-2.21036	13.22194
6335.001	-1.77201	10.40883	-2.33816	13.31844
6339.005	-1.40182	10.38215	-2.45745	13.36080
6343.003	-1.20661	10.40560	-2.29966	13.40695
6347.006	0.96561	9.13532	-1.75426	12.87649
6351.004	3.42688	7.78227	1.67424	10.71926
6355.001	3.82561	6.47217	4.42935	7.61596
6359.006	6.62018	3.77023	5.45501	7.23858
6363.011	7.66853	3.01878	5.55681	5.66443
6367.004	8.06227	2.57998	5.76065	5.79529
6371.004	8.05954	2.36096	5.77603	5.60062
6375.070	8.01440	2.90162	5.91130	4.72840
6379.012	7.99223	3.41255	5.39618	5.43668
6383.016	7.50154	4.20777	4.65432	6.02557
6387.008	7.26571	4.16558	4.65969	6.33527
6391.003	8.03022	3.31163	5.97119	6.17385
6395.009	7.91680	2.52588	5.90936	5.84878
6399.002	8.08618	2.60497	5.55664	6.07446
6403.003	7.91999	2.80310	6.05658	5.26369
6407.004	8.15703	2.78959	5.76143	5.60588
6411.001	7.91536	3.68157	5.76296	5.59793
6415.010	8.08555	2.64762	5.93402	5.92707
6419.004	8.12517	2.93162	5.82542	5.98058
6422.998	8.36576	2.81652	5.60145	6.29348
6427.006	8.20517	3.05720	6.04200	5.47373
6431.004	8.12157	3.09365	5.79858	5.65637
6435.003	8.20598	3.08746	5.53650	5.82180
6439.004	8.03791	2.86987	5.98341	5.28640
6443.060	8.08307	2.91536	5.87707	5.27447
6447.021	7.98486	3.08444	5.58929	6.00836
6450.999	8.35427	2.94165	5.87982	5.64645
6455.005	7.97568	2.98149	5.76097	5.94058
6458.999	8.25814	2.87523	5.65430	6.15318
6463.003	8.28512	2.75579	5.75129	5.88868
6467.002	7.99583	2.94672	6.18257	5.61711
6471.000	7.66580	3.25846	6.06765	5.85076
6475.002	8.44501	2.87087	6.00442	5.94661
6479.001	8.28813	2.83381	5.87472	6.05716
6482.998	7.93795	3.02766	5.91469	6.07190
6487.006	7.65817	2.90241	6.08458	5.84762
6491.010	7.44018	2.83424	6.03817	5.98137
6495.006	8.10610	2.71462	6.05545	5.87620
6499.005	8.52365	2.66465	6.13041	5.91450
6503.005	8.58362	2.71582	6.08208	5.86183
6507.006	8.27474	2.75008	6.07827	5.80303
6511.005	8.33214	2.70243	6.07059	5.84963
6515.011	7.57930	2.73978	5.99561	6.00750
6519.001	7.87635	2.56695	5.88591	6.19066
6522.996	7.73160	2.74379	5.87049	5.77537
6527.002	8.11992	2.65655	5.82277	5.67157
6531.009	8.40919	2.64347	5.82847	5.59229
6535.002	8.61336	2.73637	5.88068	5.49837
6539.001	7.71160	2.89890	5.91049	5.22021
6542.997	7.74618	2.94694	5.75890	5.74175
6547.007	7.94976	3.00836	5.64692	6.30516
6550.999	8.10939	3.03882	5.77534	6.15868
6555.032	7.95005	2.99365	5.90789	5.99825
6559.001	7.80002	3.12669	5.92054	5.21580
6563.004	7.81610	3.14441	5.97637	5.07510
6567.005	8.16236	3.13457	5.59373	6.17574
6571.001	8.01662	2.94362	5.69902	6.35137
6575.003	8.26004	2.80776	5.94082	6.27414
6579.009	8.43341	2.51643	6.06566	5.97886
6583.001	7.71011	2.59245	5.95042	5.15218
6586.996	8.04557	2.80342	5.78374	5.67071
6591.002	8.37886	2.79823	5.66885	6.37127
6594.998	8.26303	2.41559	5.84222	6.50996
6599.003	8.36385	2.37005	5.83773	6.13396
6602.999	8.48641	2.28311	5.88532	5.18186
6607.019	8.35549	2.33042	5.86322	5.43452
6611.005	7.79571	2.49187	6.01108	5.34077
6615.008	8.03489	2.60122	5.85173	6.12831
6619.000	8.19941	2.74871	5.66405	6.63873
6623.001	8.41699	2.70706	5.76708	6.70986
6627.006	8.13986	2.78652	5.81029	6.58680
6631.000	7.75446	3.08524	5.95884	6.18955
6634.994	7.76769	3.10948	5.89382	6.49030
6639.000	7.85721	2.65821	6.23003	6.00354
6643.000	4.20921	0.52579	6.76018	5.68243
6647.397	9.89097	0.85414	10.27919	3.24826
6651.004	3.94209	11.95310	-3.96056	11.39897
6655.000	NaN	NaN	NaN	NaN
6658.996	NaN	NaN	NaN	NaN
6662.999	NaN	NaN	NaN	NaN
6666.993	NaN	NaN	NaN	NaN
6670.997	NaN	NaN	NaN	NaN
6675.001	NaN	NaN	NaN	NaN
6679.006	NaN	NaN	NaN	NaN
6682.999	NaN	NaN	NaN	NaN
6687.000	NaN	NaN	NaN	NaN
6691.007	NaN	NaN	NaN	NaN
6695.016	NaN	NaN	NaN	NaN
6699.216	NaN	NaN	NaN	NaN
6703.088	NaN	NaN	NaN	NaN
6706.997	NaN	NaN	NaN	NaN
6711.044	NaN	NaN	NaN	NaN
6715.552	NaN	NaN	NaN	NaN
6719.618	NaN	NaN	NaN	NaN
6722.998	NaN	NaN	NaN	NaN
6727.008	NaN	NaN	NaN	NaN
6731.016	NaN	NaN	NaN	NaN
6734.994	NaN	NaN	NaN	NaN
6739.011	NaN	NaN	NaN	NaN
6743.007	NaN	NaN	-3.64714	6.70242
6747.022	22.20921	10.52703	NaN	NaN
6750.999	NaN	NaN	14.20868	-1.27077
6755.000	NaN	NaN	14.04007	-1.78061
6758.993	NaN	NaN	12.74714	-1.78080
6762.996	17.50027	2.61248	16.33242	1.18743
6767.001	17.62943	2.45495	13.26892	-0.09643
6770.995	17.71550	1.45054	7.27423	-1.79636
6774.997	17.63247	1.12261	15.94401	1.15616
6778.998	17.66729	1.42663	8.26279	-1.92580
6783.016	17.75179	1.09967	8.09367	-2.08660
6786.875	11.06215	-1.50212	15.85712	-0.54305
6790.874	15.95651	-1.14333	8.97390	-2.02760
6794.869	11.32731	-2.63428	15.63014	-1.06973
6799.001	13.86458	-1.81611	15.29757	-1.21494
6802.869	17.73362	0.66713	15.33622	-1.39174
6806.872	17.19610	-0.63559	14.32388	-1.56250
6810.868	16.71217	-0.71267	14.15946	-1.84717
6814.877	16.45263	-0.62201	14.18335	-1.95779
6818.873	16.60684	-0.53496	13.90127	-1.81443
6822.870	16.56829	-0.51966	13.99664	-1.71109
6826.873	16.49394	-0.61199	13.87255	-1.54923
6830.871	16.42665	-0.57483	13.54509	-1.80792
6834.871	16.06602	-0.94336	13.38313	-1.82196
6838.875	15.50366	-0.70194	13.43291	-1.79334
6842.870	15.34386	-0.72725	13.24670	-1.84819
6846.872	15.54745	-0.74516	12.90848	-1.86798
6850.906	15.28358	-0.88872	13.14054	-1.85088
6854.885	14.92167	-1.04420	13.25905	-1.78788
6858.870	14.96103	-1.20403	13.04483	-1.78908
6862.868	14.97400	-1.27363	12.96034	-1.83215
6866.877	14.82980	-1.60426	12.92340	-1.76070
6870.873	14.84608	-1.88767	12.66592	-1.90598
6874.870	14.71728	-2.09211	12.76739	-1.97087
6878.866	14.86326	-1.78855	12.92415	-1.93681
6882.872	14.76688	-2.17634	12.72220	-1.92466
6886.869	14.75690	-2.18819	12.60138	-1.93184
6890.869	14.67880	-2.12985	12.83538	-1.74585
6894.869	14.65140	-2.28616	12.47790	-1.87063
6898.867	14.71127	-2.37222	12.68890	-1.83030
6902.873	14.72527	-2.28310	12.75627	-1.96142
6906.868	14.68575	-2.32691	12.61280	-1.76401
6910.871	14.71751	-2.28259	12.81924	-1.74921
6914.866	14.79491	-2.09794	12.74499	-1.93502
6918.897	14.73386	-2.00293	12.78611	-1.79563
6922.868	14.68997	-2.04342	12.46614	-1.82549
6926.867	14.81129	-1.74981	12.67997	-1.79697
6930.868	14.65960	-1.86337	12.65378	-1.76600
6934.872	14.68452	-1.62724	12.58744	-1.77038
6938.864	14.75707	-1.61486	12.68758	-1.76504
6942.878	14.72058	-1.65324	12.62606	-1.87057
6946.866	14.81170	-1.29933	12.65089	-1.70258
6950.880	14.60693	-1.79853	12.67818	-1.80669
6954.870	14.66303	-1.56434	12.64170	-1.84224
6958.869	14.75256	-1.37087	12.65914	-1.81339
6962.863	14.73827	-1.70019	12.70246	-1.73149
6966.871	14.76721	-1.42944	12.57517	-1.87339
6970.872	14.65718	-1.67334	12.63336	-1.70882
6974.869	14.74017	-1.86830	12.35329	-1.81626
6978.868	14.76096	-1.31851	12.57394	-1.85799
6982.876	14.79440	-1.56923	12.64076	-1.87301
6986.880	14.59575	-1.62888	12.49216	-1.82581
6990.880	14.77059	-1.49600	12.64820	-1.86239
6994.875	14.73439	-1.59049	12.44555	-1.85625
6998.866	14.72982	-1.59383	12.48511	-1.81285
7002.875	14.81010	-1.63300	12.36016	-1.83106
7006.866	14.53584	-1.67636	12.44406	-1.80974
7010.870	14.81982	-1.65325	12.53894	-1.95603
7014.867	14.52016	-1.79633	12.57120	-1.86126
7018.868	14.66993	-1.66703	12.53284	-1.86185
7022.869	14.94576	-1.72526	12.67551	-1.81596
7026.862	14.60142	-1.74702	12.44385	-1.84266
