time (ms)	lx (deg)	ly (deg)	rx (deg)	ry (deg)
0.000	11.79910	-3.64949	9.55628	-1.83418
3.987	11.67855	-3.82063	9.54686	-1.78630
7.991	11.66918	-3.93633	9.48852	-1.80526
12.027	11.62242	-4.05933	9.49468	-1.75966
15.990	11.71263	-4.23471	9.44056	-1.78708
19.989	11.73397	-4.26073	9.37569	-1.81754
23.982	11.68219	-4.22397	9.24815	-1.77574
27.995	10.46544	-4.16895	8.83006	-1.70970
31.983	8.80939	-3.70394	6.57328	-1.35838
35.984	7.45155	-3.16362	4.31020	-0.44898
39.981	5.49128	-1.96100	2.54801	0.34473
43.981	5.02913	-1.77997	2.61979	0.87880
47.998	5.37062	-2.11155	2.84197	0.96252
51.996	6.56601	-2.43385	4.04125	0.80259
55.989	7.20238	-2.57916	5.13771	0.65103
59.991	7.27802	-2.47487	6.15183	0.64463
63.985	7.18460	-2.46940	4.80026	0.48126
67.989	6.91341	-2.40689	3.77439	0.76841
71.985	6.28116	-2.59577	3.64946	0.79326
75.987	6.19635	-2.46899	3.45306	0.91207
79.988	6.06855	-2.41480	3.41461	0.97579
83.981	6.06318	-2.42430	3.58413	1.07044
88.000	6.15600	-2.44126	3.74992	0.97404
91.992	6.20374	-2.46908	3.76900	0.99945
95.984	5.96733	-2.51462	3.78958	1.07532
99.985	5.89301	-2.49966	3.88710	1.11634
103.987	5.88289	-2.50859	3.87618	0.80029
107.983	5.83608	-2.55592	3.81476	0.77958
111.983	5.76445	-2.56587	3.74847	0.85359
116.004	5.74721	-2.56244	3.77075	0.72032
120.057	5.75770	-2.60461	3.76139	0.62676
123.987	5.71040	-2.62896	3.76890	0.52865
127.998	5.75480	-2.69628	3.77137	0.46584
131.988	5.74451	-2.70960	3.76979	0.45117
135.990	5.71804	-2.74416	3.69741	0.41741
139.986	5.74841	-2.75386	3.75719	0.41143
143.992	5.74556	-2.79716	3.66068	0.38164
147.988	5.77964	-2.82028	3.63764	0.41354
151.981	5.81872	-2.78289	3.60744	0.45147
155.997	5.88311	-2.72891	3.60687	0.50603
159.982	5.92456	-2.68560	3.58653	0.58257
163.992	5.94114	-2.56198	3.58042	0.52692
167.986	5.96254	-2.47480	3.57424	0.49744
171.981	5.93645	-2.42104	3.56002	0.53371
175.995	5.94398	-2.31530	3.58915	0.55333
179.987	5.96554	-2.21303	3.61903	0.56065
183.986	5.98466	-2.12238	3.61881	0.54553
187.987	6.00487	-2.03486	3.63905	0.54261
191.999	6.02553	-1.98320	3.60190	0.53490
195.981	6.05754	-1.95712	3.57026	0.51899
199.987	6.05273	-1.95649	3.54356	0.46755
203.987	6.05987	-1.92890	3.56623	0.42627
208.000	6.09170	-1.88066	3.56225	0.42203
211.985	6.10568	-1.84721	3.57243	0.40579
215.982	6.11844	-1.81160	3.60071	0.39868
219.982	6.14597	-1.83214	3.66716	0.38405
223.992	6.14221	-1.86056	3.67598	0.37935
227.982	6.16515	-1.86863	3.73099	0.34588
231.990	6.17072	-1.92497	3.79089	0.31603
235.986	6.16223	-1.98215	3.79932	0.28008
239.981	6.16932	-2.03750	3.98776	0.23205
243.996	6.22203	-2.11537	4.00457	0.21487
247.988	6.23773	-2.14222	4.03801	0.15693
251.979	6.29891	-2.16834	4.07525	0.07012
255.984	6.32927	-2.15694	4.09772	0.01081
260.000	6.36025	-2.20685	4.10569	-0.00231
263.983	6.31877	-2.21124	4.04337	-0.04001
267.984	6.31512	-2.22465	3.93100	-0.05878
271.980	6.06392	-2.30880	3.89199	-0.00776
275.986	6.07695	-2.32463	3.68300	0.00588
279.980	5.76561	-2.39401	3.76717	0.13414
283.989	5.55691	-2.48301	3.68068	0.20171
287.981	5.87030	-2.81696	3.68962	0.24093
291.983	5.78615	-2.67486	3.65023	0.28560
295.987	6.02271	-2.74841	3.54492	-0.01617
299.984	6.04129	-2.78648	3.53018	-0.05637
304.000	5.67696	-2.79715	3.53468	0.05997
307.990	5.70657	-2.84096	3.55572	0.16389
311.984	5.67637	-2.81970	3.58724	0.25916
315.979	5.64417	-2.78670	3.60939	0.23036
319.979	5.63088	-2.83840	3.63972	0.24117
324.017	5.65046	-2.83907	3.65932	0.29835
327.979	5.69030	-2.82235	3.67329	0.26608
331.989	5.65860	-2.82235	3.69501	0.29122
335.979	5.66376	-2.73771	3.73816	0.28917
339.994	5.59462	-2.70092	3.79655	0.31052
343.991	5.58540	-2.65926	3.80431	0.38346
347.982	5.57921	-2.63849	3.81768	0.38993
351.975	5.62729	-2.65443	3.84740	0.37692
355.984	5.65872	-2.70403	3.83169	0.30776
359.981	5.68691	-2.75938	3.86504	0.25502
363.985	5.70074	-2.74217	3.88478	0.27735
368.008	5.73306	-2.73839	3.86711	0.16254
371.983	5.91830	-2.81403	3.87008	0.06739
375.972	5.99853	-2.79318	3.83460	0.00146
379.997	5.95481	-2.84683	3.80710	-0.10354
384.004	6.03493	-2.95048	3.75850	-0.17295
387.987	6.03486	-2.96019	3.75749	-0.12175
392.004	6.03258	-3.04562	3.68891	-0.19935
395.981	6.07525	-3.13826	3.72899	0.15513
399.975	6.09147	-3.23325	3.69474	0.37349
403.976	5.99912	-3.34657	3.65364	0.41738
407.977	5.96583	-3.30073	3.62991	0.44120
411.988	5.89404	-3.23136	3.57246	0.63989
415.979	5.72976	-3.22195	3.51703	0.65126
419.985	5.74286	-3.05246	3.49122	0.66881
423.981	5.71861	-3.03220	3.45433	0.49857
427.979	5.63972	-2.90318	3.46085	0.56288
431.990	5.60099	-2.79012	3.46842	0.53058
435.980	5.58641	-2.68663	3.54675	0.51722
439.981	5.57427	-2.66030	3.52692	0.42336
443.982	5.58201	-2.63887	3.45462	0.29680
447.986	5.69482	-2.64253	3.58764	0.21904
451.978	5.76089	-2.65342	3.59399	0.12901
455.978	5.97835	-2.64911	3.63498	0.13124
460.011	6.01149	-2.60014	3.75726	0.09757
463.981	5.81368	-2.58743	3.77491	0.06186
467.983	5.88994	-2.59465	3.89577	0.06233
471.972	5.74310	-2.62128	3.96555	0.08763
475.983	5.76777	-2.64480	3.91338	0.13757
479.976	5.56438	-2.72932	3.87398	0.23255
483.984	5.58252	-2.83355	3.70292	0.35901
487.978	5.49613	-2.98666	3.60991	0.34553
491.990	5.53109	-3.06975	3.63090	0.35971
495.984	5.55652	-2.97335	3.55936	0.33714
499.976	5.57230	-2.86994	3.40222	0.38058
503.986	5.53672	-2.73120	3.23613	0.41828
507.989	5.40292	-2.54412	3.50084	0.43245
511.974	5.33394	-2.62882	3.22255	0.47817
515.984	5.22613	-2.72812	3.21787	0.39003
519.978	5.29986	-2.86344	3.35357	0.43222
523.987	5.43959	-2.99145	3.38533	0.36866
527.978	5.54734	-2.75104	3.47319	0.42101
531.981	5.57611	-2.89005	3.50618	0.50229
535.978	5.81091	-2.59472	3.64274	0.49292
539.980	5.75723	-2.67150	3.72632	0.47574
543.982	5.90229	-2.68950	3.51322	0.33148
547.983	5.89856	-2.82178	3.58682	0.43779
551.985	5.97236	-3.04329	3.46649	0.38011
555.986	5.83689	-2.81326	3.27687	0.47984
559.980	5.72490	-2.36165	3.46085	0.36268
563.976	5.59843	-2.26262	3.84251	0.60880
567.981	5.60526	-2.39902	3.95399	0.61906
571.976	5.45322	-2.61414	3.67576	0.48055
575.974	5.47874	-2.60030	3.84547	0.38724
579.979	5.50611	-2.73877	3.82230	0.25949
583.982	5.53048	-3.02230	3.68048	0.15776
587.976	5.61937	-2.80483	3.70003	0.05842
591.985	5.49778	-2.56872	3.75472	-0.13883
596.518	5.47402	-2.55438	3.60156	0.01250
599.984	5.52005	-2.59812	3.77221	-0.06243
603.978	5.53520	-2.70872	3.79813	-0.12372
607.970	5.62077	-2.77714	3.77562	0.07491
611.979	5.63503	-2.84245	3.73403	0.09224
615.976	5.66467	-2.94493	3.72558	0.41236
619.975	5.66501	-2.82800	3.68893	0.44228
623.982	5.73080	-2.84918	3.65398	0.43895
627.976	5.78305	-2.69084	3.63913	0.60237
631.978	5.79327	-2.70273	3.57852	0.58349
635.977	5.81941	-2.70169	3.52440	0.57175
639.978	5.86040	-2.71294	3.44913	0.74051
643.991	5.78352	-2.14075	3.34061	1.78753
647.979	5.84254	0.44557	3.36500	3.87920
651.975	5.85784	3.03522	3.27240	6.11993
655.977	5.73605	4.62090	2.96968	7.77941
659.979	5.41271	3.60099	2.75967	7.83722
663.995	5.30577	3.71667	2.83563	7.68521
667.970	5.68684	3.55220	2.87158	7.55126
671.969	5.45639	3.60366	2.99029	6.75654
675.992	5.56320	3.09542	3.08523	6.30324
679.851	5.52777	2.85227	3.02356	6.69747
683.851	5.60539	3.05483	2.96928	6.75769
687.849	5.61333	3.03299	2.59928	6.78555
691.855	5.22099	3.58375	3.41478	7.10661
695.850	5.46293	3.90849	3.48481	7.05218
699.846	5.32939	3.99172	3.32083	6.99482
703.850	5.36201	3.93118	3.21904	6.96856
707.854	5.37136	3.70622	3.10819	7.03872
711.849	5.38762	3.23223	3.13934	7.03456
715.852	5.69295	3.08566	3.12286	7.12627
719.849	5.79457	3.17121	3.02294	7.12899
723.853	5.91712	3.13235	2.87589	7.15980
727.846	5.54294	3.27572	2.71444	7.16640
731.897	5.47574	3.29552	2.88990	7.23236
735.851	5.66661	3.77015	3.13880	7.25029
739.863	5.51875	3.99421	3.33906	7.27870
743.858	5.51022	3.85284	3.44431	7.25158
747.855	5.53259	3.73791	3.41204	7.28614
751.844	5.46817	3.88202	3.42371	7.20989
755.856	5.39350	3.93741	3.60971	7.13174
759.845	5.31396	3.81504	3.59748	7.13850
763.855	5.21818	3.93493	3.57095	7.08480
767.840	4.98398	3.95102	3.62370	7.15096
771.854	4.98874	3.96548	3.63643	7.09741
775.856	4.75482	3.95702	3.64469	7.02855
779.845	4.67742	3.89332	3.63965	7.02392
783.847	4.75590	3.82159	3.59209	6.94470
787.855	4.50969	3.78816	3.54593	6.96499
791.842	4.45454	3.77996	3.51317	6.91892
795.850	4.45172	3.69137	3.50778	6.90432
799.869	4.43201	3.65507	3.43845	6.94112
803.888	4.54054	3.64380	3.36302	6.96155
807.852	4.67907	3.60841	3.28753	6.99437
811.845	5.24749	3.52946	3.21552	6.97265
815.845	5.82100	3.45386	3.13110	7.03153
819.850	5.95935	3.42183	2.98057	7.06998
823.850	5.63707	3.42144	2.98896	7.02221
827.850	5.21169	3.46021	3.04058	6.92140
831.845	5.21213	3.54884	3.27949	6.81396
835.850	5.14640	3.68681	3.62645	6.60463
839.849	5.15194	3.82100	3.47124	6.60103
843.853	5.53102	3.54467	3.53622	6.30605
847.858	5.47729	3.47552	3.52685	6.20968
851.850	5.62876	3.51159	3.67052	5.99334
855.851	5.68969	3.48252	3.62346	6.28473
859.844	5.64658	3.54528	3.46461	6.20673
863.843	5.68681	3.29074	3.41278	6.33005
867.869	5.51644	3.21275	3.58348	6.15010
871.863	5.39743	2.93869	3.71503	6.14524
875.855	5.63247	2.93166	3.74701	6.14423
879.839	5.68799	2.67157	3.68821	6.12625
883.849	5.73551	2.79837	3.68330	6.17852
887.850	5.71858	2.66369	3.66224	6.24714
891.844	5.67949	2.68930	3.66461	6.24624
895.839	5.72075	2.94625	3.67188	6.24921
899.861	5.72478	2.89444	3.71075	6.24658
903.849	5.78558	2.70553	3.77542	6.23456
907.848	5.89240	2.69059	3.83090	6.18545
911.840	5.97342	2.70822	3.86981	6.15363
915.850	6.01147	2.71518	3.89053	6.06141
919.844	6.02163	2.68473	3.85291	6.11245
923.857	5.85546	2.75551	3.82625	6.12102
927.858	5.84974	2.79662	3.81600	6.04995
931.845	5.74028	2.90132	3.77211	6.03067
935.849	5.50385	2.95100	3.70791	5.99204
939.845	5.45902	2.90639	3.63755	6.03876
943.849	5.17051	3.00682	3.15439	6.54590
947.846	5.65732	3.05126	3.44073	6.37681
951.841	5.59071	2.57955	3.61424	5.67642
955.857	5.50874	-0.38142	3.79569	1.90531
959.851	5.51553	-0.29762	3.96286	1.80214
963.844	5.51516	-2.66918	3.97652	-0.43646
967.843	5.55558	-4.63481	4.16463	-1.06827
971.849	5.68052	-4.03435	3.38155	-1.47414
975.870	5.82761	-4.29436	3.64106	-2.00312
979.843	5.98714	-4.22134	3.59819	-2.06360
983.842	6.10725	-4.13353	3.53523	-1.67595
987.845	6.11238	-4.03614	3.93295	-1.54294
991.871	6.11172	-3.92643	3.97595	-1.58121
995.845	6.09744	-4.13800	3.87868	-1.60683
999.867	6.16103	-4.19133	3.79119	-1.63460
1003.845	6.14820	-4.38456	3.81306	-1.79141
1007.844	6.12504	-4.53539	3.68038	-1.84257
1011.852	6.14980	-4.69753	3.70094	-1.82749
1015.841	6.14163	-4.82305	3.73426	-1.93361
1019.846	6.06828	-5.02675	3.68683	-1.87897
1023.838	6.00563	-5.13193	3.70836	-1.93022
1027.848	5.95442	-5.20161	3.73759	-1.96322
1031.843	5.84834	-5.32714	3.71266	-2.00816
1035.841	5.90048	-5.24964	3.68678	-2.06770
1039.843	5.93652	-5.26827	3.72590	-2.13380
1043.852	5.98103	-5.26447	3.74548	-2.21918
1047.844	5.97897	-5.19324	3.74073	-2.26561
1051.852	5.95356	-5.09858	3.79803	-2.23474
1055.864	6.03051	-4.81023	3.83482	-2.20157
1059.843	6.04318	-4.42818	3.94456	-2.19559
1063.850	6.13142	-4.47869	3.95130	-2.20223
1067.845	6.23003	-4.49732	4.02878	-2.21651
1071.873	6.32311	-4.41100	4.14710	-2.07303
1075.846	6.43020	-4.45230	4.19361	-2.15262
1079.841	6.52123	-4.38099	4.19257	-2.11924
1083.845	6.51138	-4.40294	4.22997	-2.12448
1087.837	6.73025	-4.36091	4.19494	-2.05773
1091.858	6.61171	-4.39590	4.16477	-1.99511
1095.855	6.68457	-4.43590	4.23564	-1.95107
1099.842	6.59863	-4.51504	4.20526	-2.15229
1103.840	6.58325	-4.54189	4.19998	-2.13803
1107.843	6.49835	-4.67220	4.20434	-2.25791
1111.847	6.50325	-4.66240	4.18119	-2.22039
1115.839	6.39229	-4.73249	4.14690	-2.32711
1119.842	6.40170	-4.75229	4.14315	-2.29562
1123.842	6.39055	-4.79477	4.15929	-2.27531
1127.847	6.35878	-4.77272	4.15848	-2.23223
1131.846	6.33589	-4.81885	4.21434	-2.21089
1135.845	6.37065	-4.83828	4.23142	-2.25521
1139.854	6.27974	-4.77222	4.23243	-2.26666
1143.848	6.38356	-4.74934	4.22777	-2.21907
1147.839	6.38873	-4.83588	4.20346	-2.15952
1151.844	6.40393	-4.83787	4.16803	-2.21852
1155.840	6.36248	-4.89664	4.19571	-2.06191
1159.857	6.31799	-4.99870	4.19551	-1.94877
1163.846	6.29766	-5.02863	4.19975	-1.79804
1167.840	6.31281	-5.09394	4.18001	-1.74174
1171.844	6.31723	-5.23084	4.10155	-1.89867
1175.841	6.21904	-5.36224	4.08752	-2.21055
1179.852	6.17828	-5.29221	4.10164	-2.02183
1183.844	6.21164	-5.34329	4.12547	-2.04843
1187.839	6.14737	-5.29580	4.17257	-1.86688
1191.858	6.24514	-5.28807	4.21414	-1.94345
1195.844	6.17909	-5.28606	4.20585	-1.94478
1199.837	6.17639	-5.31004	4.24719	-1.88752
1203.840	6.10301	-5.34263	4.17314	-1.83626
1207.861	6.14840	-5.32193	4.08681	-1.99645
1211.907	6.17918	-5.38000	4.08421	-1.97994
1215.837	6.14116	-5.40507	4.10315	-2.02940
1219.842	6.08276	-5.39601	4.02307	-2.02190
1223.839	6.03282	-5.41546	3.93445	-1.99573
1227.857	6.02651	-5.38341	3.84110	-1.97148
1231.848	6.00298	-5.40618	3.87470	-1.96296
1235.838	5.93473	-5.33502	3.77950	-1.90624
1239.838	5.89895	-5.26547	3.78598	-1.88376
1243.853	5.83078	-5.13820	3.78548	-1.98667
1247.845	5.87896	-4.98136	3.80579	-2.00314
1251.851	6.04114	-4.94224	3.93959	-1.93453
1255.840	5.93222	-4.78630	3.96244	-1.96699
1259.842	6.09106	-4.64696	4.18499	-1.95130
1263.840	6.64733	-4.41936	4.44136	-1.76361
1267.844	7.27084	-4.28909	4.67547	-1.47927
1271.840	7.34775	-3.94748	4.83809	-0.81313
1275.840	7.18540	-3.83425	5.02632	-1.13144
1279.843	6.88355	-3.61896	5.16996	-0.87465
1283.841	6.64391	-3.58102	4.93285	-0.79349
1287.841	7.07481	-3.54537	5.15261	-1.25894
1291.833	7.42488	-3.59183	5.23999	-0.97655
1295.853	7.43635	-3.47816	5.27341	-0.95204
1299.846	7.46675	-3.39563	5.39276	-0.90600
1303.844	7.43837	-3.57459	5.49315	-0.85738
1307.844	7.50320	-3.44467	5.58088	-0.88840
1311.836	7.51798	-3.44244	5.59206	-0.87882
1315.851	7.62418	-3.39879	5.65218	-0.90575
1319.840	7.65658	-3.39228	5.62753	-0.87859
1323.844	7.63830	-3.46398	5.62952	-0.88160
1327.834	7.69975	-3.43541	5.61694	-0.89819
1331.844	7.68874	-3.44340	5.61554	-0.84083
1335.836	7.61555	-3.41140	5.48209	-0.78419
1339.840	7.49190	-3.36040	5.41285	-0.71648
1343.877	7.45435	-3.37852	5.21737	-0.68482
1347.859	7.55988	-3.31795	5.02883	-0.65557
1351.840	7.54093	-3.27824	5.07035	-0.66837
1355.834	7.56525	-3.21891	5.15642	-0.63562
1359.837	7.66404	-3.16612	5.05196	-0.65795
1363.832	7.79230	-3.14074	5.13535	-0.63977
1367.896	7.96332	-3.06630	5.44965	-0.63195
1371.851	8.00197	-3.00594	5.43342	-0.65821
1375.849	7.96298	-2.95471	5.56451	-0.65431
1379.835	7.98006	-2.93674	5.64806	-0.64019
1383.840	7.98476	-2.89906	5.33846	-0.66720
1387.838	7.94543	-2.88745	5.65214	-0.67256
1391.839	7.92507	-2.85796	5.60959	-0.66721
1395.846	7.83490	-2.85318	5.69492	-0.63238
1399.845	7.72968	-2.83531	5.68816	-0.61506
1403.834	7.72166	-2.84229	5.67475	-0.60634
1407.835	7.53413	-2.82589	5.70664	-0.61246
1411.840	7.51386	-2.81980	5.62935	-0.61601
1415.841	7.55520	-2.83636	5.54784	-0.57692
1419.836	7.45714	-2.87117	5.43607	-0.53552
1423.838	7.53215	-2.95618	5.40621	-0.57773
1427.839	7.49390	-3.01116	5.38725	-0.59177
1431.847	7.36825	-3.05116	5.37588	-0.77194
1435.833	7.39091	-3.60443	5.32540	-0.79186
1439.847	7.32136	-3.36131	5.37741	-0.84292
1443.838	7.48056	-3.48606	5.36993	-0.83274
1447.840	7.58585	-3.53832	5.50968	-0.94079
1451.839	7.59671	-3.62737	5.49952	-0.98709
1455.840	7.55169	-3.66023	5.49881	-0.97300
1459.831	7.49093	-3.71317	5.54351	-1.19381
1463.854	7.42793	-3.73755	5.53790	-1.20851
1467.828	7.51961	-3.73319	5.64783	-1.23260
1471.856	8.32291	-3.69631	6.20492	-1.22526
1475.835	9.46903	-3.68556	8.67616	-1.24804
1480.134	11.18742	-3.63909	9.63462	-1.28400
1483.843	13.20131	-3.55760	11.18181	-1.77789
1487.835	13.34568	-3.51883	11.99320	-2.44543
1491.831	14.21794	-3.51268	13.05006	-3.02666
1495.844	15.30939	-3.42586	13.94102	-3.18152
1499.837	15.03728	-3.39659	13.93450	-3.22645
1503.850	14.93800	-3.26814	13.45742	-3.23923
1507.836	14.84726	-3.12853	13.24623	-3.18940
1511.838	14.92702	-2.94820	13.29323	-3.22584
1515.840	14.98109	-2.57321	13.42688	-3.21876
1519.841	15.09936	-2.65499	13.82295	-3.19267
1523.834	15.14012	-2.44142	13.70547	-3.15530
1527.839	15.20226	-2.34105	13.90345	-3.11685
1531.707	15.28182	-2.16693	13.99861	-3.10246
1535.730	15.22049	-2.36110	13.97550	-3.05091
1539.713	15.17609	-2.38486	13.92734	-3.03995
1543.712	15.20187	-2.26059	13.96082	-3.01229
1547.724	15.18562	-2.30675	13.92374	-3.00582
1551.722	15.17582	-2.27427	13.96171	-2.99034
1555.705	15.18455	-2.25639	13.98891	-2.99216
1559.718	15.21562	-2.24248	14.02554	-2.97985
1563.710	15.19447	-2.25288	13.98678	-2.98240
1567.710	15.16324	-2.33454	13.97110	-3.00119
1571.711	15.17741	-2.36672	13.93511	-3.01036
1575.704	15.11725	-2.44283	13.89564	-3.00496
1579.706	15.11655	-2.46068	13.85540	-2.99441
1583.731	15.10744	-2.55816	13.88661	-2.96697
1587.716	15.06720	-2.58207	13.88616	-2.92975
1591.704	15.08801	-2.55461	14.00057	-2.90899
1595.712	15.09701	-2.53791	13.99826	-2.97390
1599.715	15.10827	-2.49267	13.98038	-3.12692
1603.719	15.07257	-2.73030	13.96619	-3.14444
1607.710	15.05681	-2.73690	13.98484	-3.13943
1611.711	15.11435	-2.73324	13.94289	-3.10956
1615.714	15.16835	-2.74994	13.95467	-3.21252
1619.714	15.20864	-2.70066	13.93417	-3.25983
1623.706	15.25660	-2.68899	13.88839	-3.31526
1627.705	15.27159	-2.59582	13.83568	-3.32503
1631.706	15.23939	-2.55073	13.79744	-3.33186
1635.719	15.26501	-2.57516	13.72397	-3.34594
1639.718	15.22814	-2.53641	13.67086	-3.31036
1643.714	15.21980	-2.54795	13.65214	-3.27733
1647.710	15.22100	-2.50405	13.60552	-3.26544
1651.710	15.19459	-2.46858	13.62198	-3.22566
1655.717	15.07149	-2.47078	13.61314	-3.24280
1659.707	15.06165	-2.42311	13.61525	-3.19662
1663.705	15.01300	-2.42608	13.64138	-3.18483
1667.707	14.95093	-2.44811	13.66257	-3.18683
1671.711	14.94630	-2.49427	13.65870	-3.20475
1675.705	14.91847	-2.58726	13.67653	-3.26698
1679.706	14.89550	-2.61527	13.72083	-3.22773
1683.716	14.87450	-2.74819	13.75509	-3.28747
1687.725	14.87452	-2.84385	13.78033	-3.18738
1691.706	14.87608	-2.90499	13.81626	-3.06578
1695.706	14.88906	-2.93418	13.78995	-3.00334
1699.707	14.93506	-2.91435	13.82080	-3.00248
1703.709	14.99480	-2.96113	13.80435	-2.92291
1707.706	15.06956	-2.98314	13.78497	-2.90802
1711.712	15.15614	-2.97093	13.78237	-2.89021
1715.705	15.19565	-2.91897	13.80210	-2.85027
1719.723	15.31018	-2.67501	13.83718	-2.83747
1723.717	15.34757	-2.44238	13.84497	-2.78476
1727.706	15.36772	-2.43067	13.82092	-2.76594
1731.712	15.42562	-2.25186	13.83966	-2.78979
1735.709	15.44578	-2.40260	13.84668	-2.80568
1739.709	15.48315	-2.30290	13.86046	-2.87938
1743.709	15.52045	-2.33273	13.85725	-2.90651
1747.715	15.52951	-2.61153	13.87655	-2.95827
1751.710	15.51244	-2.65005	13.86738	-3.07562
1755.707	15.49543	-2.69332	13.86932	-3.13229
1759.719	15.49409	-2.70978	13.87760	-3.15974
1763.704	15.45493	-2.84407	13.87063	-3.18018
1767.710	15.46111	-2.75950	13.86684	-3.20815
1771.711	15.45869	-2.78443	13.88977	-3.19608
1775.707	15.46680	-2.78318	13.88163	-3.16837
1779.704	15.47614	-2.79237	13.90504	-3.21927
1783.702	15.50979	-2.76526	13.93286	-3.20681
1787.704	15.52732	-2.79672	13.96795	-3.21082
1791.710	15.55404	-2.74649	13.97825	-3.19717
1795.708	15.55754	-2.71738	14.05222	-3.18756
1799.699	15.58290	-2.68229	14.08970	-3.16246
1803.722	15.60431	-2.63905	14.14224	-3.14306
1807.704	15.64692	-2.58917	14.08561	-3.15446
1811.716	15.64867	-2.58084	14.11829	-3.16165
1815.704	15.61520	-2.57739	14.11407	-3.11666
1819.710	15.51481	-2.61798	14.13013	-3.13386
1823.715	15.46244	-2.65174	14.11367	-3.06952
1827.705	15.32004	-2.74836	14.11292	-3.01762
1831.702	15.32585	-2.66988	14.10681	-2.86623
1835.702	15.18682	-1.61970	14.07959	-2.34068
1839.704	15.35992	1.19024	14.02889	0.59694
1843.711	15.21975	1.51580	13.75055	2.37856
1847.715	15.18173	3.77041	13.15364	3.57815
1851.706	15.01959	4.96697	12.53294	3.86053
1855.704	14.74052	5.16939	12.68345	4.31287
1859.703	14.59022	5.67843	12.41615	5.03094
1863.703	14.35649	6.07594	12.53206	5.27651
1867.723	14.12499	5.74524	12.88209	5.10055
1871.700	14.17978	5.10478	12.51943	4.78869
1875.716	14.11514	4.74049	12.51392	4.68420
1879.707	13.90992	5.26940	12.43790	5.26386
1883.699	13.79564	5.73632	12.27626	5.45028
1887.708	13.70003	5.76723	12.13507	5.58582
1891.765	13.73528	5.70454	11.98234	5.85056
1895.701	13.69696	5.73121	11.86949	5.97096
1899.708	13.70919	5.59666	11.85692	6.09115
1903.703	13.75448	5.28690	11.87724	6.17361
1907.713	13.74114	5.23165	12.00958	6.03946
1911.708	13.77476	5.21989	12.08613	6.06923
1915.703	13.74252	5.33733	12.21442	5.89464
1919.699	13.70343	5.42453	12.27979	5.76655
1923.703	13.80194	5.52207	12.25635	5.83010
1927.708	14.04563	5.52527	12.24412	5.44863
1931.709	14.08792	5.51725	12.27555	5.64944
1935.708	14.06453	5.72950	12.35642	5.50241
1939.699	14.17794	5.73945	12.42375	5.48345
1943.708	14.16651	5.74524	12.46415	5.50924
1947.708	14.11064	5.78913	12.48142	5.47279
1951.731	14.12399	5.91133	12.50027	5.43301
1955.734	14.15337	6.01954	12.52750	5.42090
1959.778	14.10926	5.97941	12.52830	5.44630
1963.704	14.17262	6.09782	12.53566	5.49114
1967.700	14.19520	6.14171	12.57533	5.45576
1971.698	14.18526	6.15319	12.61214	5.48216
1975.710	14.16315	6.16458	12.64683	5.49021
1979.710	14.18039	6.10214	12.70657	5.45660
1983.701	14.18958	6.02652	12.73406	5.46601
1987.700	14.20390	6.00789	12.74072	5.50129
1991.702	14.18750	5.80898	12.75108	5.48370
1995.721	14.12273	5.67999	12.73526	5.54854
1999.708	14.11276	4.99674	12.69998	5.55034
2003.696	14.09514	5.06753	12.68373	5.50559
2007.708	13.83425	5.81421	12.62951	5.57795
2011.706	13.83383	5.49598	12.60930	5.59400
2015.711	13.76916	5.67007	12.49261	5.67911
2019.700	13.78632	5.69468	12.34425	5.67458
2023.706	13.63018	5.70760	12.25500	5.77507
2027.707	13.59080	5.86182	12.20868	5.76059
2031.700	13.57025	5.96600	12.12668	5.78790
2035.707	13.53348	5.93166	12.15018	5.80549
2039.701	13.52576	5.98656	12.04756	5.81115
2043.748	13.49427	5.97673	12.01407	5.82892
2047.709	13.48305	6.05411	11.95536	5.87695
2051.700	13.51396	5.98040	11.93631	5.92003
2055.708	13.51004	6.02867	11.90868	5.96292
2059.709	13.54204	5.87241	11.92199	5.93028
2063.705	13.55515	5.38194	11.95349	5.94756
2067.709	13.56915	5.51231	11.97187	5.96945
2071.700	13.62695	5.68566	11.95612	5.99612
2075.700	13.77277	5.84387	11.97339	5.89275
2079.700	13.89386	5.82242	11.90141	5.98657
2083.706	13.87854	6.04958	11.85312	6.02825
2087.699	13.96989	6.28201	11.91058	6.03411
2091.704	13.98625	6.13451	11.94239	6.03677
2095.699	14.01756	6.23803	11.82273	6.01971
2099.705	14.04895	6.31626	11.75079	6.06207
2103.698	13.99209	6.34442	11.81170	5.99276
2107.704	13.97281	6.36400	11.90253	5.90958
2111.696	13.98155	6.45053	11.90745	5.90334
2115.708	13.92519	6.48689	11.92474	5.84395
2119.702	13.84843	6.49528	11.97577	5.90744
2123.697	13.86058	6.56484	11.96674	5.93046
2127.699	13.84368	6.58762	11.88901	5.91023
2131.698	13.81874	6.55774	11.77853	6.05863
2135.698	13.82735	6.49122	11.74199	6.12414
2139.709	13.76369	6.48766	11.76028	6.03213
2143.729	13.74624	6.44188	11.80959	5.97936
2147.703	13.83458	6.51027	11.72995	6.10521
2151.698	13.95072	6.45589	11.69357	6.10920
2155.702	13.91869	6.28259	11.67182	6.14536
2159.705	13.84008	6.19856	11.66689	6.08467
2163.700	13.79913	6.20052	11.67056	6.10184
2167.698	13.80126	6.08157	11.69183	6.03196
2171.705	13.82010	6.02293	11.75431	5.97930
2175.698	13.80898	5.93793	11.83291	5.72948
2179.704	13.77471	5.83931	11.90134	5.78498
2183.711	13.84467	5.78790	11.98265	5.62550
2187.705	13.83989	5.71022	12.01891	5.57860
2191.697	13.83227	5.65507	12.06987	5.54420
2195.699	13.81902	5.60002	12.11662	5.47423
2199.717	13.74767	5.54953	12.15452	5.51933
2203.700	13.74645	5.57476	12.20003	5.45069
2207.697	13.78124	5.55213	12.22037	5.50738
2211.696	13.70226	5.54302	12.25495	5.49252
2215.702	13.58575	5.52786	12.23007	5.55504
2219.694	13.61755	5.58196	12.21774	5.69761
2223.702	13.67157	5.63526	12.20918	5.73230
2227.718	13.63170	5.67394	12.16975	5.77078
2231.709	13.54199	5.73167	12.15270	5.87521
2235.697	13.50577	5.81464	12.12990	6.02349
2239.694	13.47446	5.82384	12.13778	5.90878
2243.752	13.58282	5.87275	12.13467	5.98453
2247.695	13.58050	5.99544	12.12884	6.03418
2251.711	13.60228	5.97788	12.15877	5.99067
2255.696	13.62127	5.98522	12.14520	6.05135
2259.701	13.71460	6.00170	12.14599	6.12440
2263.694	13.79442	5.99480	12.16591	6.12975
2267.711	13.81500	6.00222	12.28081	5.92855
2271.697	14.04932	5.46948	12.85378	4.91220
2275.700	15.16932	2.57649	14.70600	1.43186
2279.698	15.92019	1.26815	15.27125	0.41281
2283.701	16.57552	0.87874	15.00966	-1.48245
2287.696	16.11785	-1.70279	15.48119	-3.77342
2291.696	16.37449	-1.72389	15.52509	-3.69869
2295.751	16.24210	-2.00780	15.40426	-3.84064
2299.697	16.28853	-2.03053	15.43252	-3.84052
2303.694	16.40605	-1.85478	15.54372	-3.54007
2307.703	16.41062	-1.54954	15.49826	-3.12183
2311.718	16.41348	-1.44352	15.56517	-3.15960
2315.699	16.46929	-1.53579	15.56397	-2.96103
2319.701	16.51623	-1.59324	15.63364	-3.11212
2323.695	16.53580	-1.52326	15.65895	-3.14581
2327.694	16.52323	-1.57890	15.71480	-3.29607
2331.696	16.51885	-1.60324	15.76056	-3.39706
2335.696	16.49259	-1.67086	15.81776	-3.31678
2339.699	16.48107	-1.76751	15.89278	-3.40596
2343.709	16.48871	-1.66713	15.95404	-3.49060
2347.699	16.45119	-1.84721	15.82196	-3.45263
2351.716	16.47064	-1.84088	15.85299	-3.50790
2355.705	16.45918	-1.89889	15.76849	-3.58090
2359.695	16.42667	-1.94575	15.77423	-3.55067
2363.703	16.40487	-2.01463	15.78954	-3.57615
2367.708	16.40806	-1.99941	15.72531	-3.55784
2371.696	16.43197	-1.97117	15.67492	-3.51848
2375.693	16.41546	-2.00874	15.68780	-3.44528
2379.694	16.38038	-2.04772	15.61214	-3.41328
2383.697	16.42738	-1.93270	15.52562	-3.46665
2387.590	16.43871	-1.89540	15.41843	-3.35666
2391.569	16.44937	-1.88458	15.36696	-3.28398
2395.573	16.47564	-1.85319	15.34813	-3.18267
2399.568	16.47267	-1.79540	15.36578	-3.13677
2403.574	16.46338	-1.77846	15.36001	-3.04186
2407.564	16.49033	-1.71075	15.24295	-2.97257
2411.574	16.53461	-1.65469	15.19061	-3.02473
2415.568	16.53699	-1.59392	15.16047	-2.93484
2419.573	16.55201	-1.55948	15.13679	-2.92787
2423.567	16.60577	-1.49872	15.12395	-2.87558
2427.568	16.64127	-1.46254	15.16333	-2.79985
2431.573	16.67097	-1.40615	15.19373	-2.76578
2435.595	16.71141	-1.37262	15.26238	-2.74336
2439.575	16.75382	-1.29926	15.28769	-2.82172
2443.583	16.81594	-1.24827	15.32798	-2.88771
2447.569	16.84989	-1.23383	15.39331	-3.00105
2451.566	16.91758	-1.20629	15.50619	-2.94597
2455.585	16.92117	-1.18439	15.57307	-3.01291
2459.570	16.97817	-1.18213	15.65994	-3.08582
2463.569	16.98596	-1.17702	15.70388	-3.15332
2467.568	17.03940	-1.13621	15.62275	-3.11484
2471.575	17.06753	-1.15359	15.59365	-3.15604
2475.570	17.11485	-1.18784	15.66728	-3.17774
2479.577	17.12051	-1.21258	15.63279	-3.04793
2483.565	17.14422	-1.23538	15.62473	-3.09100
2487.591	17.13389	-1.36589	15.63460	-3.04122
2491.568	17.15184	-1.35888	15.66977	-2.94442
2495.572	17.14440	-1.49341	15.55777	-2.90766
2499.574	17.13871	-1.61630	15.47741	-2.83017
2503.582	17.08662	-1.84013	15.41628	-2.81939
2507.573	17.09052	-1.79847	15.37192	-2.77271
2511.573	17.08796	-1.80571	15.33232	-2.73826
2515.569	17.07376	-1.91730	15.30143	-2.70425
2519.574	17.03793	-1.94902	15.25189	-2.67269
2523.568	17.02551	-1.97615	15.18146	-2.68918
2527.568	17.01419	-2.01538	15.16592	-2.69529
2531.570	16.98307	-2.04275	15.17226	-2.67547
2535.569	16.94261	-2.08968	15.12263	-2.67473
2539.587	16.93369	-2.06976	15.10293	-2.66624
2543.587	16.93035	-2.05007	15.10226	-2.70867
2547.567	16.92812	-2.03219	15.09347	-2.72484
2551.567	16.90214	-2.01977	15.14067	-2.77918
2555.583	16.89318	-1.92936	15.21601	-2.90611
2559.570	16.86791	-1.90679	15.24868	-2.98756
2563.575	16.86134	-1.89780	15.28120	-3.06390
2567.605	16.86387	-1.84564	15.31978	-3.09887
2571.583	16.86775	-1.77338	15.33883	-3.04874
2575.580	16.86491	-1.73684	15.33569	-3.01669
2579.565	16.87173	-1.69627	15.36486	-3.02318
2583.566	16.86794	-1.70327	15.37529	-3.02503
2587.565	16.78794	-1.74404	15.00737	-2.92563
2591.587	15.47669	-1.76781	13.46719	-2.94699
2595.573	12.68231	-2.57899	10.27576	-2.73394
2599.565	10.74987	-3.30494	9.39934	-2.03034
2603.572	9.04706	-3.72580	8.17279	-2.24213
2607.577	7.17319	-3.97276	5.45098	-2.00986
2611.561	6.05398	-4.36757	4.14231	-2.34034
2615.580	4.04861	-4.55442	3.04724	-2.29989
2619.565	2.21179	-4.63718	0.78126	-2.18593
2623.577	1.19214	-4.63641	-0.09575	-2.14909
2627.564	-1.30630	-4.29578	-0.97740	-1.74635
2631.569	-1.32366	-4.08730	-3.10453	-1.80705
2635.575	-3.27596	-3.79523	-3.93633	-1.96693
2639.569	-3.74597	-3.80303	-4.38457	-1.68632
2643.585	-3.49733	-3.58316	-4.14436	-1.60611
2647.577	-3.39656	-3.66274	-3.72981	-1.72398
2651.563	-3.20874	-3.50161	-3.60237	-1.67903
2655.570	-3.22656	-3.60614	-3.79727	-1.47552
2659.577	-3.38926	-3.46860	-3.97496	-1.55225
2663.569	-3.16871	-3.64673	-4.12638	-1.52950
2667.560	-3.10136	-3.62526	-4.17652	-1.58953
2671.576	-2.95260	-3.58576	-4.10787	-1.49488
2675.574	-2.92755	-3.59430	-4.12772	-1.43042
2679.564	-2.89794	-3.54562	-4.12443	-1.40034
2683.575	-2.85779	-3.58592	-4.07779	-1.48704
2687.557	-2.70691	-3.58640	-4.11829	-1.55272
2691.572	-2.63876	-3.51373	-4.22061	-1.68621
2695.565	-2.56860	-3.48434	-4.16171	-1.74455
2699.565	-2.58326	-3.41663	-4.30433	-1.71930
2703.575	-2.62330	-3.38731	-4.28130	-1.77481
2707.565	-2.57476	-3.51524	-4.28831	-1.82014
2711.562	-2.55703	-3.65003	-4.28323	-1.77810
2715.569	-2.62823	-3.77352	-4.33895	-1.78386
2719.566	-2.73855	-3.99490	-4.36947	-1.82873
2723.574	-2.87163	-4.01667	-4.49968	-1.82492
2727.573	-2.85836	-4.14378	-4.60163	-1.76951
2731.581	-2.95913	-4.32803	-4.71706	-1.72619
2735.569	-2.97284	-4.23136	-4.75201	-1.66776
2739.588	-3.00685	-4.18039	-4.78903	-1.60641
2743.574	-3.03150	-4.30783	-4.79381	-1.60620
2747.567	-3.00868	-4.22671	-4.70264	-1.54331
2751.562	-3.06610	-4.25210	-4.78819	-1.50454
2755.567	-3.07961	-4.25883	-4.81461	-1.49399
2759.575	-3.06862	-4.16702	-4.86133	-1.47303
2763.567	-3.06229	-4.13283	-4.85701	-1.46839
2767.560	-3.04199	-4.11560	-4.82513	-1.45044
2771.571	-2.97284	-4.11996	-4.78013	-1.44910
2775.570	-2.95121	-4.06266	-4.63195	-1.43795
2779.564	-2.87133	-4.05779	-4.49916	-1.43064
2783.563	-2.80496	-4.10173	-4.39217	-1.42993
2787.560	-2.72169	-4.11861	-4.25336	-1.40216
2791.565	-2.80635	-4.19693	-4.17867	-1.38818
2795.566	-2.80761	-4.26737	-4.21207	-1.38658
2799.563	-2.84588	-4.29238	-4.23127	-1.40453
2803.558	-2.89968	-4.38523	-4.17346	-1.46990
2807.621	-2.92433	-4.47229	-4.10668	-1.51936
2811.574	-2.92564	-4.47374	-4.09204	-1.75525
2815.566	-2.82429	-4.43770	-4.11325	-1.76256
2819.561	-2.73422	-4.43932	-4.15939	-1.90479
2823.567	-2.54410	-4.46598	-4.26884	-2.02044
2827.558	-2.73660	-4.47479	-4.25443	-1.95231
2831.570	-2.71884	-4.44073	-4.33248	-1.91600
2835.563	-2.83130	-4.52798	-4.32824	-1.80985
2839.585	-2.83108	-4.50953	-4.29678	-1.82841
2843.620	-2.66025	-4.48005	-4.28982	-1.81323
2847.573	-2.44839	-4.47787	-4.18625	-1.67056
2851.564	-2.39512	-4.49140	-4.18121	-1.64630
2855.572	-2.49379	-4.40594	-4.19561	-1.56745
2859.565	-2.54690	-4.42510	-4.29167	-1.49674
2863.572	-2.63002	-4.45275	-4.25376	-1.53574
2867.574	-2.72295	-4.46679	-4.30835	-1.56663
2871.572	-2.81046	-4.41288	-4.26997	-1.59927
2875.569	-2.90829	-4.33513	-4.20933	-1.62495
2879.565	-3.03210	-4.26200	-4.22128	-1.77081
2883.565	-3.01576	-4.14298	-4.22091	-1.86905
2887.563	-3.08444	-4.08727	-4.27548	-2.00730
2891.560	-3.19269	-4.00872	-4.37870	-2.07941
2895.573	-3.10871	-3.89888	-4.37285	-2.10360
2899.567	-3.17020	-3.83117	-4.38605	-2.22680
2903.563	-3.20323	-3.77676	-4.36705	-2.14778
2907.563	-2.93730	-3.79484	-4.36992	-2.14102
2911.571	-3.03660	-3.74299	-4.31938	-2.12344
2915.565	-3.14006	-3.65748	-4.30988	-2.11736
2919.565	-1.28869	-3.58308	-3.22562	-1.75940
2923.559	1.14347	-2.19433	-1.32019	0.11092
2927.561	2.04899	-1.72864	0.03407	1.47303
2931.577	2.47318	-1.29331	0.53210	1.57212
2935.567	1.46090	-1.20581	-0.06415	1.18901
2939.586	0.99149	-1.34948	-0.46815	0.33776
2943.564	1.00720	-1.60779	-0.83066	-0.30186
2947.567	1.13144	-1.82618	-0.76136	-0.35553
2951.562	1.26421	-1.77063	-0.73662	-0.19542
2955.562	1.50683	-1.77479	-0.60903	0.34988
2959.563	1.86020	-1.76792	-0.21576	0.49312
2963.563	1.59846	-1.70108	-0.26014	0.44546
2967.560	1.71052	-1.59007	0.00566	0.44285
2971.558	1.76014	-1.59919	-0.11662	0.42240
2975.612	1.70283	-1.59837	-0.18397	0.36540
2979.581	1.71546	-1.61084	-0.13476	0.30845
2983.559	1.72949	-1.64575	-0.16226	0.33230
2987.558	1.66567	-1.60880	-0.12903	0.23430
2991.558	1.61409	-1.56474	-0.00908	0.35693
2995.559	1.45961	-1.52923	-0.02857	0.41589
2999.567	1.27720	-1.49506	-0.01253	0.41738
3003.557	1.06706	-1.44700	-0.04537	0.35494
3007.562	0.95547	-1.41669	-0.06554	0.34386
3011.557	1.00464	-1.40284	-0.05562	0.36992
3015.568	1.59618	-1.43339	-0.06969	0.32582
3019.567	1.79708	-1.46171	-0.08800	0.36928
3023.562	1.93646	-1.49301	-0.11478	0.35472
3027.556	1.82291	-1.48122	-0.19899	0.36364
3031.576	1.52419	-1.44980	-0.21224	0.40886
3035.570	1.61905	-1.48617	-0.28250	0.42973
3039.559	1.77380	-1.36557	-0.33886	0.45385
3043.580	1.83462	-1.23428	-0.40710	0.44267
3047.571	2.00276	-1.09398	-0.38864	0.46776
3051.565	1.98457	-0.99275	-0.43626	0.49507
3055.557	1.97096	-0.89866	-0.51054	0.49536
3059.570	1.92399	-0.91430	-0.52039	0.48219
3063.566	1.85837	-0.86999	-0.50381	0.45827
3067.569	1.81238	-0.86001	-0.52252	0.45429
3071.557	1.76681	-0.77155	-0.33923	0.40689
3075.562	1.70601	-0.79566	-0.22457	0.39626
3079.554	1.65475	-0.75689	-0.19241	0.34391
3083.559	1.56694	-0.80518	-0.26158	0.30437
3087.557	1.45304	-0.87129	-0.12965	0.26710
3091.561	1.30203	-0.92169	-0.12632	0.21375
3095.553	1.09527	-1.04415	-0.00836	0.22575
3099.563	1.05156	-1.06764	-0.03715	0.20950
3103.563	1.07116	-1.12937	-0.04926	0.19743
3107.558	1.20673	-1.17417	0.01544	0.22461
3111.591	1.19006	-1.24502	0.04378	0.38461
3115.564	1.14223	-1.28195	0.02631	0.44201
3119.571	1.14551	-1.35095	-0.01256	0.49866
3123.557	1.23608	-1.40173	-0.09034	0.50018
3127.554	1.36963	-1.46536	-0.12305	0.48564
3131.560	1.41452	-1.48862	-0.14139	0.50944
3135.562	2.07881	-1.65219	-0.18923	0.62421
3139.552	2.22701	-1.70400	-0.22192	0.68259
3143.582	1.98821	-1.80877	-0.22472	0.71541
3147.582	1.96055	-1.85100	-0.26240	0.70709
3151.567	2.03127	-1.99127	-0.32784	0.74552
3155.558	2.06438	-2.01412	-0.37482	0.70708
3159.557	2.11115	-2.09590	-0.44994	0.71274
3163.557	2.16974	-2.09677	-0.50205	0.78183
3167.562	2.31272	-1.67838	-0.39643	0.78603
3171.557	2.39510	-0.15423	-0.29977	1.78682
3175.560	2.53892	0.56631	-0.19020	4.72953
3179.577	3.38686	3.17748	0.07629	6.98977
3183.577	3.40900	4.31278	0.13749	7.82609
3187.566	2.76656	4.49019	0.11215	7.90176
3191.556	2.49828	4.57358	0.20077	7.06691
3195.558	2.61597	4.35453	0.36516	6.80187
3199.552	2.61627	4.02625	0.41827	6.56555
3203.562	2.47895	3.90813	0.65642	5.46525
3207.554	2.33192	4.05245	0.97174	5.62110
3211.558	2.36017	4.19156	0.96450	5.98300
3215.551	2.12516	4.39098	1.02526	6.09975
3219.562	2.10865	4.38002	0.98316	6.38904
3223.555	1.99622	4.42953	0.93989	6.37540
3227.562	2.04936	4.45542	0.89113	6.29374
3231.556	2.01905	4.45595	0.90503	6.24677
3235.561	2.10312	4.42427	0.95812	5.96642
3239.429	2.11874	4.42008	0.97147	6.10950
3243.451	2.04597	4.42115	0.93463	6.12256
3247.522	2.10763	4.42909	0.84692	6.09136
3251.503	2.17071	4.44982	0.73489	6.16922
3255.445	2.29753	4.42120	0.68374	6.17717
3259.426	2.37099	4.33791	0.62275	6.22118
3263.435	2.36128	4.29153	0.62809	6.12725
3267.430	2.43023	4.28574	0.59382	6.08594
3271.435	2.47204	4.38740	0.57786	6.05328
3275.429	2.55619	4.41967	0.57176	6.00916
3279.441	2.53986	4.52668	0.51515	6.07831
3283.428	2.54284	4.60068	0.47914	6.08709
3287.435	2.51616	4.76673	0.47334	6.05852
3291.432	2.50781	4.82676	0.57287	6.02867
3295.433	2.51433	4.90874	0.68618	6.02397
3299.432	2.52136	4.86778	0.90108	5.98291
3303.438	2.39002	4.96484	1.10924	5.94918
3307.433	2.49018	4.95760	1.17656	5.82385
3311.431	2.51180	4.95034	1.44309	5.83176
3315.441	2.48718	4.95770	1.57915	5.78070
3319.458	2.47732	4.89199	1.60794	5.78030
3323.434	2.52577	4.07023	1.63236	5.74377
3327.427	2.54321	3.67766	1.59928	5.77339
3331.429	2.61830	3.52014	1.53828	5.70419
3335.430	2.69775	3.51195	1.54745	5.79598
3339.434	2.74497	3.39691	1.54440	5.77531
3343.441	2.76539	3.39305	1.50958	5.80120
3347.431	2.79659	3.33325	1.37275	5.89620
3351.433	2.83063	3.20103	1.32701	5.97446
3355.441	2.82999	3.17495	1.23957	6.12263
3359.461	2.87460	3.15132	1.20147	6.17572
3363.431	2.87571	3.17020	1.08522	6.29330
3367.461	2.85088	3.21171	1.01913	6.36446
3371.433	2.86126	3.21913	1.01077	6.37012
3375.424	2.86133	3.23778	0.98134	6.45507
3379.428	2.84190	3.25018	0.97531	6.48444
3383.451	2.83531	3.26353	0.95162	6.53280
3387.482	2.82642	3.27973	0.97665	6.53234
3391.429	2.84049	3.25169	1.06029	6.43933
3395.421	2.80337	3.34676	1.29293	5.58325
3399.438	2.74289	3.09750	1.30139	4.79547
3403.426	2.78800	-0.12169	1.68570	1.83188
3407.433	2.89921	-2.55937	1.82576	0.34473
3411.421	3.07731	-1.85665	1.81213	0.14589
3415.431	3.32095	-2.89630	1.77950	-0.82742
3419.440	3.54344	-3.55484	1.64238	-1.34071
3423.436	3.55150	-3.69949	1.63606	-1.39034
3427.422	3.79119	-3.50295	1.66973	-0.97768
3431.430	3.93552	-3.18854	1.74980	-0.61036
3435.433	4.00680	-3.21690	1.73353	-0.83312
3439.432	4.04715	-3.18087	1.66700	-1.03978
3443.441	4.02589	-3.36213	1.64030	-1.07448
3447.423	4.04789	-3.34707	1.58790	-1.23506
3451.490	4.11174	-3.44777	1.54924	-1.28893
3455.434	4.13448	-3.52923	1.53059	-1.33646
3459.432	4.13184	-3.57208	1.51382	-1.34777
3463.429	4.12327	-3.52108	1.55822	-1.37999
3467.440	4.12821	-3.54209	1.61714	-1.35282
3471.432	4.13372	-3.53454	1.65277	-1.37985
3475.426	4.15759	-3.54075	1.67477	-1.45773
3479.428	4.17749	-3.55884	1.73606	-1.47593
3483.432	4.13619	-3.55411	1.79086	-1.47003
3487.431	4.16406	-3.55033	1.87143	-1.49036
3491.427	4.18294	-3.54664	1.94910	-1.49323
3495.441	4.17075	-3.51559	2.02678	-1.50055
3499.419	4.23372	-3.46145	2.05125	-1.48244
3503.438	4.25114	-3.43696	2.03278	-1.46980
3507.426	4.31373	-3.39957	2.04156	-1.47155
3511.427	4.36044	-3.36973	2.02802	-1.47129
3515.428	4.42868	-3.36658	2.04213	-1.47138
3519.427	4.47819	-3.34097	2.01682	-1.42219
3523.431	4.51001	-3.34189	1.97146	-1.29522
3527.429	4.58777	-3.33373	1.80142	-1.30125
3531.439	4.59196	-3.33931	1.73928	-1.27687
3535.432	4.59139	-3.34408	1.55224	-1.17872
3539.425	4.62823	-3.31293	1.59316	-1.12990
3543.430	3.70675	-3.30277	1.55665	-0.99869
3547.429	3.44201	-3.26772	1.59313	-0.90235
3551.455	3.39102	-3.22702	1.60087	-0.83941
3555.424	3.35283	-3.18232	1.66019	-0.84900
3559.429	3.58373	-3.11448	1.73328	-0.80896
3563.425	3.71458	-3.04159	1.90173	-0.78080
3567.428	3.92109	-2.98899	1.74171	-1.01044
3571.442	3.80278	-2.92429	1.59311	-1.12332
3575.429	4.00509	-2.91412	1.74365	-1.21006
3579.431	3.97736	-2.83534	1.79966	-1.23611
3583.440	3.98230	-2.82823	1.86791	-1.27335
3587.447	3.88927	-2.82493	1.83598	-1.12519
3591.426	4.05675	-2.80050	1.86201	-1.17602
3595.426	4.22967	-2.81534	1.85532	-1.00151
3599.428	4.02989	-2.87366	1.87981	-0.99547
3603.427	3.73087	-2.86287	1.80414	-0.93555
3607.424	3.53006	-2.87551	1.86332	-0.89209
3611.443	3.59834	-2.87661	1.86588	-0.93896
3615.425	3.71846	-2.89124	1.85819	-1.09449
3619.434	3.88008	-2.88526	1.87803	-1.11777
3623.426	3.94599	-2.98269	1.84138	-1.18552
3627.424	3.96083	-3.00573	1.75384	-0.84546
3631.455	4.33142	-3.13821	1.76864	-0.83492
3635.435	4.19980	-3.08720	1.78044	-0.79442
3639.423	3.98269	-3.11817	1.78136	-0.73295
3643.445	3.84085	-3.12925	1.76978	-0.82966
3647.438	3.70885	-3.28897	1.95646	-0.88385
3651.426	3.79808	-3.40648	2.14694	-0.86733
3655.446	3.87850	-3.46366	1.72525	-1.01395
3659.432	4.07698	-3.67068	1.81421	-1.01785
3663.425	3.83574	-3.54911	1.72267	-0.89851
3667.423	3.91062	-3.66080	1.77414	-0.84118
3671.421	3.94411	-3.78714	1.80829	-0.83577
3675.426	3.99835	-3.99387	1.84096	-0.90106
3679.424	3.92855	-3.95552	1.96640	-0.89303
3683.431	3.75474	-4.01261	2.10307	-0.92984
3687.429	3.82126	-4.14995	2.02822	-0.84850
3691.426	3.82697	-4.09906	1.94352	-0.91226
3695.437	3.75729	-3.84584	1.81525	-0.90433
3699.431	3.69227	-3.71544	1.82988	-0.87708
3703.423	3.79848	-3.64854	1.85693	-0.82167
3707.426	3.84261	-3.56098	1.88033	-0.74444
3711.421	3.94705	-3.45397	1.89109	-0.77326
3715.431	3.92151	-3.46603	2.00048	-0.77060
3719.427	3.91711	-3.43339	2.01920	-0.84290
3723.446	3.98324	-3.55031	1.98259	-0.82310
3727.437	4.11088	-3.47691	1.95056	-0.90066
3731.437	3.94115	-3.61640	1.86650	-0.99508
3735.425	3.95701	-3.51069	1.89771	-1.08173
3739.431	3.94801	-3.44690	1.93928	-1.10005
3743.423	4.07530	-3.63136	1.97954	-1.07609
3747.440	4.02223	-3.71002	2.01506	-1.35242
3751.424	4.01586	-3.76942	2.00700	-1.26625
3755.420	4.02258	-3.86787	2.02862	-1.34573
3759.424	4.01952	-3.93246	2.02054	-1.28374
3763.422	4.04073	-3.69962	2.00562	-1.20625
3767.418	4.17746	-3.69388	1.99230	-1.28848
3771.420	4.13663	-3.53080	2.03838	-0.89252
3775.437	3.94972	-3.75691	2.12082	-1.03377
3779.431	3.89730	-3.35726	2.11747	-0.98227
3783.420	3.82321	-3.31995	2.16198	-1.11075
3787.419	3.77602	-3.12425	2.14166	-1.06618
3791.444	3.65265	-3.18914	2.11165	-1.11051
3795.436	3.65193	-3.16783	2.05045	-1.10137
3799.426	3.67205	-3.13361	1.97456	-1.03526
3803.418	3.71350	-3.14415	1.91449	-1.07519
3807.428	3.75239	-3.25935	1.81280	-1.09018
3811.425	3.77365	-3.34087	1.82073	-1.12634
3815.424	3.86610	-3.45043	1.89173	-1.21562
3819.423	3.76225	-3.42737	1.89627	-1.28771
3823.422	3.84300	-3.82954	1.89756	-1.30103
3827.418	3.87677	-3.33941	1.90963	-1.14548
3831.424	4.00173	-3.47316	1.96977	-1.11848
3835.421	4.07352	-3.46991	2.06062	-1.10968
3839.436	4.12725	-3.53632	2.03876	-1.11801
3843.417	4.12698	-3.61624	1.84929	-1.15570
3847.430	4.22207	-3.66475	2.14736	-1.17673
3851.416	4.19780	-2.82084	2.10615	-1.21712
3855.428	4.22703	-2.87010	2.15581	-0.96057
3859.433	4.14460	-3.09839	2.14892	-1.19947
3863.420	4.16117	-2.86575	2.04475	-1.01448
3867.425	4.12732	-2.91111	2.08411	-0.94388
3871.419	4.18117	-3.06368	2.10959	-0.89486
3875.425	4.23628	-3.01164	2.12929	-0.91439
3879.420	4.14865	-2.98563	2.19611	-0.91514
3883.422	4.09802	-3.05221	2.18525	-0.96633
3887.415	4.09498	-3.13827	2.02150	-0.97937
3891.427	4.02505	-3.45458	1.95562	-1.01988
3895.419	3.99050	-3.15608	1.95507	-1.06956
3899.427	3.90353	-3.04255	2.07769	-0.96519
3903.415	3.82850	-3.02902	1.96164	-0.97139
3907.425	3.77083	-3.39722	1.78386	-1.03001
3911.420	3.89614	-3.32646	1.98960	-1.12457
3915.418	3.82250	-3.12667	1.99969	-0.85723
3919.421	3.78719	-3.42450	1.79120	-1.12505
3923.423	3.81775	-3.55343	1.86037	-1.28378
3927.421	3.80280	-3.28664	1.93943	-1.07272
3931.423	3.79971	-3.83170	1.85078	-1.29955
3935.422	3.78027	-3.14356	2.00705	-0.81688
3939.422	3.76606	-3.92374	1.94625	-1.36784
3943.438	3.80708	-3.30607	1.96087	-1.00893
3947.419	3.86904	-3.60774	2.01077	-1.31529
3951.422	3.91368	-3.60563	2.03157	-1.39219
3955.428	3.93352	-3.23763	2.02329	-1.25556
3959.418	3.93277	-3.01266	2.04986	-1.06746
3963.417	3.92690	-3.22446	2.06176	-0.94072
3967.420	3.97007	-4.08465	2.10414	-1.25058
3971.423	4.03043	-4.03500	2.11187	-1.61620
3975.416	4.09202	-3.86167	2.09043	-1.73100
3979.417	4.19097	-3.64618	2.06094	-1.81300
3983.423	4.35311	-3.42588	2.02232	-1.75241
3987.422	4.53300	-3.48581	1.94712	-1.80078
3991.421	4.43917	-3.18118	1.91526	-1.67042
3995.420	4.45592	-3.06694	1.81954	-1.65897
3999.423	4.24344	-3.63720	1.76621	-1.66617
4003.424	4.29409	-3.52401	1.81882	-1.56568
4007.417	4.35028	-3.45009	1.80258	-1.70715
4011.415	4.44770	-3.80836	1.71022	-1.64795
4015.418	3.76196	-3.45746	1.69837	-1.52113
4019.422	3.74377	-3.34852	1.72555	-1.23167
4023.421	4.08792	-3.33087	1.71397	-1.39011
4027.415	3.76519	-3.83366	1.92599	-1.35964
4031.418	3.80525	-3.36462	1.83159	-1.28641
4035.422	3.86200	-3.11602	2.00103	-1.28460
4039.415	3.90350	-3.78177	2.06399	-1.29971
4043.438	3.99052	-3.10168	2.17256	-1.19942
4047.416	4.01058	-3.91832	2.15559	-1.34150
4051.423	4.07056	-3.01801	2.13613	-1.18975
4055.420	4.07550	-3.45545	2.14791	-1.31615
4059.415	3.97701	-3.53342	2.21467	-1.10003
4063.431	4.35435	-3.31469	2.25122	-1.23118
4067.434	4.47311	-3.56044	2.17675	-1.37968
4071.418	4.15404	-3.46107	2.16991	-1.30861
4075.419	4.15934	-3.32926	2.12102	-1.23114
4079.414	4.33833	-3.52341	2.10129	-1.35289
4083.416	4.39099	-3.62648	2.06181	-1.43570
4087.418	4.44909	-3.75323	1.99339	-1.49155
4091.416	4.43895	-3.91470	1.96930	-1.46822
4095.289	4.30633	-3.82216	1.99188	-1.42494
4099.295	4.28673	-3.71564	1.99568	-1.40528
4103.300	4.32708	-3.79035	1.94615	-1.40845
4107.299	4.25423	-3.81620	1.88507	-1.37529
4111.293	4.13678	-3.92389	1.87084	-1.32121
4115.317	4.16808	-4.10883	1.82095	-1.30983
4119.298	4.11493	-4.02466	1.78195	-1.23307
4123.288	3.92003	-4.04220	1.86618	-1.19136
4127.298	3.86865	-3.93258	1.91586	-0.82899
4131.293	3.92618	-3.75346	2.17613	-0.59295
4135.295	3.92361	-3.54197	2.24307	-0.53480
4139.286	3.96540	-3.35543	1.96824	-0.32225
4143.292	6.50802	-3.04056	1.85477	-0.56314
4147.304	7.58200	-3.54667	1.95118	-0.97201
4151.299	8.04519	-3.34012	-4.70840	10.92716
4155.301	-0.24666	-3.64575	NaN	NaN
4159.293	NaN	NaN	-13.54368	12.06769
4163.289	NaN	NaN	NaN	NaN
4167.293	NaN	NaN	NaN	NaN
4171.288	NaN	NaN	NaN	NaN
4175.294	NaN	NaN	NaN	NaN
4179.287	NaN	NaN	NaN	NaN
4183.287	NaN	NaN	NaN	NaN
4187.291	NaN	NaN	NaN	NaN
4191.513	NaN	NaN	NaN	NaN
4195.319	NaN	NaN	NaN	NaN
4200.288	NaN	NaN	NaN	NaN
4204.314	NaN	NaN	NaN	NaN
4208.372	NaN	NaN	NaN	NaN
4212.080	NaN	NaN	NaN	NaN
4215.993	NaN	NaN	NaN	NaN
4220.043	NaN	NaN	NaN	NaN
4223.807	NaN	NaN	NaN	NaN
4227.530	NaN	NaN	NaN	NaN
4231.296	NaN	NaN	NaN	NaN
4235.305	NaN	NaN	NaN	NaN
4239.298	NaN	NaN	NaN	NaN
4243.307	NaN	NaN	NaN	NaN
4247.286	NaN	NaN	NaN	NaN
4251.281	NaN	NaN	-14.78296	9.61385
4255.285	NaN	NaN	-17.13835	11.96445
4259.306	NaN	NaN	-19.99368	-12.07743
4263.289	NaN	NaN	-10.93545	12.18363
4267.313	NaN	NaN	3.47492	0.41238
4271.291	-2.35558	-9.45207	3.77827	-0.88616
4275.291	-7.70655	-2.45599	3.66471	-1.48898
4279.297	6.04958	-3.36517	3.68663	-1.53860
4283.285	6.27042	-3.96309	4.39010	-1.34936
4287.301	6.23074	-5.11870	4.36597	-1.29748
4291.297	6.25509	-5.13939	3.28543	-1.34345
4295.286	6.30357	-4.58508	1.33108	-1.24056
4299.290	6.34824	-4.67313	1.77878	-0.90447
4303.288	6.48296	-4.79096	3.15251	-1.15405
4307.298	6.32218	-4.19756	2.11921	-1.15298
4311.321	5.54184	-4.07928	1.87490	-1.32716
4315.286	4.48606	-4.24291	1.93155	-1.31258
4319.306	3.61604	-4.19561	1.73477	-1.22499
4323.298	3.04175	-3.92701	1.75530	-1.21174
4327.286	3.00284	-4.18415	1.71055	-1.35687
4331.289	3.09621	-4.02185	1.67454	-1.35236
4335.337	3.55708	-3.82689	1.66648	-1.42430
4339.299	3.54195	-3.95254	1.67048	-1.35857
4343.294	3.64343	-4.03613	1.62844	-1.45725
4347.289	3.20216	-3.83567	1.55722	-1.46891
4351.291	3.74194	-3.68644	1.56598	-1.48169
4355.291	3.87905	-3.70740	1.65718	-1.47184
4359.286	3.58339	-3.87102	1.71104	-1.52294
4363.296	3.72220	-3.70926	1.62034	-1.55996
4367.299	3.63947	-3.71370	1.64984	-1.61492
4371.301	3.61555	-3.80270	1.78451	-1.63568
4375.288	3.75116	-3.81797	1.87416	-1.62175
4379.290	3.88599	-3.85782	1.87076	-1.63604
4383.282	3.95360	-3.74060	1.63566	-1.69375
4387.293	4.09253	-3.72829	1.57389	-1.74061
4391.286	4.07967	-3.81097	1.63690	-1.79952
4395.290	3.95933	-3.79954	1.35990	-1.78726
4399.288	3.85167	-3.84682	1.34854	-1.68251
4403.616	3.95597	-3.88240	1.48317	-1.68281
4407.290	3.86084	-3.97422	1.46727	-1.77025
4411.285	3.85748	-4.00349	1.62011	-1.84105
4415.288	3.90284	-3.97498	1.62406	-1.79990
4419.299	3.91810	-4.08861	1.47146	-1.79879
4423.287	3.88379	-4.03687	1.28442	-1.76334
4427.284	3.82892	-4.09390	1.21948	-1.84792
4431.301	3.78818	-4.04347	1.34294	-1.95612
4435.290	3.81755	-4.10392	1.35244	-1.95284
4439.290	3.85061	-4.12790	1.28564	-1.88135
4443.293	3.83072	-4.09823	1.27001	-1.88900
4447.290	3.82437	-4.05183	1.30397	-1.98096
4451.291	3.79072	-4.01005	1.38642	-2.09391
4455.285	3.80846	-4.00506	1.44994	-2.22904
4459.284	3.79660	-4.02110	1.31664	-2.08548
4463.286	3.81555	-4.09302	1.17371	-2.08059
4467.290	3.82114	-4.11650	1.19021	-2.19507
4471.287	3.91311	-3.96344	1.29581	-2.25136
4475.290	3.91447	-4.13354	1.33039	-2.31664
4479.283	3.83448	-4.19119	1.29105	-2.21632
4483.289	3.95945	-4.29806	1.26163	-2.06804
4487.288	3.97891	-4.13618	1.27552	-2.16401
4491.295	3.97015	-4.20704	1.26607	-2.20852
4495.302	4.04866	-4.22932	1.37444	-2.00274
4499.297	4.08389	-4.25356	1.35043	-1.93673
4503.282	4.07577	-4.26729	1.40256	-1.93324
4507.287	4.09676	-4.29029	1.61731	-1.91752
4511.281	4.13999	-4.29758	1.53131	-1.78057
4515.290	4.04759	-4.28735	1.59507	-1.72245
4519.283	4.01709	-4.25177	1.51549	-1.68794
4523.287	3.96056	-4.24824	1.17485	-1.65348
4527.291	3.74669	-4.21529	0.83607	-1.73145
4531.289	3.41387	-4.26976	0.78952	-1.80360
4535.283	3.39933	-4.28411	0.90259	-2.02406
4539.287	3.40697	-4.29323	1.20452	-2.11257
4543.296	3.42354	-4.34075	1.38260	-1.87318
4547.285	3.46511	-4.37304	1.28219	-1.81879
4551.281	3.39260	-4.39313	1.16949	-1.79211
4555.290	3.19702	-4.38131	1.14878	-1.84111
4559.286	3.24484	-4.44513	1.35144	-1.90961
4563.282	3.10260	-4.47084	1.33088	-2.03501
4567.293	3.13281	-4.42677	1.01945	-1.87733
4571.285	3.24835	-4.43685	0.94921	-1.79290
4575.281	3.26356	-4.44458	1.21913	-1.82255
4579.283	3.14246	-4.51679	1.36794	-1.83545
4583.288	3.21720	-4.59363	1.35097	-1.86358
4587.281	3.07998	-4.50445	1.26676	-1.63887
4591.281	3.14357	-4.49323	1.14603	-1.82377
4595.302	3.10584	-4.46299	1.02372	-1.96257
4599.284	3.19806	-4.48762	1.10894	-2.10770
4603.294	3.21169	-4.50872	0.99358	-2.15839
4607.285	3.19976	-4.53915	0.96006	-1.85090
4611.294	3.11524	-4.46763	0.97899	-1.99159
4615.292	3.20780	-4.45861	0.95430	-2.10890
4619.293	3.17069	-4.55150	1.08748	-2.08556
4623.279	3.27781	-4.52445	1.10065	-2.09773
4627.286	3.19964	-4.52112	0.99931	-2.11400
4631.287	3.14894	-4.47817	0.90510	-2.02694
4635.288	3.15441	-4.46209	0.83109	-2.08438
4639.280	3.17891	-4.51387	0.88203	-2.02943
4643.293	3.27301	-4.47208	0.91607	-2.04956
4647.288	3.26243	-4.51059	0.81682	-2.05381
4651.289	3.31947	-4.36213	1.05314	-2.02062
4655.287	3.31603	-4.46496	0.88617	-2.15149
4659.293	3.21189	-4.52775	1.19410	-2.04040
4663.291	3.27784	-4.44525	0.86476	-2.15870
4667.280	3.08436	-4.53881	1.31707	-2.06167
4671.279	3.11143	-4.50585	0.87495	-2.24074
4675.285	3.08891	-4.47093	1.18155	-2.08547
4679.290	3.11329	-4.43832	0.89059	-2.22725
4683.282	3.16394	-4.43426	1.26019	-2.10431
4687.280	3.10332	-4.32380	0.91031	-2.20960
4691.282	3.07043	-4.33602	1.25582	-2.07157
4695.317	3.08159	-4.35517	0.97735	-2.17403
4699.285	2.99010	-4.46092	0.89716	-2.02414
4703.286	3.03323	-4.32820	0.72980	-2.12321
4707.293	3.01933	-4.34252	0.77672	-2.03532
4711.288	3.14583	-4.32059	0.95996	-1.86106
4715.285	3.12860	-4.31642	0.88011	-2.02353
4719.284	3.21050	-4.33766	0.73044	-1.92034
4723.278	3.25785	-4.38536	0.79967	-1.77739
4727.290	3.23977	-4.44419	0.65007	-1.95075
4731.276	3.21681	-4.52546	0.61471	-1.92043
4735.290	3.28108	-4.52394	0.65521	-1.87691
4739.284	3.23259	-4.54184	0.80049	-1.69934
4743.288	3.40840	-4.54788	0.76364	-1.81558
4747.282	3.33530	-4.56733	0.75883	-1.91814
4751.279	3.23479	-4.57442	0.68697	-1.86319
4755.278	3.04224	-4.56120	0.67940	-1.84140
4759.277	3.11388	-4.53336	0.70355	-1.72075
4763.279	3.06469	-4.47670	0.73372	-1.69353
4767.282	3.00524	-4.51764	0.69774	-1.86865
4771.281	3.06281	-4.43401	0.57952	-1.92213
4775.279	2.88460	-4.39935	0.48500	-1.88007
4779.289	2.88633	-4.38585	0.53945	-1.88606
4783.280	3.00797	-4.40932	0.47964	-1.92676
4787.297	2.91515	-4.36467	0.41246	-1.95043
4791.285	3.02526	-4.44475	0.46751	-1.91703
4795.279	3.06625	-4.42694	0.47200	-1.96178
4799.281	3.02524	-4.41885	0.78742	-2.04087
4803.280	2.99839	-4.47875	0.66121	-2.07934
4807.298	3.07679	-4.48908	0.87438	-2.08778
4811.276	3.59669	-4.47821	0.89073	-2.05114
4815.287	3.25622	-4.46991	0.92286	-1.98244
4819.283	3.13021	-4.47307	0.67173	-1.96600
4823.284	3.30470	-4.49684	0.53515	-1.96516
4827.279	3.18799	-4.50194	0.90230	-1.97463
4831.280	3.22675	-4.51425	0.97388	-2.01214
4835.290	3.45608	-4.51907	1.07160	-1.99872
4839.278	3.16112	-4.50795	1.01938	-2.00871
4843.283	3.16329	-4.51214	0.74814	-2.06104
4847.294	3.24556	-4.45393	0.78950	-1.96456
4851.279	3.35662	-4.47562	0.69161	-1.90410
4855.284	3.24142	-4.43927	0.78563	-2.00613
4859.284	3.27437	-4.42867	0.78434	-2.13011
4863.283	3.28610	-4.48156	0.76933	-2.30949
4867.288	3.25842	-4.48282	0.90493	-1.92829
4871.286	3.19293	-4.44094	0.97807	-2.00293
4875.287	3.17594	-4.44676	0.84600	-1.87449
4879.278	3.29854	-4.50853	0.74771	-1.85049
4883.283	3.39364	-4.49887	0.54600	-1.87975
4887.291	3.32157	-4.44654	0.70263	-1.81027
4891.279	3.18625	-4.42553	0.68389	-1.95883
4895.278	3.11638	-4.45744	0.86721	-1.93104
4899.278	3.39883	-4.41756	0.91021	-1.74626
4903.286	3.39737	-3.52067	0.75997	-0.74743
4907.310	3.71028	-1.10214	0.97422	1.53335
4911.272	4.06735	0.01832	1.15282	3.44582
4915.275	5.82557	1.37394	1.44064	4.23151
4919.290	4.65784	2.22893	1.82316	3.96953
4923.287	4.01929	2.18807	1.90021	3.98196
4927.273	3.64533	2.08434	2.00480	3.66755
4931.281	4.02655	1.04174	1.99094	2.73626
4935.275	4.10051	0.39349	2.21440	2.24718
4939.288	4.10814	0.29643	2.33588	2.53267
4943.285	4.20768	0.75864	2.46664	2.63408
4947.159	4.18084	1.44073	2.36911	3.40904
4951.159	4.11137	1.73273	2.31891	3.59199
4955.149	4.10014	1.67837	2.33309	3.74993
4959.155	4.24665	1.62113	2.37084	3.67509
4963.150	4.95943	1.48746	2.27258	3.59334
4967.154	5.22013	1.29697	2.16766	3.65577
4971.155	4.71671	1.23254	2.19306	3.77912
4975.158	4.65703	1.12817	2.07730	3.74054
4979.167	4.47679	1.14747	2.04944	3.86652
4983.155	4.46727	1.11646	2.05710	3.83731
4987.151	4.48387	1.00779	2.00217	3.81323
4991.166	4.41346	0.84941	1.98150	3.76704
4995.155	4.46349	1.10108	2.03635	3.88788
4999.147	4.46976	1.11316	2.28509	3.86842
5003.156	4.62508	1.16239	2.30519	3.85828
5007.151	4.45229	1.21687	2.24485	3.81456
5011.154	4.42622	1.26669	2.15410	3.88156
5015.148	4.50195	1.29402	2.16166	3.85917
5019.148	4.49191	1.21497	2.13549	4.16327
5023.153	4.59931	0.98450	2.18624	4.15234
5027.153	4.37712	1.11464	2.09432	4.10820
5031.155	4.25662	1.67722	2.00497	4.12812
5035.148	4.26736	1.60767	1.84830	4.07665
5039.149	3.81565	1.66061	1.82557	4.17186
5043.180	3.75815	1.64085	1.86384	4.25002
5047.157	4.22989	1.52888	1.83003	4.21757
5051.151	4.34712	1.25189	1.82088	4.10622
5055.171	4.45192	0.62364	1.85869	4.35376
5059.145	3.83564	1.29150	1.76294	4.41147
5063.161	3.91961	1.93903	1.80077	4.34158
5067.149	3.83836	1.87510	1.69696	4.36234
5071.155	3.74543	1.79465	1.63251	4.35648
5075.155	3.67128	1.77174	1.61567	4.34733
5079.157	3.87018	1.67661	1.91184	4.32963
5083.161	4.51472	1.60110	2.23442	4.13504
5087.152	4.96485	1.66981	2.34525	4.09671
5091.146	4.34448	1.48891	2.20652	4.21186
5095.171	4.01416	1.61492	1.92590	4.15690
5099.158	3.91452	1.59000	1.71870	4.20239
5103.145	3.70999	1.65502	1.35700	4.16611
5107.154	3.62936	1.63118	1.49884	4.14784
5111.179	4.32214	1.55870	2.64894	4.12666
5115.158	4.52880	1.51478	2.58038	4.13755
5119.153	4.69162	1.47966	2.39086	4.13318
5123.155	4.44765	1.55077	2.10454	4.22367
5127.147	4.13942	1.59713	2.09269	4.32182
5131.151	4.09658	1.62045	2.18349	4.16317
5135.153	4.11443	1.50411	2.02180	4.25160
5139.148	4.34628	1.62751	1.94322	4.23597
5143.165	4.21017	1.66135	1.74360	4.33435
5147.146	4.34433	1.03911	2.03759	4.15466
5151.155	4.27316	1.34603	2.59854	4.17917
5155.166	4.64465	1.18028	2.47256	4.09470
5159.152	4.37031	1.11428	2.31678	4.16911
5163.151	4.29515	1.29019	2.15180	4.40873
5167.146	4.18702	1.33513	1.98008	4.49565
5171.153	4.15018	1.45277	2.16763	4.13278
5175.146	3.90244	1.42760	2.40659	3.62423
5179.153	3.92620	1.39319	2.49382	3.75463
5183.149	3.76319	1.39847	2.42257	3.97963
5187.151	3.46261	1.44164	2.37077	3.96098
5191.146	3.70035	1.55578	2.25456	3.93782
5195.147	3.60465	1.57636	2.13784	4.00001
5199.154	3.71799	1.50631	2.17524	4.03359
5203.165	3.76935	1.51291	2.19655	4.04702
5207.153	3.83117	1.22288	2.28110	3.91432
5211.149	3.79413	1.54907	2.18144	3.83927
5215.149	3.71733	1.40897	2.16218	3.72090
5219.178	3.84179	1.60061	2.17906	3.82603
5223.150	3.88483	1.67735	2.37327	3.91718
5227.145	3.98514	1.72539	2.43100	3.83546
5231.145	4.00430	1.58799	2.61147	3.80587
5235.147	4.04223	1.48302	2.86158	3.76075
5239.173	4.04423	1.26684	2.59294	3.65408
5243.149	4.07399	1.13631	2.75928	3.54510
5247.156	4.05843	0.88336	2.59549	3.48869
5251.149	4.04698	1.20503	2.64928	3.49332
5255.151	4.06357	1.20260	2.66744	3.37195
