time (ms)	lx (deg)	ly (deg)	rx (deg)	ry (deg)
0.000	6.83156	-2.84649	3.38518	-0.17838
4.025	6.84490	-2.85554	3.39505	-0.19269
8.026	6.79396	-2.89604	3.44579	-0.23787
11.992	6.73280	-2.92363	3.43880	-0.19714
15.992	6.57399	-2.91438	3.41726	-0.27166
19.990	6.51586	-2.96197	3.44290	-0.28039
23.995	6.49386	-2.98626	3.47495	-0.33073
27.992	6.41479	-3.01792	3.48790	-0.37070
31.990	6.35584	-3.03706	3.49490	-0.44005
35.990	6.32176	-3.09001	3.49770	-0.48699
39.989	6.19989	-3.11465	3.50328	-0.56724
43.989	6.22449	-3.17342	3.56188	-0.59459
48.027	6.11756	-3.17364	3.51285	-0.63011
52.000	5.67194	-3.10969	3.39822	-0.50103
55.989	4.37438	-2.82180	2.72073	-0.28018
59.991	3.62887	-2.10296	1.77667	0.04756
63.989	3.68985	-1.91364	2.13239	0.32296
67.992	4.29725	-2.04917	2.17430	0.32544
71.997	4.85709	-1.92602	2.87524	0.20584
75.989	4.65109	-2.24228	3.21767	-0.02739
79.987	4.74333	-2.11577	2.78983	0.11680
83.989	4.55103	-1.97145	2.71780	0.21192
87.994	4.69820	-1.98101	2.69681	0.35830
91.995	4.57317	-1.84238	2.46959	0.41918
95.994	4.63723	-1.79372	2.51123	0.45839
99.987	4.71235	-1.75154	2.43233	0.39670
103.996	4.77190	-1.73392	2.56681	0.40187
107.991	4.81133	-1.68763	2.56486	0.34567
111.988	4.84415	-1.64525	2.61867	0.15485
116.023	4.89035	-1.57977	2.54214	0.03458
119.994	4.97012	-1.50460	2.55633	-0.08415
123.989	4.93036	-1.47921	2.50202	-0.11435
127.993	4.98036	-1.48984	2.45116	-0.23165
132.001	4.98864	-1.45308	2.41011	-0.31332
135.992	5.01923	-1.45534	2.42114	-0.32327
139.995	5.03942	-1.44122	2.35387	-0.41132
143.988	5.04868	-1.47222	2.38630	-0.41156
147.986	5.05890	-1.46002	2.38182	-0.47757
151.990	5.06786	-1.40645	2.35880	-0.49705
155.997	5.09672	-1.46385	2.30427	-0.47236
159.988	5.13917	-1.49998	2.32206	-0.42605
163.992	5.12220	-1.56371	2.29855	-0.41754
167.988	5.14490	-1.57260	2.33648	-0.39891
171.999	5.15734	-1.56575	2.32283	-0.39013
175.998	5.16792	-1.57774	2.34243	-0.34444
179.987	5.16172	-1.53955	2.35090	-0.32433
184.009	5.15022	-1.59126	2.39926	-0.25748
188.031	5.13690	-1.53822	2.41093	-0.28655
191.987	5.13225	-1.51370	2.41559	-0.31480
195.992	5.14951	-2.03291	2.43991	-0.25911
199.989	5.16804	-2.83427	2.47073	-0.27177
203.990	5.13641	-3.25502	2.49295	-0.19664
207.991	5.11876	-3.40989	2.49882	-0.23661
211.993	5.10155	-3.53720	2.51259	-0.14188
216.011	5.09478	-3.45917	2.58400	-0.07837
219.989	5.15396	-3.50486	2.65644	0.06546
223.989	5.16575	-3.30324	2.66645	0.12116
227.987	5.14453	-3.32032	2.68093	0.13039
231.986	5.20708	-3.10185	2.73947	0.23210
235.987	5.24535	-3.19257	2.75309	0.36585
239.999	5.18417	-3.07852	2.74984	0.33584
243.988	5.14906	-2.84028	2.74878	0.37953
247.983	5.14796	-2.67818	2.72909	0.18722
252.008	5.08064	-2.54694	2.68737	0.20828
256.048	5.07439	-2.50215	2.67957	0.13118
259.988	5.03671	-2.42056	2.63712	-0.26146
263.987	4.99312	-2.29207	2.58895	-0.12888
267.983	4.93590	-2.27739	2.53377	-0.31778
271.992	5.06855	-2.27522	2.57937	-0.38529
275.992	5.21545	-2.22901	2.62561	-0.32878
279.990	5.31807	-2.18805	2.69941	-0.49428
283.984	5.23256	-2.16977	2.74237	-0.48836
287.990	5.15160	-2.13698	2.72387	-0.52088
291.987	5.12326	-2.12378	2.80711	-0.43790
295.984	5.03243	-2.17866	2.82504	-0.38307
299.992	5.08835	-2.20449	2.92720	-0.26105
303.992	5.02610	-2.29949	2.95839	0.27429
307.985	5.09734	-2.34816	2.94426	0.40016
311.995	5.11898	-2.46942	3.02898	0.34995
315.985	5.01864	-2.75699	3.05281	0.29360
319.989	5.03354	-2.83706	3.04578	0.28553
323.986	5.10354	-2.88332	3.05828	0.31612
327.989	5.06415	-3.06878	3.01247	0.36701
331.985	4.97556	-3.20566	3.02814	0.35720
335.987	5.04075	-3.26601	3.03744	0.28144
340.000	5.12856	-3.47689	3.05840	0.27359
343.999	5.07264	-3.52442	3.03764	0.18693
347.992	5.18655	-3.64672	2.99616	0.11894
351.986	5.23061	-3.63710	3.05887	0.10323
355.985	5.29979	-3.61883	3.00707	-0.02494
359.988	5.35913	-3.68181	3.04303	-0.02869
363.984	5.36673	-3.55934	3.12947	-0.05496
367.986	5.40225	-3.47374	3.04199	-0.04529
371.984	5.34245	-3.47371	2.95344	0.00104
375.992	5.36314	-3.40873	2.26234	-0.03347
379.985	5.29787	-3.32233	2.56565	0.01983
383.991	5.29551	-3.29196	2.52267	0.06693
387.992	5.32264	-3.15878	2.68725	0.09497
391.987	5.33175	-3.49788	2.24889	0.03635
396.038	5.35328	-3.45368	2.43360	0.06879
399.996	5.32503	-3.68837	2.27924	0.11695
403.985	5.34836	-3.72161	2.27739	0.17172
407.986	5.35593	-3.82375	2.25295	0.21935
411.993	5.33600	-3.78783	2.20124	0.22343
415.991	5.34562	-3.87792	2.13143	0.21450
419.990	5.36523	-3.88181	2.18007	0.23967
424.015	5.40149	-3.97825	2.17765	0.28188
428.002	5.43691	-3.99958	2.25437	0.25056
431.987	5.41172	-3.98202	2.52495	0.29487
435.980	5.51280	-3.95447	2.42002	0.36485
439.987	5.51791	-3.97369	2.55564	0.41200
443.988	5.53050	-3.96937	2.62142	0.42732
447.984	5.50461	-3.92858	2.76294	0.41695
451.982	5.48772	-3.91284	2.91881	0.39634
455.986	5.46128	-3.91454	3.06739	0.43941
459.987	5.49037	-3.88497	3.08770	0.45251
463.992	5.48622	-3.89596	3.18346	0.44567
467.986	5.54098	-3.82834	3.18952	0.38942
471.982	5.45673	-3.85138	3.24857	0.41418
475.986	5.41873	-3.85288	3.26844	0.39559
479.986	5.44758	-3.78702	3.31477	0.33547
483.989	5.44994	-3.39102	3.33829	0.26608
487.980	5.42095	-3.27284	3.35357	0.17858
491.990	5.40338	-3.06285	3.25258	0.06617
495.986	5.48071	-3.25417	3.27061	0.15017
499.981	5.48258	-2.75775	3.25258	0.09805
503.986	5.49278	-2.73281	3.23613	0.03868
507.987	5.48086	-2.66637	3.18823	-0.05210
511.984	5.56927	-2.81617	3.20600	-0.05691
515.980	5.50887	-2.89675	3.21636	-0.05811
519.980	5.55676	-2.59209	3.17383	-0.04493
524.015	5.52829	-2.41124	3.22567	-0.07515
527.986	5.48105	-2.30722	3.25726	-0.12248
531.988	5.46832	-2.24049	3.27150	-0.05024
535.982	5.51826	-2.26184	3.19954	-0.05066
540.015	5.56561	-2.08814	2.40739	-0.08101
543.999	5.71871	-2.08181	2.87995	-0.09542
547.997	5.59518	-2.16872	2.62070	-0.09460
551.986	5.55221	-2.71237	2.60849	-0.06727
555.990	5.51641	-2.46545	2.48284	-0.03734
559.985	5.51836	-2.51902	2.51893	-0.01112
563.982	5.55470	-2.92970	2.62259	-0.01107
567.981	5.64245	-2.98155	2.66999	0.01368
571.984	5.54218	-2.93968	2.74410	0.10623
575.983	5.53813	-3.01441	2.77728	0.13924
579.986	5.60696	-2.92108	2.80620	0.13482
583.982	5.66985	-3.01078	3.03868	0.14328
587.981	5.52578	-2.91867	3.04838	0.16821
591.993	5.53353	-2.92606	3.17297	0.15601
595.982	5.51137	-2.80174	3.21763	0.16593
599.981	5.48755	-2.63124	3.27388	0.11980
603.983	5.40523	-2.45347	3.27836	0.13166
607.983	5.41135	-2.50549	3.28528	0.11811
612.006	5.35173	-2.49374	3.33337	0.08484
615.984	5.34073	-2.47669	3.23272	0.01030
619.980	5.29430	-2.54731	3.31014	-0.07447
623.986	5.30296	-2.61772	3.32825	-0.08519
627.978	5.26206	-2.74656	3.29270	-0.13706
631.983	5.24292	-2.96744	3.22054	-0.21088
635.985	5.23017	-3.01355	3.22742	-0.34582
639.986	5.24735	-3.28225	3.19375	-0.28209
643.985	5.23851	-3.03850	3.18004	-0.39803
647.978	5.32978	-3.33327	3.14412	-0.43067
651.982	5.36489	-3.31992	3.08953	-0.47054
655.980	5.35249	-3.26453	2.96262	-0.51147
660.001	5.42414	-3.27038	3.04496	-0.51666
663.978	5.39431	-3.22785	3.04016	-0.54255
667.984	5.39229	-3.15242	2.85608	-0.55576
671.987	5.32191	-3.00849	2.83625	-0.57203
675.982	5.45602	-3.04411	2.87772	-0.52868
679.978	5.64122	-3.01388	2.86148	-0.42610
683.981	5.55804	-2.89503	2.82912	-0.27184
687.983	5.64216	-2.84187	2.84489	-0.17266
691.980	5.56133	-2.73920	2.87792	-0.03517
695.979	5.55765	-2.77954	2.93594	0.00484
699.982	5.52674	-2.77073	3.02905	0.06362
703.981	5.53134	-3.19068	3.09047	0.07766
707.979	5.52224	-3.33973	3.09357	0.12739
711.981	5.57085	-3.11006	3.08985	0.15193
715.983	5.57616	-3.19433	3.16503	0.21563
719.981	5.54115	-3.19250	3.15986	0.25561
723.978	5.56121	-3.14088	3.17638	0.29344
727.979	5.56101	-3.27715	3.17302	0.31584
731.986	5.53753	-3.36242	3.13474	0.31640
735.983	5.55666	-3.33094	3.16837	0.24469
739.984	5.55000	-3.36085	3.11646	0.29343
743.978	5.57537	-3.35575	3.03244	0.29157
747.981	5.60342	-3.31684	2.99235	0.28959
751.982	5.58395	-3.30522	2.90030	0.27651
755.984	5.54946	-3.32178	2.92198	0.26941
759.982	5.51900	-3.38062	2.90015	0.28450
763.977	5.49219	-3.34668	2.86841	0.24061
767.984	5.48484	-3.32976	2.82251	0.24121
771.976	5.47439	-3.29308	2.77317	0.19789
775.978	5.25414	-2.28740	2.61768	0.26608
779.978	2.77012	1.39816	0.45939	3.60246
783.983	1.38840	3.32918	-1.61059	5.69066
787.977	-0.45182	3.56392	-1.81364	5.85235
791.976	-0.88366	4.02281	-2.17217	5.96653
795.874	-1.49121	4.36850	-2.44393	6.80530
799.856	-1.65537	4.76494	-2.66419	6.61092
803.862	-1.51908	4.82909	-2.54908	6.71702
807.856	-1.34914	4.81334	-2.18560	6.80139
811.851	-1.34611	4.43212	-2.14719	6.83923
815.878	-1.48220	4.58078	-2.34701	6.62426
819.852	-1.70229	4.81425	-2.46679	6.68183
823.848	-1.53051	4.78511	-2.53610	6.80182
827.853	-1.71853	4.92535	-2.81543	7.15656
831.895	-1.59755	4.96399	-2.92559	7.51795
835.867	-1.50239	4.97986	-2.86806	7.70561
839.859	-1.41727	4.82617	-2.97475	7.91047
843.859	-1.33046	4.65732	-2.55671	6.83230
847.854	-1.17681	4.49387	-2.22503	6.70488
851.850	-1.40490	4.68301	-2.23752	6.62810
855.856	-1.41869	4.74597	-2.26628	6.48603
859.853	-1.43830	4.81967	-2.37939	6.60547
863.887	-1.57939	4.80364	-2.17968	6.53889
867.870	-1.64067	4.66481	-2.18672	6.51432
871.853	-1.81367	4.80403	-2.22570	6.53886
875.851	-1.88353	4.76199	-2.29897	6.66591
879.849	-1.82150	4.83644	-2.16701	6.59518
883.857	-1.67668	4.84285	-2.21509	6.74761
887.862	-1.75595	4.95831	-2.44863	7.03496
891.860	-1.75230	5.01541	-2.41103	6.94803
895.848	-1.77444	5.09165	-2.64866	7.17130
899.853	-1.87160	5.14272	-2.55792	7.09340
903.857	-1.88896	5.09975	-2.67868	7.15358
907.852	-1.88881	5.24598	-2.82566	7.14374
911.846	-1.76170	5.27480	-2.98299	7.17649
915.853	-1.69021	5.32425	-3.08473	7.26484
919.854	-1.57307	5.36314	-2.83073	7.25723
923.855	-1.53213	5.36396	-2.99121	7.29388
927.859	-1.50254	5.37878	-2.98581	7.26484
931.869	-1.49262	5.34775	-3.00220	7.17556
935.905	-1.35479	5.25647	-3.07209	7.17588
939.854	-1.26383	5.14086	-2.88859	7.06219
943.852	-1.13003	4.96223	-2.90557	7.09552
947.848	-1.18473	4.94919	-2.86405	7.13442
951.854	-1.14389	4.84001	-2.84378	7.30565
955.856	-1.09971	4.62400	-2.72850	7.34496
959.851	-1.09373	4.52701	-2.65278	7.62922
963.847	-1.14099	4.49699	-2.59861	7.58084
967.856	-1.08162	4.34821	-2.76131	7.99482
971.861	-1.07180	4.23188	-2.83893	8.06934
975.852	-1.03431	4.17569	-2.83237	7.86657
979.850	-0.99377	4.13835	-3.10359	7.98737
983.852	-0.91664	4.05061	-3.02781	8.00669
987.854	-0.63394	3.94498	-2.87324	7.96503
991.849	-0.85376	4.00477	-3.06231	8.05838
995.853	-0.87627	4.03031	-3.11871	8.02130
999.854	-0.85667	4.07033	-3.08696	7.99596
1003.858	-0.89078	4.17416	-3.15642	8.03420
1007.849	-0.95269	4.36547	-3.18618	7.95455
1011.852	-0.93013	4.42987	-3.11806	7.76741
1015.856	-1.09155	4.52321	-2.94418	7.69408
1019.849	-0.97174	4.58750	-2.69577	7.27444
1023.853	-1.28747	4.69794	-2.68536	7.13096
1027.845	-1.61285	4.84140	-2.71565	7.19097
1031.853	-1.41648	4.86159	-2.61756	7.19325
1035.850	-1.44326	4.99856	-2.68836	6.96548
1039.855	-1.50638	5.13095	-2.73410	6.97082
1043.850	-1.52238	5.27717	-2.62529	6.91853
1047.845	-1.52320	5.30916	-2.46042	6.97187
1051.855	-1.41705	5.28774	-2.41152	6.94727
1055.850	-1.31414	5.36035	-2.33809	6.89481
1059.848	-1.58475	5.41499	-2.56862	6.85233
1063.848	-1.37962	5.39874	-2.77144	6.89351
1067.903	-1.30389	5.38076	-2.78280	6.89325
1071.857	-1.19150	5.30412	-2.83937	6.88445
1075.850	-1.03580	5.19198	-2.88839	6.87235
1079.845	-1.04079	5.10540	-2.69938	6.82563
1083.846	-1.33187	5.01233	-2.57605	6.73948
1087.851	-1.50782	4.84164	-2.49273	6.62797
1091.849	-1.71476	4.83676	-2.12652	6.48421
1095.851	-1.83841	4.80066	-2.35405	6.56560
1099.855	-1.75446	4.75113	-2.17648	6.49792
1103.851	-1.72287	4.69299	-2.04681	6.44332
1107.852	-1.48587	4.55646	-1.93120	6.38745
1111.846	-1.37367	4.33637	-1.88712	6.41111
1115.856	-1.25942	4.19644	-1.95165	6.53305
1119.851	-1.31166	4.05838	-2.12783	6.58962
1123.852	-1.30233	4.00720	-1.97297	6.49159
1127.848	-1.41045	3.96736	-2.05192	6.58400
1131.848	-1.11923	3.92100	-2.19318	6.71322
1135.857	-1.07857	3.81594	-2.12089	6.82021
1139.849	-1.01906	3.67221	-2.10984	6.77217
1143.849	-0.94609	3.64522	-1.93348	6.57060
1147.848	-0.63908	3.59827	-1.37248	6.82513
1151.842	1.74858	3.87636	-0.36526	7.08007
1155.853	4.10540	4.58404	2.54799	8.28538
1159.851	4.37268	5.71468	3.68221	9.15859
1163.848	7.14367	5.62601	4.88153	9.21536
1167.842	9.15113	6.34047	7.19361	8.88278
1171.851	9.35097	6.69530	7.48519	8.99821
1175.861	10.35479	7.58152	8.86342	8.95912
1179.851	10.78858	7.91089	10.00947	8.40953
1183.866	10.99965	8.14357	10.22053	8.62999
1187.851	11.02354	8.20512	10.33670	8.30963
1191.846	10.81473	8.26881	10.19983	8.38471
1195.850	10.96990	8.11971	10.14788	8.50854
1199.844	11.06495	7.85083	10.17057	8.47581
1203.846	11.24418	7.21366	10.25307	8.49424
1207.850	11.45364	7.55769	10.31129	8.43324
1211.850	11.53896	7.59682	10.35923	8.42290
1215.846	11.48094	7.76813	10.41177	8.40283
1219.848	11.47281	7.54388	10.51943	8.33965
1223.853	11.53062	7.44724	10.50409	8.38530
1227.850	11.60306	7.49690	10.50148	8.39977
1231.843	11.70768	7.38047	10.52269	8.42935
1235.844	11.70499	7.29248	10.47199	8.45211
1239.849	11.73340	7.33760	10.45574	8.48159
1243.849	11.69697	7.42899	10.34850	8.52729
1247.848	11.43641	7.90061	10.08760	8.79423
1251.848	11.38335	7.83454	9.97811	8.78475
1255.860	11.25643	8.15111	10.03828	8.69353
1259.867	11.18403	8.15171	9.91019	8.81239
1263.853	11.10364	8.01870	9.89713	8.83207
1267.842	11.02158	8.10582	9.92454	8.75980
1271.846	11.07052	8.32114	9.94748	8.71235
1275.848	11.06485	8.18121	9.93174	8.77410
1279.845	10.94689	8.15684	9.86023	8.88489
1283.847	10.91801	8.18239	9.73019	8.90634
1287.843	10.88735	8.17151	9.74087	8.85332
1291.845	10.95760	8.14646	9.72182	8.82383
1295.849	11.05601	8.12255	9.72980	8.76911
1299.845	11.01395	8.11117	9.71712	8.74707
1303.864	10.96241	8.08911	9.69530	8.77962
1307.848	10.93356	8.09003	9.69236	8.75460
1311.846	11.02179	8.01252	9.67148	8.76769
1315.841	10.94763	8.00135	9.65589	8.82365
1319.847	10.88173	8.00508	9.61773	8.86687
1323.849	10.95669	8.04127	9.70398	8.79375
1327.842	10.88764	8.07653	9.83884	8.73095
1331.842	10.89346	8.02533	9.90872	8.78769
1335.842	10.83881	8.07566	9.88328	8.89675
1339.874	10.79955	8.14405	9.96073	8.83605
1343.866	10.77988	8.20001	9.96234	8.85708
1347.851	10.77869	8.27431	9.89419	8.86736
1351.847	10.82739	8.17437	9.92562	8.78753
1355.843	10.82138	8.21377	9.91137	8.83127
1359.845	10.92543	8.04371	9.81850	8.87603
1363.853	11.02634	7.75130	9.79498	8.87964
1367.842	11.03784	7.62558	9.75777	8.92244
1371.849	11.11263	7.48034	9.74044	8.94479
1375.843	11.32223	7.40945	9.66984	8.95301
1379.847	11.39320	7.37402	9.65025	8.92947
1383.851	11.44282	7.32998	9.62753	8.94410
1387.866	11.57374	7.25543	9.58253	8.97051
1391.844	11.63559	7.18875	9.57785	8.97673
1395.844	11.66827	7.12749	9.54916	9.03410
1399.849	11.65287	7.21202	9.57150	8.98227
1403.847	11.69107	7.18532	9.60946	8.92730
1407.843	11.39687	7.32148	9.66856	8.88337
1411.845	11.20037	7.43116	9.56267	8.89762
1415.843	9.93468	6.87382	9.09609	8.77726
1419.845	9.25241	3.23415	7.96298	6.51948
1423.839	7.59393	2.96426	7.86089	4.01855
1427.863	6.68154	-0.27476	6.64586	2.39988
1431.847	6.78483	-0.82646	6.49516	0.41216
1435.844	6.28214	-2.14335	4.44124	0.17236
1439.842	4.15470	-3.98579	4.34347	-1.22777
1443.837	4.50710	-3.70436	3.29970	-1.87890
1447.846	4.14962	-3.94482	2.12530	-1.91411
1451.848	4.14870	-3.91150	1.91546	-1.39311
1455.840	4.27030	-3.80206	2.15296	-1.25216
1459.840	4.26783	-3.79523	2.41564	-1.40245
1463.840	4.34297	-3.75837	2.26306	-1.47670
1467.854	4.23863	-3.90701	2.26685	-1.86207
1471.843	4.20662	-3.98723	2.20783	-2.09659
1475.844	4.07678	-4.12044	2.08277	-2.23595
1479.845	3.98104	-4.30621	2.03920	-2.32353
1483.842	4.06088	-4.46195	2.01424	-2.28610
1487.844	4.03475	-4.36947	1.97996	-2.28184
1491.842	4.12675	-4.33437	1.99094	-2.28187
1495.839	4.06589	-4.29512	2.04572	-2.22650
1499.846	4.21642	-4.27673	2.06768	-2.25223
1503.840	4.20849	-4.36415	2.05353	-2.23205
1507.837	4.19030	-4.33806	2.02926	-2.24894
1511.849	4.29258	-4.25783	2.03972	-2.03940
1515.845	4.29224	-4.20581	2.07331	-1.95061
1519.840	4.39945	-4.08853	2.16042	-1.87855
1523.838	4.46756	-3.94924	2.17338	-1.75924
1527.840	4.43695	-3.89065	2.21447	-1.65418
1531.846	4.46448	-3.71605	2.28390	-1.59743
1535.841	4.45668	-3.73072	2.27605	-1.54025
1539.850	4.42955	-3.68960	2.28098	-1.48077
1543.859	4.40942	-3.56420	2.29416	-1.42925
1547.905	4.34351	-3.53877	2.28217	-1.40345
1551.847	4.29448	-3.51633	2.27193	-1.33485
1555.839	4.15759	-3.46112	2.28001	-1.30372
1559.844	4.03544	-3.43236	2.26767	-1.26884
1563.841	3.82568	-3.43352	2.24212	-1.21632
1567.842	3.72684	-3.46914	2.21613	-1.22473
1571.844	3.54094	-3.54037	2.18986	-1.25426
1575.838	3.64850	-3.50584	2.11695	-1.21369
1579.841	3.52269	-3.54348	2.09199	-1.27810
1583.840	3.68928	-3.63934	2.03325	-1.30249
1587.841	3.68614	-3.74630	1.94109	-1.37144
1591.838	3.67111	-3.81908	1.90532	-1.41307
1595.844	3.62259	-3.96984	1.88229	-1.53979
1599.839	3.65791	-4.01393	1.86370	-1.58927
1603.839	3.73552	-4.08264	1.81575	-1.65977
1607.840	3.76599	-4.22048	1.78069	-1.68536
1611.869	3.81019	-4.28460	1.78838	-1.72920
1615.843	3.84859	-4.30647	1.76748	-1.75624
1619.844	3.88174	-4.37153	1.79951	-1.79981
1623.838	3.90027	-4.38969	1.81632	-1.81783
1627.837	3.98173	-4.43343	1.81515	-1.84284
1631.839	4.05557	-4.48045	1.81476	-1.86222
1635.846	4.06019	-4.49105	1.88440	-1.87371
1639.846	4.20659	-4.48431	1.81986	-1.86202
1643.839	4.21358	-4.46141	1.87143	-1.86499
1647.712	4.38233	-4.46700	1.94890	-1.84851
1651.717	4.37673	-4.42517	1.88026	-1.84464
1655.717	4.39595	-4.36552	1.83675	-1.82945
1659.714	4.51073	-4.30617	1.76986	-1.81805
1663.715	4.54296	-4.25755	1.90106	-1.83315
1667.715	4.55292	-4.20894	1.97587	-1.81799
1671.712	4.52518	-4.12692	2.06661	-1.78209
1675.715	4.50653	-4.02070	2.19522	-1.72037
1679.722	4.47084	-3.88869	2.36787	-1.67476
1683.774	4.40315	-3.80075	2.48723	-1.63252
1687.710	4.36881	-3.67882	2.47975	-1.54112
1691.712	4.37226	-3.72443	2.57499	-1.47336
1695.716	4.29147	-3.75293	2.63155	-1.43454
1699.714	4.28384	-3.86761	2.63135	-1.39602
1703.711	4.25255	-3.90033	2.62704	-1.37588
1707.715	4.22812	-4.05432	2.65240	-1.32303
1711.712	4.21190	-3.99741	2.67957	-1.26812
1715.716	4.21264	-4.15738	2.54479	-1.22682
1719.712	4.20625	-4.29251	2.53248	-1.22299
1723.719	4.26198	-4.39452	2.37644	-1.21400
1727.714	4.37248	-4.13396	2.20203	-1.22315
1731.712	4.36760	-4.12743	2.23306	-1.31324
1735.738	4.44987	-4.25795	2.10367	-1.33219
1739.715	4.54054	-4.22741	2.00361	-1.37700
1743.710	4.52621	-4.28948	1.98933	-1.40997
1747.713	4.69492	-4.16612	1.93834	-1.53461
1751.713	4.72455	-4.15550	1.95639	-1.61172
1755.712	4.72581	-4.19838	1.99310	-1.61267
1759.708	4.67882	-4.15782	1.98098	-1.55492
1763.721	4.69721	-4.27200	2.00016	-1.58765
1767.718	4.70660	-4.37133	1.91070	-1.64998
1771.715	4.54777	-4.51785	2.01181	-1.67300
1775.705	4.38331	-4.65086	2.06711	-1.66389
1779.714	4.37776	-4.59701	2.08518	-1.69310
1783.711	4.30828	-4.70965	2.16434	-1.73558
1787.712	4.26277	-4.82168	2.32080	-1.48867
1791.714	4.25186	-4.63849	2.38516	-1.36256
1795.712	4.17208	-4.76574	2.49488	-1.30833
1799.710	4.02490	-4.85672	2.54343	-1.27062
1803.724	4.07713	-4.88643	2.55131	-1.17585
1807.716	3.99341	-4.90234	2.52671	-1.33016
1811.708	3.87939	-4.93778	2.55477	-1.25433
1815.727	3.79144	-4.89516	2.53077	-1.20435
1819.720	3.87492	-4.84204	2.50231	-1.17142
1823.716	3.83865	-4.78870	2.56154	-1.47047
1827.711	3.86294	-4.76852	2.52205	-1.53420
1831.709	3.89953	-4.66950	2.45847	-1.48626
1835.710	3.86956	-4.63829	2.36698	-1.55395
1839.715	3.88648	-4.45946	2.36487	-1.89557
1843.715	4.04522	-4.41788	2.31445	-1.89227
1847.714	4.42819	-4.37913	2.25461	-1.89547
1851.713	4.39565	-4.22273	2.21930	-1.92213
1855.712	4.43372	-4.22517	2.22909	-1.95250
1859.708	4.46243	-4.12996	2.20852	-1.96555
1863.712	4.58523	-4.11372	2.18163	-1.90286
1867.714	4.54291	-4.08902	2.18379	-1.92654
1871.715	4.53107	-4.07814	2.21700	-1.88986
1875.708	4.45402	-4.05454	2.24517	-1.90201
1879.708	4.38936	-4.04118	2.27196	-1.91001
1883.732	4.33202	-4.07596	2.32627	-1.87134
1887.716	4.15396	-4.15749	2.31847	-1.81979
1891.729	3.92121	-4.21412	2.32094	-1.83174
1895.706	3.76512	-4.17256	2.33120	-1.88619
1899.709	3.56917	-3.99599	1.55968	-1.42947
1903.708	1.16721	-1.29875	-0.27488	-1.03146
1907.714	-1.50026	0.98325	-2.46902	0.70125
1911.708	-1.82782	0.64885	-3.23880	2.67262
1915.706	-2.22176	0.67064	-5.54068	3.03209
1919.713	-2.78882	0.84651	-4.13137	3.12523
1923.717	-2.87787	0.85419	-4.28372	3.17295
1927.707	-2.69562	0.78106	-4.13740	3.24517
1931.742	-2.81130	0.83873	-3.40598	3.24851
1935.707	-2.43828	0.67846	-3.68861	3.23350
1939.716	-2.34000	0.36793	-3.88097	3.17550
1943.710	-2.58895	0.39010	-4.30554	3.16777
1947.708	-2.89005	0.59285	-4.68671	3.19809
1951.706	-2.90641	0.61460	-5.23748	3.24592
1955.710	-3.12440	0.74003	-5.12819	3.29367
1959.711	-2.96099	0.67921	-5.04809	3.29968
1963.714	-3.00896	0.63256	-5.22525	3.30939
1967.710	-3.18064	0.68954	-5.28613	3.34318
1971.711	-3.42487	0.79207	-5.36932	3.43131
1975.717	-3.31630	0.70767	-5.42073	3.51913
1979.712	-3.37433	0.79345	-5.01536	3.25536
1983.707	-3.58769	0.94144	-4.95110	3.28284
1987.709	-3.59315	0.96015	-4.87690	3.25932
1991.714	-3.80478	1.03741	-4.52513	3.29035
1995.707	-4.04478	1.15872	-4.43083	3.36040
1999.707	-4.08352	1.22722	-4.14670	3.19282
2003.705	-3.77419	1.23320	-3.84088	3.04742
2007.710	-3.73445	1.29755	-3.83366	3.01479
2011.708	-3.79025	1.30383	-3.73497	2.94436
2015.708	-3.73861	1.25965	-3.85871	2.93990
2019.708	-3.65440	1.35752	-3.79072	2.94513
2023.725	-3.59392	1.40812	-3.81096	2.97721
2027.708	-3.54252	1.54985	-3.79920	2.92601
2031.707	-3.60536	1.72997	-3.81780	2.88480
2035.705	-3.51112	1.80416	-3.83952	2.78800
2039.730	-3.41931	1.87701	-3.85175	2.67031
2043.709	-3.33463	1.87537	-3.98585	2.52957
2047.706	-3.30720	1.85071	-3.95565	2.56981
2051.711	-3.27376	1.78465	-3.99702	2.69893
2055.713	-3.27707	1.85233	-4.06557	2.66734
2059.706	-3.27922	1.85723	-4.13475	2.74968
2063.709	-3.35805	1.84494	-4.20770	2.93746
2067.708	-3.40887	1.81989	-4.28656	3.12965
2071.704	-3.40870	1.60700	-4.32723	3.23988
2075.714	-3.43452	1.47264	-4.50256	3.36933
2079.710	-3.45930	1.42273	-4.60007	3.43788
2083.706	-3.57404	1.39388	-4.62870	3.38130
2087.707	-3.66323	1.30251	-4.66516	3.43377
2091.706	-3.81120	1.25642	-4.77283	3.42951
2095.710	-3.85901	1.17819	-4.79391	3.47108
2099.711	-3.84607	1.20058	-4.89597	3.50080
2103.714	-3.84651	1.15905	-4.90050	3.52369
2107.708	-3.85291	1.15867	-4.95598	3.49693
2111.711	-3.77021	1.14267	-4.96056	3.48304
2115.709	-3.77310	1.21295	-4.96457	3.45887
2119.707	-3.86912	1.29440	-4.97492	3.45894
2123.706	-3.67961	1.42135	-5.00280	3.45843
2127.711	-3.51312	1.43576	-5.06730	3.51133
2131.706	-2.86665	1.37488	-5.09332	3.54847
2135.705	-3.00477	1.48879	-5.00891	3.41153
2139.715	-3.06449	1.56721	-4.99049	3.25018
2143.709	-2.82902	1.59199	-5.00534	3.13190
2147.704	-3.05506	1.67976	-5.04767	3.19213
2151.708	-2.88846	1.71158	-5.04262	3.13853
2155.704	-2.99195	1.69838	-5.03078	3.11401
2159.708	-2.77619	1.68345	-4.63099	2.91407
2163.707	-1.56293	0.58623	-2.21494	2.93430
2167.704	1.16304	0.94908	0.17553	3.30364
2171.705	3.92581	0.63147	2.86928	3.07322
2175.708	6.00018	0.47478	4.80798	3.00712
2179.721	6.99746	0.19850	5.37768	2.89733
2183.710	8.14446	0.33058	6.57629	2.23235
2187.699	8.31657	0.15181	6.78865	1.57986
2191.707	8.17648	0.40087	6.61722	1.87223
2195.707	7.78097	0.46101	6.18949	2.09059
2199.701	6.98487	0.48512	5.86887	2.59948
2203.708	7.26747	0.42034	6.09989	2.08795
2207.705	7.77137	0.44733	6.37878	2.11767
2211.707	7.61029	0.49818	6.63365	2.20052
2215.701	8.00231	0.45855	6.69040	2.05890
2219.703	8.18818	0.49759	6.83560	2.03093
2223.730	8.16987	0.56116	6.79885	1.94224
2227.766	8.07621	0.54356	6.68036	1.83210
2231.704	8.42547	0.62954	6.57485	1.92365
2235.705	8.63930	0.61531	6.50807	1.97237
2239.736	8.69110	0.58295	6.54320	1.96643
2243.706	8.76457	0.56877	6.57487	1.92042
2247.712	8.82255	0.57005	6.59072	1.90811
2251.705	8.79882	0.56903	6.54854	1.86509
2255.701	8.89344	0.52571	6.48117	1.83387
2259.702	8.93365	0.54816	6.39302	1.82086
2263.712	8.94297	0.56908	6.31218	1.83166
2267.703	9.00561	0.55892	6.28913	1.89120
2271.721	9.03808	0.57394	6.22714	1.77925
2275.703	9.10760	0.60341	6.20178	1.79663
2279.708	9.10076	0.64003	6.12902	1.82107
2283.701	9.15294	0.69437	6.12077	1.85034
2287.701	9.16395	0.77180	6.10490	1.95058
2291.702	9.14455	0.89275	6.26566	1.83866
2295.705	9.13722	0.93471	6.19336	1.91773
2299.708	9.13102	0.86918	6.07776	1.91467
2303.702	9.13533	0.47955	6.05871	1.97999
2307.705	9.15110	0.30945	6.30296	1.93865
2311.703	9.13386	-0.31190	6.26954	1.86258
2315.706	9.08728	-0.53804	6.29749	1.94348
2319.703	9.06076	-0.73871	6.45451	1.95307
2323.698	9.01050	-0.74571	6.44116	1.98338
2327.704	8.93321	-0.76226	6.64498	1.94096
2331.706	8.82112	-0.78405	6.64841	1.92388
2335.700	8.79106	-0.80579	6.57634	1.93541
2339.706	8.90020	-0.73791	6.41440	1.91053
2343.701	9.00428	-0.76925	6.56392	1.63712
2347.706	8.92038	-0.81476	6.69219	1.60791
2351.703	8.79855	-0.82215	6.64574	1.56167
2355.704	8.82717	-0.80898	6.64251	1.54676
2359.734	8.77293	-0.74469	6.58780	1.72694
2363.704	8.94251	-0.64632	6.62451	1.48881
2367.698	8.96901	-0.63437	6.57676	1.60849
2371.707	9.02476	-0.62664	6.48460	1.81802
2375.700	9.02607	-0.61815	6.42555	1.82642
2379.704	9.05061	-0.64539	6.35028	1.70298
2383.758	9.02784	-0.68639	6.38778	1.70912
2387.720	8.99881	-0.72183	6.40253	1.78035
2391.705	9.00973	-0.74298	6.52133	1.87274
2395.703	8.97494	-0.27861	6.57472	1.97657
2399.707	8.93360	0.08732	6.52625	1.94589
2403.701	8.83958	-0.12913	6.62363	1.99548
2407.703	8.82434	0.26124	6.70227	1.96159
2411.699	8.80001	0.12843	6.66129	1.96604
2415.706	8.82991	0.42594	6.70232	1.92293
2419.706	8.89172	0.39138	6.72587	1.89410
2423.707	8.87137	0.40085	6.73121	1.83395
2427.722	8.90546	0.33768	6.74714	1.79543
2431.709	8.87828	0.43686	6.74782	1.75295
2435.697	8.99743	0.42221	6.66513	1.69868
2439.701	9.14281	0.34626	6.63548	1.64117
2443.699	9.08370	0.29931	6.63889	1.58520
2447.700	9.09756	0.27459	6.60196	1.54802
2451.706	9.16245	0.27363	6.61173	1.58196
2455.700	9.22878	0.25469	6.61944	1.53892
2459.695	9.22463	0.25619	6.62620	1.55823
2463.706	9.08730	0.17949	6.67831	1.56840
2467.703	9.03006	0.16634	6.71250	1.65361
2471.702	9.02300	0.21766	6.80653	1.67573
2475.694	8.82759	0.18460	6.79643	1.68875
2479.702	8.83941	0.16247	6.86466	1.68344
2483.705	8.83646	0.17082	6.88565	1.69640
2487.697	8.72617	0.15262	6.86988	1.79798
2491.703	8.50544	0.16050	6.85459	1.79698
2496.161	8.54692	0.18634	6.83501	1.82052
2499.614	8.52195	0.16037	6.81984	1.81942
2503.578	8.46689	0.11028	6.83032	1.86510
2507.574	8.45014	0.17368	6.78490	1.83565
2511.576	8.49452	0.13094	6.76721	1.80078
2515.571	8.49663	0.08914	6.70479	1.76886
2519.584	8.62603	0.05068	6.71219	1.79374
2523.581	8.81787	-0.13265	6.67214	1.87032
2527.577	8.90955	-0.05150	6.67941	1.91925
2531.572	8.98273	-0.17728	6.68727	1.91434
2535.580	9.05988	-0.46312	6.72056	1.91394
2539.577	9.17048	-0.29185	6.73772	1.94789
2543.573	9.15974	-0.54386	6.72996	1.94405
2547.574	9.08379	-0.58449	6.71214	1.95807
2551.578	9.09171	-0.61497	6.74550	1.98934
2555.578	9.07973	-0.74944	6.73108	2.00650
2559.577	9.01752	-0.82505	6.77785	1.94250
2563.611	8.98457	-0.71020	6.76811	1.93970
2567.576	8.82516	-0.59740	6.76699	1.96993
2571.574	8.90536	-0.63110	6.75720	1.94773
2575.574	8.87568	-0.47550	6.77795	1.94262
2579.571	8.87273	-0.41043	6.77793	1.97856
2583.573	8.82177	-0.18308	6.84385	2.09368
2587.579	8.91708	-0.11194	6.89030	2.13097
2591.572	9.05475	-0.10213	6.84781	2.15767
2595.576	9.08234	0.02054	6.89837	2.30794
2599.570	9.11682	0.08072	6.86153	2.35172
2603.585	9.15040	0.20625	6.79887	2.41939
2607.572	9.27192	0.26072	6.75375	2.48083
2611.574	9.34809	0.39816	6.76158	2.53256
2615.575	9.38421	0.50557	6.76895	2.61366
2619.578	9.35324	0.58924	6.76040	2.64203
2623.575	9.21851	0.49771	6.78478	2.69350
2627.569	9.03858	0.43183	6.80325	2.64458
2631.619	8.87990	0.41945	6.72115	2.47639
2635.574	9.00673	0.42252	6.75194	2.44165
2639.596	8.87639	0.45343	6.73578	2.35674
2643.580	8.99031	0.49776	6.72237	2.23263
2647.571	8.84925	0.38001	6.59148	2.39590
2651.578	8.69363	0.41480	6.54430	2.40342
2655.576	8.60203	0.37449	6.60245	2.23189
2659.573	8.49437	0.41689	6.53240	2.25604
2663.592	8.47374	0.35266	6.39521	2.30037
2667.582	8.47787	0.34627	6.36121	2.37167
2671.574	8.46876	0.35402	6.32456	2.43067
2675.570	8.45774	0.30785	6.31630	2.41510
2679.574	8.47570	0.28402	6.29163	2.58724
2683.572	8.54627	0.19639	6.34074	2.48426
2687.572	8.53326	0.04320	6.39621	2.49767
2691.573	8.65945	-0.03808	6.38633	2.45222
2695.569	8.60380	-0.10865	6.45956	2.40701
2699.578	8.71770	-0.30150	6.51888	2.40056
2703.627	8.83633	-0.46217	6.58104	2.26916
2707.569	8.79203	-0.44190	6.63267	2.15301
2711.569	8.81726	-0.49898	6.73045	2.02696
2715.567	8.88893	-0.34012	6.74763	1.93964
2719.572	8.93806	-0.43249	6.82148	1.92071
2723.571	8.95561	-0.25550	6.85197	1.83043
2727.572	8.94065	-0.12978	6.83846	1.90051
2731.570	8.90189	-0.18159	6.83797	1.92597
2735.570	8.88506	0.52894	6.85454	2.01390
2739.574	8.90117	0.97252	5.53004	2.77303
2743.573	9.38716	1.18495	6.89583	3.26415
2747.568	9.03495	0.64491	2.95431	1.38956
2751.571	NaN	NaN	3.86096	1.89717
2755.574	NaN	NaN	-5.78374	9.26412
2759.572	NaN	NaN	NaN	NaN
2763.562	NaN	NaN	NaN	NaN
2767.574	NaN	NaN	NaN	NaN
2771.574	NaN	NaN	NaN	NaN
2775.675	NaN	NaN	NaN	NaN
2779.583	NaN	NaN	NaN	NaN
2783.589	NaN	NaN	NaN	NaN
2787.576	NaN	NaN	NaN	NaN
2791.573	NaN	NaN	NaN	NaN
2795.572	NaN	NaN	NaN	NaN
2799.573	NaN	NaN	NaN	NaN
2803.573	NaN	NaN	NaN	NaN
2807.598	NaN	NaN	NaN	NaN
2811.584	NaN	NaN	NaN	NaN
2815.576	NaN	NaN	NaN	NaN
2819.578	NaN	NaN	NaN	NaN
2823.607	NaN	NaN	NaN	NaN
2827.571	NaN	NaN	NaN	NaN
2831.569	NaN	NaN	NaN	NaN
2835.592	NaN	NaN	11.88014	-4.42795
2839.573	NaN	NaN	15.24771	-2.01965
2843.595	3.57112	7.85214	14.84610	-1.98222
2847.572	7.44262	0.17499	5.54744	-3.91614
2851.572	7.28984	-3.24979	5.43147	-4.14097
2855.576	9.21050	-3.49137	9.57604	-3.32005
2859.567	8.09985	-4.86354	11.79130	-2.78657
2863.575	7.47587	-5.40512	11.96227	-3.44965
2867.569	8.08058	-5.28628	11.50081	-3.52601
2871.564	10.04980	-5.01248	11.35525	-3.54815
2875.569	14.33448	-4.30681	11.60620	-3.53317
2879.570	13.59129	-4.46056	10.92093	-3.53356
2883.563	13.35750	-4.19064	10.38778	-3.54017
2887.573	12.51631	-4.58043	10.50021	-3.65934
2891.567	12.20579	-4.71513	10.09443	-3.79361
2895.574	12.20726	-4.92999	10.03258	-3.82050
2899.566	12.02314	-5.10826	10.07699	-3.85028
2903.598	11.96313	-5.14146	10.15884	-3.85017
2907.575	11.91063	-5.11585	10.10273	-3.90106
2911.573	12.01884	-5.03199	9.92396	-4.09183
2915.569	12.08900	-5.11559	9.83836	-4.28453
2919.565	11.96463	-5.33547	9.76512	-4.29616
2923.565	11.97671	-5.46810	9.77855	-4.30461
2927.573	11.88794	-5.58222	9.73294	-4.37294
2931.568	11.85488	-5.57928	9.69947	-4.45702
2935.567	11.81670	-5.59800	9.70806	-4.45688
2939.569	11.74863	-5.61220	9.70254	-4.46265
2943.568	11.73200	-5.61745	9.65913	-4.47238
2947.570	11.74811	-5.61356	9.67574	-4.48343
2951.571	11.81722	-5.57325	9.71941	-4.47686
2955.568	11.80416	-5.59228	9.65220	-4.51982
2959.567	11.76557	-5.58125	9.66142	-4.51026
2963.568	11.72765	-5.56862	9.75191	-4.47694
2967.565	11.72672	-5.52532	9.82371	-4.40586
2971.567	11.73852	-5.46861	9.84915	-4.39968
2975.574	11.75512	-5.40357	9.90272	-4.37701
2979.570	11.84168	-5.35764	9.95596	-4.33048
2983.565	11.82670	-5.35381	9.89757	-4.34328
2987.574	11.84774	-5.32982	9.91934	-4.31133
2991.563	11.75091	-5.34845	9.92658	-4.30069
2995.568	11.80186	-5.32668	9.94515	-4.33372
2999.570	11.88779	-5.30002	9.91563	-4.30344
3003.567	11.93002	-5.28244	9.95432	-4.27738
3007.562	11.95819	-5.25343	9.95064	-4.25936
3011.570	11.93655	-5.22634	9.87100	-4.27827
3015.571	11.98545	-5.23634	9.78423	-4.26443
3019.569	11.93695	-5.28089	9.71982	-4.27709
3023.564	11.93237	-5.32523	9.67931	-4.27359
3027.565	11.87142	-5.40635	9.58400	-4.26239
3031.569	11.75643	-5.44058	9.51672	-4.25769
3035.567	11.83070	-5.43350	9.53996	-4.25221
3039.600	11.86155	-5.58357	9.50144	-4.23287
3043.575	11.89642	-5.57232	9.46585	-4.24065
3047.572	11.87684	-5.62050	9.37919	-4.26538
3051.567	11.85827	-5.69286	9.31402	-4.30493
3055.564	11.94995	-5.69878	9.28419	-4.34341
3059.570	11.99336	-5.69739	9.27453	-4.35845
3063.570	12.14532	-5.69512	9.22799	-4.36102
3067.563	12.12589	-5.70157	9.22388	-4.44627
3071.564	12.11977	-5.69672	9.23821	-4.42151
3075.562	12.19697	-5.64195	9.37970	-4.10836
3079.568	12.61001	-4.39133	10.47789	-3.05229
3083.564	14.51853	-1.81538	11.73281	-1.76045
3087.571	15.30337	0.15330	12.72787	0.03595
3091.564	15.86564	0.61480	13.29391	0.32717
3095.566	16.36964	1.12367	13.78445	0.65114
3099.562	16.55628	1.83638	14.08019	0.75972
3103.573	16.56316	1.67757	14.28189	0.61787
3107.591	16.35952	0.79097	14.27699	0.32657
3111.570	15.50061	0.03269	13.97454	-0.26313
3115.564	15.18742	0.02556	13.75854	-0.18956
3119.560	15.16426	0.26397	13.91161	-0.16129
3123.562	16.14071	1.16525	13.94518	0.30780
3127.563	16.41076	1.36147	14.06929	0.32834
3131.567	16.41274	1.36424	14.05885	0.38526
3135.561	16.48979	1.54472	14.12035	0.37224
3139.562	16.44405	1.62431	14.16326	0.51465
3143.570	16.36327	1.55278	14.16725	0.50595
3147.590	16.25921	1.38813	14.11411	0.56086
3151.574	16.18993	1.44419	14.12107	0.45504
3155.563	16.22558	1.40239	14.13475	0.52790
3159.561	16.16456	1.30903	14.22652	0.53847
3163.568	16.18558	1.30842	14.24869	0.52833
3167.563	16.25022	1.28667	14.28781	0.46559
3171.565	16.17191	1.15216	14.27602	0.37972
3175.565	16.13940	1.08117	14.27993	0.34060
3179.581	16.10170	0.94441	14.24590	0.23492
3183.569	16.04198	0.90613	14.12588	0.16873
3187.565	16.00874	0.86397	14.02057	0.13716
3191.567	15.97340	0.87007	13.98300	0.11210
3195.562	16.00209	0.83372	13.97288	0.18459
3199.571	15.95842	0.80127	14.02566	0.22184
3203.560	15.95348	0.78643	13.92893	0.28141
3207.563	15.94995	0.86370	13.86680	0.36568
3211.563	15.87880	0.90436	13.82876	0.58211
3215.566	15.90428	0.93746	13.77783	0.58062
3219.557	15.91636	0.95357	13.75125	0.60883
3223.567	15.90118	1.00561	13.74512	0.60571
3227.572	15.89678	0.96989	13.77520	0.63970
3231.567	15.93765	0.97808	13.81104	0.68292
3235.561	15.99305	1.01344	13.86196	0.71367
3239.566	15.96064	0.98821	13.86734	0.65347
3243.569	15.99168	1.04640	13.86055	0.63064
3247.656	16.02094	1.06062	13.85115	0.61103
3251.563	16.03474	1.04801	13.86296	0.64769
3255.557	16.06632	1.02538	13.86750	0.57579
3259.560	16.04982	1.02179	13.83608	0.57937
3263.560	16.07705	1.05979	13.83835	0.57891
3267.571	16.11343	1.08645	13.83039	0.56534
3271.558	16.11095	1.13495	13.80203	0.59731
3275.561	16.09948	1.14175	13.76825	0.57968
3279.560	16.06916	1.14553	13.73177	0.59650
3283.566	16.06360	1.17633	13.69895	0.62545
3287.561	16.05793	1.17571	13.67311	0.68836
3291.558	16.04368	1.18585	13.64621	0.71435
3295.565	16.04077	1.18911	13.61759	0.71613
3299.566	16.04269	1.21245	13.60264	0.70818
3303.560	16.07902	1.22122	13.60754	0.71386
3307.558	16.06261	1.14809	13.56777	0.69365
3311.569	16.06525	1.16827	13.53172	0.67286
3315.567	16.05677	1.15732	13.51759	0.65120
3319.559	16.06130	1.19221	13.47026	0.67545
3323.562	16.06928	1.16887	13.43747	0.66432
3327.556	16.09118	1.23318	13.43270	0.64517
3331.564	16.08566	1.20560	13.37498	0.64359
3335.563	16.08692	1.20724	13.36504	0.61446
3339.565	16.08051	1.18210	13.37312	0.60059
3343.561	16.04611	1.16239	13.40725	0.60229
3347.558	15.94394	1.05673	13.24917	0.74837
3351.572	15.40037	1.05700	11.61951	2.07067
3355.441	11.66703	1.18107	9.59411	3.54655
3359.439	9.43924	2.83747	6.39974	5.33999
3363.436	5.57018	4.94466	4.43761	7.01164
3367.443	5.62707	5.26096	2.07626	8.22143
3371.439	3.67432	5.39880	0.55004	8.88881
3375.434	2.90975	5.40186	-0.21986	9.53159
3379.512	2.50043	5.53821	-0.91366	9.76772
3383.445	2.20007	5.97738	-2.19618	10.25082
3387.437	1.78615	6.27001	-2.14159	10.49112
3391.434	1.56057	6.16578	-1.76871	10.52694
3395.437	1.91236	6.42846	-0.80414	9.76542
3399.443	1.71315	6.75179	-0.50210	9.90009
3403.441	1.25934	6.80324	-0.55049	9.25527
3407.433	0.93698	6.87186	-0.87724	9.61614
3411.436	0.22539	7.12756	-1.13710	9.63779
3415.434	0.50669	7.14975	-1.68357	9.81076
3419.439	0.14091	7.41812	-1.67144	9.59306
3423.434	0.82349	7.41953	-1.88712	9.51366
3427.450	0.90567	7.33357	-1.93021	9.26710
3431.441	1.04647	7.27228	-1.98070	9.20711
3435.437	0.35955	7.36773	-2.12726	9.30019
3439.442	0.28270	7.41790	-2.20446	9.30296
3443.431	0.17514	7.39672	-2.21412	9.28322
3447.439	0.39653	7.31468	-1.98360	9.38184
3451.437	0.18598	7.26699	-2.17014	9.30247
3455.439	0.43691	7.17154	-2.09152	9.41165
3459.432	0.69389	7.15892	-2.18253	9.27107
3463.434	0.22304	7.40349	-2.16533	9.20155
3467.429	0.56376	7.13493	-2.04175	9.32436
3471.438	0.32980	7.13342	-2.12622	9.34935
3475.431	0.39541	7.12135	-2.07460	9.35432
3479.434	0.31595	7.33263	-2.16833	9.50404
3483.433	0.19564	7.28510	-2.12255	9.47949
3487.434	0.41318	7.03072	-2.09038	9.48401
3491.430	0.30367	7.00610	-2.17765	9.43472
3495.431	0.12066	7.22180	-2.17487	9.45361
3499.434	0.26304	7.13989	-2.23152	9.41397
3503.436	0.20072	6.99673	-2.23179	9.42129
3507.470	0.23008	6.79553	-2.22463	9.43349
3511.444	0.16154	6.66986	-2.32667	9.40587
3516.061	-0.08202	6.95471	-2.31641	9.34263
3519.447	-0.16218	6.76755	-2.39715	9.43881
3523.438	-0.13419	6.76930	-2.53711	9.41358
3527.432	-0.10682	6.68054	-2.77824	9.51067
3531.430	-0.15208	6.72099	-2.46957	9.50442
3535.435	-0.04162	6.72824	-2.59658	9.54043
3539.439	-0.13059	6.68102	-2.61900	9.59768
3543.433	-0.05199	6.65201	-2.49476	9.65813
3547.430	0.00171	6.59957	-2.47900	9.68750
3551.472	-0.06393	6.68275	-2.44576	9.74951
3555.436	0.22653	6.61259	-2.33517	9.79498
3559.430	0.25842	6.55237	-2.17393	9.84685
3563.445	0.49699	6.49350	-2.21663	9.88330
3567.437	0.24058	6.50646	-2.42446	9.95164
3571.435	0.30578	6.60965	-2.41913	9.93776
3575.434	0.38209	6.51793	-2.54516	10.01740
3579.435	0.33305	6.52952	-2.48738	10.06877
3583.470	0.39514	6.52947	-2.47663	10.08122
3587.440	0.31014	6.62880	-2.39562	10.09495
3591.435	0.18410	6.60186	-2.54264	10.18609
3595.427	0.22110	6.55121	-2.40159	10.12143
3599.435	0.23693	6.56928	-2.40558	10.10667
3603.432	0.13655	6.65704	-2.29599	10.05847
3607.440	0.18685	6.56586	-2.32446	10.11784
3611.430	3.19766	4.46605	1.01551	7.85727
3615.446	5.12457	2.89411	2.79062	6.06580
3619.435	5.62161	1.12842	5.45351	4.08892
3623.436	7.81434	-1.86923	5.81253	2.39964
3627.432	7.89086	-2.26494	5.89824	0.45536
3631.428	7.93223	-2.42383	5.83923	-0.92797
3635.429	8.01090	-2.73971	5.77367	-0.71055
3639.457	8.02190	-2.70578	5.71129	-0.13320
3643.425	8.03484	-2.47723	5.44731	1.03209
3647.442	7.98668	-2.33805	5.24954	1.77812
3651.437	7.98530	-2.23978	5.35657	1.87146
3655.494	7.98264	-2.19127	5.52610	1.08209
3659.428	7.97936	-2.31949	5.60929	1.16616
3663.425	8.03713	-2.43490	5.63446	1.06511
3667.427	8.09090	-2.51426	5.73259	1.07617
3671.429	8.13534	-2.60116	5.67946	1.05044
3675.433	8.17140	-2.68428	5.73502	0.99233
3679.428	8.22409	-2.66906	5.74539	0.92253
3683.427	8.30971	-2.83831	5.80445	0.99238
3687.430	8.33962	-2.89092	5.86148	0.90388
3691.435	8.44407	-3.04377	5.93492	0.87142
3695.426	8.51217	-3.02584	5.99816	0.83030
3699.431	8.55954	-3.02433	5.94509	0.55766
3703.430	8.62134	-3.09102	5.94919	0.44623
3707.430	8.65038	-3.13475	5.66157	0.51930
3711.427	8.70422	-3.17203	5.48078	0.40543
3715.431	8.72015	-3.20500	5.54108	0.34292
3719.434	8.75810	-3.19342	5.64115	0.34271
3723.434	8.81814	-3.21297	5.77418	0.30970
3727.432	8.84438	-3.21558	5.65904	0.30776
3731.436	8.84995	-3.17410	5.65329	0.24251
3735.453	8.87161	-3.13834	5.68440	0.25530
3739.467	8.89453	-3.09132	5.63363	0.22313
3743.433	8.91866	-3.10030	5.66482	0.28251
3747.431	8.95072	-3.07180	5.52278	0.33917
3751.429	8.98336	-3.03102	5.57815	0.36439
3755.426	8.98397	-2.96956	5.60799	0.41694
3759.427	9.04263	-2.95877	5.67499	0.43089
3763.435	9.04655	-2.91037	5.67030	0.46853
3767.428	9.04009	-2.91637	5.60826	0.52399
3771.428	9.03384	-2.84713	5.61232	0.53339
3775.433	9.07748	-2.81202	5.58951	0.57203
3779.433	9.03752	-2.80612	5.55924	0.60152
3783.429	9.04096	-2.81473	5.55954	0.65140
3787.431	9.04323	-2.77373	5.54528	0.67251
3791.434	9.01556	-2.75497	5.52069	0.68460
3795.430	8.97746	-2.76121	5.53230	0.71023
3799.431	8.96886	-2.79771	5.53188	0.68414
3803.430	8.91386	-2.81880	5.50877	0.70648
3807.427	8.91774	-2.85193	5.50323	0.71205
3811.433	8.88579	-2.88022	5.48809	0.68803
3815.432	8.87404	-2.92596	5.48457	0.65707
3819.424	8.85950	-2.99263	5.47198	0.63878
3823.429	8.85553	-3.03482	5.43843	0.69926
3827.433	8.80270	-3.03986	5.40398	0.68661
3831.426	8.79901	-3.11423	5.38690	0.66806
3835.431	8.74389	-3.15588	5.39367	0.67322
3839.438	8.73490	-3.25326	5.35979	0.67133
3843.435	8.69491	-3.29863	5.31922	0.73888
3847.445	8.64837	-3.36546	5.27924	0.74482
3851.426	8.63619	-3.39666	5.25872	0.70942
3855.487	8.63085	-3.36295	5.19342	0.72980
3859.431	8.60849	-3.35477	5.18948	0.76039
3863.441	8.58333	-3.38910	5.14185	0.78079
3867.426	8.57454	-3.35084	5.14961	0.73121
