time (ms)	lx (deg)	ly (deg)	rx (deg)	ry (deg)
0.000	16.98741	0.47850	15.36354	-1.07762
3.997	16.95147	0.41729	15.37605	-1.23309
8.003	16.90379	0.37520	15.39984	-1.00460
12.002	16.92944	0.20489	15.38380	-1.20802
15.989	16.78151	0.25922	15.36354	-1.23798
20.005	16.83234	0.09364	15.36701	-1.32968
24.000	16.77511	0.20090	15.34060	-1.13473
28.002	16.40541	-0.24786	14.23720	-0.85612
32.429	14.61601	-0.12414	12.84069	-0.97524
36.005	11.72079	-1.24205	9.85604	-0.29163
39.998	9.58767	-1.38711	8.63386	0.51959
43.990	8.42712	-2.33139	7.49693	1.03374
48.001	7.41473	-2.79551	5.33185	1.13871
51.995	6.60722	-3.29967	4.94309	0.81766
56.000	6.08355	-3.18697	4.16477	0.94751
59.990	5.94028	-2.46688	3.39730	0.94609
63.994	6.11849	-2.77173	3.47745	1.16084
68.013	6.80507	-2.57808	4.28787	1.21977
72.004	6.59985	-2.44697	4.59016	1.10052
75.995	6.81292	-2.57802	4.49751	1.07711
80.010	6.56703	-2.56520	4.14599	1.18422
83.994	6.49754	-2.62417	3.81918	1.12139
88.010	6.40351	-2.35659	3.63619	0.92627
91.998	6.37555	-2.40925	3.61896	0.82584
95.997	6.39398	-2.19977	3.62852	0.70213
100.081	6.40403	-2.22419	3.70504	0.76257
104.015	6.38579	-2.05988	3.68162	0.53602
108.021	6.42653	-1.83685	3.78116	0.62746
111.999	6.38119	-1.93142	3.62887	0.53639
115.993	6.41631	-1.83758	3.61972	0.49791
120.001	6.42165	-2.00240	3.55488	0.56746
123.999	6.41305	-1.90345	3.57300	0.59274
127.997	6.44652	-1.91120	3.64308	0.69930
131.988	6.45517	-2.06587	3.65594	0.68753
136.008	6.47250	-2.10813	3.66953	0.62911
139.996	6.46767	-2.45281	3.64469	0.64239
144.007	6.46113	-2.83590	3.71928	0.56076
147.993	6.46882	-1.91096	3.74703	0.55115
152.002	6.48000	-2.18932	3.74708	0.84318
156.002	6.45579	-2.53917	3.79613	0.70044
159.998	6.43226	-3.02230	3.78659	0.48215
163.992	6.29987	-2.18242	3.75484	0.76910
168.026	6.21414	-2.66730	3.77313	0.74521
172.008	6.23386	-2.63106	3.66098	0.26844
176.006	5.96500	-1.93141	3.66090	0.76568
180.000	6.11047	-2.73330	3.44518	0.27912
183.991	6.18627	-2.19310	3.66469	0.21341
187.997	6.29227	-2.51615	3.55070	0.16786
191.999	6.11353	-1.78999	3.46600	0.11204
195.998	6.40366	-2.78079	3.43321	0.41259
200.007	6.35917	-1.78351	3.52497	0.32880
203.985	6.20933	-2.51502	3.39963	0.27152
208.000	6.26794	-2.60890	3.59837	0.19418
212.004	5.94791	-2.25466	3.55085	0.05427
215.994	5.97209	-2.11866	3.45764	0.29576
219.997	5.97394	-2.45393	3.47252	0.18342
223.997	6.29367	-2.00892	3.48024	0.24059
227.992	6.06973	-2.38231	3.54749	0.24702
231.990	5.97970	-1.99689	3.39898	0.28791
236.015	5.88844	-2.55400	2.55812	0.40763
239.991	5.60126	-2.19976	2.49731	0.43605
244.003	5.58469	-1.88092	2.54757	0.43226
247.992	5.29240	-2.03919	2.89527	0.57113
251.992	5.48720	-1.81257	2.98015	0.52374
255.993	5.64031	-2.17964	2.52069	0.43882
259.998	5.84618	-2.60105	2.71676	0.52304
264.006	5.71716	-2.74071	2.64549	0.33910
267.998	5.46753	-2.36180	2.89245	0.54329
271.994	5.51954	-2.15220	2.71491	0.32399
276.010	5.46927	-2.75493	2.65703	0.20742
280.001	5.41482	-2.05867	2.75113	0.35989
283.992	5.42291	-1.92797	2.71503	0.11348
287.997	5.28640	-2.08649	2.89376	0.36116
291.988	5.25286	-2.00700	2.83558	0.07247
296.004	5.35227	-2.34553	2.82197	-0.10081
299.990	5.66491	-2.52991	2.89760	0.33506
304.046	5.39458	-2.45005	2.85173	0.16616
307.998	5.21442	-2.41337	2.79471	0.15118
311.997	5.32956	-2.42038	2.85130	0.36423
316.012	5.50119	-2.44547	2.79434	0.25110
320.002	5.62807	-2.46938	2.68227	0.32529
323.990	5.49249	-2.49962	2.70711	0.12843
328.012	5.19524	-2.49641	3.00027	0.19616
331.995	5.55000	-2.49099	2.92109	0.18665
335.989	5.74849	-2.57951	2.88903	0.32342
339.996	5.60925	-2.35106	2.79941	0.26197
343.995	5.49706	-2.03655	2.45872	0.20228
347.996	5.52428	-2.45611	2.88183	0.13024
351.989	5.56249	-2.39251	2.95260	0.13944
355.990	5.45216	-2.34648	2.77498	0.31797
360.003	5.67386	-2.25126	2.94676	0.35579
363.994	5.57018	-1.92754	2.90039	0.19025
367.889	5.50825	-1.88406	2.71798	0.30741
371.926	5.46143	-2.28025	2.98312	0.20783
375.879	5.45890	-2.26880	3.07822	0.30535
379.859	5.57102	-2.36092	3.04959	0.28134
383.884	5.56143	-1.88955	3.03083	0.28353
387.863	5.53938	-2.65582	3.00418	0.23016
391.871	5.47137	-2.53089	2.78112	0.19627
395.880	5.28992	-2.20117	2.75821	0.20715
399.869	5.57692	-2.14522	2.94604	0.27906
403.878	5.56480	-2.75646	2.79330	0.16512
407.875	5.60394	-2.61335	2.83764	0.04388
411.867	5.68988	-2.31603	2.86145	-0.11305
415.867	5.57326	-1.97575	2.66157	0.12712
419.865	5.30350	-3.03014	2.74073	0.08422
423.874	5.54272	-2.82390	2.63787	-0.01177
427.867	5.47830	-1.91373	2.59814	0.07226
431.864	5.63267	-1.79562	2.74972	-0.34274
435.863	5.68421	-1.89273	2.75482	-0.07948
439.890	5.59209	-2.89649	2.64084	0.01189
443.867	5.55563	-2.85677	2.66394	-0.04910
447.864	5.38745	-2.61205	2.71696	0.00129
451.882	5.05181	-2.46861	2.73553	0.02383
455.868	5.28357	-2.36135	2.62608	0.07469
459.864	5.64518	-1.97353	2.75908	0.18116
463.864	5.40936	-2.14425	2.77411	0.10660
467.866	5.23886	-2.43007	2.82504	0.18855
471.861	5.38705	-2.56892	2.90483	0.07095
475.878	5.36036	-2.85321	2.88366	0.12171
479.866	5.18377	-2.87757	2.89388	0.06874
483.866	5.08062	-2.64949	2.78141	0.18292
487.873	4.87769	-2.30982	2.67043	0.39405
491.872	4.34754	-1.69489	1.54237	0.46602
495.863	4.91124	-1.55677	0.76496	0.88895
499.874	5.97180	-1.06855	-1.18239	4.32545
503.866	-1.55551	1.87150	0.67151	5.20376
507.874	NaN	NaN	NaN	NaN
511.870	NaN	NaN	NaN	NaN
515.859	NaN	NaN	NaN	NaN
519.864	NaN	NaN	NaN	NaN
523.874	NaN	NaN	NaN	NaN
527.859	NaN	NaN	NaN	NaN
531.904	NaN	NaN	NaN	NaN
535.917	NaN	NaN	NaN	NaN
539.870	NaN	NaN	NaN	NaN
543.871	NaN	NaN	NaN	NaN
547.873	NaN	NaN	NaN	NaN
551.878	NaN	NaN	NaN	NaN
555.871	NaN	NaN	NaN	NaN
559.865	NaN	NaN	NaN	NaN
563.863	NaN	NaN	NaN	NaN
567.869	NaN	NaN	NaN	NaN
571.868	NaN	NaN	NaN	NaN
575.868	2.28162	12.19701	NaN	NaN
579.861	NaN	NaN	3.94950	3.45122
583.858	2.32417	-3.00281	3.85745	1.71174
587.875	3.29481	-2.88906	2.10919	2.83062
591.867	6.57019	-2.83164	-3.73875	2.33536
595.862	6.85461	-2.44472	3.44399	1.17675
599.861	6.15674	-2.14796	3.46466	1.04940
603.864	5.74880	-2.55108	1.49845	0.84529
607.877	5.86671	-2.64251	1.68830	0.73401
611.867	5.14064	-2.45397	3.46204	0.97732
615.862	5.03706	-2.57441	2.79003	0.70189
619.860	5.46010	-2.45979	2.25402	0.73771
623.868	5.30808	-2.45845	2.97084	0.67277
627.864	4.78816	-2.18727	3.65645	0.70095
631.858	4.95640	-2.17901	2.10525	0.73108
635.871	5.05767	-2.20655	2.24768	0.77805
639.862	4.80869	-2.18829	2.21816	0.75453
643.894	4.97470	-2.33642	1.91454	0.68743
647.874	4.73599	-2.33040	2.32109	0.56508
651.856	4.52343	-2.30263	2.37674	0.48905
655.869	4.73646	-2.46221	2.29840	0.50491
659.863	4.73473	-2.39443	2.36287	0.32770
663.860	4.65666	-2.36506	2.38239	0.30565
667.859	4.53901	-2.50893	2.29396	0.27123
671.866	4.49615	-2.56197	2.22411	0.36088
675.865	4.34916	-2.66464	2.28611	0.21477
679.866	4.37754	-2.70106	2.26267	0.23327
683.868	4.42015	-2.72318	2.31832	0.15439
687.871	4.64559	-2.77748	2.39004	0.08546
691.864	4.67167	-2.75670	2.36579	0.05698
695.859	4.63925	-2.74056	2.34575	0.03625
699.873	4.65922	-2.65733	2.33623	0.05832
703.862	4.69674	-2.45919	2.29322	0.06222
707.870	4.66041	-2.56652	2.20262	0.11973
711.870	4.75115	-2.47896	2.21239	0.14034
715.861	4.73125	-2.53361	2.26990	0.02535
719.867	4.72628	-2.61736	2.29178	-0.01428
723.887	4.78839	-2.65953	2.32436	-0.02960
727.858	4.84938	-3.04654	2.39331	-0.06247
731.859	4.78055	-2.74992	2.39143	-0.07878
735.866	4.76677	-2.84827	2.39554	-0.10045
739.863	4.77757	-2.81880	2.37981	-0.07379
743.868	4.73406	-2.93306	2.39542	-0.09320
747.855	4.71094	-2.90806	2.38197	-0.11470
751.882	4.72438	-2.98096	2.38147	-0.09479
755.860	4.72615	-3.00881	2.35831	-0.09308
759.872	4.79504	-3.09158	2.32275	-0.07779
763.856	4.81803	-3.07577	2.28876	-0.06935
767.874	4.78567	-3.11164	2.26626	-0.08169
771.857	4.77052	-3.06862	2.20262	-0.08492
775.859	4.80421	-3.11013	2.17727	-0.09985
779.860	4.77377	-3.12179	2.13437	-0.11219
783.920	4.72066	-3.10764	2.11663	-0.08552
787.863	4.67091	-3.17542	2.10848	-0.07884
791.856	4.66921	-3.20656	2.11358	-0.01703
795.862	4.66886	-3.27549	2.10461	-0.02689
799.854	4.71642	-3.28470	2.11485	-0.08378
803.865	4.61435	-3.29411	2.11608	-0.07224
807.859	4.64056	-3.31048	2.12295	-0.06720
811.852	4.60942	-3.37053	2.13418	-0.07216
815.873	4.56673	-3.39673	2.18250	-0.04117
819.868	4.55919	-3.40535	2.21893	0.00246
823.876	4.59322	-3.41869	2.34205	0.01452
827.864	4.77907	-3.37450	2.75093	0.11445
831.860	4.79901	-3.30104	2.71037	0.11184
835.856	4.87655	-3.17810	2.66169	0.05749
839.869	4.77000	-2.99652	2.37974	-0.05542
843.859	4.77545	-2.82481	2.35553	-0.13430
847.888	4.82257	-3.02382	2.39426	-0.16505
851.860	4.90395	-2.93176	2.56676	-0.21344
855.858	5.10677	-2.87061	2.54942	-0.17002
859.858	5.15108	-2.72931	2.84551	-0.23865
863.856	5.23032	-2.71912	2.89893	-0.22628
867.866	5.24132	-2.70517	2.71191	-0.20614
871.864	5.35743	-2.66892	2.59723	-0.29366
875.863	5.28839	-2.64949	2.51004	-0.40547
879.862	5.51622	-2.59022	2.58482	-0.46526
883.894	5.72416	-2.55127	2.71647	-0.43466
887.857	5.17651	-2.49688	2.80956	-0.44292
891.870	4.83612	-2.27068	3.02180	-0.40157
895.856	5.13309	-2.23325	2.98069	-0.29126
899.862	5.05462	-2.15992	2.96294	-0.26727
903.865	5.14833	-2.12740	2.97928	-0.25242
907.890	5.24865	-2.00128	2.66419	-0.05255
911.852	5.21210	-1.95399	2.63277	-0.02708
915.865	5.20472	-1.93028	2.57352	0.01020
919.864	5.00881	-1.90896	2.58985	-0.00079
923.857	5.13011	-1.91755	2.73754	0.17109
927.853	5.18523	-1.96648	3.95251	0.06830
931.858	5.43585	-2.03684	4.36407	0.06588
935.862	5.42894	-2.27573	2.53471	0.14714
939.853	5.31854	-2.23393	2.76542	0.11618
943.853	5.24870	-2.22921	3.05541	0.11680
947.859	4.82013	-2.02104	2.80506	0.17269
951.873	5.02078	-2.17855	2.63125	0.13608
955.859	5.13370	-2.19042	2.79028	0.13229
959.859	5.03693	-2.22800	2.80261	0.14666
963.856	5.28697	-2.37236	2.61441	0.08544
967.858	5.40555	-2.29919	2.44762	0.11341
971.854	5.40083	-2.37676	2.45815	0.15924
975.860	5.49905	-2.40387	2.46112	0.23011
979.860	5.37854	-2.39979	2.58606	0.27899
983.862	5.37015	-2.36119	2.69344	0.29088
987.858	5.33731	-2.37888	2.59839	0.30709
991.860	5.45417	-2.42117	2.68839	0.31429
995.880	5.46723	-2.43181	3.10819	0.32507
999.861	5.13011	-2.43911	2.96547	0.32265
1003.858	5.22153	-2.45565	2.46335	0.25188
1007.851	5.36297	-2.38199	3.11366	0.36719
1011.864	5.27336	-2.06456	2.62925	0.62028
1015.853	4.59275	0.32960	3.03106	2.64264
1019.867	4.00223	3.93943	2.40744	5.74707
1023.852	4.99551	4.75376	1.42409	8.58320
1027.858	1.02384	7.94240	-0.71709	11.86842
1031.865	1.01625	8.12390	-0.24827	11.84025
1035.879	0.68436	9.62700	-0.64650	12.51095
1039.859	-0.71759	11.35506	-1.38463	14.40713
1043.855	-2.35972	11.92309	-2.22465	14.76634
1047.857	-1.84508	11.70731	-1.69133	13.42764
1051.858	-0.35124	10.17077	-2.06889	13.71638
1055.860	-0.35131	10.28207	-2.32030	14.43379
1059.855	-0.63868	10.60608	-2.25196	14.75802
1063.856	-1.33917	11.19330	-2.28777	14.79667
1067.856	-1.37719	11.60689	-2.17561	14.69812
1071.870	-1.13873	10.96802	-2.13361	14.48002
1075.853	-1.87795	11.53386	-2.21454	14.54904
1079.858	-1.73604	11.44589	-2.19135	14.55824
1083.859	-2.00081	11.43181	-2.16607	14.51857
1087.855	-1.78815	11.43480	-2.25888	14.62766
1091.848	-1.74811	10.82102	NaN	NaN
1095.853	-2.08193	11.17199	NaN	NaN
1099.858	-1.96640	10.82391	NaN	NaN
1103.853	-1.95988	10.81329	NaN	NaN
1107.855	-1.20457	9.82680	NaN	NaN
1111.858	0.08637	8.27737	-1.96866	14.51993
1115.882	-1.05803	10.14280	-1.91283	14.57409
1119.858	-1.96903	10.74766	-1.76398	14.62003
1123.853	-0.88312	10.14406	-1.69812	14.59807
1127.868	-0.56322	10.27506	-2.21700	14.64222
1131.861	-0.10900	9.93433	-2.67014	14.65438
1135.855	-0.32394	9.99378	-2.79877	14.73044
1139.854	-0.69977	10.13624	-2.75445	14.73754
1143.852	-1.04094	10.25733	-2.67818	14.74507
1147.871	-0.48376	10.05515	NaN	NaN
1151.856	-0.12947	8.93437	-2.54024	14.79485
1155.855	-0.60717	10.04476	-1.99146	14.74402
1159.858	1.62681	6.43920	-2.23494	14.84048
1163.857	-0.51667	9.91321	NaN	NaN
1167.852	0.53458	9.56656	-2.36695	14.91967
1171.856	-0.34816	10.08408	-2.17556	14.88413
1175.873	-0.80553	10.11040	-2.07668	14.84391
1179.852	-0.46934	9.96285	-2.79533	14.87488
1183.858	2.29669	6.27154	-3.14568	14.90328
1187.854	0.32714	9.33738	NaN	NaN
1191.861	-2.08535	11.92229	NaN	NaN
1195.842	-1.63668	11.81434	NaN	NaN
1199.856	-1.71950	11.96540	-2.61622	15.00098
1203.871	-1.05751	10.52483	NaN	NaN
1207.853	-1.22722	10.04226	NaN	NaN
1211.852	-1.40046	10.57396	-1.93018	14.91482
1215.868	-1.17733	10.38191	-2.24547	15.02430
1219.733	-1.28440	10.57053	-1.89411	15.05986
1223.725	-1.68954	11.12347	-1.99870	15.04936
1227.728	-1.74861	10.89001	-1.80087	14.61714
1231.733	-1.68756	10.74516	-2.03620	14.84478
1235.727	-1.54108	10.73136	-2.13217	14.94292
1239.730	-1.63115	10.84193	-2.31966	14.98805
1243.723	-1.68873	10.90472	NaN	NaN
1247.745	-1.64451	11.00278	NaN	NaN
1251.719	-1.67152	11.08576	NaN	NaN
1255.726	-1.61409	11.13051	NaN	NaN
1259.730	-1.74060	11.24471	NaN	NaN
1263.717	-1.69059	11.09991	NaN	NaN
1267.744	-1.62378	10.98743	NaN	NaN
1271.725	-1.67181	11.03140	-2.21306	14.96890
1275.728	-1.58810	10.88472	-1.37508	14.36756
1279.732	0.05815	8.78364	-0.94872	12.64256
1283.731	0.13076	6.68372	1.30169	9.54497
1287.731	2.78696	2.49487	1.77127	6.02792
1291.723	3.07627	1.93309	2.21888	4.50417
1295.732	3.87233	-0.98882	3.03648	2.21179
1299.728	3.92774	-1.82812	2.84489	0.64808
1303.735	4.38867	-2.86514	2.68224	0.04389
1307.739	4.14248	-3.71683	3.04878	0.03094
1311.730	4.36047	-3.97277	2.98633	-0.23776
1315.731	4.54932	-3.53956	3.07714	-0.01578
1319.727	4.94856	-2.47916	3.14407	0.32602
1323.750	5.41984	-2.23131	3.26787	0.50661
1327.728	5.22123	-2.73313	3.32286	0.39356
1331.742	4.96430	-3.17324	3.22200	-0.32312
1335.729	5.08099	-3.22666	3.17069	-0.83667
1339.718	5.23462	-3.33058	3.15600	-0.98874
1343.729	5.38282	-3.43044	3.11900	-0.90208
1347.732	5.34831	-3.38808	3.20441	-1.00972
1351.727	5.44594	-3.21994	3.19014	-0.95229
1355.719	5.39015	-3.29806	3.21960	-0.98964
1359.736	5.37640	-3.14614	3.26121	-0.97976
1363.730	5.31610	-3.18244	3.30539	-0.95072
1367.723	5.20750	-3.19624	3.35679	-0.94100
1371.727	5.16844	-3.20826	3.39050	-0.85181
1375.746	5.11295	-3.14929	3.44327	-0.75068
1379.731	5.08412	-3.05960	3.37905	-0.84153
1383.729	5.05654	-3.01558	3.36287	-0.81890
1387.728	4.98268	-3.00224	3.33874	-0.75716
1391.737	4.92459	-2.92307	3.30477	-0.72361
1395.729	4.89752	-2.86839	3.29733	-0.71476
1399.728	4.88417	-2.86477	3.31336	-0.64710
1403.722	4.87057	-2.83642	3.18576	-0.59092
1407.726	4.85519	-2.82397	3.21443	-0.56523
1411.724	4.93509	-2.84072	3.18294	-0.53188
1415.729	4.99913	-2.91659	3.16097	-0.48976
1419.722	5.08089	-2.99251	3.19979	-0.46149
1423.726	5.25114	-3.03718	3.20887	-0.39254
1427.718	5.15135	-3.01794	3.22317	-0.34877
1431.729	5.22478	-3.07854	3.29082	-0.32818
1435.722	5.28812	-3.12957	3.37445	-0.26728
1439.725	5.33118	-3.15881	3.38318	-0.25542
1443.719	5.45172	-3.23144	3.46540	-0.17452
1447.728	5.45968	-3.22783	3.47881	-0.16832
1451.746	5.52718	-3.28350	3.52089	-0.19172
1455.731	5.49475	-3.36515	3.57533	-0.18625
1459.760	5.47471	-3.44944	3.58487	-0.16011
1463.737	5.45850	-3.76197	3.58027	-0.20629
1467.726	5.39079	-3.79008	3.58284	-0.18164
1471.725	5.36831	-4.04304	3.63312	-0.22032
1475.750	5.30166	-3.97658	3.66417	-0.21751
1479.734	5.28603	-4.12170	3.69076	-0.22762
1483.723	5.19679	-4.13752	3.72336	-0.19812
1487.724	5.23509	-4.19694	3.68972	-0.23134
1491.722	5.19391	-4.21048	3.72724	-0.21417
1495.728	5.25825	-4.07154	3.71802	-0.19979
1499.735	5.24373	-3.78253	3.72039	-0.10715
1503.738	5.13163	-3.08467	3.72005	0.03898
1507.736	5.16361	-2.58299	3.72632	0.33091
1511.719	5.19537	-2.59019	3.71604	0.53865
1515.731	5.21311	-2.78077	3.60937	0.40592
1519.720	5.17469	-2.88457	3.49310	0.07912
1523.720	5.33920	-2.87281	3.23499	0.11397
1527.724	5.32321	-2.73091	3.19912	0.02101
1531.727	5.42491	-2.70890	3.21589	0.20285
1535.725	5.30744	-2.74275	3.14734	0.31419
1539.724	5.33827	-2.70356	3.11742	0.31363
1543.725	5.28817	-2.64196	3.06489	0.21992
1547.721	5.29752	-2.63054	3.06788	0.22131
1551.724	5.29998	-2.64287	3.06803	0.22191
1555.716	5.25249	-2.51745	3.02272	0.24566
1559.741	5.28980	-2.59407	3.00819	0.26162
1563.723	5.28778	-2.55704	3.02593	0.26921
1567.720	5.20831	-2.48241	3.07033	0.35324
1571.757	5.19101	-2.46089	3.11460	0.38985
1575.719	5.10687	-2.46381	3.12630	0.39056
1579.735	5.17976	-2.43969	3.14828	0.36674
1583.724	5.12164	-2.40609	3.15924	0.38720
1587.720	5.12819	-2.41508	3.17940	0.40014
1591.724	5.30018	-2.36783	3.17267	0.41317
1595.754	5.25667	-2.34152	3.14404	0.40584
1599.727	5.28552	-2.39721	3.12757	0.31067
1603.722	5.27695	-2.36333	3.15703	0.30793
1607.724	5.25530	-2.34612	3.12509	0.25663
1611.722	5.28623	-2.36490	3.11519	0.15617
1615.718	5.29221	-2.40635	3.06444	0.10794
1619.726	5.30842	-2.42273	3.04692	0.09055
1623.725	5.34614	-2.39253	3.06620	-0.01859
1627.719	5.40912	-2.40838	2.99420	-0.03782
1631.717	5.42751	-2.40505	2.94069	-0.09252
1635.763	5.40432	-2.42727	2.85809	-0.11786
1639.729	5.49974	-2.49391	2.86529	-0.16559
1643.719	5.59934	-2.51475	2.84598	-0.15760
1647.731	5.68755	-2.52658	2.80951	-0.20528
1651.719	5.70610	-2.52605	2.82321	-0.22181
1655.720	5.72568	-2.51543	2.78585	-0.21710
1659.729	5.76347	-2.50771	2.75861	-0.22929
1663.766	5.74529	-2.43978	2.73588	-0.19224
1667.726	5.76637	-2.48315	2.82630	-0.15149
1671.727	5.86256	-2.44532	2.87646	-0.12560
1675.726	5.80494	-2.43025	2.89166	-0.07919
1679.723	5.81263	-2.43406	2.94941	-0.01092
1683.718	5.74578	-2.43117	2.93941	0.08931
1687.717	5.64589	-2.39760	2.98250	0.12393
1691.719	5.57611	-2.30120	3.00247	0.17740
1695.724	5.53284	-2.28057	3.01633	0.20249
1699.718	5.43440	-2.20221	3.12014	0.21639
1703.730	5.40656	-2.21876	3.20840	0.17655
1707.731	5.33667	-2.22689	3.26032	0.15486
1711.716	5.26844	-2.22267	3.24645	0.11963
1715.725	5.12703	-2.19853	3.31182	0.27231
1719.718	5.03218	-2.22001	3.35998	0.31990
1723.718	4.89520	-2.22907	3.32137	0.40438
1727.719	4.82109	-2.26257	3.41689	0.45645
1731.714	4.79364	-2.24731	3.42502	0.47326
1735.718	4.78686	-2.30995	3.40623	0.51102
1739.726	4.86726	-2.32402	3.43840	0.52495
1743.722	4.96699	-2.41140	3.43956	0.59848
1747.724	4.81249	-2.45652	3.42811	0.59182
1751.721	4.85655	-2.48100	3.38973	0.64408
1755.717	5.24996	-2.60476	3.35244	0.64232
1759.775	5.21631	-2.60883	3.30614	0.59924
1763.717	5.41556	-2.61615	3.26327	0.63974
1767.717	5.54088	-2.62301	3.21698	0.64327
1771.715	5.46591	-2.57930	3.18207	0.63789
1775.723	5.41418	-2.72181	3.12937	0.67491
1779.722	5.43339	-2.56853	3.05929	0.66518
1783.716	5.54747	-2.81122	3.00324	0.64784
1787.723	5.45154	-2.88836	3.01903	0.68431
1791.714	5.53982	-3.06847	3.00180	0.74563
1795.716	5.56266	-3.12073	3.00502	0.77731
1799.718	5.46630	-3.09142	3.01702	0.80365
1803.714	5.48686	-3.00000	3.01205	0.89872
1807.749	5.71642	-2.42709	3.11163	1.00768
1811.725	5.79860	0.35728	3.60613	4.46162
1815.712	6.10627	2.43471	3.79845	7.12237
1819.722	6.04399	7.35198	3.68866	9.58050
1823.719	6.25943	6.92775	3.48256	11.57018
1827.729	6.29597	9.59725	3.40662	13.46763
1831.716	6.43177	10.42304	3.55295	14.74342
1835.716	6.41513	10.90669	4.52478	13.65575
1839.721	6.25831	10.85702	NaN	NaN
1843.720	5.95599	11.04085	NaN	NaN
1847.716	6.02961	11.02449	NaN	NaN
1851.718	6.01972	10.62326	NaN	NaN
1855.716	5.28724	11.32504	NaN	NaN
1859.721	5.46379	11.64513	NaN	NaN
1863.715	5.24666	12.19424	NaN	NaN
1867.725	4.95952	12.87863	NaN	NaN
1871.722	4.73088	13.11512	NaN	NaN
1875.723	5.27806	11.91248	NaN	NaN
1879.720	5.44493	11.60236	NaN	NaN
1883.715	0.60134	15.01490	NaN	NaN
1887.712	4.50777	12.50507	NaN	NaN
1891.731	2.19427	13.36643	NaN	NaN
1895.719	5.43251	11.87959	NaN	NaN
1899.720	4.56543	12.48347	NaN	NaN
1903.717	5.70878	10.57477	NaN	NaN
1907.714	5.62807	10.94814	NaN	NaN
1911.722	5.73116	11.34380	NaN	NaN
1915.718	5.82041	11.00780	NaN	NaN
1919.747	5.78607	11.65045	NaN	NaN
1923.722	4.42718	12.46942	NaN	NaN
1927.714	4.88922	12.01301	NaN	NaN
1931.721	5.31170	11.54972	NaN	NaN
1935.713	5.49369	11.46859	NaN	NaN
1939.714	1.94764	13.30227	NaN	NaN
1943.716	6.28700	9.62685	NaN	NaN
1947.717	5.42112	11.68205	NaN	NaN
1951.734	4.90191	12.39224	NaN	NaN
1955.719	4.65091	12.53397	NaN	NaN
1959.713	5.05565	12.01134	NaN	NaN
1963.716	4.84248	12.25981	NaN	NaN
1967.715	4.74617	12.58674	NaN	NaN
1971.710	4.88520	12.28709	NaN	NaN
1975.729	4.75277	12.41158	NaN	NaN
1979.720	5.12752	11.77400	NaN	NaN
1983.718	4.52567	12.64749	NaN	NaN
1987.714	4.69835	12.47216	NaN	NaN
1991.716	5.02674	12.32102	NaN	NaN
1995.713	6.21711	10.59136	NaN	NaN
1999.736	5.50314	11.49905	NaN	NaN
2003.714	5.88876	11.14135	NaN	NaN
2007.717	6.37594	10.69010	NaN	NaN
2011.717	5.27240	12.41049	NaN	NaN
2015.718	4.53418	12.32417	NaN	NaN
2019.709	4.69310	10.38134	NaN	NaN
2023.723	5.23593	7.65521	4.47166	11.46721
2027.714	5.23155	5.09895	4.48313	8.65390
2031.713	4.77330	2.55758	4.61479	5.50319
2035.719	4.61852	-0.67605	4.39600	4.41840
2039.716	5.09785	-1.03061	4.11801	1.76877
2043.712	4.68923	-2.34403	4.05559	1.03425
2047.712	4.68368	-3.62481	3.78813	0.65247
2051.717	4.82249	-3.49045	3.61814	0.40519
2055.713	4.89920	-3.57694	3.76532	0.91753
2059.714	4.91425	-3.30561	3.74674	1.28561
2063.710	5.04053	-3.25082	3.85239	1.43266
2067.726	4.82380	-2.90941	3.60477	1.31077
2071.720	4.71343	-3.37317	3.44854	0.29524
2075.598	4.71139	-3.31333	3.24657	0.20597
2079.614	4.96586	-3.50021	3.28689	-0.27413
2083.598	5.07579	-3.36035	3.23920	-0.20316
2087.587	5.04366	-3.35987	3.17146	-0.32477
2091.599	5.13075	-3.19473	3.28039	-0.41248
2095.587	5.22955	-2.91360	3.22601	-0.45637
2099.585	5.27218	-2.93702	3.22453	-0.58859
2103.590	5.25837	-3.08124	3.21881	-0.48311
2107.589	5.02647	-3.57334	3.22809	0.01761
2111.586	5.02305	-3.46486	3.16463	-0.18462
2115.585	4.98036	-3.62040	3.19031	-0.27785
2119.590	5.03775	-3.43067	3.23470	-0.21200
2123.596	5.03065	-3.28953	3.27415	0.12121
2127.587	4.99140	-3.30019	3.22586	0.25916
2131.586	5.26876	-3.15471	3.32815	0.23234
2135.596	5.22697	-3.16952	3.29508	-0.00211
2139.589	5.21274	-3.21894	3.20657	-0.21002
2143.582	5.08350	-3.25314	3.31197	-0.17494
2147.598	5.18766	-3.18302	3.17995	-0.09150
2151.593	5.31551	-3.03499	3.08805	0.29971
2155.584	5.32292	-2.96811	3.23747	0.23487
2159.590	5.34919	-2.88431	3.27146	0.14235
2163.585	5.32466	-2.80253	3.13182	0.35086
2167.598	5.30837	-2.75447	3.15642	0.35120
2171.587	5.25874	-2.73097	2.97955	0.25441
2175.588	5.09424	-2.71195	3.05568	-0.04928
2179.579	4.83917	-2.70986	2.98341	0.10884
2183.597	5.11615	-2.70138	2.96379	0.13103
2187.585	5.13683	-2.68828	2.94923	0.10137
2191.589	5.17356	-2.69153	2.90705	0.04350
2195.583	5.11312	-2.72639	3.01794	0.04407
2199.593	5.08741	-2.73553	2.97143	0.07097
2203.587	5.13360	-2.86313	2.94960	0.02211
2207.595	5.14636	-2.95871	3.06385	0.06521
2211.584	5.16674	-3.30191	3.02368	-0.02459
2215.592	5.17188	-3.14851	2.98866	-0.06323
2219.585	5.19389	-2.61285	2.77134	-0.19119
2223.586	5.19340	-2.53095	2.49570	-0.09625
2227.582	5.16186	-2.53817	2.90646	-0.67368
2231.594	4.84785	-2.46319	3.08401	-0.18377
2235.588	5.13831	-2.71946	2.92948	-0.13547
2239.587	5.08638	-2.74677	3.06132	0.07320
2243.582	5.21895	-2.77617	2.80325	-0.48729
2247.594	5.31940	-2.62358	2.97735	-0.32081
2251.590	5.22239	-2.77332	2.92827	-0.13900
2255.587	5.20620	-2.85636	3.06365	0.44986
2259.582	5.06513	-2.90519	3.34573	0.15641
2263.590	5.07633	-3.19409	3.13796	-1.15372
2267.586	5.21132	-3.23017	3.12242	-0.47460
2271.582	5.23553	-3.31262	3.18952	-0.30040
2275.608	5.25616	-3.29128	3.08557	-0.49186
2279.625	5.09163	-2.79453	3.19395	-0.24600
2283.586	5.12774	-2.46251	2.95007	-0.51470
2287.586	5.12031	-3.02461	3.09421	-0.28033
2291.603	5.07712	-1.99774	2.97624	0.27766
2295.599	5.04767	-2.00648	2.86517	0.46930
2299.591	5.03595	-1.67556	3.03239	0.12241
2303.581	5.05506	-1.82807	3.01467	-0.12948
2307.586	5.17097	-1.82826	3.03403	0.15638
2311.587	5.07454	-1.95925	3.24296	0.57466
2315.592	5.07402	-2.05107	3.14298	0.10977
2319.580	5.06400	-2.16918	3.33562	0.22577
2323.585	5.08318	-2.29328	3.29035	0.50669
2327.586	5.03418	-2.37906	3.18499	0.15522
2331.597	5.03356	-2.28419	3.00329	0.03596
2335.588	5.08207	-2.84193	3.15671	-0.05997
2339.588	5.12843	-2.68024	3.18306	0.33658
2343.591	5.09532	-2.38286	3.18400	-0.01030
2347.632	5.12774	-2.09902	3.22596	-0.19342
2351.581	5.14640	-2.11300	3.41271	0.16952
2355.583	5.18463	-2.09216	3.20946	-0.15802
2359.580	5.10042	-2.22521	3.24711	-0.03709
2363.598	5.04198	-2.06101	3.29718	0.00375
2367.590	4.99999	-2.00678	3.20174	-0.20126
2371.587	5.20642	-2.41579	3.19625	-0.17940
2375.596	5.20031	-2.68505	3.23823	-0.38146
2379.585	5.16186	-2.53883	3.28620	0.17410
2383.580	5.04942	-2.68336	3.31838	-0.00481
2387.593	5.14175	-2.35813	3.29045	-0.28720
2391.585	5.11026	-1.91801	3.06689	0.05928
2395.582	5.08343	-2.07082	3.09730	0.17094
2399.585	4.94095	-2.04711	3.12813	-0.06937
2403.583	4.87079	-1.89744	3.19848	0.00767
2407.580	4.98322	-2.06503	3.02398	0.55960
2411.585	5.14606	-2.42329	2.98948	0.55255
2415.591	5.13306	-2.38549	3.00403	0.64268
2419.581	5.12792	-2.54206	3.13971	0.39574
2423.585	5.08673	-2.67214	2.97393	0.49710
2427.582	5.03122	-2.75975	2.91134	0.27366
2431.591	5.19030	-2.37166	2.96624	0.33722
2435.585	4.95901	-2.08605	2.92463	0.78161
2439.584	5.09337	-2.04036	2.94369	0.39877
2443.579	5.02713	-1.89269	2.98106	-0.01792
2447.584	5.19994	-2.05766	2.98661	0.46210
2451.579	5.30417	-1.91494	2.95364	0.45430
2455.593	5.20329	-1.86468	3.07082	0.36421
2459.588	5.12046	-1.79920	3.03118	0.46863
2463.580	5.01130	-1.83029	2.96564	0.66273
2467.584	4.89040	-1.92147	3.05273	0.14404
2471.583	5.02551	-1.77491	3.00693	0.59985
2475.585	5.11644	-1.70852	2.96913	0.43199
2479.586	5.33111	-1.75087	3.12534	0.84303
2483.640	5.24882	-1.72183	3.09970	0.59777
2487.578	5.27301	-1.71588	3.07736	0.57662
2491.581	5.12762	-1.66479	3.05870	0.86102
2495.577	5.00182	-1.67370	2.96901	0.64637
2499.594	5.07904	-1.69630	2.87430	0.61794
2503.588	4.93332	-1.59875	2.86905	0.81018
2507.587	5.00408	-1.51472	2.82576	0.68222
2511.584	5.09037	-1.57271	2.83739	1.01607
2515.585	5.07161	-1.80297	3.08884	1.20412
2519.579	5.13703	-1.73262	2.95505	0.66281
2523.591	5.11900	-1.73455	2.80875	1.09695
2527.583	5.02630	-1.86547	2.82873	0.77974
2531.577	5.03395	-2.27554	2.80761	0.88236
2535.582	5.09586	-2.27139	2.78857	0.75830
2539.582	5.08500	-2.43133	2.77703	0.51661
2543.590	5.04381	-2.80672	2.66144	0.89534
2547.582	5.04280	-3.02929	2.91141	0.56807
2551.578	5.04228	-2.80448	2.79273	1.21643
2555.579	5.05853	-2.70007	2.84541	0.50857
2559.584	5.04794	-2.39754	2.92371	-0.37952
2563.579	5.01470	-2.34293	2.85836	0.77314
2567.586	4.97763	-2.23164	2.96792	0.24575
2571.582	4.94543	-2.01978	2.77936	0.63400
2575.577	5.01029	-1.94825	2.66942	0.80007
2579.590	4.94319	-1.83454	2.67526	0.43103
2583.580	4.96514	-1.95434	2.95312	0.53639
2587.583	5.00211	-1.79211	2.98131	0.43766
2591.589	5.11024	-1.74298	2.98302	0.31431
2595.577	5.11445	-1.73149	2.85017	0.21771
2599.579	5.15281	-1.72620	2.73789	0.25168
2603.579	5.14894	-1.72114	2.75304	0.26995
2607.588	5.05139	-1.65999	2.63660	0.18562
2611.577	4.95460	-1.58860	2.58442	0.09289
2615.585	5.20418	-1.72072	2.81739	0.08560
2619.576	5.00723	-1.65387	2.85277	0.08416
2623.588	4.93763	-1.50168	2.65684	0.17338
2627.580	5.09869	-1.66328	2.72989	0.05796
2631.581	5.13274	-2.15469	2.68564	-2.89331
2635.581	5.05560	-3.14276	2.58036	-0.93543
2639.583	4.97391	-2.93211	2.54202	0.54695
2643.580	5.01745	-3.34276	2.49818	0.45522
2647.598	5.11689	-3.12415	2.57783	0.46291
2651.588	5.13158	-2.89692	2.42193	0.71294
2655.581	5.12760	-2.91486	2.46491	-2.37564
2659.590	5.10258	-2.79661	2.51770	0.72649
2663.576	5.17437	-2.80331	2.59430	0.63437
2667.580	5.23029	-2.63835	2.81048	0.47161
2671.581	5.26019	-2.65850	2.64812	0.91248
2675.576	5.28771	-2.56655	2.67229	1.15928
2679.579	5.34471	-2.40753	2.52753	0.54588
2683.583	5.34796	-2.08998	2.63165	0.88368
2687.638	5.39778	-2.02051	2.64537	0.22817
2691.577	5.37524	-1.95446	2.68232	0.42015
2695.577	5.34439	-1.99116	3.02893	-0.17122
2699.618	5.29885	-2.80514	2.83695	-0.09525
2703.581	5.32442	-2.18057	2.76591	0.14805
2707.589	5.31047	-2.00997	2.61902	0.23833
2711.583	5.27951	-2.09533	2.55217	0.51162
2715.577	5.23137	-2.35562	2.53342	0.57036
2719.578	5.17435	-2.18267	2.84403	0.09841
2723.580	5.19330	-1.95713	2.70621	-0.04609
2727.578	5.16081	-2.08935	2.69641	-0.53956
2731.575	5.11292	-2.01854	2.69331	0.25000
2735.575	5.05006	-2.09685	2.57258	0.42833
2739.579	5.06070	-2.08795	2.47497	-0.09325
2743.579	5.02898	-2.62295	2.65644	0.53225
2747.580	5.00903	-2.86181	2.87651	-1.49821
2751.853	5.02504	-2.70152	2.96888	0.19746
2755.581	4.94206	-3.05259	2.71624	-0.24702
2759.573	4.90353	-2.81275	3.13863	0.31431
2763.590	4.89249	-2.68901	2.80357	1.05580
2767.579	4.89225	-2.58955	2.63373	1.09086
2771.577	4.94854	-2.74958	2.62977	0.25121
2775.587	4.92144	-2.93672	2.10285	0.91212
2779.574	4.91339	-3.06284	NaN	NaN
2783.580	4.85248	-3.17268	3.08095	1.16688
2787.586	4.90057	-3.16917	3.02140	1.21025
2791.588	4.95529	-3.01831	2.50268	1.26661
2795.576	5.05309	-3.00290	2.49345	1.32203
2799.581	5.02795	-2.86583	2.73506	1.06829
2803.574	5.17944	-2.81113	2.76668	1.39380
2807.583	5.20270	-2.83209	2.94854	0.84808
2811.579	5.23546	-2.77531	2.66612	1.06877
2815.574	5.27771	-2.84755	2.97557	0.93301
2819.581	5.19482	-2.61459	2.76064	-1.41541
2823.582	5.16250	-2.50193	2.92455	0.80989
2827.579	5.06474	-2.41665	2.95540	0.99168
2831.599	5.12755	-2.40085	3.60319	1.33769
2835.578	4.91679	-2.37835	3.00878	0.72354
2839.571	4.82651	-2.34290	2.96522	0.98241
2843.577	4.84058	-2.25249	3.38889	1.45189
2847.574	4.78121	-2.15932	3.17237	0.59033
2851.570	4.88564	-2.13442	2.95916	0.09274
2855.590	4.87729	-2.04978	2.69822	0.08273
2859.577	4.93418	-1.96981	2.80904	0.37787
2863.583	4.86088	-1.82156	3.14632	1.24171
2867.571	5.00590	-1.88142	2.63522	1.85905
2871.577	5.11802	-1.78277	2.89020	1.14287
2875.580	5.05666	-1.77693	2.17874	0.70065
2879.586	5.04349	-1.63983	2.81028	1.22405
2883.572	5.08572	-1.59103	2.63638	0.03557
2887.589	5.06912	-1.64296	2.64131	1.31190
2891.576	5.09923	-1.54749	2.51983	0.10603
2895.571	5.19736	-1.55311	2.65077	0.96958
2899.573	5.18077	-1.52877	2.70428	0.96455
2903.574	5.16282	-1.50937	2.72427	1.09691
2907.573	5.23118	-1.55357	2.80862	1.02136
2911.573	5.25352	-1.51247	2.93131	0.97947
2915.576	5.17971	-1.53678	2.98007	0.89383
2919.579	5.19025	-1.55402	3.16196	0.86022
2923.588	5.20625	-1.60517	3.17987	0.78536
2927.447	5.26133	-1.65576	3.18992	0.77360
2931.457	5.22522	-1.67057	3.32362	0.68959
2935.451	5.26733	-1.69008	3.39559	0.79616
2939.456	5.23957	-1.71681	3.39156	0.81484
2943.453	5.28138	-1.81817	3.41056	0.83734
2947.450	5.14665	-2.90383	3.40751	0.79441
2951.451	5.11413	-3.22930	3.36127	0.87515
2955.518	5.04484	-3.48740	3.37336	0.79620
2959.464	4.98615	-3.65752	3.29164	0.91195
2963.468	4.95874	-3.47097	3.24113	0.97055
2967.448	4.95073	-3.44262	3.17737	0.86941
2971.445	4.97677	-3.00214	3.18967	0.90447
2975.482	4.99935	-3.21529	3.08681	0.95995
2979.456	4.92383	-3.43474	3.06696	1.08221
2983.451	4.87049	-3.49136	3.02098	1.13028
2987.446	4.87049	-3.53904	2.99007	1.15115
2991.449	4.85977	-3.54299	3.02715	0.97008
2995.443	4.87912	-3.51600	3.03974	0.95303
2999.466	4.89385	-3.48078	3.03712	0.92366
3003.457	4.88486	-3.46787	3.04707	0.91638
3007.448	4.87968	-3.48734	3.04833	0.78730
3011.448	4.91004	-3.50289	3.07894	0.81447
3015.451	4.87939	-3.54930	3.11435	0.77440
3019.449	4.84553	-3.58019	3.13103	0.72487
3023.484	4.82927	-3.58893	3.14927	0.69042
3027.452	4.82552	-3.60737	3.17091	0.63162
3031.470	4.83383	-3.56868	3.15721	0.73678
3035.445	4.86650	-3.50645	3.11980	0.70166
3039.444	4.89461	-3.22382	3.10294	0.73360
3043.458	4.91201	-2.83017	3.05796	0.76303
3047.456	4.98802	-2.11750	3.06573	0.78724
3051.466	4.99054	-1.83839	3.09438	0.86660
3055.447	5.06218	-1.85322	3.11294	0.88378
3059.444	5.05343	-1.89795	3.17277	0.85106
3063.444	5.39827	-1.87798	3.41340	0.92158
3067.454	7.51215	-1.57977	5.63572	1.16747
3071.444	9.31711	-1.73543	7.54186	1.21342
3075.455	11.25292	-1.64323	9.37233	1.32084
3079.440	11.90697	-1.53276	10.95253	1.04293
3083.460	12.41843	-0.67347	10.88484	0.77260
3087.452	13.16296	-1.14895	12.42174	-0.06494
3091.454	14.11512	-0.50471	12.64017	-0.51923
3095.458	14.63197	-0.34708	12.60401	-0.34634
3099.445	14.37317	-0.68124	12.60372	-0.75465
3103.454	13.44052	-0.98893	12.58845	-0.67077
3107.440	13.14141	-1.29316	11.84620	-0.21090
3111.450	13.69727	-1.31553	11.91469	-0.41729
3115.451	13.87220	-1.18226	12.42991	-0.43514
3119.444	13.97180	-0.44571	12.56469	-0.65401
3123.442	14.23643	-0.12676	12.63034	-0.59134
3127.454	14.30480	-0.17166	12.69323	-0.59681
3131.454	14.28569	-0.26347	12.71040	-0.53211
3135.453	13.85573	-0.96440	12.64458	-0.50730
3139.453	14.07132	-0.65474	12.57420	-0.57274
3143.445	14.05493	-1.13478	12.62414	-0.50288
3147.448	14.23396	-0.83800	12.56949	-0.43838
3151.449	14.13045	-1.04491	12.70355	-0.46859
3155.443	14.20999	-0.56607	12.77863	-0.46785
3159.475	14.03631	-0.48910	12.70872	-0.59549
3163.500	14.15888	-0.48077	12.65978	-0.56138
3167.443	14.07501	-0.47762	12.56032	-0.48891
3171.452	14.06350	-0.46730	12.49318	-0.45114
3175.501	14.12789	-0.37727	12.51002	-0.46145
3179.455	14.25140	-0.33311	12.58758	-0.48381
3183.440	14.38898	-0.30395	12.62880	-0.44695
3187.443	14.32882	-0.37091	12.59656	-0.39686
3191.443	14.29450	-0.26020	12.59559	-0.52965
3195.445	14.24646	-0.27416	12.48227	-0.62411
3199.445	14.13414	-0.33526	12.39201	-0.55099
3203.446	14.23802	-0.45738	12.43064	-0.45763
3207.441	14.21162	-0.60159	12.36246	-0.47690
3211.443	14.18864	-0.96866	12.40290	-0.53893
3215.463	14.21372	-0.96224	12.47749	-0.59765
3219.451	14.21959	-1.13817	12.56209	-0.57723
3223.439	14.18682	-1.22868	12.40486	-0.48253
3227.467	14.19527	-1.20685	12.34332	-0.41245
3231.445	14.14723	-1.31329	12.37707	-0.47989
3235.468	14.21092	-1.28174	12.40375	-0.33877
3239.442	14.22909	-1.31161	12.48232	-0.37321
3243.443	14.34014	-1.28418	12.39596	-0.48250
3247.443	14.38663	-1.15655	12.34429	-0.45143
3251.446	14.27142	-1.31981	12.35062	-0.27786
3255.450	14.20383	-1.18710	12.45161	-0.37115
3259.441	14.25574	-0.97600	12.54190	-0.32896
3263.448	14.18668	-0.80640	12.52466	-0.30111
3267.444	14.19823	-0.78546	12.74560	-0.31716
3271.444	14.19196	-0.52598	12.59408	-0.38782
3275.455	14.15533	-0.28615	12.66273	-0.32020
3279.438	14.19336	-0.78624	12.72766	-0.36134
3283.448	14.11503	-0.90821	12.75302	-0.37398
3287.440	14.13276	-0.91062	12.76300	-0.38194
3291.442	14.09787	-0.91792	12.83621	-0.39554
3295.496	14.16193	-0.84764	12.86907	-0.41550
3299.439	14.22717	-0.82235	12.85374	-0.38389
3303.440	14.30093	-0.76314	12.86390	-0.39671
3307.441	14.37068	-0.90550	12.81273	-0.41060
3311.439	14.44378	-0.83531	12.79310	-0.44948
3315.441	14.51837	-0.80204	12.83640	-0.45553
3319.446	14.59163	-0.88200	12.83453	-0.49771
3323.442	14.57590	-0.88627	12.78750	-0.51806
3327.446	14.72520	-0.80510	12.72733	-0.51763
3331.439	14.72109	-0.80757	12.64796	-0.50550
3335.462	14.64696	-0.83315	12.63390	-0.50928
3339.439	14.60330	-0.92756	12.50401	-0.52708
3343.442	14.63953	-1.01124	12.54580	-0.31113
3347.441	14.50446	-1.28376	12.55247	-0.29870
3351.439	14.55483	-1.03666	12.58030	-0.01040
3355.462	14.38363	-1.04470	12.58796	-0.01564
3359.444	14.34096	-1.01039	12.58642	-0.00783
3363.485	14.33597	-0.62372	12.57772	-0.14654
3367.456	14.32817	-0.68936	12.61129	0.02811
3371.440	14.30498	-0.53973	12.65148	0.10518
3375.453	14.27103	-0.40751	12.70692	0.03859
3379.446	14.29019	-0.26269	12.69384	0.11064
3383.448	14.25135	-0.16628	12.73564	0.17369
3387.442	14.22337	-0.11210	12.71956	0.14064
3391.448	14.21285	-0.10033	12.68893	0.13544
3395.439	14.22834	-0.03088	12.62216	-0.03322
3399.440	14.27009	0.00826	12.59569	-0.03022
3403.444	14.31314	0.08451	12.52748	-0.11098
3407.438	14.39545	0.10472	12.49727	-0.12261
3411.441	14.41601	0.18702	12.48561	-0.28922
3415.440	14.48108	0.25720	12.52693	-0.30106
3419.447	14.52051	0.06793	12.53381	-0.36497
3423.446	14.45388	-0.94344	12.48620	-0.27888
3427.438	14.52588	-1.16955	12.48327	-0.34628
3431.466	14.57504	-0.93309	12.49500	-0.30386
3435.441	14.59826	-1.04965	12.35147	-0.41309
3439.473	14.59830	-0.99345	12.36568	-0.34319
3443.437	14.63223	-0.78900	12.29069	-0.27538
3447.468	14.66701	-0.53532	12.28941	-0.17554
3451.439	14.66698	-0.56226	12.25220	-0.11139
3455.441	14.58208	-0.73400	12.24808	0.01221
3459.441	14.48104	-0.58980	12.29853	0.01085
3463.444	14.19144	-0.66242	12.32428	-0.11077
3467.450	14.42309	-0.70231	12.22791	-0.07220
3471.446	14.38048	-0.90317	12.15936	-0.12960
3475.438	14.36441	-0.88897	12.10381	-0.23133
3479.443	14.40356	-0.72771	12.13351	0.05153
3483.436	13.16228	-0.90097	11.39623	0.04073
3487.442	10.66920	-0.89095	9.12984	0.21725
3491.436	9.01278	-1.06941	6.97829	0.58647
3495.444	6.72658	-1.11519	5.60689	1.28094
3499.443	6.45584	-1.21208	4.37243	0.79940
3503.461	4.05046	-1.26847	3.24405	1.11556
3507.459	4.03438	-1.37136	1.78255	0.76370
3511.448	3.70910	-1.33263	1.68602	1.40483
3515.445	3.23640	-1.26131	1.42851	1.49685
3519.436	3.29686	-1.22716	1.70031	1.52764
3523.439	3.32587	-1.25101	1.93859	1.55836
3527.437	3.28429	-1.21260	1.86618	1.33243
3531.439	3.01648	-1.19498	1.79720	1.41532
3535.438	2.86965	-1.15252	1.63313	1.40340
3539.443	2.74061	-1.11585	1.60040	1.37157
3543.442	2.54796	-1.04845	1.52702	1.41129
3547.441	2.45049	-1.04086	1.48761	1.41003
3551.434	2.60322	-0.99301	1.48957	1.44597
3555.478	2.62578	-0.98267	1.54458	1.45614
3559.447	2.69133	-1.01917	1.47322	1.36574
3563.437	2.63712	-1.01172	1.44259	1.34531
3567.499	2.52240	-1.00802	1.36538	1.32062
3571.451	2.58871	-1.02308	1.35819	1.30295
3575.434	2.55970	-1.01643	1.31372	1.31668
3579.442	2.67818	-1.01673	1.28383	1.32213
3583.434	2.74209	-0.99749	1.28229	1.32933
3587.456	2.85274	-1.00467	1.26187	1.28544
3591.440	2.82380	-0.97333	1.23903	1.27736
3595.447	2.80691	-0.98883	1.16878	1.30110
3599.436	2.89864	-1.04700	1.17007	1.24359
3603.437	2.89683	-1.55505	1.16744	1.20071
3607.440	2.95195	-1.84675	1.21110	1.13548
3611.436	2.90485	-1.78393	1.24357	1.11959
3615.437	3.05380	-1.56643	1.25783	1.11591
3619.438	3.12663	-1.59930	1.25428	1.11301
3623.438	3.28907	-1.58982	1.27497	1.08439
3627.447	3.32803	-1.48460	1.24930	1.08391
3631.436	3.31979	-1.56409	1.22985	1.10477
3635.472	3.26042	-1.58461	1.19544	1.18438
3639.457	3.29112	-1.54505	1.17828	1.22680
3643.434	3.10158	-1.48513	1.07999	1.14628
3647.434	3.00126	-1.31021	1.13955	1.19183
3651.434	2.89522	-1.22036	1.15302	1.08941
3655.452	3.09020	-1.15653	1.07847	1.14415
3659.444	2.84858	-1.12299	1.01714	1.14427
3663.433	2.91814	-1.28858	0.99561	1.22894
3667.441	2.70513	-1.17414	0.94825	1.13672
3671.438	2.84692	-1.47005	0.95569	1.08938
3675.436	2.86571	-1.83360	1.01037	0.83765
3679.432	2.72523	-1.78413	0.98765	0.70495
3683.435	2.80597	-1.98684	0.98891	0.81584
3687.436	2.68299	-1.87770	1.01876	0.82053
3691.432	2.71600	-1.97142	1.00035	1.09758
3695.434	2.71510	-1.86518	0.94616	0.99577
3699.454	2.92552	-1.93467	1.02642	0.88603
3703.530	2.87264	-1.90983	1.02027	0.64207
3707.443	2.78857	-1.85532	1.04798	0.51989
3711.449	2.81194	-1.86037	0.99348	0.60397
3715.428	2.69913	-1.80951	1.05637	1.00214
3719.437	2.98958	-1.76922	0.99576	1.06199
3723.433	2.96874	-1.73147	1.01392	0.85017
3727.435	2.92500	-1.62040	1.05771	0.72918
3731.431	2.87116	-1.53966	1.06877	0.37928
3735.433	2.89458	-1.43656	1.06284	0.61300
3739.444	2.87522	-1.39186	1.09676	0.95248
3743.443	3.00861	-1.29613	1.08525	0.77789
3747.433	2.95037	-1.18820	1.13365	0.75296
3751.442	2.89720	-1.06559	1.12871	0.60931
3755.435	3.04494	-1.33334	1.15913	0.47421
3759.439	3.05553	-1.65408	1.15488	0.43551
3763.448	3.07283	-1.74461	1.12767	0.56494
3767.435	3.05402	-1.58590	1.16605	0.49269
3771.481	2.94995	-1.57957	1.17297	0.50695
3775.440	2.68792	-1.15473	1.04709	0.54970
3779.439	2.79114	-1.32704	0.91264	0.64743
3783.312	0.13831	-0.52738	-1.82834	0.84058
3787.313	-0.62488	-0.39547	-2.02393	0.80076
3791.303	-0.80925	-0.82239	-2.10627	1.29504
3795.318	-0.41420	-1.30680	-1.98722	1.42219
3799.311	0.13697	-1.66358	-1.85274	1.43595
3803.308	0.19571	-1.55909	-1.77224	1.44535
3807.309	0.18248	-1.34610	-1.50390	1.56968
3811.313	0.01281	-1.16512	-1.56280	1.41849
3815.307	0.37702	-1.16554	-1.72461	1.55857
3819.307	0.35695	-1.11149	-1.49666	1.48752
3823.316	0.27686	-1.13641	-1.62269	1.54626
3827.309	0.08669	-1.10341	-1.65954	1.49686
3831.306	-0.10272	-1.10821	-1.67477	1.50338
3835.306	-0.05807	-1.09358	-1.57364	1.53198
3839.334	0.06381	-1.08292	-1.56642	1.57706
3843.315	0.24465	-0.98310	-1.67219	1.50378
3847.308	0.29935	-1.00307	-1.67129	1.43060
3851.307	-0.00548	-0.93961	-1.64424	1.51646
3855.302	0.01219	-0.90011	-1.70735	1.57084
3859.325	-0.11575	-0.91146	-1.61267	1.61286
3863.308	-0.21795	-0.87896	-1.69894	1.66072
3867.319	-0.25917	-0.84684	-1.72022	1.65578
3871.304	-0.05502	-0.86508	-1.67157	1.60448
3875.320	0.44579	-0.86607	-1.67149	1.68566
3879.305	0.35104	-0.89771	-1.70479	1.75548
3883.323	0.23802	-0.89958	-1.64456	1.65622
3887.311	0.15134	-0.91320	-1.64546	1.65545
3891.309	0.07927	-0.88374	-1.54537	1.72242
3895.309	0.01432	-0.87783	-1.48699	1.73507
3899.315	-0.15985	-0.74262	-1.42977	1.73727
3903.308	-0.29677	-0.55873	-1.40432	1.68860
3907.330	0.05691	-0.67542	-1.37208	1.66023
3911.307	0.06855	-0.62374	-1.33232	1.59336
3915.306	-0.01596	-0.66605	-1.26431	1.50609
3919.313	0.07004	-0.84250	-1.29754	1.36649
3923.315	-0.02574	-1.02683	-1.32974	1.29673
3927.317	-0.08862	-0.92495	-1.35574	1.25157
3931.311	-0.17769	-0.85474	-1.31754	1.39049
3935.308	-0.25823	-0.69658	-1.43714	1.37580
3939.304	-0.08125	-0.78881	-1.47593	1.29697
3943.305	0.10222	-0.80747	-1.58646	1.34879
3947.309	0.27371	-0.89660	-1.65314	1.39321
3951.312	0.32084	-0.88581	-1.72396	1.41607
3955.305	0.07001	-0.78228	-1.62535	1.37513
3959.305	0.28706	-0.68160	-1.67268	1.32009
3963.311	0.19435	-0.50760	-1.66889	1.36663
3967.308	0.01762	-0.28206	-1.74846	1.38810
3971.299	0.17248	-0.48919	-1.75570	1.44983
3975.314	0.22232	-0.39837	-1.75014	1.56778
3979.312	0.30622	-0.56472	-1.55306	1.50628
3983.311	0.26215	-0.60316	-1.54477	1.51055
3987.305	0.27602	-0.79650	-1.56275	1.39958
3991.307	0.18554	-1.09516	-1.52684	1.30714
3995.307	0.06835	-1.09601	-1.35789	1.41639
3999.311	0.20162	-1.32511	-1.34041	1.46804
4003.304	0.21212	-0.94278	-1.30208	1.56508
4007.313	0.07304	-0.88538	-1.27165	1.39809
4011.327	-0.94247	-0.45489	-2.35248	1.78132
4015.304	-2.40117	2.45375	-3.72197	3.98509
4019.312	-5.44697	2.44897	-6.24026	4.30658
4023.323	-7.27245	3.12290	-7.98744	5.94042
4027.305	-8.10914	4.41946	-8.33178	5.76366
4031.305	-7.99975	4.00657	-8.29980	5.88293
4035.301	-7.60782	3.79825	-8.27863	5.54476
4039.308	-7.50532	3.54816	-7.54432	4.91250
4043.301	-6.32110	3.31271	-6.81568	4.81191
4047.317	-6.23126	3.68664	-6.72335	5.04540
4051.307	-7.14963	3.90938	-7.50988	5.27115
4055.309	-7.62453	4.17723	-8.21230	5.23405
4059.308	-7.94270	4.29794	-8.14660	5.64537
4063.294	-6.96257	3.94710	-7.74798	5.40861
4067.315	-7.30278	4.04008	-8.12237	5.58000
4071.306	-7.47426	3.79265	-7.63525	5.32567
4075.305	-7.38954	3.62813	-7.89973	5.25632
4079.301	-7.21606	3.45809	-8.04217	5.35491
4083.309	-7.32209	3.56571	-7.77142	5.42679
4087.303	-7.41924	3.64543	-7.42461	5.43754
4091.309	-7.28681	3.69254	-7.71457	5.40784
4095.304	-7.23457	3.50972	-7.94496	5.35301
4099.306	-7.50503	3.61267	-7.87526	5.45530
4103.303	-7.39032	3.61558	-7.74418	5.36241
4107.302	-7.35942	3.60523	-7.55761	5.33473
4111.357	-7.03685	3.53954	-7.68028	5.24204
4115.312	-7.16046	3.50408	-7.76316	5.38184
4119.308	-7.46338	3.69306	-7.81098	5.47790
4123.305	-7.47809	3.77540	-7.55386	5.37212
4127.304	-7.43215	3.82301	-7.65661	5.36732
4131.309	-7.38129	3.87519	-7.79454	5.46248
4135.329	-7.56118	3.97915	-7.85222	5.57911
4139.307	-7.71979	4.05330	-7.80635	5.39925
4143.305	-7.59454	4.08791	-7.82983	5.84374
4147.304	-7.35253	3.97508	-7.85967	5.78071
4151.308	-7.58490	4.08300	-8.06772	5.87385
4155.304	-7.85478	4.24965	-8.15774	5.84684
4159.299	-7.64971	4.22999	-8.11048	5.77694
4163.305	-7.25313	4.18852	-8.00915	5.92580
4167.321	-7.44333	4.22659	-8.11936	5.83977
4171.307	-7.62667	4.34293	-8.16321	5.92498
4175.304	-7.59873	4.31461	-8.26327	5.89975
4179.388	-7.42480	4.33438	-8.28089	5.82786
4183.353	-7.04467	4.24493	-8.17931	5.83501
4187.301	-7.13729	4.24180	-7.94879	5.77325
4191.304	-6.96269	4.28446	-7.76898	5.44951
4195.303	-7.16542	4.21170	-7.89605	5.49203
4199.316	-7.16341	4.28165	-7.82952	5.66811
4203.301	-7.24554	4.29666	-7.81174	5.60561
4207.301	-7.30422	4.28799	-7.95210	5.74397
4211.316	-7.52769	4.33317	-7.89676	5.82643
4215.308	-7.46909	4.29156	-7.99165	5.76978
4219.305	-7.52944	4.29462	-7.98369	5.78127
4223.304	-7.67548	4.29255	-7.96607	5.83118
4227.299	-7.72434	4.30048	-8.04482	5.87915
4231.336	-7.82148	4.36969	-8.17541	6.00746
4235.309	-7.86698	4.39614	-8.16668	5.95703
4239.299	-7.87056	4.41878	-8.21753	6.00254
4243.299	-7.89622	4.37268	-8.25029	6.05001
4247.301	-7.89569	4.35619	-8.27569	6.11646
4251.304	-7.93681	4.36542	-8.27088	6.05784
4255.306	-7.63638	4.24930	-8.21135	6.05026
4259.301	-3.64160	3.20386	-5.15679	5.96151
4263.302	-2.21261	1.57962	-2.11343	4.64552
4267.315	-0.00256	1.10756	-0.61072	3.46420
4271.302	1.81540	0.18550	0.53260	2.79037
4275.300	1.95435	-0.67088	1.82891	1.44416
4279.312	3.21829	-1.52037	2.60211	0.82863
4283.299	3.49599	-1.77163	2.25848	0.74942
4287.310	2.65074	-1.51122	1.46856	0.93990
4291.298	2.08949	-1.20036	0.98469	1.36244
4295.304	1.74018	-0.69314	0.97574	1.76311
4299.302	1.88177	-0.67672	1.11804	1.81033
4303.311	2.97656	-1.04648	1.42752	1.77073
4307.297	3.35961	-1.12260	1.49324	1.67744
4311.302	3.55763	-1.40320	1.50517	1.46513
4315.302	3.71617	-1.41785	1.54490	1.32821
4319.376	3.73925	-1.32877	1.46162	1.34505
4323.297	3.61265	-1.32338	1.19919	1.39006
4327.304	3.55352	-1.31223	1.32508	1.42981
4331.300	3.61194	-1.26647	1.31927	1.42947
4335.299	3.27620	-1.25618	1.48104	1.42699
4339.318	3.41704	-1.31466	1.33847	1.40408
4343.324	3.50531	-1.34859	1.49190	1.33813
4347.314	3.58425	-1.42485	1.46821	1.26815
4351.300	3.65655	-1.39402	1.53490	1.25806
4355.305	3.60195	-1.22749	1.58296	1.38976
4359.299	3.52262	-1.17754	1.53228	1.51026
4363.298	3.49846	-1.04391	1.62187	1.40390
4367.301	3.45094	-1.74081	1.62071	1.22019
4371.309	3.46758	-1.73724	1.72059	1.08032
4375.303	3.47074	-1.95805	1.60553	0.89760
4379.304	3.46649	-1.57595	1.52786	0.80477
4383.330	3.41384	-1.52614	1.47082	0.82369
4387.362	3.37366	-1.34769	1.39264	0.90665
4391.307	3.41753	-1.39709	1.45621	1.09325
4395.294	3.37200	-1.47730	1.44021	1.04672
4399.302	3.34959	-1.61040	1.48776	0.93537
4403.298	3.30515	-2.20770	1.42600	0.98218
4407.302	3.35387	-1.99622	1.36154	0.69440
4411.302	3.58242	-1.91389	1.34909	0.82364
4415.298	3.95053	-1.73597	1.25361	0.91686
4419.311	3.74155	-1.56309	1.29268	1.10050
4423.302	3.77370	-1.44092	1.31890	0.96318
4427.305	3.55216	-2.15361	1.35154	1.04666
4431.298	3.63866	-2.20442	1.36744	0.99795
4435.327	3.47473	-2.18547	1.53830	0.93989
4439.302	3.38694	-1.93000	1.54448	0.99721
4443.299	3.35642	-1.77771	1.54971	1.11255
4447.296	3.52732	-1.58388	1.55169	1.28950
4451.311	3.45682	-1.55128	1.55164	0.83640
4455.301	3.41384	-2.19643	1.64672	0.78546
4459.301	3.34940	-1.97064	1.63040	0.72487
4463.302	3.46657	-1.73992	1.63105	0.71396
4467.300	3.58549	-1.77386	1.44408	0.85269
4471.296	3.71505	-1.57488	1.45976	1.00392
4475.303	3.47623	-1.47530	1.59477	0.92137
4479.302	3.49673	-1.29709	1.59898	0.83147
4483.297	3.37761	-1.55364	1.61510	0.83253
4487.311	3.75855	-1.59519	1.54343	0.83780
4491.299	4.10797	-0.62276	1.77439	2.52664
4495.308	6.68638	2.13180	3.23987	4.37128
4499.294	7.74218	1.79878	4.50414	4.96562
4503.300	6.85307	3.90454	4.95731	5.82462
4507.367	7.34216	4.21478	5.27789	6.55772
4511.298	7.64091	4.92944	5.52625	6.86932
4515.299	7.26903	4.55788	5.68337	7.29213
4519.324	7.39398	4.34204	5.44908	7.03573
4523.297	7.50520	3.74582	5.55184	7.01075
4527.296	7.19737	4.14666	5.57663	6.77401
4531.294	7.52149	3.64905	5.66922	6.69464
4535.299	7.62745	3.93282	5.70345	6.71648
4539.291	7.69069	3.95584	5.58670	6.95768
4543.302	7.54557	4.06580	5.74812	6.80349
4547.299	7.60975	3.99554	5.84485	6.84838
4551.295	7.72566	4.05905	5.87216	6.91901
4555.311	7.53332	4.10246	5.88807	6.82940
4559.304	7.58739	4.01217	5.83004	6.84224
4563.299	7.56515	3.96801	5.87000	6.82270
4567.290	7.63494	3.98158	5.90804	6.83537
4571.308	7.71238	3.96076	5.91207	6.80223
4575.298	7.68540	4.03003	5.87933	6.94309
4579.310	7.64820	4.12268	5.89684	7.04081
4583.293	7.59585	4.15881	5.95228	7.17273
4587.345	7.67306	4.15770	5.88633	7.27407
4591.318	7.64635	4.18363	5.83822	7.27192
4595.300	7.63655	4.21785	5.86470	7.28838
4599.301	7.69502	4.22670	5.86506	7.23022
4603.290	7.71130	4.20592	5.89610	7.18133
4607.295	7.72515	4.20867	5.94312	7.05201
4611.296	7.66187	4.20895	5.98461	7.03963
4615.296	7.65729	4.29467	5.93794	7.38339
4619.289	7.59576	4.82537	5.96075	7.33698
4623.310	7.71350	4.79387	5.89719	7.46132
4627.308	7.58059	4.46108	5.95437	7.30677
4631.328	7.53620	4.45394	5.96809	7.40261
4635.302	7.46895	4.65644	5.96473	7.51717
4639.174	7.53174	4.38765	6.01854	7.39668
4643.169	7.63586	4.09249	5.98071	7.49713
4647.179	7.65639	4.45880	5.92253	7.29541
4651.172	7.62472	4.89149	5.91884	7.23125
4655.176	7.59078	4.48947	5.93429	6.98164
4659.171	7.47131	4.62242	5.97789	7.21326
4663.169	7.58010	4.44228	5.96650	7.39529
4667.169	7.68808	4.39827	5.96753	7.29490
4671.168	7.63403	4.13286	5.92640	7.69076
4675.187	7.91855	3.80462	5.92191	7.85557
4679.171	7.81690	4.43932	5.90278	7.62072
4683.185	7.70299	4.74633	5.80867	7.86503
4687.166	7.69390	4.56768	5.82086	7.68744
4691.171	7.59536	4.72753	5.87162	7.75779
4695.164	7.58520	4.60374	5.82739	7.77604
4699.173	7.99238	4.53761	5.82375	7.84644
4703.170	7.58276	4.47528	5.82370	7.74952
4707.164	7.52979	4.59250	5.79438	7.83447
4711.168	7.77595	4.43160	5.80305	7.90455
4715.184	7.73109	4.44818	5.86123	7.49144
4719.172	7.54976	4.58463	5.83898	7.56970
4723.199	7.77956	4.51185	5.92886	6.85147
4727.169	7.78131	4.50427	6.02774	7.06429
4731.179	7.45970	4.52846	5.97452	7.51210
4735.166	7.63077	4.47253	5.87462	7.16766
4739.171	7.79571	4.42109	6.01252	7.07213
4743.163	7.56422	4.41296	6.01429	7.27665
4747.186	7.50771	4.41214	5.94978	7.47503
4751.170	7.63808	4.37183	5.85725	7.44515
4755.166	7.89152	4.33570	5.86673	7.67191
4759.167	7.59405	4.31673	5.97595	7.60952
4763.192	7.56981	4.29915	6.09528	7.37035
4767.172	7.73502	4.25824	5.92481	7.42105
4771.165	7.68179	3.93921	5.90750	7.43010
4775.182	7.84262	3.85675	5.86047	7.66915
4779.164	7.54866	4.27020	5.99198	7.65252
4783.176	7.81439	4.27876	6.07844	7.68822
4787.165	9.35853	4.01512	6.87110	6.61233
4791.678	10.07781	2.24068	9.61858	3.61880
4795.178	10.77246	2.18329	10.24238	3.38295
4799.168	12.29661	-0.05186	11.05629	1.06131
4803.166	12.00894	-1.57211	10.88606	-0.97618
4807.175	12.00383	-1.96914	11.17813	-0.89564
4811.167	12.07191	-3.36387	10.64209	-1.80071
4815.169	11.89157	-4.41546	10.97569	-2.29864
4819.170	12.38805	-2.23000	10.91387	-2.10421
4823.205	12.51305	-1.89131	11.02158	-1.86894
4827.165	12.54103	-1.88735	10.76963	-1.60456
4831.171	12.67820	-1.84764	10.99515	-1.68173
4835.163	12.70503	-2.09979	11.05003	-1.96097
4839.162	12.84076	-2.44102	11.19046	-1.48499
4843.172	12.92807	-2.58474	11.17295	-1.62503
4847.172	12.88261	-3.12889	11.17293	-1.79550
4851.168	12.93660	-3.09197	11.16588	-1.86756
4855.161	12.92262	-3.21430	11.06031	-1.86572
4859.255	12.95122	-3.35407	11.13100	-1.87136
4863.183	12.93795	-3.41977	11.17178	-1.86469
4867.170	12.90836	-3.45047	11.11024	-1.81318
4871.166	12.91623	-3.45016	11.11062	-1.80699
4875.181	12.88593	-3.50773	11.11303	-1.85014
4879.156	12.84437	-3.53216	11.12154	-1.80298
4883.174	12.82064	-3.55477	11.10381	-1.79551
4887.169	12.80596	-3.55237	11.09128	-1.74124
4891.166	12.79220	-3.59758	11.11435	-1.78902
4895.164	12.81974	-3.51141	11.16234	-1.83797
4899.181	12.84432	-3.45250	11.08304	-2.19464
4903.173	12.89529	-3.34495	11.12498	-2.34713
4907.171	12.98089	-3.21328	11.07788	-2.30756
4911.161	13.09687	-2.85480	11.12034	-2.27353
4915.171	13.08592	-2.72028	11.16554	-2.14716
4919.172	13.20157	-2.50124	11.17787	-2.01633
4923.164	13.22220	-2.51187	11.16175	-2.15266
4927.179	13.22436	-3.03349	11.08717	-2.28438
4931.172	13.15565	-3.68216	11.08665	-2.33714
4935.166	13.16885	-3.59231	10.99728	-2.36462
4939.165	13.17501	-3.62888	10.94634	-2.28063
4943.161	13.20402	-3.53358	10.94229	-2.22317
4947.162	12.96234	-3.76121	10.96456	-2.19755
4951.179	12.93203	-3.72894	11.02242	-2.09316
4955.170	12.91571	-3.64003	10.99602	-2.02387
4959.164	12.87466	-3.70729	10.94768	-1.97732
4963.164	12.77218	-3.61915	10.94354	-1.91674
4967.176	12.65963	-3.69908	10.97774	-1.74340
4971.166	12.61819	-3.59885	10.95913	-2.00085
4975.167	12.63218	-3.56267	10.98798	-2.01927
4979.167	12.59295	-3.54826	10.96743	-2.08344
4983.167	12.53951	-3.54411	11.00850	-2.07687
4987.163	12.51409	-3.50157	11.02636	-2.10456
4991.161	12.56983	-3.47933	11.06083	-2.07511
4995.544	12.58623	-3.47732	11.05832	-2.13070
4999.177	12.62537	-3.46618	11.01974	-2.15607
5003.166	12.60836	-3.48221	11.00364	-2.16342
5007.157	12.66540	-3.51390	11.06392	-2.20418
5011.189	12.71380	-3.50401	11.01823	-2.17415
5015.166	12.79284	-3.54601	11.06930	-2.12583
5019.178	12.86237	-3.56779	11.09016	-2.04046
5023.160	12.86286	-3.56016	11.09869	-2.05994
5027.164	12.91333	-3.55346	11.14063	-1.97422
5031.158	12.94634	-3.56211	11.14402	-1.90545
5035.174	12.94341	-3.54710	11.11623	-1.88661
5039.160	12.93733	-3.53389	11.08435	-1.80294
5043.179	12.94075	-3.49181	11.03346	-1.80720
5047.162	12.95433	-3.45413	11.06332	-1.77366
5051.196	12.93059	-3.39277	10.99649	-1.71385
5055.176	12.90451	-3.30132	10.90547	-1.66354
5059.165	12.83828	-3.20806	10.85289	-1.59041
5063.173	12.79565	-3.09781	10.77452	-1.53748
5067.161	12.80525	-3.07703	10.72314	-1.50032
5071.166	12.75387	-3.05149	10.61838	-1.41833
5075.159	12.72957	-2.99256	10.68571	-1.47317
5079.167	12.73918	-2.93900	10.65316	-1.43567
5083.159	12.70548	-2.91035	10.64820	-1.40118
5087.159	12.68864	-2.87785	10.68207	-1.41833
5091.155	12.66370	-2.84981	10.66282	-1.44602
5095.171	12.69278	-2.84666	10.68477	-1.53825
5099.160	12.72733	-2.84673	10.69609	-1.59505
5103.165	12.87001	-2.83575	10.74451	-1.66968
5107.155	12.89907	-2.85854	10.71255	-1.66249
5111.166	12.94285	-2.84785	10.70241	-1.75103
5115.160	12.94264	-2.84406	10.78096	-1.61472
5119.164	12.97957	-2.85514	10.77129	-1.51164
5123.155	12.99672	-2.87313	10.77469	-1.52499
5127.165	13.00509	-2.91198	10.81961	-1.57020
5131.163	13.01838	-2.97973	10.84530	-1.62467
5135.166	13.04862	-3.05852	10.92495	-1.62235
5139.164	13.00476	-3.24524	10.87900	-1.59166
5143.161	12.99123	-3.30891	10.93559	-1.58473
5147.154	12.89548	-3.46633	10.92437	-1.67165
5151.160	12.86803	-3.47513	10.97076	-1.72062
5155.179	12.81412	-3.43727	11.02189	-1.58395
5159.162	12.82564	-3.03390	10.93064	-1.28270
5163.164	12.68276	-0.75052	10.14725	0.91685
5167.160	11.47417	-0.10177	9.08786	2.57629
5171.172	10.25966	2.26770	7.43742	5.04497
5175.159	8.74103	4.05453	6.95685	6.30640
5179.174	8.14317	4.75000	6.74109	6.99790
5183.164	8.21191	4.86360	6.43800	7.87871
5187.166	8.32818	4.88514	6.61494	7.30410
5191.163	8.40116	4.51250	6.62397	7.09121
5195.159	8.35719	4.58879	6.67752	6.93930
5199.169	8.31338	4.46439	6.97115	6.59176
5203.165	8.27263	4.54665	7.24378	6.65942
5207.158	8.26643	4.69153	6.73603	7.10698
5211.165	8.13804	4.84459	6.65786	7.25111
5215.179	8.12507	4.96919	6.60500	7.33098
5219.178	8.09620	5.28825	6.44772	7.45686
5223.157	7.93033	5.62947	6.50998	7.38625
5227.166	7.86941	5.80749	6.57713	7.28593
5231.157	7.94253	5.63030	6.59101	7.48829
5235.159	7.94341	5.78902	6.62214	7.61927
5239.162	7.92254	5.85379	6.81612	7.60255
5243.157	7.91568	5.72369	6.52522	7.58987
5247.160	7.90623	5.81066	6.51711	7.66842
5251.158	7.91551	5.61397	6.47786	7.67095
5255.159	7.69700	5.55242	6.40859	7.62432
5259.167	7.78299	5.32429	6.44106	7.60563
5263.166	7.58703	5.51892	6.51888	7.50674
5267.401	7.46572	5.39042	6.52461	7.48052
5271.172	7.63377	5.25643	6.56015	7.46133
5275.159	7.65936	5.10878	6.58567	7.49456
5279.169	7.59629	5.13548	6.66704	7.35027
5283.153	7.69064	5.10921	6.52047	7.41004
5287.163	7.72008	4.97543	6.39452	8.34501
5291.163	8.02796	4.86873	6.45451	8.29211
5295.161	7.83152	5.09762	6.47137	8.25257
5299.153	7.79676	5.11675	6.39766	7.96637
5303.164	7.91563	5.17128	6.39195	7.87684
5307.162	7.73672	5.28857	6.38371	8.00611
5311.161	7.82248	5.35329	6.39263	8.12198
5315.153	7.81900	5.40707	6.40940	8.04859
5319.162	7.79697	5.53694	6.36655	8.23165
5323.152	7.77230	5.55158	6.28288	8.13622
5327.165	7.81644	5.47102	6.12107	8.32404
5331.168	7.80986	5.58145	6.08274	8.23912
5335.218	7.84019	5.56463	6.19282	8.20932
5339.182	7.84930	5.51928	6.05162	8.18950
5343.167	7.83083	5.50298	6.12158	8.22604
5347.155	7.84854	5.46480	6.12085	8.23772
5351.155	7.83824	5.55847	6.12168	8.24992
5355.160	7.84895	5.52611	6.08669	8.29222
5359.156	7.90905	5.50832	6.11145	8.28979
5363.165	7.87406	5.49693	6.06882	8.27855
5367.155	7.89057	5.49590	6.04458	8.31548
5371.158	7.82932	5.57363	6.03304	8.31718
5375.151	7.81315	5.54785	6.05866	8.30830
5379.166	7.78348	5.54258	6.04365	8.32225
5383.171	7.63898	5.58647	6.02053	8.38639
5387.164	7.76462	5.60851	6.02389	8.31676
5391.166	7.78426	5.60420	6.03817	8.27309
5395.157	7.67138	5.49559	6.01137	8.23605
5399.155	7.64371	5.26830	6.06831	8.24025
5403.190	7.64944	5.11425	6.14531	8.21910
5407.167	7.79817	5.00739	6.20479	8.06512
5411.157	7.94728	4.57494	6.14050	8.06821
5415.156	7.91521	5.19711	6.22015	8.05157
5419.150	7.67650	5.44379	6.40462	7.95841
5423.194	7.80021	5.34032	6.43836	7.78678
5427.152	7.71026	4.87207	6.41052	7.92761
5431.167	7.89608	4.37571	6.36734	7.85660
5435.154	7.71350	5.26412	6.53747	7.71905
5439.156	8.00226	5.32104	6.54203	7.72492
5443.168	8.05326	4.62896	6.66770	7.72441
5447.160	8.18611	4.49494	6.65578	7.56623
5451.159	8.08881	5.46117	6.49276	7.82873
5455.153	7.80942	5.01183	6.63984	7.56606
5459.160	7.92408	4.88564	6.75101	7.37936
5463.167	7.84878	3.96399	5.90016	7.72595
5467.157	3.99220	5.30773	3.65633	7.43530
5471.532	1.70970	5.11937	1.36553	7.04373
5475.159	-0.82230	4.50823	-0.84039	7.55418
5479.153	-3.06263	4.95035	-1.35008	6.64665
5483.158	-3.83487	4.72354	-2.93096	6.70807
5487.154	-4.17741	4.26376	-3.77184	6.15396
5491.042	-6.69897	4.06408	-6.03346	6.08995
5495.034	-7.07713	3.76555	-7.23047	5.74153
5499.029	-9.02108	4.05266	-8.18677	6.84830
5503.029	-9.05374	3.99782	-9.48533	6.26755
5507.030	-8.72665	3.87536	-9.27806	6.15825
5511.060	-8.78767	3.87974	-8.70876	6.09755
5515.038	-7.22172	3.53701	-6.80230	5.66994
5519.028	-7.71881	3.44188	-7.02074	5.63246
5523.031	-8.90679	3.80600	-8.72959	5.89990
5527.034	-8.79516	3.76346	-8.65977	5.91636
5531.032	-8.80207	3.94736	-8.75150	5.76903
5535.024	-8.75807	4.08963	-8.68072	5.36361
5539.082	-8.99397	4.47749	-8.71746	5.33187
5543.037	-9.02576	4.84181	-8.33860	5.44036
5547.024	-8.71560	4.63212	-8.28950	5.66215
5551.033	-8.95729	4.61607	-8.38634	5.58798
5555.032	-8.80328	4.52094	-8.40254	5.75057
5559.039	-8.99160	4.64880	-8.39724	5.92548
5563.033	-8.92679	4.08187	-8.33027	5.67885
5567.030	-8.67990	3.46495	-8.54355	5.75045
5571.028	-8.92844	4.36765	-8.37278	5.69559
5575.039	-8.89150	4.20196	-8.16384	5.62342
5579.038	-8.94559	4.40435	-8.55103	5.95728
5583.026	-8.66047	4.28355	-8.25972	5.84820
5587.027	-8.76212	4.50823	-8.53855	5.98168
5591.029	-8.54176	4.46477	-8.35792	6.20300
5595.030	-8.92072	4.66277	-8.32352	5.83730
5599.034	-8.46055	3.55409	-8.36304	5.82764
5603.039	-8.68628	3.89059	-8.34324	5.80467
5607.031	-8.93975	4.22372	-8.28325	5.69732
5611.036	-8.70061	4.34250	-8.17665	5.38217
5615.032	-8.58595	4.61730	-8.27467	5.21842
5619.026	-8.77635	4.77606	-8.31732	5.15899
5623.033	-8.49738	4.73709	-8.25464	5.48570
5627.027	-8.55838	4.33218	-8.20488	5.50266
5631.043	-8.39117	4.04751	-8.18606	5.41471
5635.082	-8.29385	3.99938	-8.23214	5.39485
5639.032	-8.56146	4.39405	-8.38716	5.41181
5643.025	-8.61724	4.42897	-8.48527	5.59403
5647.025	-8.66195	4.62023	-8.38610	5.35832
5651.030	-8.47959	4.27544	-8.24619	5.41748
5655.028	-8.37009	3.90472	-8.08912	5.13102
5659.025	-8.46854	4.06927	-8.21911	5.35369
5663.039	-8.30371	4.12892	-8.11158	5.30178
5667.030	-8.33421	4.14440	-8.44633	5.60436
5671.034	-8.68152	4.63302	-8.25673	5.28930
5675.037	-8.16170	4.04768	-8.06404	5.33538
5679.032	-8.38610	4.05619	-8.26796	5.38403
5683.031	-8.63884	4.19046	-8.31141	5.41181
5687.039	-8.34856	4.10255	-7.99586	5.35081
5691.029	-7.88283	4.15964	-8.06789	5.53805
5695.025	-6.76804	4.10718	-7.52803	5.46348
5699.033	-6.33314	4.04249	-7.20573	5.73286
5703.028	-6.42716	3.82756	-6.85818	5.32605
5707.021	-6.55501	3.69636	-7.09519	5.17977
5711.033	-7.57759	3.86892	-7.84287	5.16236
5715.042	-7.81132	3.94883	-7.94932	5.29059
5719.027	-6.67047	4.02426	-7.53871	5.39511
5723.029	-6.74092	4.12553	-7.40057	5.55074
5727.025	-7.01898	3.98292	-7.18220	5.98795
5731.024	-7.22260	3.69135	-7.44538	6.05778
5735.031	-6.93726	3.56732	-7.22927	5.57163
5739.029	-6.94844	3.64608	-7.20055	5.79044
5743.029	-7.16630	3.80994	-7.12962	5.42621
5747.082	-6.82528	3.84023	-7.08603	5.02366
5751.039	-6.69588	3.88795	-7.19647	5.39554
5755.026	-6.84996	3.97084	-7.24581	5.32729
5759.035	-7.11293	4.12812	-7.29631	5.49865
5763.050	-7.24967	4.14508	-7.14514	5.46190
5767.035	-7.07847	4.10640	-7.21647	5.62673
5771.024	-6.96876	4.17835	-7.05230	5.46009
5775.042	-6.92161	4.35449	-7.05936	5.51801
5779.030	-7.38549	4.45288	-7.13864	5.54333
5783.026	-7.36801	4.39901	-7.31855	5.45520
5787.023	-6.54102	4.10411	-7.44762	5.48004
5791.025	-6.56255	3.77519	-7.21958	5.50383
5795.028	-6.55138	3.43142	-7.24129	5.51275
5799.034	-6.60257	3.30150	-6.98416	5.47660
5803.022	-6.62740	3.21439	-7.09641	5.51718
5807.031	-6.98326	3.26605	-7.12813	5.51566
5811.058	-6.89637	3.26555	-7.17043	5.48097
5815.028	-6.59669	3.24325	-7.42261	5.43122
5819.026	-7.01893	3.13491	-7.25108	5.32303
5823.040	-6.42145	3.00695	-7.32859	5.29237
5827.026	-6.74660	3.07839	-7.28307	5.36021
5831.026	-6.70333	3.87284	-6.92577	5.29610
5835.029	-3.47955	2.86258	-5.58825	5.20699
5839.029	-1.41226	0.10722	-1.74977	1.79571
5843.022	0.75332	-2.10806	0.34246	1.33702
5847.028	2.13182	-3.74406	1.72887	-1.42575
5851.033	1.65996	-4.93255	1.43280	-2.19438
5855.018	2.85314	-6.09571	1.35010	-2.94898
5859.027	3.25127	-5.79545	1.34385	-2.95575
5863.023	3.81496	-4.65001	1.52766	-2.60225
5867.039	3.72440	-4.27271	1.68920	-2.24035
5871.021	3.31764	-4.39588	1.63529	-1.99461
5875.025	3.33092	-4.34410	1.66361	-2.19033
5879.040	3.26116	-4.94293	1.59613	-2.33310
5883.034	3.42675	-5.09784	1.59326	-2.49229
5887.022	3.60534	-5.18201	1.70038	-2.53973
5891.044	3.69009	-5.47607	1.72855	-2.52911
5895.031	3.67245	-5.47158	1.76507	-2.74674
5899.023	3.62677	-5.43440	1.77643	-2.71920
5903.026	3.74711	-5.36881	1.76477	-2.72960
5907.025	3.68209	-5.37548	1.70722	-2.74846
5911.019	3.73085	-5.41605	1.64811	-2.72359
5915.026	3.69222	-5.38726	1.66036	-2.78920
5919.024	3.76028	-5.25646	1.68218	-2.79011
5923.021	3.75682	-5.23005	1.71910	-2.75105
5927.020	3.83290	-5.07271	1.75493	-2.71695
5931.025	3.94611	-4.87185	1.69307	-2.68098
5935.027	4.03828	-4.72545	1.67553	-2.68613
5939.021	3.81061	-4.88184	1.69311	-2.66160
5943.020	3.71552	-5.12129	1.72118	-2.58888
5948.444	3.89612	-5.18935	1.81121	-2.53480
5951.224	3.90247	-4.94660	1.97612	-2.49145
5955.028	3.70947	-4.73954	1.98893	-2.43105
5959.021	3.68876	-4.69586	2.00314	-2.39211
5963.024	3.89397	-4.84727	1.90810	-2.36180
5967.018	4.00406	-5.43638	1.82542	-2.43341
5971.028	3.80473	-4.99592	1.69522	-2.44759
5975.027	4.04275	-4.96495	2.00294	-2.38824
5979.025	4.01171	-4.94170	2.08900	-2.37158
5983.033	3.90951	-5.04305	1.77754	-2.48279
5987.033	3.92675	-5.08713	1.92877	-2.45300
5991.017	4.03379	-4.99259	1.64325	-2.41297
5995.024	3.98477	-4.91447	1.76207	-2.42147
5999.021	3.92927	-5.15322	1.86551	-2.39572
6003.038	3.94609	-5.04045	1.64717	-2.34693
6007.020	4.07555	-4.96229	1.77985	-2.42871
6011.023	3.77881	-5.01787	1.83593	-2.37097
6015.032	4.17203	-4.97262	2.03563	-2.31719
6019.036	4.10219	-4.93613	1.95815	-2.33694
6023.014	3.86536	-5.08644	2.02686	-2.29702
6027.032	4.06100	-4.98807	1.86893	-2.34479
6031.026	4.11690	-4.67467	1.91494	-2.31463
6035.017	3.98822	-5.17533	1.97768	-2.27219
6039.026	4.13962	-4.73145	2.03149	-2.23029
6043.021	4.08436	-5.20395	1.94726	-2.35118
6047.018	4.08053	-4.65794	1.76294	-2.35502
6051.020	3.95555	-5.45844	1.86853	-2.31040
6055.030	4.06229	-4.74697	1.88380	-2.31814
6059.019	4.01453	-5.23473	1.87753	-2.32857
6063.024	3.97879	-4.76230	1.80382	-2.31510
6067.018	4.03134	-4.87283	1.71035	-2.34135
6071.025	4.03181	-4.85151	1.82160	-2.29087
6075.018	3.99208	-4.98307	1.82611	-2.25590
6079.019	4.00956	-4.83274	1.89104	-2.24064
6083.042	3.98748	-4.89834	1.83320	-2.36631
6087.026	3.99129	-4.76841	1.82772	-2.28977
6091.016	3.97617	-5.24876	1.99491	-2.25762
6095.019	4.02352	-4.61746	1.77682	-2.26804
6099.019	4.05767	-5.11913	1.94801	-2.29653
6103.025	4.03549	-4.67772	1.86065	-2.31264
6107.019	4.09594	-4.75559	1.87713	-2.30122
6111.017	3.94601	-5.06687	1.83938	-2.30972
6115.017	4.10643	-4.64772	1.74476	-2.27170
6119.018	3.93223	-4.81316	1.75642	-2.29549
6123.019	3.86620	-5.33224	1.86295	-2.26538
6127.018	4.33900	-4.34100	2.40587	-2.05598
6131.018	7.11523	-4.30649	5.47591	-1.97966
6135.019	9.03812	-4.23866	6.91848	-1.85342
6139.046	11.50980	-3.31469	9.39562	-1.74753
6143.021	12.06515	-3.09435	10.42024	-1.75078
6147.017	13.45989	-3.19003	11.19127	-1.82692
6151.082	14.30028	-1.47594	11.80897	-1.77036
6155.017	14.43117	-2.64305	13.20096	-1.85915
6159.025	15.09668	-1.89371	13.95589	-2.09802
6163.017	15.09522	-1.66741	13.63550	-2.30557
6167.021	15.09548	-1.22051	13.61398	-2.06016
6171.028	15.08322	-1.59688	13.36983	-1.81924
6175.072	14.70581	-1.60073	13.49453	-1.89783
6179.053	14.96172	-1.64614	13.57232	-2.06694
6183.033	15.14206	-1.39521	13.71882	-2.09246
6187.020	14.97476	-1.49660	13.82167	-2.15154
6191.017	15.28882	-1.34675	13.89589	-2.19405
6195.032	15.19170	-1.26310	13.82351	-2.20868
6199.020	15.29238	-1.34906	13.83907	-2.08842
6203.019	15.08618	-1.40464	13.89723	-2.10604
6207.021	15.25316	-1.38870	14.00506	-2.03655
6211.017	15.07498	-1.43946	14.00555	-2.01153
6215.018	15.22627	-1.44626	14.04661	-2.03967
6219.083	15.14655	-1.35016	14.01492	-2.09098
6223.025	15.41407	-1.22879	14.10375	-2.04174
6227.016	15.08639	-1.51131	13.96636	-2.10854
6231.010	15.22518	-1.28752	13.96914	-2.16718
6235.023	15.09407	-1.30529	13.89667	-2.16814
6239.027	15.17390	-1.36628	14.00305	-2.07575
6243.017	15.24715	-1.41977	13.79431	-2.06776
6247.023	15.23895	-1.36905	13.88860	-2.07174
6251.016	15.23172	-1.47929	13.79058	-2.05796
6255.015	15.08817	-1.54208	13.84401	-2.08149
6259.026	15.36352	-1.28439	13.67033	-2.07023
6263.026	15.07086	-1.56702	13.86069	-2.12015
6267.017	15.34984	-1.43763	13.69713	-2.02018
6271.017	15.11657	-1.63769	13.84764	-2.03803
6275.032	15.29720	-1.55483	13.78522	-2.03841
6279.019	15.09145	-1.52377	13.78878	-1.93362
6283.014	15.45680	-1.41901	13.84357	-1.96144
6287.108	15.15464	-1.48535	13.70259	-1.96383
6291.016	15.26104	-1.67940	13.78534	-1.97237
6295.026	15.32842	-1.33385	14.03856	-1.93758
6299.016	15.24757	-1.15277	13.68675	-1.89834
6303.017	15.47515	-1.15279	13.89337	-2.04568
6307.083	NaN	NaN	NaN	NaN
6315.031	15.40982	-1.38701	13.67539	-1.99000
6319.018	15.52386	-1.16271	13.82492	-2.12168
6323.021	15.25217	-1.17818	13.90515	-1.98378
6327.013	15.44997	-1.27574	13.75285	-2.03628
6331.029	15.32862	-1.32171	13.50286	-2.05135
6335.020	15.28815	-1.43283	13.79157	-2.16426
6339.020	15.23648	-1.29011	13.97627	-2.14048
6343.013	15.36221	-1.05298	13.89674	-2.07001
6346.900	15.52463	-1.28392	13.70476	-2.19295
6350.898	15.52133	-1.16923	13.75296	-2.10207
6354.923	15.09936	-1.34727	13.71275	-2.09259
6358.892	15.27048	-1.37373	13.85314	-2.08521
6362.901	15.28305	-1.42810	13.99237	-2.04933
6366.889	15.58589	-1.30361	13.81453	-2.15949
6370.890	15.51011	-1.57820	13.94376	-2.05516
6374.890	15.44997	-1.09314	13.94146	-2.04860
6378.895	15.23265	-1.41289	13.80329	-1.71413
6382.887	15.38789	-1.26683	13.76476	-1.90682
6386.892	15.33781	-1.40663	13.76247	-1.83962
6390.902	15.45115	-1.27791	13.79726	-1.93568
6394.905	15.45069	-1.24897	13.89119	-1.76882
6398.890	15.57212	-1.37506	13.90735	-1.85183
6402.889	15.51463	-1.28532	13.94836	-1.86643
6406.889	15.61951	-1.43193	13.94184	-1.87034
6410.895	15.46397	-1.24882	13.89372	-1.75798
6414.889	15.43688	-1.54489	14.08549	-1.86371
6418.892	15.19565	-1.49975	14.06488	-1.77642
6422.958	15.37342	-1.53322	14.16534	-1.81321
6426.889	15.24771	-1.65018	14.12996	-1.90913
6430.889	15.31524	-1.16968	14.09798	-1.86772
6434.892	15.36276	-1.58116	14.21323	-1.87999
6438.886	15.40560	-1.60051	14.15906	-1.81884
6442.904	15.21266	-1.66608	14.01485	-1.70228
6446.889	14.68405	-1.52307	13.65559	-1.62008
6450.892	13.16866	-1.45467	10.53878	-1.06568
6454.907	9.78643	-1.73794	8.97026	0.36849
6458.887	7.32778	-1.71792	6.12595	0.98525
6462.894	6.55513	-1.74861	5.07624	0.94298
6466.886	4.86103	-1.85584	2.92319	1.33359
6470.888	2.45919	-1.76992	2.19767	0.92926
6474.889	2.47395	-1.77169	1.81146	0.93706
6478.915	2.20151	-1.79098	1.22330	0.92698
6482.894	2.35241	-1.77748	1.03039	1.00645
6486.882	2.40882	-1.84211	1.15332	1.15274
6490.907	2.51081	-2.18337	1.26493	1.16215
6494.892	2.48257	-1.84119	1.16620	1.19264
6498.885	2.42094	-1.86482	1.09748	1.18537
6502.890	2.34309	-1.95983	0.85823	1.12373
6506.881	2.30561	-1.88221	0.77526	1.23567
6510.907	2.35147	-1.78502	0.56692	1.15192
6514.889	2.27211	-1.81238	0.53510	1.10071
6518.890	2.36200	-2.13298	0.37310	1.13931
6522.888	2.02309	-1.66063	0.25785	1.15835
6526.891	2.13271	-1.95451	0.43740	1.15895
6530.885	2.16781	-1.90347	0.47867	1.13927
6534.886	2.44915	-1.84012	0.37400	1.24355
6538.894	2.50977	-1.68322	0.18469	1.26769
6542.895	2.10768	-1.79839	0.21599	1.18160
6546.884	2.00031	-2.03032	0.21132	1.09670
6550.890	1.92022	-1.97677	0.22497	1.13975
6554.887	2.40439	-1.87059	0.31483	1.02525
6559.288	2.49327	-1.84108	0.28086	1.01666
6562.902	2.71889	-1.88360	0.14384	1.26970
6566.891	2.28727	-1.94622	0.28260	1.25273
6570.882	2.29275	-2.09617	0.34514	1.24577
6574.895	1.96809	-2.04165	0.27607	1.13671
6578.883	2.03236	-2.07369	0.20244	0.92410
6582.893	2.28450	-1.91860	0.33685	0.95055
6586.885	2.68965	-1.99958	0.26374	0.83270
6590.885	2.66394	-1.89772	0.34528	0.89262
6594.883	2.55356	-1.97557	0.38976	0.91115
6598.899	1.77858	-1.98491	0.33811	1.05682
6602.891	1.94607	-1.64476	0.29049	1.06803
6606.886	2.12037	-1.95234	0.38162	1.01223
6610.890	2.40625	-2.09605	0.37536	0.82313
6614.886	2.74128	-2.07884	0.37385	0.73203
6618.898	2.32845	-1.73492	0.48316	1.12352
6622.891	2.00839	-1.82517	0.38534	0.86673
6626.890	2.37503	-2.17519	0.40470	0.55788
6630.910	1.77452	-1.80872	0.44678	0.72141
6634.887	1.82440	-2.02515	0.35819	0.94742
6638.906	1.86181	-2.05552	0.39668	0.55286
6642.891	2.07720	-1.75349	0.46646	0.72923
6646.884	2.33487	-2.16194	0.41422	0.70907
6650.923	2.41388	-1.98051	0.41040	0.47179
6654.892	2.33732	-1.89477	0.33772	0.54919
6658.895	2.35429	-2.22173	0.29103	0.61836
6662.884	2.22121	-1.92317	0.32153	0.39526
6666.885	1.99253	-2.10040	0.39129	0.34877
6670.890	1.53024	-1.92095	0.40420	0.52990
6674.883	2.05172	-2.02175	0.39824	0.46332
6678.892	1.96655	-2.21567	0.39720	0.56434
6682.884	1.87193	-2.05707	0.25875	0.57411
6686.895	2.10488	-2.10667	0.27366	0.47093
6690.884	1.93544	-2.30620	0.24649	0.37492
6694.890	2.02180	-2.09138	0.18779	0.65840
6698.886	1.92736	-1.88182	0.23252	0.49771
6702.890	1.99669	-2.10828	0.30458	0.35007
6706.885	1.85604	-2.15228	0.30396	0.21581
6710.882	2.07350	-2.12348	0.37834	0.28814
6714.883	2.03851	-2.03467	0.28525	0.44113
6718.886	2.15467	-2.04463	0.38988	0.33279
6722.885	2.25377	-2.11068	0.29898	0.24478
6726.888	2.32848	-2.22745	0.34841	0.20189
6730.890	2.60275	-2.30020	0.36779	-0.01511
6734.889	2.47345	-1.93606	0.49852	0.23491
6738.888	2.54459	-1.92098	0.48545	0.11897
6742.881	2.67955	-2.17949	0.12635	0.24121
6746.899	2.71817	-2.20941	0.22539	0.20021
6750.886	2.85838	-2.22215	0.06425	0.33486
6754.883	2.81479	-1.96141	0.20599	0.20279
6758.897	2.86480	-1.85267	0.18487	0.10814
6762.890	2.92124	-2.20825	0.24579	0.14964
6766.896	2.89750	-2.27481	0.23103	0.34229
6770.885	2.87393	-2.07261	0.18060	0.28477
6774.883	2.80548	-1.79026	0.13826	0.22404
6778.884	2.79312	-2.08192	0.20824	0.12959
6782.887	2.64896	-2.23831	0.24386	0.17059
6786.883	2.33014	-2.00999	0.27706	0.21206
6790.887	2.05913	-1.49357	0.21611	0.97836
6794.877	2.24951	-1.16375	0.31138	0.80472
6798.901	1.88697	-1.32812	0.08279	0.79184
6802.889	2.09457	-2.01783	0.29630	1.05750
6806.883	2.07217	-1.12752	0.36841	1.10811
6810.918	2.43986	-1.40540	0.02871	0.48539
6814.882	2.35744	-1.99312	0.32990	0.99979
6818.881	2.18979	-0.95665	0.53188	1.29191
6822.903	2.01392	-1.49160	0.49567	1.14257
6826.887	1.94684	-1.34391	0.46691	0.73813
6830.914	1.82398	-1.31496	0.44346	1.29081
6834.890	2.26371	-1.86309	0.38318	0.91405
6838.881	2.23075	-1.26562	0.33858	0.99847
6842.881	2.51997	-1.61817	0.19263	1.14161
6846.879	2.55812	-1.47655	0.21182	0.98343
6850.897	2.23945	-1.30937	0.32479	1.03325
6854.888	2.19286	-1.72196	0.36248	1.10568
6858.883	2.07078	-1.06672	0.14332	0.75820
6862.877	1.77600	-1.53150	0.30076	0.94986
6866.881	2.38006	-1.80936	0.31910	1.07722
6870.900	2.47747	-1.69938	0.33238	0.87722
6874.880	2.33871	-1.09468	0.31486	0.69678
6878.878	2.39807	-1.20107	0.36623	0.81960
6882.880	2.25164	-1.68515	0.27227	1.20112
6886.876	2.13804	-1.71792	0.27059	1.19717
6890.900	2.26286	-1.98871	0.26262	1.21736
6894.889	2.24378	-1.72244	-0.01901	1.20188
6898.908	2.32744	-1.07272	0.24150	1.18634
6902.882	2.29535	-1.38205	0.11141	1.26258
6906.892	2.22629	-1.11246	0.36022	1.15178
6910.878	2.25305	-1.11666	0.37653	1.09296
6914.879	2.16647	-1.04603	0.38688	1.05721
6918.883	2.10981	-1.28548	0.46185	1.13691
6922.885	1.95592	-1.18690	0.41184	1.10634
6926.888	1.83310	-1.31334	0.50259	1.00829
6930.878	1.85177	-1.25783	0.49329	0.92477
6934.883	2.05477	-1.25814	0.45969	0.85770
6938.890	2.19950	-1.29245	0.53486	0.67820
6942.875	2.11264	-1.56700	0.64578	0.63900
6946.885	2.05950	-2.04592	0.63315	0.76727
6950.883	2.14907	-1.60073	0.60419	0.99980
6954.897	2.40005	-1.42271	0.48704	1.06348
6958.885	2.30177	-1.42418	0.37149	0.98182
6962.879	2.31232	-1.53056	0.34893	0.93443
6966.892	2.42470	-1.74906	0.34429	0.74331
6970.901	2.37865	-1.77474	0.43502	0.67401
6974.885	2.39304	-1.70966	0.45147	0.90525
6978.887	2.33291	-1.64144	0.39646	1.26106
6982.883	2.24376	-1.30415	0.31282	1.14796
6986.877	2.15918	-1.39545	0.20968	1.17527
6990.883	2.11504	-1.48615	0.20936	1.06645
6994.876	2.02522	-1.58800	0.23686	1.02213
6998.877	2.03082	-1.66035	0.29188	0.88505
7002.890	1.91062	-1.65122	0.43132	0.99078
7006.888	1.84409	-1.18360	0.42983	1.20376
7010.879	1.74147	-0.94985	0.37767	1.15953
7014.883	1.64682	-1.19860	0.15134	1.30003
7018.888	1.60809	-1.39418	0.05845	1.21171
7022.895	1.52312	-1.53809	0.04946	1.16430
7026.878	1.71665	-1.45817	0.35797	1.11693
7030.877	4.44862	-1.48645	2.81608	1.04043
7035.385	7.08783	-1.71144	5.36388	1.16521
7038.883	8.52896	-1.83689	5.67347	1.14987
7042.881	9.26778	-2.43074	7.88509	0.89517
7046.872	9.70090	-2.41371	8.81506	-0.36605
7050.880	11.03038	-2.27048	9.18823	-0.57860
7054.877	11.16848	-1.91286	9.30430	-1.09118
7058.883	11.01072	-1.89323	9.24709	-0.94175
7062.878	10.64547	-2.11099	8.97862	-0.88420
7066.879	9.98526	-2.22209	8.66319	-0.88120
7070.878	10.48744	-2.52089	8.71489	-0.73567
7074.900	10.89231	-2.73133	8.87888	-0.35638
7078.878	10.87254	-2.51627	9.02931	-0.60919
7082.882	11.12484	-2.32235	9.00675	-0.45663
7086.877	11.53989	-2.22766	9.11373	-0.51675
7090.886	11.58175	-2.14403	9.09609	-0.64644
7094.881	11.54208	-2.00654	8.89034	-0.58509
7098.873	11.30555	-1.89956	8.61370	-0.48409
7102.932	11.18711	-1.95737	8.72871	-0.48139
7106.884	11.20340	-2.04405	8.63241	-0.37495
7110.887	11.20295	-2.63016	8.91943	-0.37758
7114.877	11.25989	-2.55435	8.93765	-0.29015
7118.875	11.13592	-2.28152	9.03943	-0.27959
7122.878	11.02258	-2.13384	9.00031	-0.23765
7126.882	11.03886	-2.22534	9.00692	-0.16549
7130.875	11.17904	-2.25548	9.05303	-0.21568
7134.885	11.15021	-2.25709	8.98649	-0.16739
7138.874	11.20741	-2.30030	9.07879	-0.25745
7142.891	11.38621	-2.30274	9.04374	-0.29976
7146.876	11.44347	-2.35044	9.05037	-0.30846
7150.881	11.43712	-2.40243	9.12161	-0.42001
7154.884	11.47963	-2.43727	9.10579	-0.16363
7158.883	11.56753	-2.45648	9.07150	-0.34837
7162.886	11.56522	-2.59055	9.00443	-0.18532
7166.876	11.50799	-2.47562	9.00043	-0.18221
7170.936	11.57796	-2.20689	9.02162	-0.14416
7174.878	11.48649	-2.22123	9.00135	-0.14382
7178.915	11.58484	-2.03660	9.03416	-0.19888
7182.888	11.65268	-2.11621	9.04737	-0.08749
7186.876	11.58229	-2.04082	8.95963	-0.04126
7190.880	11.57119	-2.09935	9.01995	-0.13613
7194.884	11.48666	-2.44987	8.99281	0.04047
7198.754	11.49457	-2.64007	9.07015	0.08898
7202.749	11.26553	-2.39832	9.13250	0.12088
7206.756	11.16660	-1.89675	9.18226	0.18700
7210.753	11.03929	-0.90901	9.31709	0.22665
7214.754	6.92427	-0.29651	3.98790	0.27555
7218.749	NaN	NaN	9.71686	0.43341
7222.753	NaN	NaN	NaN	NaN
7226.748	NaN	NaN	NaN	NaN
7230.757	NaN	NaN	NaN	NaN
7234.749	NaN	NaN	NaN	NaN
7238.763	NaN	NaN	NaN	NaN
7242.742	NaN	NaN	NaN	NaN
7246.750	NaN	NaN	NaN	NaN
7250.749	NaN	NaN	NaN	NaN
7254.763	NaN	NaN	NaN	NaN
7258.751	NaN	NaN	NaN	NaN
7262.757	NaN	NaN	NaN	NaN
7266.759	NaN	NaN	NaN	NaN
7270.763	NaN	NaN	NaN	NaN
7274.767	NaN	NaN	NaN	NaN
7278.757	NaN	NaN	NaN	NaN
7282.756	NaN	NaN	NaN	NaN
7286.759	NaN	NaN	NaN	NaN
7290.753	NaN	NaN	NaN	NaN
7294.757	NaN	NaN	NaN	NaN
7298.874	NaN	NaN	NaN	NaN
7302.750	NaN	NaN	NaN	NaN
7306.750	NaN	NaN	NaN	NaN
7310.749	NaN	NaN	NaN	NaN
7314.751	NaN	NaN	13.70980	2.21889
7318.754	19.73754	0.83405	10.89590	0.02030
7322.748	NaN	NaN	4.59120	0.79638
7326.754	NaN	NaN	4.62562	0.79776
7330.751	NaN	NaN	5.11908	0.24676
7334.748	6.40881	0.18654	6.43775	-0.44754
7338.746	6.25740	-2.84207	7.44337	-0.02523
7342.749	6.48666	-2.17087	11.21104	1.22763
7346.753	6.86469	-2.08878	10.93514	0.29438
7350.742	6.41219	-2.26311	11.29765	0.50691
7354.756	6.49957	-2.32689	11.02751	0.18878
7358.762	12.49138	-1.62073	11.19411	0.24440
7362.758	14.62554	-1.36027	10.89578	-0.09338
7366.744	13.54335	-1.53604	10.65513	0.04616
7370.754	13.69940	-1.39667	10.34573	0.18026
7374.809	13.56270	-1.56040	10.57481	0.10057
7378.756	12.66318	-2.07790	10.56733	0.36343
7382.774	12.86296	-1.75965	10.41162	0.28013
7386.761	12.74546	-1.92828	10.43522	0.05557
7390.746	12.45653	-2.15399	10.35875	-0.14200
7394.749	12.41824	-1.48958	10.34559	-0.13584
7398.762	12.51262	-1.37946	10.35949	-0.22085
7402.747	12.41646	-1.54038	10.35822	-0.17715
7406.750	12.54930	-1.59713	10.33480	-0.10764
7410.750	12.33958	-1.62713	10.49464	-0.34583
7414.745	12.36030	-1.69220	10.46647	-0.29046
7418.749	12.37025	-1.77696	10.43731	-0.39349
7422.747	12.21490	-1.66457	10.46431	-0.31529
7426.744	12.20024	-1.67364	10.43073	-0.19543
7430.761	12.14648	-1.60757	10.47657	-0.19548
7434.752	12.24898	-1.56487	10.38336	-0.29643
7438.756	12.32539	-1.66096	10.39107	-0.40905
7442.767	12.37797	-1.71371	10.37885	-0.49512
7446.753	12.50084	-1.73084	10.38495	-0.66966
7450.752	12.22931	-1.86930	10.44007	-0.51071
7454.743	12.26213	-2.13131	10.37316	-0.38407
7458.742	12.42557	-1.78827	10.32481	-0.37217
7462.762	12.48845	-1.78861	10.27383	-0.21793
7466.742	12.47830	-1.71337	10.27753	-0.25159
7470.751	12.36402	-1.73047	10.32844	-0.41439
7474.752	12.42188	-1.66307	10.33178	-0.45577
7478.747	12.54129	-1.73416	10.26773	-0.21116
7482.754	12.56425	-1.79424	10.35347	-0.22262
7486.749	12.61516	-1.80038	10.37191	0.00535
7490.742	12.59347	-1.88309	10.40195	-0.05318
7494.779	12.30061	-2.41057	10.46750	-0.05603
7498.758	12.40420	-2.13901	10.51988	-0.23474
7502.744	12.51681	-1.87786	10.07079	-0.21579
7506.748	12.52785	-1.84715	10.26206	-0.32677
7510.759	12.52021	-1.83577	10.32174	-0.33790
7514.751	12.43336	-1.83025	10.31602	-0.20289
7518.744	12.53734	-1.79145	10.31914	0.01007
7522.761	12.50094	-1.63529	10.40180	0.06120
7526.754	12.62736	-1.51651	10.35973	0.12486
7530.746	12.51059	-1.64553	10.07882	-0.26572
7534.745	12.37302	-1.85279	10.10985	-0.15258
7538.744	12.45300	-1.83641	10.22536	-0.25606
7542.750	12.51766	-1.87609	10.14809	-0.27454
7546.743	12.43331	-1.69669	10.24077	-0.22380
7550.748	12.26119	-1.52098	10.41755	-0.14737
7554.740	12.22995	-1.54812	10.39559	-0.15322
7558.748	11.78350	-1.68206	10.20430	-0.16415
7562.751	10.20959	-2.23885	8.88525	-0.20208
7566.752	7.94460	-2.51981	5.91830	-0.19721
7570.742	5.08478	-3.89697	5.72608	-0.32780
7574.765	4.33549	-3.39974	2.89096	-0.44313
7578.753	3.98650	-3.91167	2.33165	-0.60748
7582.780	3.94251	-4.06688	2.20101	-0.61022
7586.740	3.96283	-4.26472	2.37882	-0.44260
7590.750	3.95086	-4.32071	2.62571	-0.55768
7594.742	3.99872	-4.24350	2.51881	-0.50195
7598.747	4.30991	-3.10608	2.56812	-0.43705
7602.739	4.36446	-3.84609	2.59936	-0.58879
7606.754	4.30941	-4.12469	2.73635	-0.77863
7610.742	4.07473	-4.13739	2.30603	-0.88017
7614.745	3.70477	-4.31677	2.05970	-0.82058
7618.746	3.71201	-4.22629	1.94783	-0.90647
7622.747	3.87418	-3.94546	1.92394	-1.00726
7626.742	3.97086	-4.00907	2.01930	-1.21861
7630.739	3.78563	-4.02658	1.89094	-1.25705
7634.746	3.59332	-3.91401	1.92317	-0.42788
7638.759	3.44594	-3.97928	1.92359	-0.45678
7642.752	3.55310	-4.24138	1.94612	-0.88209
7646.775	3.49708	-3.99827	2.18699	-0.85023
7650.745	3.54952	-4.03620	2.12924	-0.99494
7654.746	3.42688	-4.01328	2.33898	-1.02873
7658.750	3.60633	-3.93782	2.21402	-1.14546
7662.743	3.41995	-3.88925	2.08513	-0.91612
7666.746	3.41629	-3.95186	1.94533	-0.77666
7670.744	3.35051	-3.94622	1.72168	-0.81627
7674.749	3.37858	-4.05450	1.70249	-0.81121
7678.740	3.39587	-4.31932	1.57324	-0.89570
7682.751	3.41503	-3.96554	1.28375	-1.12529
7686.742	3.54267	-3.98692	1.91831	-1.13174
7690.748	3.54104	-4.02405	2.35184	-1.01261
7694.752	3.63574	-3.97452	2.06134	-1.04176
7698.748	3.77671	-3.99812	2.16156	-1.14155
7702.747	3.70601	-3.99321	2.17489	-1.20759
7706.741	3.77864	-3.99226	2.03402	-1.31354
7710.750	3.90323	-4.00276	2.10454	-1.18962
7714.778	4.07695	-4.00601	1.87788	-1.10883
7718.741	4.12204	-3.98053	2.02307	-1.11390
7722.742	4.11310	-3.96873	2.07730	-1.12009
7726.744	4.17914	-4.02865	1.99815	-1.18173
7730.746	4.13910	-4.10940	2.01204	-1.14819
7734.739	4.14707	-4.10124	1.95829	-1.20765
7738.746	4.22076	-4.22256	1.90425	-1.09176
7742.740	4.17453	-4.28327	1.92865	-0.71869
7746.746	4.20815	-4.35886	1.90349	-0.77733
7750.738	4.14310	-4.39711	1.90130	-0.81758
7754.743	3.99628	-4.39313	1.88509	-0.80919
7758.758	3.96269	-4.42296	1.89927	-0.91946
7762.761	3.94826	-4.25777	1.86811	-1.01953
7766.744	3.87341	-3.92683	1.82554	-1.18173
7770.752	3.81199	-4.14067	1.84666	-1.20567
7774.768	3.68913	-3.65334	1.91201	-1.02231
7778.747	3.54910	-3.85391	2.04237	-1.13153
7782.765	3.47787	-3.87620	1.97736	-1.27913
7786.744	3.40193	-3.83841	1.99102	-1.24519
7790.747	3.35362	-3.82475	1.70259	-1.16502
7794.749	3.28256	-3.82697	1.45567	-1.27429
7799.416	NaN	NaN	NaN	NaN
7806.740	3.28244	-3.79269	1.82222	-1.22530
7810.744	3.21401	-3.78349	1.99151	-1.27582
7814.747	3.26079	-3.85867	2.12486	-1.30979
7818.736	3.34099	-3.88088	2.12045	-1.35146
7822.744	3.54324	-4.04788	1.93623	-1.37942
7826.741	3.52554	-4.04312	1.89089	-1.38293
7830.739	3.43949	-3.89152	1.69309	-1.35274
7834.776	3.31828	-3.94213	1.47734	-1.31383
7838.750	3.46674	-3.86558	1.80742	-1.02416
7842.740	3.49223	-3.73418	1.74506	-1.18411
7846.743	3.66011	-3.84660	1.57731	-1.08554
7850.762	3.68055	-3.75808	1.93212	-1.47368
7854.746	3.53236	-3.70172	1.91092	-1.40741
7858.747	3.67452	-3.56735	1.91705	-1.35980
7862.743	3.49634	-3.61698	1.64523	-1.16409
7866.735	3.53636	-3.55657	1.75937	-1.18753
7870.746	3.39196	-3.53885	1.71159	-0.92822
7874.740	3.38464	-3.57513	1.85400	-1.29871
7878.738	3.61508	-3.64349	1.90663	-1.07396
7882.798	3.56163	-3.87425	1.72099	-1.14013
7886.740	3.55703	-3.80724	1.69936	-0.90672
7890.752	3.41058	-3.85485	1.65870	-1.05741
7894.740	3.52450	-3.79883	1.85328	-1.04231
7898.746	3.59201	-3.80655	1.79177	-1.15179
7902.740	3.66293	-3.80307	1.92537	-1.03574
7906.741	3.58452	-3.83757	1.90966	-1.39639
7910.738	3.62242	-3.88441	2.03142	-1.27564
7914.737	3.65811	-3.88796	1.93070	-1.71063
7918.774	3.65764	-3.81136	2.00733	-1.13660
7922.747	3.60860	-3.71805	1.67229	-1.15201
7926.740	3.44268	-3.70535	1.87034	-0.81945
7930.737	3.52168	-3.66980	1.80665	-1.17998
7934.736	3.67190	-3.69885	1.98380	-1.25120
7938.743	3.59805	-3.77615	2.03851	-1.43031
7942.743	3.59256	-3.78953	2.29483	-1.36366
7946.738	3.41530	-3.82206	2.08327	-1.54048
7950.743	3.56972	-4.04626	2.29389	-1.29363
7954.737	3.51775	-3.97468	1.71858	-1.27068
7958.737	3.43551	-3.73823	2.02981	-1.10806
7962.738	3.44134	-4.02620	1.77529	-1.22781
7966.739	3.52165	-4.07655	2.02624	-1.32024
7970.737	3.68006	-4.05193	1.97691	-1.43317
7974.762	3.17844	-3.76447	1.95768	-1.35175
7978.748	2.90960	-3.05982	1.56372	-0.94748
7982.744	-0.32598	-0.88686	-0.46971	2.03889
7987.007	-1.56980	2.46140	-1.53607	2.71432
7990.750	-2.16798	2.93515	-4.01527	5.55265
7994.736	-5.09913	6.02535	-5.10497	6.80363
7998.746	-4.70160	6.00924	-5.32272	7.63721
8002.739	-6.87646	7.40566	-6.43657	10.34525
8006.733	-7.14032	8.38666	-7.07315	10.63471
8010.735	-9.23633	8.90561	-8.28799	11.29265
8014.747	-8.88285	9.66148	-7.99761	11.80278
8018.735	-8.89356	10.09126	-8.45521	12.86016
8022.746	-8.98985	9.91011	-7.96419	13.07266
8026.748	-8.67095	9.79621	-7.94005	12.17945
8030.734	-8.25204	9.88915	-8.40893	13.12464
8034.739	-9.84647	10.08460	-8.65567	13.11520
8038.731	-8.88598	9.94776	-8.71317	12.40978
8042.741	-8.79504	10.12165	-8.89824	13.40601
8046.734	-8.82092	10.03862	-8.55158	13.54204
8050.738	-9.54976	10.12897	-8.83917	12.86055
8054.762	-9.00850	10.24840	-8.67929	13.15282
8058.629	-8.95840	10.28900	-8.40618	13.18731
8062.613	-8.87496	10.23957	-8.45055	12.65178
8066.615	-8.93755	10.16788	-9.26360	13.45489
8070.614	-8.87186	10.14945	-8.88952	13.37428
8074.636	-8.87612	10.29742	-8.55474	12.68005
8078.614	-8.88530	10.33866	-8.60880	13.02287
8082.608	-9.16109	10.31647	-8.71749	12.56193
8086.615	-9.19188	10.27549	-8.71577	13.19040
8090.614	-9.00975	10.25673	-8.59640	13.21067
8094.613	-9.20671	10.28794	-8.74365	12.86378
8098.604	-10.09383	10.46237	-8.80006	13.05769
8102.609	-9.10439	10.27290	-8.67228	12.81419
8106.622	-9.00479	10.28816	-8.73599	13.09028
8110.622	-9.31873	10.37984	-8.81838	12.89315
8114.609	-10.14436	10.56523	-8.80279	12.98769
8118.609	-8.91769	10.29716	-8.82010	13.12091
8122.853	-9.17744	10.28542	-9.12960	13.08753
8126.625	-9.71336	10.34025	-8.63144	12.13321
8130.612	-9.52292	10.50245	-9.01668	13.26440
8134.604	-8.85800	10.22810	-9.41892	13.21799
8138.631	-8.81593	10.01040	-8.84104	13.18147
8142.611	-9.03679	10.25524	-8.99477	13.19938
8146.625	-9.76782	10.38045	-8.83076	12.64353
8150.615	-9.32548	10.38420	-8.44319	12.88557
8154.611	-9.79223	10.31269	-8.16610	11.92726
8158.610	-8.93951	10.06127	-8.88935	13.24141
8162.615	-9.54805	10.15972	-8.95096	13.12097
8166.610	-8.87217	10.22985	-8.94050	13.03516
8170.614	-10.15624	10.61925	-8.50527	12.86296
8174.609	-9.20942	10.33368	-8.82095	12.90757
8178.649	-8.86655	10.15846	-8.81818	13.19767
8182.621	-9.50023	10.12701	-8.75039	13.05381
8186.618	-8.76430	10.16210	-8.80830	12.85801
8190.616	-8.91686	10.28311	-8.86313	12.97345
8194.617	-10.43592	10.56677	-8.66683	12.93530
8198.619	-8.56457	9.71102	-8.45060	12.64742
8202.613	-8.59092	9.93712	-8.81227	12.69232
8206.610	-8.59024	10.16157	-8.88138	12.63521
8210.604	-9.62642	10.51019	-10.70716	13.15598
8214.613	-10.09638	10.73260	-9.33021	13.07020
8218.607	-8.29214	10.12441	-8.43520	12.72196
8222.606	-7.92013	11.08266	-8.22073	14.23434
8226.607	-6.32779	12.51365	NaN	NaN
8230.613	-5.10266	13.78020	NaN	NaN
8234.615	-1.82666	12.05201	NaN	NaN
8238.604	-2.21328	11.94597	NaN	NaN
8242.623	-2.67962	12.06085	-0.86426	13.28949
8246.609	-3.28620	11.66848	-1.40026	13.18755
8250.620	-5.69571	11.85048	-3.11989	14.36426
8254.605	-4.20454	11.93724	-2.91589	14.69968
8258.612	-3.50445	11.87975	NaN	NaN
8262.614	-3.49520	11.83316	NaN	NaN
8266.611	-3.53184	11.95729	NaN	NaN
8270.604	-3.27848	12.00047	NaN	NaN
8274.609	-3.56732	12.30229	-2.26490	14.63758
8278.654	-3.36527	12.21745	-2.31056	14.73503
8282.616	-3.19561	12.24186	-2.38338	14.65713
8286.618	-3.31920	12.20213	-2.58940	14.69188
8290.610	-2.62090	11.76890	-2.51668	14.68573
8294.602	-3.09886	11.67224	-2.39431	14.70760
8298.616	-3.39092	12.42738	NaN	NaN
8302.617	-2.99062	12.12964	NaN	NaN
8306.611	-3.18722	12.06365	-2.28046	14.59960
8310.603	-2.64993	11.87864	NaN	NaN
8314.619	-3.21975	12.16820	NaN	NaN
8318.609	-2.52406	11.93279	NaN	NaN
8322.626	-3.37690	12.14720	-2.25959	14.61759
8326.611	-3.63908	11.97610	-2.08924	14.65274
8330.609	-2.61823	11.68956	NaN	NaN
8334.613	-3.20951	12.21165	NaN	NaN
8338.606	-2.80776	12.05010	-2.04193	14.87016
8342.609	-3.21062	11.94759	NaN	NaN
8346.602	-3.12526	12.03653	-2.02487	14.58815
8350.619	-2.62588	11.81450	NaN	NaN
8354.613	-3.42020	11.94910	NaN	NaN
8358.618	-2.69772	11.71713	-2.26103	14.80531
8362.609	-3.00915	11.98987	-2.07440	14.66554
8366.610	-2.93540	11.91586	-2.25672	14.72028
8370.613	-3.06404	11.92283	NaN	NaN
8374.608	-2.56379	11.96508	NaN	NaN
8378.605	-2.58351	11.78918	-2.64735	14.71454
8382.647	-3.25740	12.06490	-2.46045	14.67439
8386.620	-3.09859	11.96245	NaN	NaN
8390.607	-3.41120	12.05147	NaN	NaN
8394.614	-2.78570	11.72695	-2.00155	13.83790
8398.605	0.87758	9.69227	0.04140	13.23155
8402.615	-0.34630	12.66814	2.00869	14.64838
8406.606	NaN	NaN	NaN	NaN
8410.603	NaN	NaN	NaN	NaN
8414.601	NaN	NaN	NaN	NaN
8418.618	NaN	NaN	NaN	NaN
8422.840	NaN	NaN	NaN	NaN
8427.014	NaN	NaN	NaN	NaN
8430.895	NaN	NaN	NaN	NaN
8434.661	NaN	NaN	NaN	NaN
8438.771	NaN	NaN	NaN	NaN
8442.623	NaN	NaN	NaN	NaN
8446.608	NaN	NaN	NaN	NaN
8450.607	NaN	NaN	NaN	NaN
8454.712	NaN	NaN	NaN	NaN
8458.613	NaN	NaN	NaN	NaN
8463.520	NaN	NaN	-8.08552	12.41252
8466.608	NaN	NaN	-14.06177	13.33823
8470.609	NaN	NaN	NaN	NaN
8474.605	5.12398	0.72486	9.37489	-1.25212
8478.603	7.70051	-1.26774	7.27577	-2.59407
8482.664	NaN	NaN	0.28515	-5.13972
8486.609	NaN	NaN	0.30463	-4.13483
8490.610	8.36778	-4.91113	0.43797	-4.08285
8494.609	5.16182	-4.51545	2.47804	-3.37859
8498.603	5.31713	-4.97141	7.04882	-3.25716
8502.609	4.81549	-6.14505	6.42239	-3.19448
8506.607	4.97194	-6.20773	6.16530	-3.37525
8510.605	4.18235	-5.75795	6.02445	-3.39778
8514.610	4.45024	-5.38875	5.84652	-3.18036
8518.601	5.30077	-5.44272	5.73360	-3.36400
8522.613	6.63007	-5.42967	5.83510	-3.28791
8526.610	6.80237	-5.42800	5.73028	-3.27568
8530.619	6.97463	-5.35979	5.68494	-3.42394
8534.601	7.24471	-5.25843	5.69431	-3.30279
8538.613	7.32517	-5.33481	5.70042	-3.35554
8542.604	7.08910	-5.40685	5.66143	-3.45443
8546.601	7.29301	-5.31332	5.57348	-3.47940
8550.604	7.57591	-5.27961	5.60354	-3.50391
8554.605	7.32114	-5.30747	5.52300	-3.50638
8558.602	7.55447	-5.30149	5.52549	-3.62359
8562.598	7.44686	-5.32272	5.48076	-3.71395
8566.620	7.53379	-5.34423	5.50619	-3.62132
8570.615	7.64803	-5.32646	5.44645	-3.62126
8574.599	7.78226	-5.33840	5.46780	-3.64040
8578.607	7.72568	-5.38171	5.44116	-3.62152
8582.635	7.61412	-5.46674	5.51833	-3.55793
8586.610	7.70914	-5.49459	5.45176	-3.65895
8590.607	7.51913	-5.47548	5.45095	-3.57339
8594.602	7.73243	-5.60596	5.41795	-3.57661
8598.710	7.77588	-5.54363	5.49111	-3.55166
8602.618	7.55779	-5.59867	5.55996	-3.58535
8606.601	7.66641	-5.54838	5.57235	-3.48793
8610.606	7.77941	-5.61724	5.57318	-3.47134
8614.596	7.70160	-5.62058	5.55140	-3.51986
8618.607	7.40487	-5.58996	5.23315	-3.54648
8622.610	7.85867	-5.58436	5.32454	-3.53898
8626.605	7.97571	-5.48168	5.56913	-3.49748
8630.596	7.96490	-5.40588	5.44431	-3.49501
8634.616	7.77042	-5.56173	5.50016	-3.50080
8638.600	7.72559	-5.57817	5.38154	-3.45697
8642.611	7.82418	-5.46770	5.22274	-3.62036
8646.602	7.80496	-5.46541	5.49052	-3.51268
8650.602	7.95224	-5.46782	5.56991	-3.46407
8654.611	7.98995	-5.34657	5.55022	-3.40021
8658.608	7.80881	-5.48712	5.54007	-3.40418
8662.602	7.75534	-5.56549	5.45809	-3.34682
8666.602	7.60002	-5.40411	5.50299	-3.48885
8670.601	7.74903	-5.53440	5.41502	-3.27901
8674.606	7.63889	-5.46889	5.54548	-3.25300
8678.601	7.67116	-5.50447	5.50550	-3.36312
8682.610	7.61346	-5.46262	5.47609	-3.33033
8686.606	7.66258	-5.48301	5.47346	-3.32438
8690.598	7.69702	-5.49806	5.53690	-3.26505
8694.610	7.67431	-5.46263	5.54771	-3.27414
8698.604	7.73765	-5.47182	5.45612	-3.20975
8702.609	7.62648	-5.53913	5.45757	-3.31894
8706.609	7.69597	-5.45633	5.47478	-3.32932
8710.616	7.79546	-5.41940	5.46347	-3.27063
8714.605	7.81293	-5.44916	5.52015	-3.34246
8718.604	7.87394	-5.36944	5.46568	-3.33877
8722.598	7.67099	-5.50440	5.58080	-3.24216
8726.605	7.74374	-5.52917	5.28908	-3.38750
8730.603	7.81369	-5.44634	5.37984	-3.16257
8734.641	7.76024	-5.39250	5.39020	-3.45995
8738.606	7.81958	-5.29492	5.38083	-3.23816
8742.600	7.80321	-5.48910	5.46686	-3.31820
8746.601	7.79944	-5.42272	5.40425	-3.42145
8750.597	7.81844	-5.35256	5.36624	-3.42580
8754.600	7.78380	-5.42865	5.35923	-3.36228
8758.620	7.72992	-5.42476	5.41908	-3.13832
8762.620	7.63030	-5.38350	5.23659	-3.24420
8766.602	7.04257	-5.36517	4.66941	-3.20760
8770.626	3.97800	-5.42989	2.24247	-3.42877
8774.605	0.93093	-5.53234	-0.18484	-3.52649
8778.605	-1.43870	-5.72985	-2.32082	-3.60816
8782.600	-3.16127	-6.53582	-2.78097	-3.95074
8786.599	-4.36007	-7.23898	-4.06759	-4.63620
8790.597	-5.18481	-8.14894	-5.39077	-5.53929
8794.598	-6.64469	-8.36867	-7.18985	-6.13832
8798.603	-7.49790	-8.43882	-7.69342	-6.50203
8802.595	-8.32094	-8.39377	-7.63496	-7.29383
8806.601	-6.91914	-8.67812	-7.59678	-6.29787
8810.615	-6.81615	-8.66712	-7.46892	-6.09675
8814.600	-6.21909	-8.53480	-7.42170	-6.29912
8818.614	-6.53681	-8.52000	-7.34379	-6.33592
8822.597	-6.75074	-8.38523	-7.08463	-5.54004
8826.601	-6.95032	-8.50440	-7.69261	-6.30613
8830.596	-6.97494	-8.57910	-8.17648	-6.65491
8834.609	-7.13805	-8.68062	-7.76976	-6.87217
8838.601	-7.48454	-8.71271	-7.46980	-6.99270
8842.601	-7.19862	-8.64898	-7.16693	-5.94006
8846.599	-6.97433	-8.79781	-7.53598	-7.35373
8850.604	-7.13703	-8.81355	-7.53257	-7.07546
8854.599	-7.12031	-8.75431	-7.29555	-5.96030
8858.604	-7.06791	-8.82791	-7.64944	-6.28224
8862.599	-7.00526	-8.84524	-7.07735	-6.42486
8866.603	-7.06286	-8.78685	-6.68812	-6.02414
8870.652	-7.00844	-8.88228	-7.74820	-6.38817
8874.602	-7.04809	-8.86627	-7.39388	-6.53525
8878.609	-7.11354	-8.84185	-7.31992	-6.18380
8882.596	-6.95064	-8.81921	-7.30183	-5.87543
8886.613	-6.82121	-8.78849	-7.18841	-6.13878
8890.595	-6.88223	-8.80411	-7.48029	-6.07187
8894.602	-6.84982	-8.77484	-7.37672	-6.16796
8898.605	-6.83274	-8.79195	-7.37704	-6.28473
8902.609	-6.84996	-8.80730	-7.40091	-6.29978
8906.599	-7.03391	-8.85621	-7.33918	-5.91091
8910.596	-7.11968	-8.84959	-7.42168	-6.23930
8914.481	-6.99394	-8.80484	-7.41782	-7.30322
8918.470	-6.89328	-8.82166	-7.43259	-5.97724
8922.475	-6.59745	-8.51314	-7.41599	-6.01946
8926.468	-6.85515	-8.66184	-7.44291	-6.47291
8930.479	-6.89067	-8.76065	-7.43088	-6.13291
8934.478	-6.99917	-8.76568	-7.41094	-6.12920
8938.498	-7.00712	-8.67027	-7.38861	-6.06201
8942.468	-7.02169	-8.70695	-7.42832	-6.18724
8946.488	-7.07908	-8.68088	-7.42427	-5.70009
8950.474	-6.80634	-8.63616	-6.39555	-5.93715
8954.475	-6.52858	-8.59614	-6.99534	-5.82352
8958.478	-6.52564	-8.57224	-7.32951	-5.95319
8962.477	-6.64555	-8.31714	-7.60597	-5.88817
8966.475	-6.52503	-8.45550	-7.18560	-5.88196
8970.473	-6.76124	-8.59643	-7.28661	-6.02680
8974.474	-6.56787	-8.39208	-7.63808	-6.03099
8978.495	-6.23597	-6.49754	-7.43457	-5.92303
8982.478	-5.80545	-4.73200	-6.66594	-3.18011
8986.471	-3.96540	-1.93390	-6.19204	0.29057
8990.486	-3.83463	-0.25197	-5.82019	1.57750
8994.475	-3.95416	3.07527	-5.20915	3.59360
8998.473	-5.51504	3.83702	-5.32990	5.39006
9002.467	-6.21490	5.19998	-6.09260	7.13100
9006.486	-6.64611	5.82354	-6.79234	7.23687
9010.480	-7.08009	6.35814	-7.72249	7.34874
9014.472	-6.90730	5.99277	-6.52885	6.24297
9018.468	-6.54132	4.96719	-6.12661	5.94942
9022.473	-6.27817	4.61563	-5.87049	5.76431
9026.472	-6.45966	4.86588	-5.44424	6.62088
9030.480	-6.41589	5.21603	-5.75121	6.94093
9034.469	-6.23292	5.11711	-5.99532	7.17280
9038.470	-6.59797	5.08472	-6.87643	7.44991
9042.472	-6.56858	5.29195	-6.82011	7.46279
9046.473	-6.58582	5.22123	-6.57818	7.29155
9050.473	-6.59241	5.11654	-6.28832	7.15416
9054.468	-6.64454	5.32325	-6.05042	7.14673
9058.469	-6.59045	5.29615	-6.38800	7.40630
9062.472	-6.36702	5.16016	-6.02875	7.30617
9066.472	-6.38099	5.30867	-5.49992	7.05794
9070.469	-6.40422	5.35228	-6.12489	7.35577
9074.510	-6.47382	5.40977	-6.47691	7.39339
9078.474	-6.40320	5.31638	-6.48012	7.53512
9082.470	-6.60698	5.42280	-6.10254	6.99703
9086.487	-6.44946	5.33563	-6.19996	7.24287
9090.468	-6.35170	5.26389	-6.12352	7.23284
9094.468	-6.43993	5.28512	-6.18649	7.11930
9098.474	-6.23246	5.12807	-6.13461	7.07733
9102.472	-6.26544	5.09744	-6.01751	7.14244
9106.468	-6.30274	5.18172	-5.84792	7.01842
9110.470	-6.28244	5.12560	-6.03155	7.20879
9114.478	-6.41219	5.23884	-6.06902	7.02090
9118.478	-6.50917	5.18512	-6.13979	7.26233
9122.478	-6.38072	5.16402	-6.20263	7.47471
9126.468	-6.36285	5.25477	-6.33674	7.88129
9130.465	-6.37516	5.32298	-6.49940	7.68074
9134.465	-7.00167	5.77921	-6.53828	7.88176
9138.484	-7.02951	5.91891	-6.29246	7.45875
9142.487	-7.08717	6.11714	-6.16044	7.64748
9146.474	-7.04748	6.16532	-6.51530	7.83161
9150.470	-6.63411	6.02832	-6.55782	7.78355
9154.470	-6.66697	5.96916	-6.81992	7.85804
9158.475	-6.26765	5.66457	-6.75732	7.75170
9162.481	-6.70244	6.07195	-6.88164	7.83362
9166.474	-7.03250	6.15291	-6.88208	7.65144
9170.469	-6.55479	6.08625	-6.21482	6.92383
9174.468	-7.14546	6.13933	-6.46071	7.25517
9178.471	-7.06777	6.04895	-6.35888	7.17661
9182.464	-7.09402	6.08818	-6.79476	7.43067
9186.478	-7.04518	6.02478	-6.72883	7.19217
9190.465	-6.96179	5.89682	-6.82983	7.58816
9194.472	-6.83161	5.82597	-6.80242	7.60221
9198.463	-6.91598	5.79327	-6.80032	7.57846
9202.476	-7.02000	5.91510	-6.58851	7.28569
9206.470	-6.79195	5.72257	-6.71045	7.34800
9210.897	-6.69199	5.75714	-6.52627	7.79570
9214.473	-7.05545	5.96989	-6.35829	7.74445
9218.470	-6.99081	5.91967	-5.88446	7.43381
9222.470	-7.47124	5.97703	-6.39741	7.60435
9226.466	-7.37677	5.85369	-6.39187	7.51365
9230.468	-7.23821	5.85142	-6.35278	7.52526
9234.470	-7.20284	5.90296	-5.90477	7.49706
9238.475	-6.97592	5.79842	-5.87673	7.43911
9242.465	-6.25357	5.39817	-6.01500	7.43177
9246.466	-6.39668	5.53314	-5.92132	7.47990
9250.470	-6.71295	5.68814	-6.07113	7.59531
9254.468	-7.66407	6.14748	-6.26169	7.42094
9258.464	-7.91736	6.09955	-6.14911	7.41130
9262.468	-7.50298	5.80211	-6.11464	7.41445
9266.477	-7.15193	5.96086	-5.84048	7.36199
9270.467	-7.30932	5.92391	-6.06902	7.37065
9274.468	-6.97145	5.66490	-6.15073	7.43358
9278.498	-6.58092	5.46653	-6.18426	7.45619
9282.477	-6.68504	5.54070	-5.87879	7.24306
9286.473	-6.68712	5.87410	-6.05943	7.14102
9290.468	-6.48698	5.80819	-6.22311	7.46410
9294.469	-6.45451	5.89584	-6.76691	7.79861
9298.466	-6.55248	5.62378	-6.48852	7.41832
9302.470	-6.58266	5.43309	-6.87677	7.57927
9306.465	-6.61401	5.81287	-6.78874	7.77826
9310.467	-6.71468	5.87812	-6.71946	8.03203
9314.465	-6.71106	5.76046	-7.45694	7.93470
9318.471	-6.61442	5.41895	-6.86858	7.84040
9322.469	-6.70825	5.34789	-6.91200	7.66477
9326.481	-6.66528	5.54361	-6.93271	7.97521
