time (ms)	lx (deg)	ly (deg)	rx (deg)	ry (deg)
0.000	10.05185	-3.49065	7.98323	-1.70795
4.023	10.01737	-3.53521	7.99922	-1.71391
8.010	9.92776	-3.56998	8.01852	-1.60248
12.016	9.94659	-3.57626	8.05484	-1.48602
16.003	9.91365	-3.56528	8.01813	-1.50388
20.014	9.88812	-3.44769	8.01494	-1.43057
24.008	9.83305	-3.34154	7.97485	-1.41612
28.025	9.19367	-3.26596	5.87658	-1.36280
33.367	7.15276	-2.84668	3.40128	-1.15458
36.151	4.67125	-2.51902	3.28825	-0.01178
40.020	4.38716	-2.55278	2.08520	0.35471
43.899	4.45528	-2.55400	2.21596	0.21580
47.881	4.89370	-2.79439	2.86425	0.13015
51.885	5.71787	-2.69260	3.33787	0.12212
55.889	6.27501	-2.74780	3.76747	0.12155
59.886	6.14614	-2.66929	4.09794	0.20847
63.899	5.97276	-2.55475	3.80265	0.11368
67.887	5.35709	-2.49157	3.07335	0.12010
71.886	5.33846	-2.32930	2.82531	0.15432
75.877	5.37640	-2.18824	2.49605	0.24532
79.887	5.34075	-2.19748	2.38952	0.24055
83.882	5.36309	-2.01776	2.53038	0.21652
87.899	5.38789	-1.88972	2.67016	0.20443
91.881	5.39133	-1.76328	2.70456	0.17447
95.887	5.27410	-1.85275	2.74304	0.13051
99.954	5.22512	-1.93182	2.76133	0.11199
103.903	5.24019	-2.08649	2.75972	0.06997
107.895	5.23162	-2.03818	2.75012	0.03544
111.879	5.28224	-2.15655	2.81343	0.10327
115.879	5.26827	-2.07295	2.83138	0.05788
119.881	5.36656	-2.27402	2.88109	0.05316
123.886	5.42810	-2.28626	2.94884	-0.00069
127.880	5.46546	-2.16366	3.03603	0.01635
131.874	5.47569	-2.27654	3.05491	0.09375
135.879	5.61291	-2.26407	3.08288	0.33180
139.890	5.75111	-2.21679	3.10507	0.34375
143.889	5.93154	-2.25443	3.11695	0.39114
147.877	5.78052	-2.18597	3.12074	0.39664
151.899	5.72664	-2.17235	3.11992	0.50266
155.882	5.58936	-2.15162	3.05662	0.45488
159.889	5.66135	-2.16909	3.11646	0.44346
163.880	5.45432	-2.17299	3.10119	0.40362
167.923	5.56077	-2.26960	3.07224	0.45214
171.889	5.55637	-2.39532	3.05768	0.28846
175.883	5.53176	-2.48107	3.01556	0.12450
179.879	5.50528	-2.67981	3.02779	-0.01695
183.882	5.42011	-2.67037	2.95629	-0.08152
187.900	5.37854	-2.83370	2.94210	-0.09582
191.882	5.40946	-2.70984	2.90728	-0.11222
195.892	5.44239	-2.73654	2.88720	-0.02824
199.876	5.43197	-2.78385	2.86200	-0.18552
203.883	5.47648	-2.75596	2.82776	-0.04914
207.884	5.50348	-2.76314	2.83937	-0.00710
211.881	5.53734	-2.78144	2.82581	-0.01283
215.881	5.59324	-2.72203	2.79553	-0.01683
219.883	5.62188	-2.71965	2.77020	0.02192
223.884	5.63904	-2.66028	2.69995	0.07985
227.888	5.63884	-2.62842	2.65146	0.11371
231.879	5.66260	-2.58501	2.59002	0.14914
235.893	5.64997	-2.58121	2.54928	0.18028
239.881	5.62871	-2.56393	2.52669	0.18177
243.879	5.65936	-2.53134	2.54903	0.20706
247.878	5.66233	-2.53567	2.49065	0.22269
251.873	5.64879	-2.52887	2.46169	0.20971
255.896	5.59841	-2.50241	2.45287	0.22344
259.886	5.56605	-2.48917	2.43692	0.25792
263.884	5.54439	-2.48188	2.40617	0.28251
267.888	5.53862	-2.46442	2.45483	0.31941
271.881	5.52514	-2.44241	2.48304	0.34862
275.877	5.50946	-2.44388	2.54459	0.33446
279.888	5.50862	-2.46554	2.64126	0.28960
283.877	5.48732	-2.52843	2.67345	0.25393
287.879	5.42783	-2.56120	2.73031	0.20718
291.881	5.39672	-2.54997	2.70116	0.12592
295.881	5.37064	-2.57833	2.79766	0.14825
299.873	5.34981	-2.59187	2.81053	0.09307
303.941	5.29829	-2.62604	2.82113	0.05458
307.886	5.25813	-2.64873	2.85618	0.00938
311.929	5.27712	-2.57906	2.86455	-0.03750
315.883	5.29312	-2.55596	2.88945	-0.08048
319.877	5.30958	-2.56389	2.89208	-0.09284
323.878	5.33135	-2.56701	2.87061	-0.10960
327.882	5.30011	-2.47243	2.92965	-0.10331
331.877	5.30114	-2.42800	2.95955	-0.10830
335.881	5.32267	-2.41480	2.99987	-0.10415
339.872	5.34986	-2.41301	3.00992	-0.09722
343.901	5.34056	-2.39665	3.05848	-0.10176
347.889	5.41866	-2.35387	3.10109	-0.08799
351.876	5.48718	-2.33999	3.11126	-0.06955
355.878	5.54597	-2.45002	3.12821	-0.01171
359.877	5.62269	-2.44770	3.16950	-0.05870
363.876	5.62068	-2.52048	3.21923	0.00060
367.886	5.59988	-2.52230	3.29060	0.00968
371.906	5.60866	-2.62833	3.31568	0.06678
375.879	5.65653	-2.69647	3.36671	0.07673
379.876	5.67214	-2.81511	3.34969	0.09312
383.874	5.63594	-2.81501	3.41971	0.05375
387.875	5.64582	-2.79607	3.41852	0.06459
391.891	5.59047	-2.76900	3.39498	0.01439
395.877	5.67533	-2.76307	3.39866	0.00074
399.881	5.74183	-2.65472	3.36216	-0.00102
403.877	5.84276	-2.59364	3.42270	0.11358
407.881	5.62478	-2.66244	3.39097	0.05534
411.884	5.52868	-2.76771	3.41558	0.09850
415.876	5.52023	-2.68219	3.48172	-0.00417
419.875	5.41755	-2.76810	3.45487	0.04048
423.877	5.24407	-2.63903	3.47163	0.03783
427.881	5.45282	-2.69463	3.42018	0.12199
431.880	5.44092	-2.67783	3.38103	0.16870
435.881	5.49955	-2.74403	3.36055	0.20842
439.910	5.37214	-2.79425	3.26819	0.24404
443.878	5.27132	-2.85409	3.34756	0.15159
447.877	5.15640	-2.84869	3.28298	0.09053
451.879	5.14670	-2.84950	3.16782	-0.01109
455.872	5.29733	-2.75427	3.25030	-0.16203
459.876	5.32459	-2.69305	3.23581	0.06800
463.929	5.31000	-2.66653	3.20726	0.20059
467.876	5.37367	-2.60285	3.23531	0.25829
471.884	5.31317	-2.56444	3.22527	0.40965
475.876	5.33263	-2.49581	3.20053	0.67198
479.875	5.27100	-2.33650	3.25444	0.22884
483.877	5.31320	-2.29316	3.17569	0.46212
487.869	5.30668	-2.25660	3.09649	0.35430
491.887	5.29957	-2.19795	3.18225	0.12095
495.875	5.22443	-2.16844	3.12561	0.19956
499.886	5.07626	-2.15869	3.09312	0.26830
503.873	5.16477	-2.14947	3.22077	0.47120
507.880	5.26822	-2.13557	3.26374	0.47247
511.879	5.36929	-2.17292	3.26413	0.41249
515.881	5.44606	-2.18433	3.23700	0.33604
519.900	5.38216	-2.19378	3.22614	0.28824
523.873	5.47705	-2.23821	3.19147	0.27326
527.885	5.47781	-2.29279	3.32080	0.23723
531.872	5.58592	-2.30145	3.27116	0.22343
535.881	5.59732	-2.32190	3.27066	0.25325
539.873	5.61357	-2.32613	3.29411	0.25579
543.873	5.63454	-2.34541	3.28405	0.22843
547.875	5.64543	-2.35566	3.23274	0.20026
551.867	5.62807	-2.33136	3.14862	0.15475
555.872	5.59506	-2.28112	3.13679	0.18738
559.887	5.55838	-2.25511	3.13509	0.19974
563.871	5.52772	-2.27220	3.18123	0.26302
567.881	5.33315	-2.13520	3.11702	0.28951
571.876	5.24631	-2.10248	2.93148	0.27382
575.902	5.27176	-1.94923	2.84757	0.26089
579.874	5.27577	-1.86466	2.87505	0.23731
583.867	5.24612	-1.92978	2.94131	0.27809
587.895	5.22328	-1.72835	2.97497	0.33776
591.880	5.23886	-1.68836	3.06345	0.37758
595.879	5.17853	-1.61379	3.12645	0.40843
599.881	5.20615	-1.73995	3.25525	0.42847
603.875	5.25042	-1.75710	3.28368	0.43461
607.871	5.39084	-1.67346	3.37559	0.41068
611.874	5.45636	-1.79039	3.46985	0.43909
615.890	5.47215	-1.68668	3.52727	0.44911
619.875	5.57375	-1.85126	3.58294	0.45091
623.870	5.57240	-1.93707	3.66441	0.46441
627.877	5.56173	-2.00407	3.73245	0.44702
631.882	5.63427	-1.88361	3.77172	0.39441
635.871	5.54144	-1.82283	3.81375	0.39382
639.877	5.51964	-2.11557	3.80878	0.37156
643.884	5.45292	-2.25312	3.77288	0.31743
647.896	5.45422	-2.30345	3.79690	0.14961
651.870	5.28022	-2.11989	3.74767	0.11223
655.873	5.38024	-2.12777	3.55562	-0.03053
659.874	5.31849	-2.18192	3.43726	-0.15195
663.891	5.35741	-2.22541	3.37541	-0.16660
667.884	5.29799	-2.20725	3.24850	-0.17339
671.875	5.21695	-2.34695	2.96079	-0.17877
675.869	5.15906	-2.34416	2.45178	-0.10228
679.872	5.16492	-2.47697	2.72845	-0.22676
683.878	5.03654	-2.37265	2.93681	-0.15674
687.871	5.02558	-2.27418	3.02398	-0.12382
691.870	4.98677	-2.18971	3.45596	-0.03004
695.874	5.11024	-2.26294	3.38911	0.04234
699.884	4.94494	-2.22250	3.45361	0.19092
703.881	5.13981	-2.30521	3.41684	0.21156
707.868	5.16248	-2.25270	3.47201	0.25567
711.873	5.23152	-2.39050	3.15736	0.37425
715.897	5.19327	-2.33938	3.13855	0.32014
719.893	5.24457	-2.46053	3.23022	0.29600
723.884	5.14640	-2.40866	3.39280	0.29129
727.871	5.30636	-2.33288	3.37566	0.29804
731.873	5.28173	-2.41649	3.41382	0.37036
735.870	5.13232	-2.37739	3.40927	0.29595
739.879	5.15185	-2.40461	3.35595	0.29661
743.868	5.26019	-2.40590	3.34940	0.33074
747.868	5.20433	-2.19011	3.09941	0.31299
751.878	5.21139	-2.07697	3.04944	0.28796
755.867	5.23369	-1.90814	3.17715	0.21464
759.868	5.68236	-2.52628	3.08164	0.16915
763.883	5.46283	-3.09392	3.29263	-0.84642
767.880	5.59646	-4.47404	3.42881	-1.91991
771.870	5.64110	-5.96116	4.59872	-2.34102
775.867	5.76129	-6.60022	4.11231	-3.24638
779.875	5.75075	-6.02144	4.11177	-3.74348
783.883	5.88307	-5.82136	3.96271	-3.03769
787.870	6.14013	-4.44399	3.80177	-3.03295
791.867	6.18770	-4.33934	3.96155	-2.68539
795.867	6.30774	-4.30156	4.01440	-2.82873
799.885	6.30705	-4.56755	4.13112	-2.75318
803.872	6.32767	-5.20122	4.03949	-2.88025
807.885	6.33851	-5.49754	3.97783	-2.83967
811.865	6.34628	-5.73673	3.91823	-2.96618
815.873	6.45049	-5.80046	3.89589	-3.00287
819.877	6.36976	-5.89505	3.74805	-2.93736
823.867	6.39469	-6.08763	3.57288	-3.05144
827.873	6.42601	-6.25072	3.66649	-2.88379
831.868	6.33255	-6.28899	3.63999	-2.87022
835.871	6.31728	-6.41125	3.72800	-2.90330
839.866	6.22961	-6.40996	3.72353	-2.86935
843.871	6.19631	-6.48676	3.55862	-2.86689
847.903	6.16488	-6.47287	3.24941	-2.96243
851.877	6.14459	-6.50765	3.54363	-3.01030
855.868	6.17909	-6.41362	3.60104	-3.03077
859.866	6.16999	-6.40167	3.61011	-3.02584
863.903	6.22029	-6.18910	3.74088	-3.02067
867.870	6.28751	-6.03178	3.75655	-2.97614
871.876	6.27741	-5.90094	3.80389	-2.89840
875.873	6.39805	-5.42203	3.90941	-3.02755
879.872	6.50697	-5.34445	3.96170	-2.97987
883.870	6.50459	-5.67546	3.97380	-2.96897
887.865	6.51650	-5.82317	3.92228	-2.96048
891.873	6.56833	-5.90606	3.97086	-2.92670
895.871	6.56574	-6.13396	4.05016	-2.83897
899.746	6.59444	-6.27993	4.04814	-2.82743
903.798	6.57784	-6.26797	4.07145	-2.76768
907.747	6.55268	-6.21706	4.03268	-2.73977
911.745	6.47282	-6.10269	4.04851	-2.76412
915.750	6.53556	-5.95505	4.07431	-2.73045
919.757	6.44934	-4.97272	4.20279	-2.59665
923.746	6.31014	-3.64115	4.03317	-1.47179
927.742	6.28673	-2.65751	3.89555	-0.00392
931.741	6.30688	-2.68622	3.80868	0.23401
935.737	6.19930	-3.15748	3.84718	0.35141
939.751	6.25912	-3.41347	3.83860	0.36719
943.741	6.24175	-3.21724	3.89656	0.22910
947.739	6.27103	-3.11738	3.91262	0.15579
951.745	6.33299	-3.02690	3.88139	-0.01232
955.746	6.38805	-3.23027	3.84159	0.09645
959.740	6.20683	-2.59804	3.80377	0.03072
963.759	6.25696	-2.57521	3.68132	-0.01738
967.741	6.14467	-2.46667	3.62961	-0.00538
971.757	6.14739	-2.49040	3.70146	-0.01108
975.739	6.09147	-2.54541	3.77374	0.01272
979.748	6.15733	-2.43204	3.87905	-0.02764
983.750	6.27005	-2.47895	3.95508	-0.10327
987.794	6.20347	-2.43932	3.98067	-0.16048
991.739	6.09263	-2.62735	3.98254	-0.20949
995.742	5.98901	-2.73573	4.02189	-0.13740
999.736	5.98619	-2.75804	3.77656	-0.13129
1003.757	6.01022	-2.78762	3.87131	-0.08310
1007.749	5.91720	-3.04205	3.92665	-0.11188
1011.750	6.00460	-3.10001	3.98027	-0.01681
1015.743	6.05174	-3.12234	4.01603	0.04174
1019.754	6.12077	-3.15544	4.08690	0.03371
1023.747	6.18981	-3.15892	4.05517	-0.09972
1027.739	6.21588	-3.11125	4.03885	-0.19272
1031.745	6.23167	-3.10023	4.06071	-0.17120
1035.739	6.25205	-3.03345	4.01248	-0.09794
1039.740	6.33696	-2.90131	4.04507	-0.06075
1043.744	6.35567	-2.80633	4.11483	-0.21013
1047.740	6.30982	-2.72610	4.07950	-0.18213
1051.743	6.33088	-2.54406	4.03853	-0.17584
1055.759	6.23001	-2.47724	3.97217	-0.27224
1059.746	6.18819	-2.28500	3.90093	-0.28198
1063.751	6.11589	-1.98889	3.91682	-0.29885
1067.744	6.11086	-1.94888	3.92119	-0.25954
1071.747	6.07106	-1.68694	3.92850	-0.16186
1075.744	6.06168	-1.59258	3.90454	-0.11749
1079.740	6.01201	-1.57994	3.92225	-0.10273
1083.744	5.99382	-1.46540	3.93421	-0.09341
1087.743	6.01520	-1.51207	3.87517	-0.07931
1091.741	6.07535	-1.48923	3.84369	-0.02140
1095.742	6.10561	-1.52754	3.82450	-0.02150
1099.735	6.13495	-1.56997	3.78607	0.03806
1103.749	6.18144	-1.66571	3.78155	0.02613
1107.768	6.20950	-1.92165	3.74229	0.02004
1111.734	6.22358	-2.12931	3.64382	-0.10259
1115.757	6.26655	-2.50675	3.76571	0.02455
1119.746	6.29156	-3.01438	3.79077	0.04195
1123.739	6.31872	-2.60300	3.77466	-0.02623
1127.738	6.32951	-1.90941	3.79497	-0.15246
1131.746	6.29837	-2.03670	3.68186	-0.07573
1135.745	6.25703	-2.17525	3.66619	-0.15077
1139.734	6.22483	-2.43483	3.66303	-0.19534
1143.747	6.21970	-2.65512	3.53782	-0.15377
1147.740	6.21791	-2.83058	3.62321	-0.14151
1151.740	6.20543	-2.99684	3.69071	-0.24594
1155.754	6.19638	-3.33069	3.74397	-0.13563
1159.744	6.21603	-2.92864	3.67534	-0.23161
1163.737	6.26814	-2.72484	3.68033	-0.28927
1167.744	6.23648	-2.43379	3.68095	-0.38466
1171.737	6.13866	-2.19254	3.62232	-0.43577
1175.741	6.13051	-2.34808	3.70994	-0.46952
1179.733	6.04738	-2.31615	3.75551	-0.46950
1183.744	5.94371	-2.16598	3.84779	-0.46546
1187.739	5.89495	-2.14467	3.88391	-0.48857
1191.738	5.92105	-2.09276	4.02766	-0.51418
1195.754	6.01498	-2.13495	4.07271	-0.48910
1199.740	6.11125	-2.16321	4.16389	-0.51258
1203.747	6.13711	-2.18460	4.19682	-0.48843
1207.735	6.08897	-2.15983	4.24320	-0.48099
1211.736	6.12997	-2.25126	4.28007	-0.40123
1215.752	6.25740	-2.32653	4.32481	-0.35190
1219.738	6.32453	-2.29795	4.30522	-0.35530
1223.736	6.30720	-2.48025	4.24258	-0.36046
1227.745	6.35400	-2.78286	4.16058	-0.38947
1231.745	6.41520	-2.98379	4.10127	-0.43094
1235.738	6.75186	-2.75738	4.34586	-0.40030
1239.736	8.49772	-2.70552	6.48252	-0.30803
1243.742	9.96268	-2.78776	7.92330	-0.32633
1247.740	10.38586	-2.97139	8.25751	-0.25732
1251.736	10.20387	-2.96515	8.24096	-0.30303
1255.737	9.68517	-2.68452	7.55535	-0.35417
1259.738	9.65076	-1.81515	7.18569	-0.37792
1263.743	9.52379	-2.28377	7.20162	-0.37595
1267.738	9.55319	-2.44214	7.28940	-0.44068
1271.742	9.65218	-2.71394	7.38600	-0.57374
1275.741	9.64991	-2.74097	7.37853	-0.67783
1279.743	9.66267	-3.00181	7.38222	-0.39426
1283.739	9.74581	-2.75666	7.48895	-0.45804
1287.735	9.64772	-2.05687	7.41758	-0.43484
1291.741	9.59375	-2.41362	7.33227	-0.61100
1295.755	9.59093	-2.54108	7.28769	-0.80528
1299.745	9.59305	-2.69430	7.33523	-0.61203
1303.736	9.68228	-2.57465	7.42761	-0.65115
1307.737	9.68430	-2.57468	7.42222	-0.78314
1311.750	9.66738	-2.41178	7.29345	-0.58690
1315.767	9.70504	-2.46833	7.19854	-0.68883
1319.739	9.77317	-2.51358	7.42878	-0.50869
1323.742	9.88564	-2.35897	7.36174	-0.66709
1327.860	9.84934	-2.39587	7.35058	-0.62544
1331.737	9.77283	-2.37706	7.21230	-0.73155
1335.735	9.64396	-2.26872	7.26642	-0.77272
1339.754	9.68421	-2.23067	7.14250	-0.68847
1343.739	9.71445	-2.26805	7.03477	-0.66890
1347.739	9.80407	-2.28773	6.99450	-0.75530
1351.734	9.83385	-2.28900	6.97739	-0.82472
1355.740	9.84146	-2.43207	6.99365	-0.82210
1359.734	9.76828	-2.47690	7.20609	-0.79481
1363.756	9.85389	-2.42947	7.24246	-0.83078
1367.739	9.82838	-2.46976	7.21471	-0.88719
1371.736	9.81195	-2.47626	7.25455	-0.93032
1375.730	9.87044	-2.54114	7.25047	-0.85218
1379.740	9.90966	-2.54530	7.34431	-0.84779
1383.732	9.91794	-2.57888	7.39371	-0.89598
1387.733	9.90566	-2.48592	7.39842	-0.92632
1391.732	9.85373	-2.39112	7.39486	-0.89536
1395.740	9.84655	-2.40633	7.37936	-0.87884
1399.737	9.80891	-2.32293	7.36247	-0.87094
1403.736	9.71965	-2.25259	7.35563	-0.89783
1407.744	9.67386	-2.27659	7.40047	-0.89286
1411.736	9.57418	-2.24524	7.40035	-0.86505
1415.733	9.54957	-2.27941	7.27194	-0.79521
1419.731	9.52002	-2.22051	7.30288	-0.75787
1423.737	9.46290	-2.30030	7.25411	-0.80742
1427.735	9.38547	-2.26008	7.22087	-0.86148
1431.731	9.46768	-2.23671	7.22856	-0.81498
1435.741	9.44452	-2.18502	7.25133	-0.88205
1439.758	9.55208	-2.19182	7.31938	-0.84404
1443.733	9.55302	-2.29404	7.47512	-0.88234
1447.740	9.52567	-2.34563	7.38961	-0.85159
1451.735	9.54042	-2.32500	7.43134	-0.87656
1455.736	9.48743	-2.32945	7.40047	-0.95837
1460.116	9.57199	-2.17501	7.44906	-0.98213
1463.732	9.59525	-2.16072	7.51413	-0.94305
1467.734	9.71129	-2.20190	7.51913	-0.94311
1471.744	9.69600	-2.20109	7.48871	-0.92207
1475.740	9.63491	-2.24914	7.49764	-0.95559
1479.736	9.63872	-2.31376	7.47792	-0.89302
1483.736	9.64654	-2.40327	7.52805	-0.90065
1487.734	9.66489	-2.52945	7.50695	-0.88067
1491.740	9.72997	-2.33896	7.48656	-0.87020
1495.731	9.76490	-2.42161	7.44889	-0.95947
1499.732	9.74943	-2.56281	7.46255	-0.97220
1503.736	9.79778	-2.65647	7.50593	-0.98555
1507.740	9.84214	-2.78539	7.59556	-1.05459
1511.731	9.76377	-2.87018	7.78353	-1.05144
1515.732	9.80462	-2.83261	7.58505	-1.00137
1519.739	9.82867	-2.86405	7.60146	-1.01323
1523.766	9.83062	-2.82445	7.52466	-1.05134
1527.743	9.67818	-2.82012	7.33840	-0.98930
1531.736	9.63341	-2.70559	7.28932	-0.89264
1535.732	9.62478	-2.69913	7.25040	-0.80860
1539.731	9.62316	-2.67245	7.25672	-0.72884
1543.732	9.60721	-2.57713	7.31064	-0.65189
1547.733	9.63349	-2.61066	7.36284	-0.55850
1551.731	9.65083	-2.52814	7.41687	-0.58920
1555.730	9.71220	-2.52078	7.39781	-0.59674
1559.741	9.72185	-2.52550	7.39703	-0.61547
1563.740	9.71761	-2.53079	7.43710	-0.66414
1567.737	9.74545	-2.51298	7.39735	-0.75239
1571.734	9.66875	-2.47810	7.24862	-0.55548
1575.753	7.83083	-2.44839	5.29747	-0.89295
1579.730	5.24166	-2.48897	4.17462	-0.56189
1583.726	4.40895	-2.54828	1.57701	-0.69997
1587.740	3.35323	-2.49959	1.45137	-0.57483
1591.731	2.63319	-2.32515	0.98938	-0.57436
1595.759	2.15276	-2.42140	-0.10394	-0.42392
1599.725	2.12359	-2.60701	-0.45951	-0.52580
1603.743	2.14545	-2.41105	0.21715	-0.25781
1607.729	2.83081	-2.22047	0.64188	-0.10799
1611.730	2.78330	-2.41664	0.83069	-0.33239
1615.738	2.14062	-2.23262	0.48684	-0.35336
1619.737	2.27768	-2.40665	0.25033	-0.34194
1623.734	1.87061	-2.21166	-0.01740	-0.23907
1627.729	1.87515	-2.32716	-0.31903	-0.25276
1631.733	2.09861	-2.28712	0.05909	-0.17961
1635.736	1.87946	-2.19550	-0.09952	0.03807
1639.731	2.05774	-2.42564	0.06763	-0.06714
1643.738	2.17807	-2.24429	0.14727	-0.23790
1647.732	1.90718	-2.29235	0.08140	-0.34619
1651.735	1.95738	-2.36594	0.03911	-0.39278
1655.746	1.84374	-2.40738	0.03926	-0.11441
1659.733	1.84180	-2.32244	-0.21393	-0.21616
1663.742	1.88050	-2.37505	-0.17350	-0.31150
1667.742	1.76081	-2.25802	-0.04264	-0.47322
1671.731	1.86794	-2.15750	-0.05986	-0.35621
1675.731	1.95401	-2.33077	-0.04703	-0.44506
1679.729	1.80206	-2.40153	0.00437	-0.40374
1683.731	1.78865	-2.43487	0.00171	-0.45272
1687.739	1.74127	-2.41716	0.07577	-0.42397
1691.733	1.85341	-2.40117	0.01583	-0.35405
1695.724	1.79145	-2.38149	0.05361	-0.27808
1699.744	1.83841	-2.29259	-0.12585	-0.41398
1703.737	1.80891	-2.24804	-0.07780	-0.42807
1707.732	1.81612	-2.25120	-0.08359	-0.37922
1711.730	1.75297	-2.30304	-0.15121	-0.36515
1715.801	1.72547	-2.32266	-0.13813	-0.39281
1719.755	1.74739	-2.33396	-0.26743	-0.40553
1723.740	1.86080	-2.31257	-0.29267	-0.43326
1727.739	1.83660	-2.29755	-0.29930	-0.48484
1731.738	1.83719	-2.33965	-0.32255	-0.58025
1735.733	1.79383	-2.29061	-0.32533	-0.40928
1739.729	1.83201	-2.31501	-0.37055	-0.49482
1743.723	1.93941	-2.29357	-0.33528	-0.45231
1747.732	1.84969	-2.35126	-0.23654	-0.44121
1751.739	1.88274	-2.38901	-0.23438	-0.41634
1755.615	1.97027	-2.36062	-0.07607	-0.34445
1759.601	1.94265	-2.39274	-0.10644	1.64630
1763.609	1.95140	-2.40012	-0.13540	3.65048
1767.599	1.97203	-2.37321	-0.08490	3.13732
1771.615	1.88680	-2.33106	-0.02708	2.08579
1775.608	1.86979	-2.36998	-0.08217	3.66469
1779.612	1.89771	-2.46093	-0.07713	3.27564
1783.594	1.89414	-2.34689	0.00635	2.55702
1787.608	1.85135	-2.41796	0.03077	1.91540
1791.605	1.82807	-2.42612	-0.04152	3.50103
1795.602	1.83573	-2.43308	0.03058	3.17129
1799.618	1.82306	-2.34780	0.02531	2.98957
1803.606	1.85544	-2.32421	0.10409	2.82008
1807.596	1.85475	-2.34456	0.19795	2.54803
1811.608	1.87242	-2.30886	0.20556	3.86263
1815.608	1.91543	-2.31225	0.27468	3.81427
1819.616	1.92183	-2.35434	0.26639	3.89046
1823.609	1.87079	-2.32438	0.34494	3.96822
1827.601	1.94347	-2.30998	-1.65689	3.92014
1831.601	1.95564	-2.24750	-1.42060	3.77249
1835.603	1.96082	-2.21829	-1.42131	3.83634
1839.607	1.93033	-2.13892	-1.07088	3.87516
1843.602	1.92034	-2.19173	-1.15089	3.96393
1847.600	1.93294	-2.16220	-0.93167	3.99195
1851.614	1.95252	-2.17408	-0.90450	4.08247
1855.612	1.94412	-2.19036	-0.88044	4.11302
1859.606	1.92634	-2.18865	-0.87729	4.19651
1863.615	1.93864	-2.15220	-0.82253	4.20846
1867.607	1.98581	-2.12486	-0.67891	4.37647
1871.614	1.98831	-2.24205	-0.36990	4.52633
1875.605	2.34978	-2.22712	-0.84059	4.52098
1879.596	4.39809	-2.28477	0.30424	4.50362
1883.614	4.75299	-2.27031	2.35541	4.39550
1887.608	5.04437	-2.15479	0.13141	4.36604
1891.601	5.03169	-2.09494	-0.11312	4.25718
1895.601	4.45375	-2.06101	-0.37484	4.28936
1899.607	4.29601	-2.05724	-0.41388	4.03465
1903.627	4.67882	-2.04911	-0.66094	6.20635
1907.631	4.96268	-2.09029	0.25972	3.86717
1911.604	4.36913	-2.22360	-0.18377	6.32598
1915.599	4.33429	-2.35742	0.11290	6.18813
1919.601	4.27306	-2.43330	0.41283	6.06985
1923.600	4.42074	-2.62750	0.70082	5.72433
1927.598	4.53428	-2.50289	0.97087	5.82608
1931.603	4.48840	-2.22090	-0.56798	5.85203
1935.604	4.35363	-2.43018	-0.58674	5.86470
1939.606	4.41667	-2.55633	-0.59828	5.63484
1943.607	4.65597	-2.64424	-0.59109	5.57169
1947.596	4.42733	-2.71109	-0.50523	5.55090
1951.623	4.42284	-2.73137	-0.53081	5.51038
1955.604	4.44783	-2.75879	-0.55649	5.48813
1959.594	4.39757	-2.77114	-0.48547	5.47297
1963.628	4.45530	-2.72238	-0.56535	5.50306
1967.607	4.42673	-2.63638	-0.52108	5.52430
1971.601	4.28370	-2.64608	-0.44696	5.61292
1975.601	4.17682	-2.66410	0.08875	3.97363
1979.596	4.17504	-2.66549	-0.06249	4.73982
1983.604	4.30107	-2.69243	-0.06080	5.04935
1987.613	4.29648	-2.64302	-0.01509	5.37724
1991.598	4.20373	-2.61094	0.22624	5.69228
1995.603	4.14125	-2.63338	0.54587	3.93992
1999.602	4.23772	-2.62762	0.92443	4.20125
2003.602	4.33293	-2.87925	0.06817	3.96067
2007.605	5.22911	-5.74965	1.13841	3.02431
2011.601	5.40548	-6.97182	1.83548	1.11179
2015.593	4.86983	-8.25926	2.66583	0.07596
2019.615	4.93169	-8.77644	0.51833	-3.34344
2023.616	5.07318	-9.46875	0.86292	-3.44115
2027.611	5.31263	-10.43114	1.29556	-3.31463
2031.603	5.43620	-10.51992	1.40968	-3.95080
2035.597	6.01854	-10.08465	1.80615	-3.21896
2039.606	5.69445	-9.95453	1.85051	-0.87874
2043.601	5.73175	-9.93919	1.86261	-2.28904
2047.597	5.81675	-10.10249	1.79031	-3.52632
2051.605	5.74421	-10.31086	4.62744	-3.16028
2055.603	5.84851	-10.31909	1.74476	-3.74383
2059.598	5.90426	-10.32978	4.74259	-3.32616
2063.602	5.72922	-10.69616	1.74077	-4.01017
2067.606	5.94858	-10.39502	1.83196	-3.53606
2071.684	5.74470	-10.84128	1.96511	-2.90246
2075.615	5.77327	-10.68917	1.96328	-3.71827
2079.599	5.89537	-10.50962	2.04827	-3.30863
2083.599	5.59909	-10.95980	4.89003	-3.00572
2087.598	5.47368	-11.04690	3.40084	-8.40679
2091.599	5.65533	-10.81822	2.31334	-9.14247
2095.602	5.86118	-10.54645	2.94205	-8.94768
2099.594	5.67364	-11.00335	3.30294	-8.69257
2103.602	5.37960	-11.36930	3.25189	-8.47861
2107.600	5.46878	-11.18574	3.29451	-8.56759
2111.599	5.54110	-10.96162	3.10987	-8.74660
2115.619	5.68971	-10.63388	3.22997	-8.65857
2119.602	5.70858	-10.98923	3.39465	-8.51554
2123.596	5.46834	-11.22873	3.39151	-8.65175
2127.594	5.67430	-10.89555	3.30512	-8.63199
2131.597	5.69563	-10.76227	3.38041	-8.60932
2135.601	5.50680	-11.21411	3.31843	-8.65397
2139.657	5.53867	-10.99434	3.43341	-8.55106
2143.605	5.72082	-10.80561	3.35731	-8.52450
2147.601	5.58100	-11.02789	3.32154	-8.61226
2151.614	5.67116	-10.83651	3.29669	-8.54705
2155.596	5.57532	-11.03466	3.29963	-8.60699
2159.601	5.71561	-10.89169	3.26297	-8.50696
2163.604	5.65204	-10.83398	3.22037	-8.62393
2167.604	5.80206	-10.82655	3.03410	-8.54341
2171.599	6.02752	-10.68655	3.10168	-8.52604
2175.593	5.60226	-10.92129	3.19222	-8.54690
2179.594	5.99713	-10.66372	3.01168	-8.54560
2183.597	5.47744	-11.14720	2.95084	-8.61296
2187.601	5.61426	-10.78179	3.12234	-8.59449
2191.599	6.04995	-10.62168	3.01046	-8.56766
2195.598	5.59747	-10.88508	3.07189	-8.56279
2199.593	6.12239	-10.52222	3.15911	-8.50924
2203.603	5.86769	-10.61768	3.14805	-8.49501
2207.629	6.04701	-10.70693	3.10376	-8.46080
2211.600	6.05039	-10.59154	3.14451	-8.47589
2215.645	5.71763	-10.72533	3.11490	-8.36262
2219.593	5.71089	-10.95642	3.12979	-8.40058
2223.603	5.81656	-10.79651	3.20209	-8.41981
2227.595	5.82393	-10.60786	3.26470	-8.29438
2231.599	5.97504	-10.41775	3.25379	-8.22427
2235.598	5.97273	-10.49566	3.28620	-8.11446
2239.596	5.72782	-10.86292	3.23492	-8.17015
2243.593	5.64098	-10.94087	3.11029	-8.36426
2247.594	5.60590	-10.83966	3.12667	-8.36952
2251.598	5.51759	-10.73251	3.09122	-8.34084
2255.594	5.47577	-10.66838	3.05437	-8.24770
2259.593	5.71618	-10.66194	3.07347	-8.21608
2263.611	5.76315	-10.48209	2.98925	-8.14434
2267.596	5.80047	-10.40380	3.03365	-8.14445
2271.596	5.83719	-10.44625	3.04338	-8.16735
2275.649	5.87690	-10.47691	3.00076	-8.19417
2279.603	5.75649	-10.48582	2.98126	-8.22499
2283.597	5.81685	-10.39014	3.04613	-8.20620
2287.591	5.86752	-10.32432	3.13801	-8.15907
2291.598	5.89809	-10.27807	3.20845	-8.12186
2295.597	5.91563	-10.25961	3.38907	-8.07010
2299.589	6.01505	-10.19142	3.31633	-8.12039
2303.614	6.00904	-10.21774	3.37764	-8.11240
2307.601	5.98702	-10.25357	3.37940	-8.16567
2311.598	6.04222	-10.22587	3.50872	-8.16776
2315.594	5.98839	-10.27285	3.48548	-8.13289
2319.610	5.96124	-10.22589	3.62751	-8.08523
2323.627	5.91391	-10.09698	3.60546	-8.07541
2327.597	6.00904	-10.13598	3.50403	-8.16523
2331.587	5.89308	-10.28672	3.66491	-8.11810
2335.601	5.88100	-10.05295	3.34512	-8.00961
2339.603	5.94580	-9.22770	3.40012	-7.77829
2343.917	5.84768	-9.07196	3.43482	-5.67566
2347.595	5.84758	-8.08189	3.21102	-6.45615
2351.600	5.99176	-7.50604	3.38333	-6.33857
2355.601	5.78868	-9.32053	3.42661	-6.23271
2359.600	5.81550	-8.91760	3.09701	-6.64733
2363.594	5.79170	-8.78256	3.17683	-6.80777
2367.585	5.78715	-8.95526	3.10616	-6.36454
2371.604	5.71642	-9.18903	3.19991	-6.43084
2375.591	5.63798	-8.75522	2.90948	-6.61384
2379.592	5.64651	-8.44187	3.13071	-6.29329
2383.595	5.76377	-7.89459	3.23893	-6.02598
2387.600	5.55993	-9.02299	3.12165	-6.43132
2391.588	5.74492	-8.73181	3.18771	-6.29978
2395.597	5.66111	-8.67962	3.15206	-6.30941
2399.599	5.80597	-8.50816	3.07872	-6.32473
2403.600	5.80882	-8.65940	2.75908	-6.44665
2407.595	5.76981	-8.86039	3.01267	-6.28304
2411.593	5.61401	-8.95201	3.21624	-6.15552
2415.607	5.57016	-8.68868	2.98725	-6.26355
2419.591	5.71337	-8.80560	2.96049	-6.17423
2423.589	5.47451	-8.83810	3.00809	-6.20705
2427.608	5.50186	-8.77244	2.68244	-6.33635
2431.588	5.63884	-8.73755	2.92931	-6.27876
2435.599	5.81209	-8.71919	3.05170	-6.26776
2439.602	5.73347	-8.71819	3.13162	-6.22748
2443.592	5.53613	-8.64337	3.01262	-6.31837
2447.592	5.51548	-8.59287	3.03959	-6.29907
2451.596	5.65282	-8.51203	3.06241	-6.30060
2455.595	5.65621	-8.48051	3.12583	-6.38513
2459.590	5.79443	-8.45743	3.05145	-6.30657
2463.600	5.54594	-8.40044	3.14355	-6.23807
2467.594	5.85811	-8.31057	2.99618	-6.34957
2471.595	5.92721	-8.27266	3.04905	-6.37630
2475.592	6.07518	-8.21585	3.09854	-6.40318
2479.618	5.90647	-8.23850	3.14229	-6.35694
2483.602	5.84483	-8.16927	3.04358	-6.38167
2487.605	5.98754	-8.16101	2.94272	-6.31806
2491.593	5.94185	-8.15384	3.06197	-6.25061
2495.596	6.04902	-8.23958	3.28286	-6.21043
2499.589	5.99787	-8.23366	3.21723	-6.23270
2503.602	5.97585	-8.14060	2.89505	-6.30417
2507.586	6.17305	-8.07448	2.98972	-6.32473
2511.595	6.03530	-8.16420	3.14498	-6.26846
2515.593	6.11476	-8.25642	3.31957	-6.14505
2519.596	5.90212	-8.09771	3.36463	-6.13487
2523.592	5.94963	-8.14675	3.27371	-6.22297
2527.602	5.99905	-8.22381	3.10829	-6.25181
2531.605	6.16555	-8.24770	2.83088	-6.18026
2535.591	6.00752	-8.33520	2.91752	-6.24959
2539.598	5.75519	-8.35866	3.03073	-6.35283
2543.590	5.55777	-8.53638	3.05902	-6.40866
2547.630	5.67071	-8.89724	2.72360	-6.26544
2551.593	5.58872	-8.80356	2.79161	-6.28039
2555.601	5.85937	-8.50787	2.88990	-6.28584
2559.586	5.69681	-8.48984	2.76577	-6.24111
2563.608	5.37394	-8.69601	2.68732	-6.36008
2567.601	5.40033	-9.04903	2.70342	-6.48179
2571.595	5.40129	-9.03580	2.73219	-6.35453
2575.588	5.87619	-8.36947	3.07926	-6.28606
2579.593	6.18691	-8.72348	2.93676	-6.33628
2583.587	5.65123	-8.84486	3.03073	-6.14884
2587.595	5.73549	-8.82284	3.14372	-6.18864
2591.588	5.83793	-8.49526	3.14249	-6.13496
2595.591	5.85281	-8.36899	3.12846	-6.18024
2599.589	6.02615	-8.61586	3.15221	-6.36095
2603.589	5.53935	-8.75128	2.97849	-6.20967
2607.467	5.84053	-8.52711	3.07545	-6.30038
2611.467	5.87484	-8.69591	3.19185	-6.13861
2615.472	5.82285	-8.37117	3.08080	-6.15756
2619.459	5.81481	-8.51105	3.00061	-6.21813
2623.459	5.74991	-8.60321	3.02697	-6.23995
2627.468	5.75735	-8.68168	3.06674	-6.30232
2631.464	5.91941	-8.67965	8.47743	-5.85256
2635.464	6.39597	-8.75090	6.89852	-6.01987
2639.462	8.46990	-8.77720	6.78434	-6.21253
2643.465	9.29771	-8.80209	9.53185	-7.30447
2647.465	11.15327	-8.60022	8.84290	-6.69540
2651.458	9.58371	-8.81947	7.51320	-7.02584
2655.484	9.55019	-8.90698	6.98128	-6.80567
2659.471	8.95627	-8.89534	6.87697	-7.02573
2663.467	8.97361	-8.86895	6.89874	-6.75723
2667.470	9.14895	-8.86860	7.16305	-6.55678
2671.465	9.51008	-8.78540	8.05891	-6.63451
2675.458	9.60555	-8.81913	7.79503	-6.87680
2679.467	9.83115	-8.74204	8.98181	-6.68736
2683.464	9.41779	-8.74786	7.25753	-6.80389
2687.465	9.61566	-8.75407	7.65858	-6.81987
2691.465	9.60217	-8.77552	8.03025	-6.92530
2695.473	9.92285	-8.77433	7.80898	-7.09290
2699.462	-19.99372	-12.07740	NaN	NaN
2703.466	NaN	NaN	11.56212	-6.64136
2707.469	NaN	NaN	NaN	NaN
2711.461	NaN	NaN	NaN	NaN
2715.489	NaN	NaN	NaN	NaN
2719.475	NaN	NaN	NaN	NaN
2723.796	NaN	NaN	NaN	NaN
2728.050	NaN	NaN	NaN	NaN
2732.198	NaN	NaN	NaN	NaN
2736.362	NaN	NaN	NaN	NaN
2740.537	NaN	NaN	NaN	NaN
2744.632	NaN	NaN	NaN	NaN
2749.671	NaN	NaN	NaN	NaN
2753.962	NaN	NaN	NaN	NaN
2758.185	NaN	NaN	NaN	NaN
2762.331	NaN	NaN	NaN	NaN
2766.493	NaN	NaN	NaN	NaN
2770.780	NaN	NaN	NaN	NaN
2774.964	NaN	NaN	NaN	NaN
2779.110	NaN	NaN	NaN	NaN
2783.272	NaN	NaN	NaN	NaN
2787.608	NaN	NaN	NaN	NaN
2791.834	NaN	NaN	NaN	NaN
2796.015	NaN	NaN	NaN	NaN
2800.240	NaN	NaN	NaN	NaN
2804.540	NaN	NaN	NaN	NaN
2808.695	NaN	NaN	NaN	NaN
2812.846	NaN	NaN	NaN	NaN
2817.844	NaN	NaN	NaN	NaN
2822.089	NaN	NaN	NaN	NaN
2826.305	NaN	NaN	NaN	NaN
2830.439	NaN	NaN	NaN	NaN
2834.557	NaN	NaN	NaN	NaN
2838.832	NaN	NaN	NaN	NaN
2843.108	NaN	NaN	NaN	NaN
2847.334	NaN	NaN	NaN	NaN
2851.541	NaN	NaN	NaN	NaN
2855.766	NaN	NaN	NaN	NaN
2859.946	NaN	NaN	NaN	NaN
2864.058	NaN	NaN	NaN	NaN
2868.292	NaN	NaN	NaN	NaN
2872.494	NaN	NaN	NaN	NaN
2876.632	NaN	NaN	NaN	NaN
2880.773	NaN	NaN	NaN	NaN
2885.745	NaN	NaN	NaN	NaN
2889.989	NaN	NaN	NaN	NaN
2894.213	NaN	NaN	NaN	NaN
2898.395	NaN	NaN	NaN	NaN
2902.604	NaN	NaN	NaN	NaN
2906.981	NaN	NaN	NaN	NaN
2911.280	NaN	NaN	NaN	NaN
2915.476	NaN	NaN	NaN	NaN
2919.655	NaN	NaN	NaN	NaN
2923.909	NaN	NaN	NaN	NaN
2928.128	NaN	NaN	NaN	NaN
2932.328	NaN	NaN	NaN	NaN
2936.460	NaN	NaN	NaN	NaN
2940.616	NaN	NaN	NaN	NaN
2944.753	NaN	NaN	NaN	NaN
2948.838	NaN	NaN	NaN	NaN
2953.888	NaN	NaN	NaN	NaN
2958.114	NaN	NaN	NaN	NaN
2962.268	NaN	NaN	NaN	NaN
2966.388	NaN	NaN	NaN	NaN
2970.544	NaN	NaN	NaN	NaN
2974.790	NaN	NaN	NaN	NaN
2978.952	NaN	NaN	NaN	NaN
2983.163	NaN	NaN	NaN	NaN
2987.299	NaN	NaN	NaN	NaN
2991.444	NaN	NaN	NaN	NaN
2995.594	NaN	NaN	NaN	NaN
2999.743	NaN	NaN	NaN	NaN
3003.909	NaN	NaN	NaN	NaN
3008.054	NaN	NaN	NaN	NaN
3012.176	NaN	NaN	NaN	NaN
3016.311	NaN	NaN	NaN	NaN
3021.327	NaN	NaN	NaN	NaN
3025.621	NaN	NaN	NaN	NaN
3029.801	NaN	NaN	NaN	NaN
3033.986	NaN	NaN	NaN	NaN
3038.128	NaN	NaN	NaN	NaN
3042.335	NaN	NaN	NaN	NaN
3046.533	NaN	NaN	NaN	NaN
3050.741	NaN	NaN	NaN	NaN
3054.905	NaN	NaN	NaN	NaN
3059.116	NaN	NaN	NaN	NaN
3063.259	NaN	NaN	NaN	NaN
3067.421	NaN	NaN	NaN	NaN
3071.563	NaN	NaN	NaN	NaN
3075.773	NaN	NaN	NaN	NaN
3079.878	NaN	NaN	NaN	NaN
3084.015	NaN	NaN	NaN	NaN
3089.012	NaN	NaN	NaN	NaN
3093.270	NaN	NaN	NaN	NaN
3097.430	NaN	NaN	NaN	NaN
3101.563	NaN	NaN	NaN	NaN
3105.747	NaN	NaN	NaN	NaN
3236.311	NaN	NaN	NaN	NaN
3286.171	NaN	NaN	NaN	NaN
3336.164	NaN	NaN	NaN	NaN
3386.178	NaN	NaN	NaN	NaN
3436.154	NaN	NaN	NaN	NaN
3486.151	NaN	NaN	NaN	NaN
3536.282	NaN	NaN	NaN	NaN
3586.294	NaN	NaN	NaN	NaN
3636.290	NaN	NaN	NaN	NaN
3686.322	NaN	NaN	NaN	NaN
3736.285	NaN	NaN	NaN	NaN
3786.402	NaN	NaN	NaN	NaN
3836.399	NaN	NaN	NaN	NaN
3904.147	18.98360	2.75258	20.18082	-2.81506
3908.277	19.03815	2.60366	20.19186	-2.38719
3911.830	18.96223	2.49058	20.13596	-2.20007
3915.821	18.88399	2.20802	19.93569	-2.08551
3919.818	18.94087	2.48961	20.07508	-2.12124
3923.815	18.91784	2.35167	20.07827	-2.02761
3927.835	18.89803	2.40959	19.94126	-1.89211
3931.815	18.94993	2.41600	19.76177	-1.93366
3935.811	18.99227	2.47766	19.86282	-1.98482
3939.819	19.02251	2.35590	19.89982	-2.00601
3943.820	18.96322	2.40314	19.84784	-2.08225
3947.817	18.92226	2.38416	19.86751	-1.95794
3951.813	18.95428	2.41523	19.75340	-1.74892
3955.817	18.94915	2.40902	19.66887	-1.80005
3959.818	18.96005	2.47943	19.66865	-1.93023
3963.813	18.98311	2.48579	19.73414	-1.88664
3967.826	18.96351	2.52741	19.65762	-1.84270
3971.836	18.97468	2.53336	19.67505	-1.88694
3975.833	18.99498	2.54931	19.64851	-1.84952
3979.814	18.96595	2.53216	19.62929	-1.85245
3983.815	18.96149	2.58007	19.57229	-1.79992
3987.817	19.02761	2.60451	19.56961	-1.85814
3991.818	19.07600	2.57171	19.46596	-1.78619
3995.813	19.01892	2.60326	19.35761	-1.88343
3999.816	19.03593	2.60534	19.30035	-1.85066
4003.813	19.02156	2.58137	19.79733	0.37144
4007.817	18.98952	2.54219	20.13679	0.41434
4011.817	19.02191	2.54144	20.57333	0.55167
4015.817	19.03039	2.56862	20.50027	0.62397
4019.814	19.02094	2.56806	20.81807	0.57540
4023.818	19.00818	2.55211	21.07246	0.47603
4027.818	19.01952	2.57343	21.33491	0.47314
4031.813	19.02216	2.59435	21.31288	0.48104
4035.814	19.02154	2.63175	19.70803	-1.44778
4039.819	19.06070	2.58637	20.24774	-1.58802
4043.812	19.09107	2.55538	20.19621	-1.76139
4047.819	19.11906	2.56943	19.99195	-1.88952
4051.819	19.10789	2.64749	19.64103	-1.92663
4055.819	19.11152	2.68747	19.56357	-1.93568
4059.810	19.09293	2.70928	19.52255	-1.99945
4063.818	19.05815	2.38688	19.49433	-1.98185
4067.813	18.68619	2.26460	18.69454	-1.91019
4071.814	16.45932	1.32231	16.70611	-1.12080
4075.812	14.26159	-0.01715	13.04987	-0.23605
4079.818	11.98845	-0.42804	11.13728	0.12069
4083.817	11.13145	-1.33124	10.00028	0.04725
4087.816	9.71237	-2.41563	7.71445	-0.35013
4091.819	8.50059	-2.82238	7.40884	-0.14031
4095.819	7.22226	-2.89019	5.69037	-0.11636
4099.813	7.19007	-2.57640	5.07934	0.17049
4103.819	6.99978	-2.54535	4.59884	0.41800
4107.859	6.81461	-2.31746	4.82984	0.26779
4111.824	6.97044	-2.08546	5.12385	0.04754
4115.815	7.15122	-2.28421	5.76055	0.13432
4119.815	7.22246	-2.44712	5.63977	0.33883
4123.815	6.82555	-2.74630	5.09133	0.55599
4127.811	6.65522	-2.76620	4.93612	0.49567
4131.814	6.44424	-2.54027	4.67742	0.53073
4135.822	6.40815	-2.53835	4.61529	0.47750
4139.812	6.43332	-2.46745	4.62779	0.58178
4143.815	6.70279	-2.33138	4.80140	0.46913
4147.810	6.67916	-2.22942	4.96632	0.46070
4151.820	7.19906	-2.31228	4.95642	0.46605
4155.812	7.11542	-2.44001	4.81572	0.51329
4159.810	6.81395	-2.43836	4.81766	0.58145
4163.810	6.63661	-2.45856	4.79354	0.54295
4167.813	6.75480	-2.38725	4.79903	0.47688
4171.809	6.62718	-2.40975	4.86273	0.48105
4175.814	6.65091	-2.42991	4.82550	0.45904
4179.837	6.47549	-2.47882	4.85529	0.41938
4183.820	6.66398	-2.56548	4.85337	0.39559
4187.810	6.54056	-2.61411	4.79208	0.42437
4191.813	6.42398	-2.60944	4.77249	0.43490
4195.808	6.62598	-2.66719	4.68516	0.41052
4199.818	6.55182	-2.69976	4.68033	0.38499
4203.814	6.59731	-2.68372	4.69820	0.38787
4207.809	6.58028	-2.67640	4.63400	0.40480
4211.809	6.56544	-2.73298	4.64386	0.43939
4215.812	6.68354	-2.65148	4.63220	0.39784
4219.814	6.62608	-2.46253	4.57391	0.39983
4223.816	6.67241	-2.25846	4.55685	0.44277
4227.814	6.71013	-2.31688	4.49992	0.45075
4231.814	6.75230	-2.17954	4.48796	0.42782
4235.815	6.77959	-2.21972	4.50676	0.48310
4239.808	6.76537	-2.26912	4.46842	0.49905
4243.808	6.73559	-2.20697	4.53492	0.50517
4247.870	6.69620	-2.19253	4.51102	0.50839
4251.826	6.59758	-2.17345	4.50873	0.49744
4255.812	6.49523	-2.14921	4.52649	0.42121
4259.813	6.53874	-2.17087	4.55174	0.30136
4263.807	6.49109	-2.18091	4.59736	0.09593
4267.811	6.53500	-2.32231	4.62811	0.00602
4271.813	6.52618	-2.45307	4.63765	0.17887
4275.817	6.55023	-2.42575	4.66186	0.31798
4279.811	6.50790	-2.49404	4.65925	0.29596
4283.809	6.54337	-2.48347	4.74885	0.23001
4287.815	6.63139	-2.50574	4.78617	0.23673
4291.808	6.61210	-2.45343	4.80938	0.29835
4295.806	6.63979	-2.48801	4.82434	0.26809
4299.812	6.70127	-2.76584	4.56720	0.29885
4303.820	6.71593	-2.80185	4.76571	0.26051
4307.811	6.74112	-2.82770	4.75733	0.22228
4311.811	6.71199	-2.81463	4.71826	0.25235
4315.875	6.66384	-2.71092	4.82257	0.21074
4319.820	6.56439	-2.67784	4.84809	0.16119
4323.803	6.43993	-2.59125	4.90609	0.13622
4327.809	6.31210	-2.52872	4.87409	0.28973
4331.805	6.37996	-2.45052	4.75393	0.25826
4335.813	4.23512	-2.43048	3.46031	0.29117
4339.811	2.29827	-2.43923	0.47631	0.56893
4343.812	-0.96447	-2.23083	-0.70759	0.48093
4347.813	-1.21941	-1.80503	-2.73808	0.83739
4351.808	-1.12809	-2.00978	-3.08634	0.62107
4355.809	-0.11156	-2.22313	-2.02711	0.56301
4359.806	2.16808	-2.28454	-0.45314	0.56208
4363.809	2.33368	-2.38477	0.14158	0.65842
4367.807	2.12283	-2.34155	0.37286	0.68594
4371.810	2.07836	-2.36579	0.09091	0.60093
4375.811	1.47258	-2.12918	-0.78171	0.61988
4379.808	1.07118	-2.13174	-1.44929	0.53479
4383.847	0.63295	-2.03131	-1.23851	0.51228
4387.855	0.92482	-2.02824	-1.47000	0.47922
4391.809	0.92614	-1.97774	-1.23159	0.40226
4395.812	0.98908	-2.15358	-0.91942	0.30712
4399.808	1.13159	-2.19871	-0.86394	0.27453
4403.810	1.03034	-2.14306	-0.91051	0.25102
4407.815	0.96487	-2.14556	-1.17617	0.25686
4411.808	0.97646	-2.08089	-1.05694	0.21406
4415.808	0.99350	-2.10480	-1.08641	0.23841
4419.804	1.08879	-2.17071	-1.13571	0.26695
4423.811	0.98132	-2.25302	-0.82828	0.25895
4427.816	1.05781	-2.28556	-0.96065	0.26781
4431.809	1.03503	-2.29880	-0.65426	0.25560
4435.804	1.01918	-2.32327	-0.60627	0.23148
4439.807	0.99975	-2.33859	-0.56724	0.27328
4443.811	0.92140	-2.29955	-0.57238	0.28374
4447.810	0.91763	-2.32671	-0.42298	0.30548
4451.688	0.90919	-2.31268	-0.53875	0.27772
4455.685	0.85716	-2.34483	-0.55836	0.28749
4459.687	0.80712	-2.34571	-0.49721	0.30230
4463.718	0.74541	-2.34239	-0.55233	0.29653
4467.683	0.72057	-2.31668	-0.55168	0.28259
4471.686	0.71789	-2.34355	-0.52235	0.24599
4475.691	0.65300	-2.35226	-0.63811	0.24716
4479.680	0.58434	-2.36775	-0.69655	0.27116
4483.683	0.48498	-2.38274	-0.74630	0.25225
4487.681	0.45554	-2.44097	-0.80610	0.35553
4491.687	0.38214	-2.48541	-0.91572	0.37102
4495.680	0.36390	-2.52939	-0.98663	0.41538
4499.684	0.30793	-2.52544	-1.01573	0.40703
4503.680	0.27681	-2.53626	-1.10003	0.39892
4507.685	0.24103	-2.56439	-1.15337	0.42903
4511.679	0.27185	-2.56738	-1.20919	0.45955
4515.688	0.23698	-2.48941	-1.23739	0.50580
4519.682	0.24845	-2.48959	-1.28757	0.50671
4523.712	0.26304	-2.45064	-1.23928	0.48975
4527.682	0.34518	-2.43656	-1.33299	0.52732
4531.686	0.40556	-2.40155	-1.37166	0.50257
4535.684	0.48527	-2.35379	-1.36171	0.45058
4539.686	0.65595	-2.33653	-1.36385	0.43736
4543.680	0.65422	-2.33284	-1.32074	0.37919
4547.679	0.77704	-2.22692	-0.97035	0.27477
4551.678	0.61310	-1.99948	-0.79399	0.55653
4555.689	4.60893	-2.21568	0.47066	0.50659
4559.684	5.49726	-1.99001	1.32947	0.57720
4563.680	-5.30919	-1.56604	-5.76237	12.50737
4567.677	NaN	NaN	NaN	NaN
4571.685	NaN	NaN	NaN	NaN
4575.676	NaN	NaN	NaN	NaN
4579.683	NaN	NaN	NaN	NaN
4583.672	NaN	NaN	NaN	NaN
4587.679	NaN	NaN	NaN	NaN
4591.686	NaN	NaN	NaN	NaN
4595.676	NaN	NaN	NaN	NaN
4599.685	NaN	NaN	NaN	NaN
4603.677	NaN	NaN	NaN	NaN
4607.679	NaN	NaN	NaN	NaN
4611.681	NaN	NaN	0.15372	-7.43556
4615.678	-3.64704	8.60248	1.67348	-7.47733
4619.678	7.35749	-2.41521	1.36422	-8.44286
4623.680	4.86184	-12.66543	-0.13962	-8.11800
4627.681	4.65000	-12.80007	0.80833	-8.59931
4631.678	4.59433	-12.80163	0.51006	-9.70503
4635.680	4.63097	-12.73807	4.69566	-8.67997
4639.688	4.60555	-12.70747	2.57981	-9.34738
4643.678	4.67601	-12.37395	2.27471	-9.65773
4647.681	4.76078	-12.22360	2.12920	-9.70685
4651.682	4.71390	-12.56249	2.21521	-9.84393
4655.748	4.63171	-12.64124	5.27636	-8.79846
4659.682	4.65212	-12.69351	2.44175	-10.03110
4663.675	4.61147	-12.73636	2.46734	-10.10920
4667.682	4.60602	-12.81483	2.49686	-10.24804
4671.682	4.55832	-12.86944	2.55953	-10.31978
4675.676	4.48330	-12.94931	2.58853	-10.37895
4679.681	4.25981	-12.94624	2.70995	-10.39972
4683.682	4.36138	-12.89385	2.57553	-10.52773
4687.680	4.26341	-12.95207	2.97661	-10.48120
4691.678	4.19679	-12.97915	4.36550	-8.32617
4695.681	4.27535	-13.00543	4.44168	-8.23585
4699.679	4.27042	-13.00495	4.51948	-8.06175
4703.681	4.23562	-12.98808	4.50772	-8.02651
4707.680	4.23508	-12.98642	4.78363	-8.01297
4711.680	4.21219	-13.01695	2.81328	-10.54216
4715.688	4.16880	-13.03327	2.84088	-10.40858
4719.695	4.13414	-13.05849	2.70899	-10.39718
4723.683	4.14969	-13.08407	2.60820	-10.30000
4727.686	4.14280	-13.10623	2.66228	-10.17470
4731.677	4.14663	-13.12806	2.60319	-10.05515
4735.676	4.12085	-13.15900	2.47323	-10.10199
4739.681	4.02468	-13.19567	2.41618	-10.07500
4743.677	3.98788	-13.25077	2.35704	-10.06296
4747.678	3.97998	-13.29732	2.01692	-10.10455
4751.675	3.94708	-13.32072	2.03928	-10.13134
4755.681	3.89555	-13.36212	2.02894	-10.13769
4759.676	3.86598	-13.40644	1.83362	-10.11620
4763.684	3.87070	-13.42774	1.88078	-10.14518
4767.680	3.97170	-13.46672	2.04733	-10.04731
4771.689	4.03041	-13.48649	2.16525	-9.99612
4775.677	4.06799	-13.50068	1.86838	-10.21387
4779.679	4.17146	-13.47911	1.89285	-10.18207
4783.675	4.34751	-13.40517	2.06684	-10.30458
4787.679	4.42000	-13.36494	2.31259	-10.17143
4791.677	4.71499	-13.23306	2.16550	-10.08313
4795.671	4.62276	-13.29661	2.12734	-10.03446
4799.683	4.54607	-13.25789	2.20954	-9.91684
4803.681	4.56017	-13.20895	2.23695	-9.91314
4807.693	4.64953	-13.14699	6.37082	-7.73490
4811.678	4.67599	-13.04672	6.10477	-8.23489
4815.679	4.75346	-13.01810	5.97371	-8.24147
4819.680	4.72805	-13.00838	5.83240	-8.40016
4823.674	4.83614	-12.96051	5.66904	-8.41321
4827.682	4.81357	-12.97877	5.80135	-8.60041
4831.675	4.51438	-13.07212	5.57466	-8.72566
4835.674	4.55431	-13.15185	5.55752	-8.66922
4839.682	4.52104	-13.10982	5.44690	-8.63626
4843.676	4.48540	-13.17143	2.05901	-10.39367
4847.683	4.48559	-13.20221	5.37059	-9.04105
4851.681	4.84122	-12.62349	5.71935	-8.26847
4855.674	4.73887	-12.86870	2.55284	-9.52404
4859.672	4.80164	-12.81102	5.71480	-8.38998
4863.675	4.78575	-12.72353	2.58115	-9.57113
4867.681	4.77880	-12.63526	2.08979	-10.19046
4871.674	4.74023	-12.66419	2.18505	-10.29677
4875.677	4.87621	-12.56123	2.29607	-10.35817
4879.673	4.83908	-12.50924	2.32481	-10.45469
4883.682	4.91873	-12.47028	2.33735	-10.48010
4887.674	4.94206	-12.42727	2.42616	-10.46465
4891.681	4.99376	-12.44247	2.34741	-10.53600
4895.674	4.91550	-12.49885	2.31346	-10.60177
4899.680	4.90804	-12.54494	2.27659	-10.63764
4903.675	4.87411	-12.56589	2.75319	-10.59430
4907.670	4.80862	-12.61160	6.56696	-8.65256
4911.678	4.75193	-12.69633	6.55266	-8.51211
4915.677	4.66746	-12.70397	6.64961	-8.54108
4919.672	4.64736	-12.74622	6.76481	-8.41790
4923.671	4.61793	-12.78219	2.31267	-10.64814
4927.697	4.56656	-12.81158	2.31136	-10.63628
4931.696	4.57238	-12.82545	2.45000	-10.56512
4935.685	4.55167	-12.83197	2.45445	-10.56849
4939.672	4.57443	-12.80725	2.61407	-10.43511
4943.671	4.60801	-12.77131	2.51490	-10.38746
4947.672	4.61677	-12.75776	2.49922	-10.34864
4951.712	4.71738	-12.65538	2.49872	-10.40171
4955.688	4.99847	-12.46526	2.47893	-10.35437
4959.674	4.92427	-12.38657	2.44715	-10.33576
4963.683	5.03198	-12.42135	2.44972	-10.44190
4967.677	5.13739	-12.47344	2.36916	-10.45451
4971.677	5.10992	-12.50487	2.28004	-10.49182
4975.681	5.04560	-12.54589	2.11031	-10.58757
4979.672	4.84553	-12.59139	2.04547	-10.60081
4983.676	4.93309	-12.55258	1.91576	-10.56915
4987.672	4.92868	-12.54343	1.86156	-10.63119
4991.670	4.67700	-12.60397	1.86761	-10.69489
4995.673	4.43527	-12.70951	1.92423	-10.67251
4999.675	4.46542	-12.79724	1.86570	-10.69319
5003.678	4.41512	-12.81213	1.93073	-10.69031
5007.672	4.33083	-12.83411	1.92039	-10.55645
5011.675	4.48199	-12.81887	2.32454	-10.40700
5015.674	4.42111	-12.76795	2.47502	-10.17037
5019.683	4.49788	-12.67128	2.24478	-10.00604
5023.673	4.91395	-12.03553	2.96705	-9.78866
5027.677	6.54585	-10.01993	4.30351	-8.49089
5031.675	7.07207	-8.88691	4.78999	-6.90240
5035.675	6.87472	-7.74365	5.09320	-5.10025
5039.674	7.56400	-6.69377	5.65113	-4.41276
5043.670	8.09640	-5.50390	6.39942	-3.32555
5047.712	8.78629	-3.58956	6.87827	-1.93031
5051.683	9.30926	-2.61085	6.96541	-0.83562
5055.679	8.94951	-1.73315	7.47387	0.88409
5059.671	8.40919	-0.97210	6.67720	1.41667
5063.696	7.49710	-0.87052	6.12823	1.22877
5067.677	7.79288	-0.69321	6.58366	1.72846
5071.668	8.09202	-0.31473	6.46635	1.91837
5075.670	8.19392	0.50036	6.87836	2.25200
5079.673	7.96485	1.90055	6.48240	4.71436
5083.676	8.08903	1.91592	6.41704	6.31234
5087.672	8.07256	2.65914	6.43716	5.56083
5091.674	7.86724	2.63176	6.20315	6.05908
5095.678	7.72939	2.92957	6.07140	5.83617
5099.699	7.60068	3.05477	5.90217	5.57451
5103.675	7.40230	3.00083	5.89485	5.63907
5107.670	7.24749	3.31110	5.95405	5.49574
5111.672	7.31689	3.22920	5.89937	5.37640
5115.672	7.41006	3.06601	5.88663	5.32247
5119.671	7.34792	3.06802	5.91071	5.26295
5123.668	7.36210	3.17900	5.90389	5.36548
5127.683	7.41097	3.19374	5.93758	5.34413
5131.673	7.38495	3.23969	5.82147	5.49131
5135.672	7.35812	3.23129	5.89505	5.43502
5139.672	7.44042	3.13599	5.82869	5.57554
5143.669	7.47753	3.06576	5.87528	5.67217
5147.674	7.51513	3.09581	5.96289	5.64541
5151.671	7.58654	3.09859	5.87039	5.84229
5155.670	7.61731	3.06065	5.90796	5.76884
5159.669	7.63735	3.05950	5.81732	5.96117
5163.668	7.63911	3.11307	5.81469	5.72570
5167.665	7.64535	3.09151	5.72038	5.75817
5171.673	7.61129	3.15590	5.67509	5.65073
5175.668	7.59449	3.14001	5.68502	5.48970
5179.676	7.60458	3.13653	5.64108	5.43312
5183.672	7.59939	3.17404	5.64184	5.52748
5187.667	7.59424	3.21503	5.57532	5.57370
5191.671	7.60765	3.24523	5.54380	5.65383
5195.676	7.59766	3.19998	5.56910	5.67303
5199.672	7.61582	3.16591	5.52920	5.67045
5203.672	7.62243	3.16999	5.54580	5.63091
5207.668	7.62984	3.16006	5.42095	5.79473
5211.676	7.64649	3.13529	5.37328	5.87097
5215.671	7.67236	3.06116	5.35032	5.90935
5219.665	7.68908	2.98460	5.35842	5.91226
5223.679	7.72512	2.97255	5.39155	5.94711
5227.676	7.77607	2.95847	5.40275	5.94646
5231.674	7.87394	2.88137	5.55831	5.93032
5235.671	7.89079	2.86112	5.70568	5.83035
5239.667	7.94160	2.86006	5.76794	5.76903
5243.676	7.90511	2.87254	5.82044	5.62829
5247.667	7.90689	2.89283	5.70089	5.73208
5251.671	7.91390	2.91429	5.80037	5.56541
5255.665	7.88585	2.97107	5.69531	5.70547
5259.673	7.79810	2.95215	5.79622	5.61663
5263.673	7.72688	2.99312	5.82076	5.56455
5267.699	7.26158	4.06905	5.51624	6.02765
5271.671	7.71557	4.20105	4.05384	5.77973
5275.667	7.71172	3.00037	5.22473	5.16548
5279.668	NaN	NaN	5.81076	5.37783
5283.664	NaN	NaN	NaN	NaN
5287.665	NaN	NaN	NaN	NaN
5291.666	NaN	NaN	NaN	NaN
5295.666	NaN	NaN	NaN	NaN
5299.668	NaN	NaN	NaN	NaN
5303.699	NaN	NaN	NaN	NaN
5307.713	NaN	NaN	NaN	NaN
5311.702	NaN	NaN	NaN	NaN
5315.544	NaN	NaN	NaN	NaN
5319.562	NaN	NaN	NaN	NaN
5323.550	NaN	NaN	NaN	NaN
5327.549	NaN	NaN	NaN	NaN
5331.659	NaN	NaN	NaN	NaN
5336.346	NaN	NaN	NaN	NaN
5340.383	NaN	NaN	NaN	NaN
5344.304	NaN	NaN	NaN	NaN
5347.985	NaN	NaN	NaN	NaN
5351.902	NaN	NaN	NaN	NaN
5355.548	NaN	NaN	NaN	NaN
5359.545	NaN	NaN	NaN	NaN
5363.546	NaN	NaN	NaN	NaN
5367.540	NaN	NaN	NaN	NaN
5371.544	NaN	NaN	NaN	NaN
5375.547	NaN	NaN	13.01517	8.67406
5379.540	-2.89126	10.64013	NaN	NaN
5383.541	NaN	NaN	9.09979	6.77335
5387.536	-2.22726	14.60213	8.65572	7.28363
5391.540	2.47653	5.60051	8.73434	7.11066
5395.545	NaN	NaN	1.52307	2.66487
5399.545	NaN	NaN	2.13021	1.97788
5403.537	NaN	NaN	2.17085	1.82684
5407.546	4.62498	1.47626	3.33144	2.15914
5411.542	5.65948	-0.04295	3.58074	2.13043
5415.542	5.87575	-0.23458	3.49142	2.02294
5419.543	5.72684	0.05170	3.25288	2.09212
5423.539	6.12646	0.25201	3.69153	1.96271
5427.554	6.12435	0.44529	4.02450	2.07433
5431.539	6.75541	0.65704	6.55653	2.21033
5435.543	6.61712	0.51874	7.04007	2.25473
5439.538	6.62011	0.53290	7.82555	2.39966
5443.544	6.50922	0.50554	7.81127	2.52777
5447.545	6.48798	0.51485	7.54540	2.41809
5451.538	6.86643	0.54965	7.30537	2.55705
5455.540	7.04922	0.61160	7.59351	2.57221
5459.543	7.56917	0.65774	7.59766	2.67119
5463.542	7.68557	0.79414	7.33178	2.84543
5467.542	8.65426	0.82082	7.38029	2.85330
5471.552	9.32241	0.81870	7.26908	2.96608
5475.548	9.14646	0.86478	7.27856	3.09472
5479.544	8.74062	0.89774	7.39713	3.09669
5483.539	8.32568	0.91019	7.37948	3.16279
5487.538	8.49275	0.95661	7.27433	3.25673
5491.539	9.07240	0.96574	7.07266	3.37673
5495.542	9.12996	1.07541	7.03208	3.34100
5499.539	9.24716	1.11144	7.08339	3.37218
5503.538	9.02609	1.12650	7.05452	3.44140
5507.541	8.93396	1.13442	7.08358	3.50243
5511.565	9.00988	1.12253	6.96590	3.58050
5515.545	8.95934	1.15343	6.97198	3.64133
5519.549	8.79569	1.20655	7.00032	3.61866
5523.540	8.70131	1.22934	6.94174	3.60930
5527.553	8.64910	1.23266	6.90309	3.62378
5531.555	8.69001	1.24269	6.91002	3.59021
5535.547	8.66200	1.28273	6.98130	3.46209
5539.543	8.56780	1.28261	6.99666	3.53454
5543.543	8.57124	1.29640	7.04594	3.61474
5547.537	8.55236	1.37925	7.06254	3.58342
5551.542	8.59720	1.40907	7.07173	3.58135
5555.535	8.58966	1.44424	7.06838	3.50343
5559.544	8.53552	1.44324	7.06686	3.48227
5563.543	8.55445	1.37230	7.05124	3.46577
5567.537	8.60997	1.36664	7.04240	3.49026
5571.539	8.58847	1.40869	7.07148	3.49997
5575.536	8.56566	1.39541	7.09064	3.49950
5579.539	8.57656	1.36097	7.01284	3.57584
5583.537	8.49809	1.37343	6.97008	3.59656
5587.539	8.59124	1.36099	6.94819	3.50944
5591.541	8.47855	1.51657	6.98245	3.49125
5595.534	8.43290	1.37403	7.00856	3.43751
5599.533	8.47328	1.43259	7.00142	3.42279
5603.543	8.66574	1.39271	7.03242	3.37150
5607.541	8.80902	1.45623	7.08835	3.26711
5611.537	9.05044	1.46748	7.08075	3.28461
5615.535	9.10998	1.51742	7.09634	3.23741
5619.536	9.07709	1.25629	7.07948	3.22698
5623.535	9.20724	1.44119	7.14863	3.22765
5627.540	9.22685	1.50773	7.15088	3.36134
5631.542	9.21967	1.47462	7.15235	3.38332
5635.540	9.27888	1.44585	7.10062	3.34785
5639.537	9.09536	1.29510	7.04665	3.43964
5643.541	9.10473	1.22976	7.04354	3.46448
5647.535	8.99600	1.15864	6.97824	3.40890
5651.537	8.92224	1.22277	6.93058	3.49375
5655.541	8.82851	1.18200	6.91366	3.44944
5659.554	8.77465	1.24459	6.88389	3.44454
5663.544	8.59039	1.30311	6.80942	3.41139
5667.535	8.59259	1.37533	6.79528	3.41828
5671.541	8.61875	1.30075	6.80367	3.36836
5675.537	8.65977	1.35426	6.82963	3.35849
5679.536	8.62321	1.39299	6.85850	3.36097
5683.543	8.71504	1.30626	6.90126	3.35031
5687.546	8.54331	1.31722	6.91970	3.35525
5691.535	8.56561	1.35806	7.02868	3.39824
5695.534	8.49100	1.39060	6.97384	3.41267
5699.534	8.46111	1.30316	6.97088	3.42174
5703.541	8.51076	1.20989	6.98326	3.48036
5707.535	8.63139	1.18434	7.00135	3.52568
5711.536	8.73727	1.13152	6.98934	3.54511
5715.567	8.68283	1.20262	6.98746	3.55198
5719.529	8.72350	1.15365	7.00482	3.56772
5723.551	8.80287	1.18156	6.97849	3.58097
5727.546	8.89739	1.19795	6.98487	3.59821
5731.536	8.87636	1.24749	6.97294	3.63346
5735.537	8.87149	1.27177	6.94178	3.61292
5739.533	8.88046	1.20458	6.90370	3.66220
5743.539	8.87251	1.11441	6.89823	3.69548
5747.539	8.88235	1.05129	6.89015	3.73328
5751.536	8.84237	1.01100	6.86931	3.72966
5755.533	8.77148	0.90189	6.86523	3.74578
5759.538	8.69617	0.87960	6.82640	3.75223
5763.534	8.54874	0.98175	6.84634	3.68547
5767.547	8.50001	0.86023	6.84387	3.66502
5771.538	8.49394	0.83830	6.84622	3.64296
5775.533	8.40220	0.88669	6.77651	3.69553
5779.535	8.38950	0.84118	6.76395	3.72824
5783.542	8.39025	0.85273	6.74036	3.81393
5787.534	8.41978	0.87618	6.72487	3.89612
5791.535	8.55535	1.02860	6.68910	3.91999
5795.542	8.76166	1.07441	6.71432	3.92925
5799.538	8.86059	1.28909	6.80169	3.77549
5803.531	8.84947	1.18718	6.80744	3.69358
5807.532	8.61547	1.13932	6.76706	3.84413
5811.576	8.63088	1.27007	6.78588	3.77198
5815.541	8.73533	1.29704	6.75363	3.78601
5819.533	8.73633	1.37279	6.78794	3.81623
5823.535	8.78966	1.35914	6.81468	3.66330
5827.566	8.74348	1.17100	6.79503	3.43938
5831.537	8.55433	0.17193	6.85439	2.33426
5835.531	8.49246	-1.31342	6.88492	1.44836
5839.532	8.49942	-2.05963	6.96719	0.39316
5843.554	8.58202	-2.40761	6.96093	0.00059
5847.542	8.54193	-2.72872	6.95003	0.00498
5851.540	8.38338	-2.72506	6.92936	-0.02765
5855.537	8.36117	-2.63489	6.95448	0.14193
5859.542	8.28009	-2.60682	6.97577	0.31485
5863.548	8.27302	-2.42584	7.03668	0.50899
5867.531	8.28748	-2.31747	7.06936	0.39776
5871.534	8.31149	-2.41475	7.05396	0.16755
5875.529	8.36193	-2.53846	7.01455	0.14152
5879.552	8.38095	-2.54422	6.99641	0.12542
5883.537	8.47995	-2.60597	7.00362	0.12342
5887.531	8.45373	-2.61518	6.97939	0.12295
5891.539	8.53319	-2.50785	7.00047	0.00737
5895.541	8.66753	-2.50571	6.97976	0.09096
5899.533	8.77320	-2.46554	6.97057	0.01778
5903.533	8.85003	-2.44947	6.89622	-0.04554
5907.529	8.96208	-2.49488	6.87428	-0.03669
5911.535	9.04362	-2.52804	6.83580	-0.05902
5915.532	9.14668	-2.54000	6.86170	-0.04535
5919.527	9.19500	-2.53392	6.87235	-0.01335
5923.535	9.25494	-2.50691	6.85759	-0.01631
5927.537	9.32649	-2.47737	6.85170	-0.03703
5931.535	9.36940	-2.46769	6.85150	-0.01831
5935.557	9.39651	-2.46608	6.86435	-0.00353
5939.539	9.41767	-2.47540	6.79709	0.01601
5943.532	9.41134	-2.46811	6.78248	0.08804
5947.529	9.43513	-2.43764	6.80896	0.09887
5951.532	9.43648	-2.40335	6.78715	0.11405
5955.530	9.44612	-2.37307	6.80020	0.14447
5959.531	9.42660	-2.37041	6.77445	0.16303
5963.530	9.42733	-2.32102	6.80056	0.17072
5967.533	9.40170	-2.31111	6.78786	0.19172
5971.527	9.41774	-2.26271	6.79917	0.23552
5975.542	9.41286	-2.25915	6.78050	0.22973
5979.536	9.41264	-2.26713	6.78387	0.25741
5983.526	9.42499	-2.22661	6.81938	0.28836
5987.533	9.45834	-2.23795	6.83944	0.28363
5991.533	9.45423	-2.25197	6.86192	0.32743
5995.529	9.45580	-2.22729	6.86743	0.34016
5999.529	9.47205	-2.24618	6.87027	0.37731
6003.530	9.47546	-2.22702	6.87628	0.41214
6007.537	9.48765	-2.27461	6.85207	0.48452
6011.529	9.50539	-2.26152	6.85865	0.51665
6015.542	9.49381	-2.29231	6.84673	0.55150
6019.538	9.48355	-2.28494	6.85689	0.55985
6023.533	9.46423	-2.24001	6.83663	0.60258
6027.529	9.42103	-2.20321	6.83582	0.54512
6031.536	9.38400	-2.18499	6.83609	0.51993
6035.530	9.29311	-2.18073	6.81285	0.44076
6039.532	9.27660	-2.23709	6.81314	0.38863
6043.528	9.19302	-2.20825	6.78828	0.36886
6047.531	9.11419	-2.22309	6.77524	0.27244
6051.526	8.99804	-2.21276	6.76126	0.26139
6055.536	9.01021	-2.28524	6.73838	0.17622
6059.534	8.94394	-2.29311	6.68847	0.15351
6063.533	8.91643	-2.34497	6.65035	0.10571
6067.526	8.86236	-2.42520	6.60086	0.05144
6071.534	8.84797	-2.49181	6.54977	0.05471
6075.529	8.81157	-2.56293	6.53801	0.13008
6079.533	8.81469	-2.59156	6.53103	0.21720
6083.550	8.78668	-2.63476	6.57098	0.24207
6087.532	8.78639	-2.67326	6.54063	0.31827
6091.528	8.81612	-2.74103	6.59868	0.37424
6095.528	8.83108	-2.81490	6.60955	0.41101
6099.529	8.84091	-2.86027	6.66631	0.46997
6103.554	8.82870	-2.92392	6.70416	0.55882
6107.527	8.83132	-2.93994	6.70641	0.53143
6111.526	8.84986	-2.91719	6.74261	0.54523
6115.531	8.87295	-2.89526	6.76557	0.57133
6119.533	8.96513	-2.86889	6.77293	0.53745
6123.527	9.01021	-2.84146	6.77293	0.49775
6127.527	9.06153	-2.79278	6.75311	0.44780
6131.527	9.13598	-2.74455	6.76175	0.40525
6135.535	9.20480	-2.66455	6.72391	0.40208
6139.529	9.23686	-2.59139	6.70920	0.42376
6143.530	9.29855	-2.50628	6.68582	0.37284
6147.525	9.37641	-2.46586	6.64520	0.33757
6151.532	9.40482	-2.41204	6.62263	0.28573
6155.535	9.45749	-2.38011	6.58266	0.27117
6159.402	9.49299	-2.33768	6.56473	0.28320
6163.402	9.48579	-2.30558	6.51917	0.26557
6167.402	9.47609	-2.27748	6.47264	0.24051
6171.404	9.45315	-2.24263	6.49021	0.27299
6175.409	9.41153	-2.23757	6.46328	0.29042
6179.401	9.32668	-2.22602	6.50761	0.25442
6183.403	9.32190	-2.23538	6.50131	0.21576
6187.400	9.27646	-2.25041	6.47130	0.16429
6191.415	9.22284	-2.26816	6.47679	0.15891
6195.404	9.07484	-2.28910	6.44523	0.16020
6199.404	9.02706	-2.31481	6.49656	0.14461
6203.399	8.92919	-2.34803	6.50962	0.15406
6207.407	8.91258	-2.39997	6.52101	0.15099
6211.401	8.84399	-2.47639	6.61741	0.21803
6215.407	8.77398	-2.49655	6.66599	0.26019
6219.417	8.73759	-2.46264	6.68291	0.28160
6223.413	8.79269	-2.42497	6.64866	0.28364
6227.404	8.75092	-2.41230	6.68345	0.29305
6231.411	8.72151	-2.37536	6.66364	0.20930
6235.403	8.67619	-2.32396	6.54930	0.17723
6239.405	7.20731	-2.49260	4.58646	0.17492
6243.402	5.58203	-2.65797	1.92718	-0.16667
6247.405	4.12831	-2.96151	2.09507	-0.43478
6251.403	3.53926	-3.33601	1.94935	-1.48747
6255.401	3.42972	-3.77278	2.72030	-1.31673
6259.403	4.20955	-3.69595	2.61434	-1.32510
6263.399	4.72038	-3.96414	2.73702	-1.07571
6267.402	5.05779	-3.75017	2.83761	-1.11675
6271.406	4.85965	-3.67816	2.92708	-0.83748
6275.408	4.90629	-3.79289	2.80491	-0.89702
6279.405	4.81586	-3.65640	2.73870	-1.05645
6283.400	4.80781	-3.69691	2.60607	-1.25681
6287.418	4.52989	-3.77573	2.56785	-1.09777
6291.404	4.35486	-3.80378	2.59685	-1.14394
