time (ms)	lx (deg)	ly (deg)	rx (deg)	ry (deg)
0.000	6.91916	-4.93991	4.28705	-1.67260
3.982	7.05127	-5.05468	4.20160	-1.71007
7.986	6.91738	-5.15075	4.15413	-1.75742
11.987	7.04484	-5.21525	4.09337	-1.75022
15.985	6.98022	-5.26318	4.16156	-1.75968
19.982	6.88453	-5.33239	4.19121	-1.74545
24.002	6.99411	-5.41880	4.17457	-1.76195
27.996	6.87472	-5.52206	4.16633	-1.81246
31.985	6.99470	-5.55396	4.21464	-1.82552
35.984	6.83416	-5.53714	4.34870	-1.89212
40.012	6.80139	-5.65116	4.38556	-1.90369
43.994	6.80927	-5.66712	4.50269	-1.89148
47.988	6.68979	-5.80424	4.54067	-1.90514
51.981	6.73226	-5.83058	4.65296	-1.87721
55.985	6.66824	-5.85012	4.67374	-1.91587
59.979	6.66193	-5.78950	4.72167	-1.91499
63.993	6.62059	-5.82880	4.73204	-1.89646
67.983	6.50236	-5.64287	4.63698	-1.81814
71.980	5.65265	-4.03981	4.10979	-0.65619
75.989	4.04599	-1.39004	2.48381	0.23942
79.994	3.80710	-1.21519	1.61119	1.27777
83.987	3.80997	-0.92826	1.79968	1.43488
87.983	4.47254	-1.63386	2.56273	0.47604
91.981	5.32690	-2.43750	3.91800	-0.34191
95.987	5.43214	-3.32561	3.70265	-1.29779
99.984	4.89414	-3.34102	3.78484	-1.28768
103.981	4.74814	-3.29044	3.36750	-0.69047
108.000	4.68817	-2.53028	3.11138	-0.41459
111.987	4.59026	-2.51600	2.79340	-0.10074
115.983	4.44543	-2.21195	2.80206	-0.23899
119.989	4.56094	-2.00212	2.94554	-0.19982
123.980	4.63104	-2.45934	2.82558	-0.17783
127.984	4.67281	-2.51521	3.00019	-0.16408
131.990	4.64764	-2.51718	3.05313	-0.27092
135.982	4.63094	-2.49739	2.98997	-0.28942
139.982	4.60710	-2.51418	2.95267	-0.21017
143.979	4.62419	-2.49571	2.94213	-0.19389
147.985	4.59038	-2.45847	2.90235	-0.16503
151.986	4.59845	-2.51135	2.88012	-0.15940
155.983	4.60062	-2.51705	2.91465	-0.18402
159.977	4.63987	-2.56645	2.91292	-0.21603
163.987	4.65173	-2.61744	2.92463	-0.23005
167.986	4.62170	-2.66096	2.94762	-0.24831
171.979	4.68025	-2.64588	2.93782	-0.24702
176.011	4.74673	-2.70051	2.84591	-0.28988
179.983	4.77466	-2.73222	2.85403	-0.30571
184.011	4.82084	-2.73893	2.85678	-0.34495
187.980	4.81769	-2.75799	2.84323	-0.38357
191.986	4.87278	-2.76967	2.85581	-0.43133
195.982	4.91693	-2.76994	2.83541	-0.48170
199.982	5.01610	-2.77965	2.83469	-0.51321
203.987	5.06993	-2.75601	2.91136	-0.54584
207.982	5.10758	-2.64061	2.85509	-0.58802
211.981	5.21710	-2.53431	2.90121	-0.52373
215.981	5.20324	-2.53133	2.89438	-0.58877
219.979	5.16344	-2.41349	2.97705	-0.59268
223.996	5.22451	-2.30001	2.97079	-0.61444
227.989	5.21336	-2.12372	2.98997	-0.52438
231.982	5.21658	-2.02357	3.01252	-0.31256
235.978	5.20179	-1.98941	2.98520	-0.19607
239.983	5.18089	-1.91458	2.98069	0.01355
243.997	5.07958	-1.88556	2.89638	0.00586
247.994	5.05225	-1.84427	2.86492	0.08287
251.982	4.96418	-1.80194	2.91522	0.14228
255.976	4.95140	-1.82344	2.88727	0.14424
259.983	4.83831	-1.81217	2.82442	0.16093
263.979	4.79171	-1.87085	2.81905	0.12951
267.980	4.74161	-1.92807	2.68888	0.13649
271.977	4.64339	-2.07219	2.64324	0.09951
275.981	4.62032	-2.09136	2.56793	0.00037
279.978	4.57014	-2.12346	2.46914	-0.07046
283.980	4.58784	-2.15168	2.48232	-0.06224
287.855	4.63839	-2.18752	2.70025	-0.13818
291.857	5.24976	-2.19472	2.98695	0.11542
295.855	5.04385	-2.23982	2.99277	0.05062
299.859	4.89624	-2.29663	2.94787	-0.04348
303.854	5.13538	-2.40045	2.99913	-0.02685
307.856	5.83382	-2.40665	3.29303	0.05202
311.903	5.64933	-2.42219	3.27974	0.09951
315.863	5.74893	-2.48925	3.29894	0.04508
319.853	5.67106	-2.53707	3.33500	0.02486
323.852	5.74863	-2.62410	3.39087	-0.04222
327.855	5.78163	-2.76726	3.38375	-0.03994
331.857	5.80796	-2.80369	3.27865	-0.07279
335.864	5.80030	-2.92059	3.18086	-0.18233
339.852	5.79914	-2.96838	3.14575	-0.30985
343.852	5.75979	-3.07379	3.00547	-0.40028
347.849	5.73495	-3.11593	2.95143	-0.47998
351.859	5.61114	-3.24598	2.98856	-0.47170
355.852	5.20642	-3.26852	2.87292	-0.38070
359.854	5.48132	-3.25498	2.73377	-0.31984
363.873	5.49527	-3.32312	2.63626	-0.17897
367.873	5.60244	-3.36528	2.56290	-0.22496
371.849	5.55865	-3.36464	2.60287	-0.23868
375.869	5.38058	-3.34345	2.67118	-0.02745
379.879	5.44001	-3.29564	2.59876	-0.05146
383.856	5.36499	-3.26029	2.78926	-0.04907
387.854	5.57377	-3.23734	2.86445	-0.10627
391.851	5.70652	-3.21304	3.00339	-0.03412
395.851	5.70057	-3.12004	3.11972	-0.16937
399.856	5.63837	-3.06310	3.05167	-0.29454
403.856	5.62485	-3.01870	3.01042	-0.40371
407.849	5.50346	-2.93851	2.97831	-0.46134
411.850	5.29917	-2.85698	2.94084	-0.35063
415.856	5.41276	-2.69351	2.81974	-0.35831
419.857	5.84861	-2.68749	2.76918	-0.26937
423.848	5.90472	-2.65215	2.63423	-0.27608
427.856	5.65415	-2.52332	2.89849	-0.22656
431.853	5.39522	-2.52371	3.13432	-0.18440
435.853	5.36425	-2.48828	3.06439	-0.09777
439.857	5.64017	-2.81253	2.86683	0.06286
443.852	5.41327	-2.77365	2.90856	0.11056
447.903	5.47247	-2.66735	2.94866	-0.33325
451.860	5.30756	-2.55827	2.95351	-0.64011
455.850	5.25276	-2.46679	2.84611	-0.45122
459.854	5.68013	-2.52528	2.89869	-0.18737
463.853	5.62220	-2.54046	2.84918	0.02455
467.855	5.38371	-2.76944	2.72077	-0.01052
471.856	5.33726	-2.60516	2.93772	-0.05859
475.848	5.54852	-2.98388	2.94544	-0.24039
479.852	5.50626	-3.17264	2.96054	0.02531
483.848	5.55637	-2.96109	2.96785	-0.08725
487.861	5.51371	-2.86919	2.97111	-0.07472
491.850	5.36626	-2.85486	2.80134	-0.05155
495.847	5.53382	-2.78441	2.64626	-0.01887
499.861	5.54452	-2.86800	3.07362	0.01645
503.861	5.49652	-2.92957	3.16498	0.05389
507.852	5.37057	-3.03462	3.23648	-0.01719
511.855	5.45039	-2.98548	3.04798	-0.06541
515.884	5.54051	-3.21109	2.95849	-0.10745
519.861	5.46455	-3.06994	2.79723	0.04031
523.851	5.38137	-2.92973	2.87859	-0.12756
527.850	5.57490	-3.03036	2.85024	-0.04184
531.852	5.55059	-2.90799	2.87398	-0.12027
535.848	5.52812	-2.86613	2.91539	-0.01209
539.860	5.53240	-2.92251	2.98804	-0.10030
543.854	5.59634	-2.86208	2.94814	0.02405
547.847	5.64530	-2.96545	2.91908	-0.01623
551.851	5.85026	-2.75060	2.84623	-0.01933
555.882	5.90831	-2.64666	2.82915	-0.09667
559.849	5.76893	-2.74022	2.79882	-0.06930
563.849	5.79528	-2.66523	2.79114	-0.07955
567.849	5.80572	-2.62770	2.71453	-0.01407
571.851	5.79750	-2.58198	2.75232	0.04259
575.845	5.82985	-2.55106	2.72404	0.02398
579.850	5.84839	-2.51920	2.75698	0.01827
583.877	5.89743	-2.34341	2.69673	0.04701
587.854	5.89468	-2.60388	2.66429	-0.01680
591.849	5.89468	-2.66816	2.65260	-0.09239
595.847	5.70052	-2.65977	2.63190	-0.09055
599.848	5.65953	-2.42415	2.61313	-0.04041
603.852	5.62800	-2.30482	2.59958	-0.01246
607.853	5.62141	-2.16079	2.51009	0.00655
611.846	5.69593	-2.13407	2.54202	-0.02155
615.845	5.67273	-1.90218	2.50145	-0.06112
619.848	5.60981	-1.76228	2.50199	-0.03994
623.857	5.59895	-1.81074	2.42190	-0.05231
627.855	5.56124	-1.98997	2.39230	-0.07709
631.848	5.54299	-2.00987	2.38687	-0.08767
635.848	5.52844	-2.06446	2.36064	-0.08370
639.861	5.62355	-1.81783	2.32246	-0.06833
643.850	5.68934	-1.88896	2.28115	-0.07325
647.847	5.70242	-2.06839	2.25437	-0.09681
651.876	5.73011	-1.99534	2.29290	-0.13008
655.857	5.70315	-2.25139	2.29399	-0.13095
659.847	5.69639	-2.36986	2.29111	-0.10438
663.849	5.72016	-2.31630	2.34057	-0.15068
667.849	5.69777	-2.50622	2.41762	-0.16115
671.846	5.69863	-2.57214	2.39401	-0.16101
675.853	5.74426	-2.60386	2.39775	-0.16215
679.849	5.71844	-2.68816	2.38938	-0.13556
683.843	5.73694	-2.75663	2.34931	-0.13060
687.853	5.64506	-2.76575	2.42416	-0.13834
691.845	5.61765	-2.82687	2.44474	-0.12262
695.853	5.63036	-2.86327	2.55096	-0.10972
699.848	5.60929	-2.83036	2.78302	-0.08084
703.846	5.56822	-2.75935	2.90564	-0.08083
707.853	5.56974	-2.78787	2.94663	-0.05656
711.853	5.59241	-2.78688	2.96265	-0.04368
715.847	5.54675	-2.74566	2.93943	0.00422
719.869	5.54420	-2.67485	2.98106	0.05554
723.848	5.55162	-2.69984	2.99123	0.07370
727.845	5.70740	-2.68513	2.95703	0.07254
731.847	5.72212	-2.68535	3.16112	-0.09823
735.846	5.68625	-2.63178	3.08456	-0.04856
739.850	5.72062	-2.60488	3.15882	-0.21903
743.848	5.88223	-2.54022	3.04365	-0.34645
747.851	6.00428	-2.51371	2.97445	-0.41806
751.854	6.21509	-2.64047	2.84801	-0.45119
755.845	6.07349	-2.59911	2.88495	-0.34054
759.850	5.89186	-2.65034	2.75581	-0.45289
763.843	5.99564	-2.67258	2.73680	-0.41879
767.844	5.99355	-2.55828	2.63945	-0.37894
771.846	5.95432	-2.54857	2.57875	-0.27078
775.852	5.94349	-2.47232	2.59789	0.00933
779.847	5.90627	-2.40377	2.52587	-0.01229
783.865	5.86750	-2.33112	2.47130	0.20044
787.859	5.75893	-2.33700	2.44462	0.23513
791.871	5.71846	-2.14018	2.44730	0.13769
795.860	5.64144	-2.26894	2.76941	0.15915
799.844	5.58444	-2.17918	2.70981	0.18877
803.846	5.51024	-2.15149	3.18823	0.20690
807.844	5.51587	-2.20717	3.20174	0.15901
811.852	5.42245	-2.27302	2.81942	0.12141
815.846	5.39532	-2.33240	2.98653	0.19751
819.840	5.38730	-2.47334	2.91889	0.05279
823.849	5.37416	-2.62497	3.19922	-0.01347
827.853	5.39064	-2.68496	3.17134	-0.03077
831.851	5.41325	-2.61207	3.09557	-0.08804
835.844	5.37163	-2.59180	3.08971	-0.15394
839.846	5.41003	-1.97797	3.15461	-0.17048
843.848	5.46583	-2.20767	3.10497	-0.14545
847.842	5.51275	-2.42187	3.10084	-0.17200
851.842	5.61716	-2.34456	3.08790	-0.09935
855.847	5.71333	-2.28031	3.11967	-0.05528
859.850	5.76232	-2.25592	3.13130	-0.08501
863.842	5.87958	-2.36224	3.20607	-0.07962
867.846	6.02948	-2.36986	3.18222	-0.08309
871.842	6.32414	-2.30887	3.34457	-0.16025
875.864	6.68643	-2.74303	3.68110	-0.48156
879.845	7.58698	-3.52381	4.72499	-0.96875
883.842	7.65324	-4.27375	4.88811	-2.12165
887.846	7.66619	-4.49262	4.22283	-1.89508
891.844	7.06520	-4.11292	3.88834	-1.96791
895.846	7.19087	-4.02398	3.83149	-1.94927
899.850	7.43259	-4.09039	3.94535	-1.80926
903.842	7.30815	-3.94143	4.21624	-1.66834
907.842	7.59493	-3.86033	4.14312	-1.68170
911.845	7.76832	-3.90305	4.39355	-1.53479
915.856	7.89276	-3.86940	4.45745	-1.72580
919.845	7.97860	-3.94626	4.63713	-1.78731
923.888	8.02438	-3.80719	4.60419	-1.79125
927.854	8.10627	-3.67206	4.48063	-1.79332
931.849	8.17593	-3.60118	4.58380	-1.75102
935.842	8.18555	-3.46753	4.57384	-1.72768
939.863	8.17806	-3.45292	4.65160	-1.69644
943.857	8.18626	-3.39082	4.76500	-1.70452
947.858	8.21864	-3.30069	4.78222	-1.70977
951.842	8.22017	-3.30801	4.77249	-1.73466
955.849	8.21979	-3.25153	4.72889	-1.72874
959.845	8.21497	-3.22683	4.71602	-1.72478
963.849	8.14220	-3.19674	4.75262	-1.77279
967.843	8.06925	-3.17944	4.89111	-1.78925
971.839	8.02183	-3.20753	4.95024	-1.74351
975.844	7.89946	-3.24404	5.15450	-1.70634
979.848	7.83768	-3.29001	5.06237	-1.73200
983.841	7.74596	-3.32232	5.10879	-1.78277
987.845	7.71864	-3.33149	5.16703	-1.76703
991.899	7.64842	-3.36758	5.17791	-1.76111
995.852	7.61046	-3.39380	5.24243	-1.74961
999.853	7.52232	-3.41948	5.27378	-1.82685
1003.845	7.49537	-3.45813	5.26423	-1.84020
1007.842	7.54723	-3.46921	5.25362	-1.86712
1011.842	7.51961	-3.49247	5.17479	-1.85782
1015.848	7.52342	-3.47929	5.09113	-1.93965
1019.841	7.52491	-3.46428	5.04124	-1.97496
1023.840	7.59102	-3.47700	4.96866	-1.99612
1027.842	7.70024	-3.47477	4.84277	-1.98680
1031.847	7.73665	-3.49880	4.81572	-1.96108
1035.843	7.79093	-3.51395	4.78940	-1.97536
1039.844	7.84291	-3.47979	4.75573	-1.95470
1043.841	7.89975	-3.37015	4.71422	-1.98138
1047.847	7.88916	-3.37049	4.72312	-1.98334
1051.841	7.83799	-3.40463	4.71319	-2.02012
1055.844	7.86072	-3.36704	4.70049	-1.99456
1060.244	7.84993	-3.55446	4.72701	-1.94956
1063.885	7.86939	-3.52389	4.74131	-2.00879
1067.846	7.84089	-3.57751	4.72051	-1.99287
1071.847	7.87781	-3.82224	4.92777	-2.06829
1075.841	8.14818	-5.58327	5.61099	-3.06792
1079.843	8.03531	-6.57708	6.04220	-4.54311
1083.851	8.80970	-7.27959	6.49898	-6.19593
1087.845	8.71654	-7.61929	6.48036	-7.06799
1091.845	8.46250	-8.37591	5.88997	-7.99222
1095.840	8.71901	-9.13783	4.76036	-9.43228
1099.845	8.84792	-9.47881	4.79376	-9.61311
1103.837	8.95508	-9.54659	4.75871	-9.41852
1107.845	8.94694	-9.15747	4.94556	-9.13368
1111.840	9.05671	-8.94359	5.69256	-9.00599
1115.845	9.20847	-8.97840	6.01765	-8.95611
1119.836	9.15239	-9.10599	6.02870	-9.00352
1123.847	9.25772	-9.21039	6.14575	-9.00608
1127.865	9.25601	-9.22286	7.02321	-7.15697
1131.847	9.23060	-9.21878	7.19444	-6.78485
1135.874	9.26619	-9.21970	7.34099	-6.67576
1139.838	9.25267	-9.25479	7.52088	-6.56982
1143.716	9.21984	-9.22620	7.60358	-6.52216
1147.712	9.27095	-9.11436	7.73979	-6.43442
1151.720	9.24165	-9.13175	4.86837	-7.84845
1155.714	9.28284	-9.14193	4.71390	-7.59985
1159.712	9.23551	-9.17845	7.47031	-7.64658
1163.714	9.32661	-9.16777	7.60485	-7.71765
1167.720	9.30914	-9.12651	7.66265	-7.58186
1171.719	9.39402	-9.13754	7.67477	-7.63456
1175.712	9.33954	-9.17176	7.66712	-7.53674
1179.712	9.27641	-9.28929	7.61409	-7.52549
1183.718	9.16359	-9.50098	7.65190	-7.25203
1187.718	9.18124	-9.41998	7.67960	-7.29472
1191.716	9.25806	-9.32825	7.68398	-7.05732
1195.740	9.20243	-9.30258	4.51946	-7.74889
1199.737	9.13468	-9.32671	4.65084	-7.75293
1203.711	9.16808	-9.26211	4.80790	-7.67428
1207.720	9.16615	-9.22729	7.75127	-7.64371
1211.720	9.19759	-9.24639	7.77773	-7.56537
1215.718	9.11852	-9.34707	7.81788	-7.36232
1219.713	9.00336	-9.75506	4.54918	-8.25132
1223.717	8.99339	-9.76181	7.98907	-8.15807
1227.712	9.02629	-9.71748	8.01835	-8.14004
1231.714	9.09604	-9.64236	4.85613	-8.09301
1235.713	9.14832	-9.63013	4.94773	-8.06966
1239.714	9.26669	-9.57587	5.38922	-7.99129
1243.714	9.28777	-9.58076	5.76689	-7.86330
1247.724	9.23183	-9.63913	6.02502	-7.76820
1251.726	9.28069	-9.59779	6.30391	-7.72794
1255.718	9.29036	-9.58358	6.46522	-7.61934
1259.711	9.30979	-9.54688	6.74915	-7.50039
1263.727	9.38293	-9.45221	6.82559	-7.35355
1267.723	9.46981	-9.44468	6.87523	-7.26187
1271.712	9.49576	-9.41271	6.95621	-7.16275
1275.713	9.53173	-9.39971	7.02536	-7.01936
1279.709	9.47944	-9.37641	7.08981	-6.88771
1283.718	9.47992	-9.38110	7.25670	-6.80060
1287.722	9.47758	-9.33379	7.35837	-6.62602
1291.718	9.48159	-9.32753	7.45309	-6.56840
1295.716	9.48722	-9.32072	7.55196	-6.45431
1299.713	9.45044	-9.34631	7.58724	-6.45597
1303.717	9.42564	-9.37355	7.70619	-6.39274
1307.710	9.39061	-9.37962	5.93996	-6.31483
1311.715	9.38279	-9.34796	5.79519	-6.22273
1315.717	9.36153	-9.34375	5.73352	-6.17006
1319.713	9.36143	-9.32193	5.63299	-6.12182
1323.710	9.39074	-9.30767	5.66020	-6.11628
1327.715	9.45568	-9.28544	6.94670	-6.11768
1331.715	9.45440	-9.32990	5.65184	-6.14800
1335.721	9.48577	-9.34076	5.66057	-6.17433
1339.744	9.49069	-9.35659	5.64017	-6.22697
1343.707	9.53055	-9.33502	5.53709	-6.27647
1347.739	9.37291	-9.32948	4.99787	-6.36541
1351.734	8.74425	-9.38221	4.66571	-6.48152
1355.724	5.06506	-9.52346	0.48964	-6.52478
1359.708	4.73626	-9.45957	-0.10922	-6.48335
1363.715	1.93782	-9.34723	-4.35047	-6.46777
1367.710	0.57759	-9.19066	-4.24781	-6.24957
1371.713	-0.27977	-8.32261	-7.40509	-5.78452
1375.729	-1.77305	-8.49942	-7.60448	-5.80536
1379.717	-2.01729	-7.52665	-9.84619	-5.86435
1383.710	-2.49503	-6.69893	-11.84708	-5.73417
1387.719	-4.10285	-5.88615	-12.00989	-5.81369
1391.712	-19.99372	-12.07666	NaN	NaN
1395.705	-19.99372	-12.07716	-10.25141	-5.99696
1399.730	-1.96856	-5.45243	-8.63699	-4.80516
1403.712	-2.03558	-4.93375	-8.95615	-4.98940
1407.706	NaN	NaN	NaN	NaN
1411.714	NaN	NaN	NaN	NaN
1415.725	NaN	NaN	NaN	NaN
1419.720	NaN	NaN	NaN	NaN
1423.886	NaN	NaN	NaN	NaN
1428.018	NaN	NaN	NaN	NaN
1432.165	NaN	NaN	NaN	NaN
1436.314	NaN	NaN	NaN	NaN
1440.459	NaN	NaN	NaN	NaN
1444.570	NaN	NaN	NaN	NaN
1448.768	NaN	NaN	NaN	NaN
1452.890	NaN	NaN	NaN	NaN
1457.006	NaN	NaN	NaN	NaN
1461.125	NaN	NaN	NaN	NaN
1466.086	NaN	NaN	NaN	NaN
1470.316	NaN	NaN	NaN	NaN
1474.558	NaN	NaN	NaN	NaN
1478.780	NaN	NaN	NaN	NaN
1482.994	NaN	NaN	NaN	NaN
1487.190	NaN	NaN	NaN	NaN
1491.421	NaN	NaN	NaN	NaN
1495.596	NaN	NaN	NaN	NaN
1499.770	NaN	NaN	NaN	NaN
1504.003	NaN	NaN	NaN	NaN
1508.294	NaN	NaN	NaN	NaN
1512.545	NaN	NaN	NaN	NaN
1516.699	NaN	NaN	NaN	NaN
1520.834	NaN	NaN	NaN	NaN
1524.949	NaN	NaN	NaN	NaN
1529.072	NaN	NaN	NaN	NaN
1534.071	NaN	NaN	NaN	NaN
1538.326	NaN	NaN	NaN	NaN
1542.424	NaN	NaN	NaN	NaN
1546.505	NaN	NaN	NaN	NaN
1550.560	NaN	NaN	NaN	NaN
1554.662	NaN	NaN	NaN	NaN
1558.846	NaN	NaN	NaN	NaN
1562.914	NaN	NaN	NaN	NaN
1566.952	NaN	NaN	NaN	NaN
1571.083	NaN	NaN	NaN	NaN
1575.186	NaN	NaN	NaN	NaN
1579.359	NaN	NaN	NaN	NaN
1583.447	NaN	NaN	NaN	NaN
1587.551	NaN	NaN	NaN	NaN
1591.665	NaN	NaN	NaN	NaN
1595.832	NaN	NaN	NaN	NaN
1600.791	NaN	NaN	NaN	NaN
1605.154	NaN	NaN	NaN	NaN
1609.273	NaN	NaN	NaN	NaN
1613.398	NaN	NaN	NaN	NaN
1617.571	NaN	NaN	NaN	NaN
1621.724	NaN	NaN	NaN	NaN
1625.870	NaN	NaN	NaN	NaN
1629.988	NaN	NaN	NaN	NaN
1634.113	NaN	NaN	NaN	NaN
1638.293	NaN	NaN	NaN	NaN
1642.423	NaN	NaN	NaN	NaN
1646.480	NaN	NaN	NaN	NaN
1650.626	NaN	NaN	NaN	NaN
1654.733	NaN	NaN	NaN	NaN
1658.850	NaN	NaN	NaN	NaN
1663.025	NaN	NaN	NaN	NaN
1667.970	NaN	NaN	NaN	NaN
1672.298	NaN	NaN	NaN	NaN
1676.390	NaN	NaN	NaN	NaN
1680.485	NaN	NaN	NaN	NaN
1684.607	NaN	NaN	NaN	NaN
1688.786	NaN	NaN	NaN	NaN
1692.937	NaN	NaN	NaN	NaN
1697.038	NaN	NaN	NaN	NaN
1701.122	NaN	NaN	NaN	NaN
1705.235	NaN	NaN	NaN	NaN
1709.391	NaN	NaN	NaN	NaN
1713.469	NaN	NaN	NaN	NaN
1717.624	NaN	NaN	NaN	NaN
1721.720	NaN	NaN	NaN	NaN
1725.837	NaN	NaN	NaN	NaN
1729.988	NaN	NaN	NaN	NaN
1734.890	NaN	NaN	NaN	NaN
1739.014	NaN	NaN	NaN	NaN
1743.160	NaN	NaN	NaN	NaN
1747.271	NaN	NaN	NaN	NaN
1751.511	NaN	NaN	NaN	NaN
1755.796	NaN	NaN	NaN	NaN
1760.008	NaN	NaN	NaN	NaN
1764.228	NaN	NaN	NaN	NaN
1768.412	NaN	NaN	NaN	NaN
1772.685	NaN	NaN	NaN	NaN
1776.905	NaN	NaN	NaN	NaN
1781.033	NaN	NaN	NaN	NaN
1785.182	NaN	NaN	NaN	NaN
1789.355	NaN	NaN	NaN	NaN
1793.446	NaN	NaN	NaN	NaN
1797.551	NaN	NaN	NaN	NaN
1802.604	NaN	NaN	NaN	NaN
1807.115	NaN	NaN	NaN	NaN
1952.567	NaN	NaN	NaN	NaN
2002.299	NaN	NaN	NaN	NaN
2070.104	NaN	NaN	NaN	NaN
2073.827	NaN	NaN	NaN	NaN
2077.821	NaN	NaN	NaN	NaN
2081.823	NaN	NaN	NaN	NaN
2085.825	NaN	NaN	NaN	NaN
2089.823	NaN	NaN	NaN	NaN
2093.819	NaN	NaN	NaN	NaN
2097.817	NaN	NaN	NaN	NaN
2101.823	NaN	NaN	NaN	NaN
2105.819	NaN	NaN	NaN	NaN
2109.817	NaN	NaN	NaN	NaN
2113.817	NaN	NaN	NaN	NaN
2117.822	NaN	NaN	NaN	NaN
2121.886	NaN	NaN	NaN	NaN
2125.823	NaN	NaN	NaN	NaN
2129.819	NaN	NaN	NaN	NaN
2133.817	NaN	NaN	NaN	NaN
2137.834	NaN	NaN	NaN	NaN
2141.828	NaN	NaN	NaN	NaN
2145.822	NaN	NaN	NaN	NaN
2149.817	NaN	NaN	NaN	NaN
2153.816	NaN	NaN	NaN	NaN
2157.818	NaN	NaN	NaN	NaN
2161.818	NaN	NaN	NaN	NaN
2165.821	NaN	NaN	NaN	NaN
2169.823	NaN	NaN	NaN	NaN
2173.815	NaN	NaN	NaN	NaN
2177.818	NaN	NaN	NaN	NaN
2181.816	NaN	NaN	NaN	NaN
2185.819	NaN	NaN	NaN	NaN
2189.818	NaN	NaN	NaN	NaN
2193.820	NaN	NaN	NaN	NaN
2197.823	NaN	NaN	NaN	NaN
2201.816	NaN	NaN	NaN	NaN
2205.819	NaN	NaN	NaN	NaN
2209.822	NaN	NaN	NaN	NaN
2213.824	NaN	NaN	NaN	NaN
2217.815	NaN	NaN	NaN	NaN
2221.816	NaN	NaN	NaN	NaN
2225.815	NaN	NaN	NaN	NaN
2229.821	NaN	NaN	NaN	NaN
2233.815	NaN	NaN	NaN	NaN
2237.817	NaN	NaN	NaN	NaN
2241.815	NaN	NaN	NaN	NaN
2245.828	NaN	NaN	NaN	NaN
2249.824	NaN	NaN	NaN	NaN
2253.816	NaN	NaN	NaN	NaN
2257.816	NaN	NaN	NaN	NaN
2261.817	NaN	NaN	NaN	NaN
2265.815	NaN	NaN	NaN	NaN
2269.821	NaN	NaN	NaN	NaN
2273.814	NaN	NaN	NaN	NaN
2277.850	NaN	NaN	NaN	NaN
2281.830	NaN	NaN	NaN	NaN
2285.815	NaN	NaN	NaN	NaN
2289.824	NaN	NaN	NaN	NaN
2293.816	NaN	NaN	NaN	NaN
2297.818	NaN	NaN	NaN	NaN
2301.820	NaN	NaN	NaN	NaN
2305.815	NaN	NaN	NaN	NaN
2309.816	NaN	NaN	NaN	NaN
2313.819	NaN	NaN	NaN	NaN
2317.815	NaN	NaN	NaN	NaN
2321.813	NaN	NaN	NaN	NaN
2325.821	NaN	NaN	NaN	NaN
2329.822	NaN	NaN	NaN	NaN
2333.691	NaN	NaN	NaN	NaN
2337.719	NaN	NaN	NaN	NaN
2341.695	NaN	NaN	NaN	NaN
2345.692	NaN	NaN	NaN	NaN
2349.693	NaN	NaN	NaN	NaN
2353.692	NaN	NaN	NaN	NaN
2357.693	NaN	NaN	NaN	NaN
2361.688	NaN	NaN	NaN	NaN
2365.689	NaN	NaN	NaN	NaN
2369.693	NaN	NaN	NaN	NaN
2373.742	NaN	NaN	NaN	NaN
2377.702	NaN	NaN	NaN	NaN
2381.690	NaN	NaN	NaN	NaN
2385.689	NaN	NaN	NaN	NaN
2389.689	NaN	NaN	NaN	NaN
2393.691	NaN	NaN	NaN	NaN
2397.692	NaN	NaN	NaN	NaN
2401.688	NaN	NaN	NaN	NaN
2405.687	NaN	NaN	NaN	NaN
2530.649	NaN	NaN	NaN	NaN
2580.411	NaN	NaN	NaN	NaN
2630.401	NaN	NaN	NaN	NaN
2680.402	NaN	NaN	NaN	NaN
2730.518	NaN	NaN	NaN	NaN
2780.525	NaN	NaN	NaN	NaN
2830.525	NaN	NaN	NaN	NaN
2880.546	NaN	NaN	NaN	NaN
2930.511	NaN	NaN	NaN	NaN
2980.657	NaN	NaN	NaN	NaN
3030.656	NaN	NaN	NaN	NaN
3080.653	NaN	NaN	NaN	NaN
3148.333	NaN	NaN	NaN	NaN
3152.082	NaN	NaN	NaN	NaN
3156.065	NaN	NaN	NaN	NaN
3160.054	NaN	NaN	NaN	NaN
3164.048	NaN	NaN	NaN	NaN
3168.056	NaN	NaN	NaN	NaN
3172.062	NaN	NaN	NaN	NaN
3176.060	NaN	NaN	6.06748	12.10276
3180.052	7.04662	9.05671	5.66813	8.70964
3184.063	0.13523	4.00883	5.53862	8.73230
3188.059	NaN	NaN	5.81467	7.12992
3192.069	NaN	NaN	2.04646	4.88094
3196.060	NaN	NaN	2.03008	4.85925
3200.058	3.68011	3.37960	2.09477	4.47075
3204.058	6.30438	3.44184	3.20479	4.68370
3208.064	6.68465	3.14943	3.17059	5.17180
3212.057	6.64839	3.74138	4.14665	8.22089
3216.051	6.84835	3.33915	4.90713	8.30291
3220.081	6.63475	3.56334	4.76593	7.65174
3224.061	6.78385	3.71872	4.02596	6.42702
3228.051	7.12119	3.76554	4.74481	7.18504
3232.062	6.80827	3.68667	5.13459	7.48224
3236.048	8.87530	3.83492	4.82072	7.19846
3240.069	8.63333	3.75620	4.64169	7.50828
3244.055	7.17477	3.84075	4.79691	7.23741
3248.061	7.40355	3.81541	4.76263	7.18127
3252.060	7.96025	3.90205	5.37227	7.65983
3256.056	8.52054	3.89080	5.21001	7.53986
3260.057	9.00876	4.01536	5.63245	7.35577
3264.048	9.45720	4.06964	5.69807	7.44501
3268.058	9.51334	4.24362	5.78892	7.36606
3272.069	9.59518	4.29558	5.64299	7.51033
3276.062	9.65143	4.32931	5.66971	7.45879
3280.055	9.18264	4.50484	5.71291	7.54187
3284.055	8.95709	4.60137	5.82987	7.49288
3288.057	9.15979	4.49501	5.93193	7.51416
3292.068	8.68543	4.48237	6.05493	7.48565
3296.053	8.56510	4.49356	6.00698	7.52172
3300.058	8.08285	4.55590	6.08186	7.49072
3304.070	9.03551	4.53192	6.17793	7.45186
3308.056	8.91001	4.53885	6.12772	7.38390
3312.061	8.61635	4.45169	6.14428	7.43671
3316.070	8.75267	4.44380	5.97759	7.37013
3320.067	8.76290	4.43843	5.94784	7.37140
3324.055	8.62285	4.40143	6.11645	7.28747
3328.053	8.39304	4.35711	6.11645	7.18218
3332.053	8.34623	4.36821	6.25571	7.11090
3336.055	8.48991	4.42304	6.08468	7.11699
3340.059	8.62688	4.56879	6.10610	7.20620
3344.057	8.55297	4.61689	6.07155	7.17594
3348.070	8.51175	4.55266	5.98498	7.24010
3352.055	8.51833	4.55519	5.91808	7.24031
3356.055	8.42845	4.60884	5.89583	7.25918
3360.075	8.25681	4.61354	5.91511	7.13629
3364.055	8.23143	4.57127	5.84217	7.13388
3368.057	8.11218	4.54393	5.68401	7.00194
3372.113	8.39496	4.47991	5.68983	7.24375
3376.066	8.66011	4.40617	5.67003	7.24976
3380.083	8.70328	4.39897	5.74944	7.22142
3384.071	8.56581	4.33989	5.68698	7.14840
3388.068	8.51513	4.30647	5.69639	7.21432
3392.054	8.47624	4.30097	5.71782	7.10848
3396.052	8.35027	4.35436	5.82849	6.97984
3400.057	8.26230	4.39022	5.82233	7.14019
3404.064	8.46677	4.29103	5.79307	7.14333
3408.049	8.46347	4.34613	5.84687	7.22619
3412.057	8.51270	4.31271	5.88633	7.35607
3416.052	8.42882	4.32924	5.89080	7.44833
3420.054	8.36314	4.37216	5.93532	7.35020
3424.089	8.28031	4.37232	5.95214	7.27360
3428.056	8.21349	4.37638	5.93956	7.15729
3432.061	8.10985	4.39700	5.94349	7.09383
3436.058	8.13835	4.41379	5.88027	7.25591
3440.051	8.23697	4.38845	5.79035	7.30391
3444.062	8.27129	4.36333	5.78197	7.28040
3448.060	8.24706	4.36511	5.76885	7.35353
3452.044	8.51438	4.35523	5.70192	7.37634
3456.050	8.57034	4.43213	5.74984	7.00586
3460.063	8.96244	4.15690	6.26343	7.00565
3464.050	9.56769	2.63809	8.14832	3.91814
3468.052	11.12863	1.00514	8.93888	1.50333
3472.058	11.32860	-2.04214	9.08738	0.72155
3476.049	11.55950	-2.57085	9.48830	-2.27546
3480.049	11.29114	-4.67177	9.84195	-2.97908
3484.056	11.61385	-4.84837	9.91934	-3.62390
3488.061	11.69778	-4.66983	9.88923	-4.31712
3492.055	11.88157	-4.77678	9.91705	-4.63743
3496.051	12.00390	-4.76181	9.93521	-4.43975
3500.054	12.06776	-4.64947	9.93701	-4.13704
3504.055	11.94719	-4.66571	9.84891	-3.93360
3508.054	11.78776	-4.71159	9.81366	-3.87623
3512.046	11.72127	-4.96094	9.87755	-4.20188
3516.063	11.87277	-5.02663	9.90876	-4.25937
3520.054	12.06942	-5.21527	9.84149	-4.34452
3524.066	11.91350	-5.31801	9.73964	-4.50794
3528.055	11.96180	-5.38541	9.80915	-4.45979
3532.052	12.00735	-5.30294	9.71281	-4.25348
3536.055	12.09901	-5.27642	9.75733	-4.21368
3540.063	12.14221	-5.29858	9.86013	-4.19151
3544.049	12.14705	-5.29111	9.79067	-4.06288
3548.058	12.15699	-5.29424	9.79889	-4.00672
3552.047	12.16935	-5.38061	9.88499	-4.03057
3556.058	12.32816	-5.25296	9.89901	-3.86203
3560.056	12.33991	-5.22481	9.95218	-3.75160
3564.059	12.31916	-5.18941	9.91763	-3.81210
3568.052	12.32850	-5.11928	9.87613	-3.73855
3572.067	12.38150	-5.10741	9.88480	-3.70530
3576.051	12.36883	-5.13164	9.87765	-3.67513
3580.050	12.32276	-5.21990	9.90857	-3.62376
3584.055	12.28026	-5.24474	9.84190	-3.60603
3588.056	12.20835	-5.39675	9.81877	-3.60582
3592.053	12.22037	-5.40168	9.72320	-3.69983
3596.083	12.20133	-5.49418	9.75391	-3.90920
3600.050	12.22414	-5.42428	9.73952	-3.99627
3604.050	12.22715	-5.56188	9.76052	-3.98895
3608.051	12.21324	-5.52562	9.73530	-4.13739
3612.052	12.27903	-5.57523	9.76310	-4.18718
3616.059	12.31452	-5.44928	9.86536	-4.21730
3620.058	12.31507	-5.34734	9.96602	-4.20841
3624.053	12.37408	-5.32829	9.93403	-4.28954
3628.049	12.37091	-5.32173	9.91507	-4.30829
3632.055	12.41043	-5.24436	10.05539	-4.30097
3636.054	12.37281	-5.28271	10.07463	-4.28237
3640.044	12.35441	-5.27336	10.04723	-4.25677
3644.053	12.30400	-5.30325	10.08358	-4.21040
3648.060	12.27033	-5.31144	10.07006	-4.21617
3652.057	12.27626	-5.25896	10.01607	-4.19119
3656.048	12.65165	-5.23713	10.07961	-4.11751
3660.052	12.83979	-5.26462	9.98930	-4.08396
3664.047	12.37503	-5.37531	9.89937	-4.11825
3668.065	12.63683	-5.39684	9.90099	-4.06141
3672.052	12.65654	-5.43939	9.85992	-4.02659
3676.056	12.56574	-5.50074	9.74984	-4.04644
3680.046	12.82257	-5.51947	9.71903	-4.02264
3684.049	12.86603	-5.51302	9.70292	-3.97957
3688.062	12.83052	-5.51824	9.64608	-3.91516
3692.055	12.88157	-5.48861	9.60512	-3.86191
3696.048	12.93439	-5.51683	9.64063	-3.79778
3700.054	12.82852	-5.53468	9.60287	-3.81337
3704.061	12.77919	-5.56413	9.61795	-3.76688
3708.049	12.86560	-5.50266	9.61802	-3.71294
3712.046	12.78857	-5.56366	9.61708	-3.63095
3716.046	12.78880	-5.60928	9.63078	-3.53743
3720.049	12.71311	-5.68227	9.63870	-3.49549
3724.053	12.72192	-5.65257	9.64719	-3.41754
3728.046	12.75202	-5.63863	9.63373	-3.43518
3732.045	12.65493	-5.67643	9.61783	-3.40509
3736.055	12.70022	-5.69453	9.62731	-3.39350
3740.051	12.62764	-5.72205	9.57536	-3.33324
3744.051	12.53958	-5.73754	9.60603	-3.25626
3748.063	12.63062	-5.62190	9.68387	-3.21991
3752.049	13.11942	-5.24920	9.76972	-3.20517
3756.044	13.90985	-5.40221	10.71437	-3.12935
3760.056	16.42033	-2.99199	13.62317	-2.79549
3764.624	17.07673	-1.17101	15.20106	-2.29330
3768.052	17.53994	-1.00395	15.62197	-2.10746
3772.044	18.19701	-0.48869	15.77784	-2.10463
3776.061	18.57992	-0.46330	16.21636	-2.71422
3780.046	18.54441	-0.74616	16.25521	-2.95169
3784.050	17.91761	-1.06312	16.00250	-2.87483
3788.047	17.41399	-1.23535	15.68546	-2.73313
3792.050	17.22448	-1.22343	15.56915	-2.56786
3796.046	17.22622	-1.14461	15.80765	-2.50320
3800.050	17.46927	-1.02704	15.98113	-2.08727
3804.071	17.70162	-0.94272	16.03671	-2.16656
3808.068	17.80814	-0.89521	16.12557	-2.24003
3812.050	17.63128	-0.97013	16.12692	-2.28513
3816.052	17.57383	-1.05986	16.18846	-2.26227
3820.053	17.49519	-1.12813	16.09334	-2.22058
3824.046	17.44510	-1.13154	15.98769	-2.17966
3828.045	17.37173	-1.15049	16.10353	-2.14302
3832.043	17.41454	-1.10909	16.12809	-2.06835
3836.047	17.39738	-1.12349	16.14016	-2.07476
3840.047	17.42357	-1.10015	16.11698	-2.02174
3844.046	17.41948	-1.04946	16.08527	-2.02726
3848.057	17.38572	-1.05034	16.00369	-2.06521
3852.048	17.34967	-1.03132	15.96349	-2.07216
3856.045	17.36301	-0.96127	15.92439	-2.06550
3860.053	17.37521	-0.85283	15.86238	-2.08905
3864.051	17.38663	-0.91485	15.74322	-2.11209
3868.045	17.44661	-0.95579	15.67368	-2.11527
3872.057	17.46482	-1.07318	15.65683	-2.12400
3876.044	17.51054	-1.16406	15.68046	-2.16253
3880.054	17.53107	-1.32240	15.64853	-2.16893
3884.045	17.53565	-1.65346	15.64160	-2.24788
3888.045	17.53899	-1.63184	15.61635	-2.30483
3892.047	17.55305	-1.69496	15.61168	-2.30766
3896.043	17.56135	-1.73157	15.59793	-2.32239
3900.049	17.57498	-1.68278	15.60595	-2.33790
3904.044	17.56372	-1.74622	15.60795	-2.32801
3908.050	17.57130	-1.69472	15.63723	-2.35183
3912.044	17.54648	-1.73198	15.66977	-2.38212
3916.046	17.53777	-1.68213	15.68934	-2.39125
3920.040	17.53173	-1.60586	15.69268	-2.37729
3924.059	17.48141	-1.66295	15.68868	-2.37880
3928.047	17.49636	-1.54415	15.72704	-2.35586
3932.054	17.47098	-1.53667	15.73180	-2.38219
3936.040	17.42680	-1.45753	15.74918	-2.42233
3940.046	17.41824	-1.41940	15.75120	-2.39884
3944.057	17.39302	-1.40775	15.74361	-2.42318
3948.044	17.37230	-1.40044	15.70664	-2.40841
3952.042	17.34698	-1.38620	15.73773	-2.48411
3956.044	17.31466	-1.40932	15.72743	-2.48428
3960.055	17.27497	-1.42060	15.66374	-2.44630
3963.921	17.23738	-1.46833	15.59292	-2.47175
3967.919	17.22556	-1.50362	15.59496	-2.46006
3971.924	17.19418	-1.57670	15.58520	-2.51331
3975.920	17.17549	-1.59038	15.52260	-2.41401
3979.922	17.16067	-1.67024	15.50114	-2.38831
3983.923	17.13964	-1.75591	15.50467	-2.36405
3987.924	17.11279	-1.85463	15.48905	-2.40527
3991.933	17.08703	-1.94115	15.45926	-2.32832
3995.915	17.08603	-1.96083	15.41280	-2.29000
3999.917	17.08989	-2.04059	15.40673	-2.24391
4003.927	17.08444	-2.13494	15.42588	-2.24291
4007.920	17.11115	-2.14863	15.46500	-2.23603
4011.926	17.11945	-2.18254	15.48614	-2.25440
4015.913	17.15725	-2.22873	15.52495	-2.23844
4019.924	17.17669	-2.24383	15.55017	-2.31021
4023.910	17.21472	-2.23762	15.60155	-2.39292
4027.928	17.26798	-2.20461	15.74447	-2.51028
4031.921	17.35276	-2.13730	15.71835	-2.44610
4035.916	17.49476	-1.94098	15.87832	-2.49565
4039.923	17.53177	-1.93007	15.82125	-2.54181
4043.922	17.60030	-1.72476	15.86039	-2.61207
4047.918	17.73630	-1.54588	15.85508	-2.61369
4051.919	17.66930	-1.51757	15.80700	-2.62190
4055.919	17.15315	-1.79250	15.25727	-2.48383
4059.930	15.07074	-2.11075	13.00504	-2.53103
4063.914	13.51654	-2.89334	11.83638	-2.32756
4067.925	10.38872	-3.48464	8.86679	-2.21924
4071.920	10.25778	-3.84959	8.14859	-2.18880
4075.920	8.18638	-4.16459	7.29528	-2.00186
4079.916	7.72288	-4.37081	6.59282	-1.90867
4083.917	8.48668	-4.28477	6.14153	-1.76428
4087.917	7.86834	-4.34258	5.72342	-1.60309
4091.915	7.09170	-4.59001	4.53998	-1.24773
4095.915	6.59491	-4.65399	4.17761	-1.30129
4099.917	6.79760	-4.83199	4.29544	-1.20796
4103.925	7.22175	-4.89472	4.63770	-1.37655
4107.923	7.30136	-4.99299	4.96396	-1.35481
4111.917	7.09864	-5.10632	4.94526	-1.36087
4115.917	6.94941	-5.18889	4.65264	-1.37883
4119.915	6.74579	-5.33715	4.50705	-1.54220
4123.933	6.80042	-5.46944	4.43875	-1.34452
4127.913	6.82596	-5.53191	4.39799	-1.32506
4131.924	6.82072	-5.56584	4.36355	-1.36256
4135.914	6.89277	-5.60999	4.43275	-1.40886
4139.914	6.91383	-5.65445	4.40290	-1.39049
4143.917	6.81913	-5.66613	4.42799	-1.40679
4147.922	6.86334	-5.58835	4.39812	-1.36515
4151.921	6.81099	-5.57329	4.44805	-1.36117
4155.916	6.74910	-5.53354	4.32029	-1.37935
4159.931	6.75394	-5.53099	4.22143	-1.36078
4163.914	6.78033	-5.46480	4.26447	-1.30258
4167.928	6.82865	-5.35715	4.27842	-1.29881
4171.927	6.87604	-5.32055	4.27133	-1.29444
4175.916	6.95714	-5.29389	4.28937	-1.45791
4179.922	7.04227	-5.26104	4.28979	-1.47190
4183.909	7.12439	-5.23681	4.28086	-1.42821
4187.916	7.15391	-5.28534	4.32274	-1.42860
4191.916	7.00155	-5.31288	4.37875	-1.47829
4195.953	6.89527	-5.40844	4.37613	-1.55961
4199.929	6.78285	-5.33743	4.35649	-1.68517
4203.938	6.68981	-5.37174	4.40692	-1.73696
4207.917	6.69383	-5.40629	4.49334	-1.77312
4211.931	6.65287	-5.39118	4.52836	-1.82203
4215.912	6.64486	-5.38579	4.54856	-1.83705
4219.917	6.61332	-5.34980	4.60466	-1.80531
4223.910	6.57764	-5.30383	4.56812	-1.81641
4227.929	6.57546	-5.27678	4.48271	-1.84444
4231.912	6.51312	-5.18851	4.35306	-1.90144
4235.916	6.49942	-5.09657	4.29488	-1.89402
4239.926	6.55422	-5.00209	4.24966	-1.83868
4243.941	6.57673	-4.91104	4.11851	-1.78441
4247.915	6.60776	-4.88489	4.01747	-1.73332
4251.920	6.63370	-4.84471	4.01900	-1.69934
4255.912	6.62500	-4.79504	4.03315	-1.63814
4259.914	6.62067	-4.75886	3.88955	-1.58831
4263.921	6.59579	-4.72239	3.88288	-1.60700
4267.912	6.54352	-4.71114	3.84345	-1.58473
4271.916	6.52373	-4.73197	3.82912	-1.62085
4275.909	6.49989	-4.76969	3.92909	-1.55395
4279.952	6.52360	-4.81455	4.16495	-1.59458
4283.926	6.53965	-4.86945	4.35896	-1.63708
4287.913	6.59537	-4.96623	4.38329	-1.70323
4291.914	6.65715	-5.09706	4.41788	-1.78468
4295.919	6.85701	-5.13337	4.48347	-1.78334
4299.916	7.07970	-5.10389	4.42316	-1.84204
4303.912	7.12466	-5.20482	4.59218	-1.80828
4307.984	7.17404	-5.27907	4.67961	-1.72992
4311.934	7.29838	-5.20665	4.72756	-1.64187
4315.918	7.38890	-5.31612	4.78501	-1.56525
4319.920	7.43369	-5.34035	4.80248	-1.51245
