time (ms)	lx (deg)	ly (deg)	rx (deg)	ry (deg)
0.000	6.62270	-1.44441	4.01458	1.82176
4.001	6.61971	-1.40248	4.01574	1.90226
7.997	6.60889	-1.41297	4.03105	1.89606
11.999	6.55484	-1.35937	3.93448	1.83955
16.008	6.58971	-1.38123	3.76344	1.85111
20.002	6.51305	-1.38198	3.78489	1.83559
24.006	6.48066	-1.36292	3.70539	1.83407
27.999	6.37231	-1.44947	3.55738	1.99810
31.995	6.28906	-1.51149	3.54912	1.92576
36.001	6.26382	-1.62387	3.42975	1.95239
39.991	6.21053	-1.52998	3.39396	1.88985
43.995	6.21252	-1.58929	3.40202	1.97355
47.999	6.31063	-1.58364	3.38021	1.91919
51.995	6.30146	-1.30788	3.36349	1.84535
55.995	6.34032	-1.08188	3.46807	1.83806
59.997	6.33064	-0.97694	3.54573	1.75082
63.993	6.34219	-1.07136	3.73539	1.62923
67.998	6.36893	-1.00921	3.58200	1.58552
71.994	6.55503	-1.22341	3.68760	1.44877
75.998	6.62846	-1.52064	3.67178	1.16605
79.999	6.44432	-1.86764	3.65942	1.26216
83.996	5.82611	-2.56130	3.59110	1.02152
87.996	5.59123	-2.99168	3.46469	1.08895
91.988	5.89019	-2.95599	3.43059	1.05800
96.009	6.01427	-3.03658	3.38303	1.04208
99.998	6.11091	-2.90420	3.35266	1.02505
103.993	5.78150	-2.84730	3.40732	1.07104
107.998	5.66983	-2.77306	3.28429	0.81034
112.014	5.68843	-2.71001	3.08666	0.77618
115.993	5.55971	-2.81496	3.01826	0.69525
119.995	5.35701	-2.85515	2.90765	0.65852
123.995	5.31184	-2.79914	2.86853	0.67400
127.987	5.34046	-2.68388	2.81848	0.73426
132.009	5.39583	-2.49185	2.81652	0.76582
135.992	5.45058	-2.51683	2.81872	0.76825
139.999	5.41864	-2.44897	2.66399	0.68663
143.991	5.43659	-2.31497	2.63452	0.55155
147.997	5.42343	-2.16779	2.62942	0.54621
151.993	5.52954	-2.07648	2.59212	0.53670
156.000	5.64375	-2.00673	2.59143	0.51215
159.990	5.66555	-1.89039	2.60146	0.47444
163.992	5.65167	-1.89427	2.74598	0.49126
168.000	5.74050	-1.82862	2.77354	0.40719
171.989	5.70831	-1.94748	2.88930	0.37397
175.997	5.75423	-2.03037	2.98668	0.27252
180.038	5.78683	-1.99465	2.99069	0.20964
184.012	5.87145	-1.97590	3.28058	0.17540
187.996	5.93176	-2.01213	3.35367	0.13056
192.001	6.08865	-2.06004	3.43988	0.05122
195.990	6.16447	-2.08222	3.40709	0.05274
199.996	6.08666	-2.18799	3.47094	0.05526
203.996	6.14437	-2.22703	3.56269	0.09925
207.991	6.08419	-2.22323	3.53725	0.08723
211.992	5.99247	-2.28505	3.53819	0.09360
215.992	6.07121	-2.29108	3.50729	0.19033
219.997	6.08333	-2.29766	3.33389	0.25643
223.992	6.10117	-2.34017	3.28061	0.30231
227.992	5.85077	-2.48811	3.13143	0.28658
231.994	5.58174	-2.57934	3.10054	0.32435
236.002	5.56844	-2.63098	3.00631	0.37247
239.989	5.52168	-2.76865	3.03227	0.36462
243.992	5.47220	-2.79531	2.95690	0.33747
248.031	5.32508	-2.96677	2.94611	0.31650
252.015	5.35888	-3.01075	2.93502	0.33495
256.005	5.39364	-3.11224	2.87138	0.34948
259.989	5.35628	-3.08751	2.84742	0.31291
263.990	5.39778	-3.09714	2.86311	0.29322
267.991	5.38668	-3.15290	2.89666	0.28862
271.999	5.41438	-3.17566	2.95624	0.29447
276.005	5.51720	-3.16368	3.00727	0.31142
280.021	5.51673	-3.15064	3.06236	0.29687
283.985	5.59221	-3.08706	3.09753	0.27140
287.996	5.62928	-3.11667	3.11732	0.29656
291.992	5.68698	-3.00926	3.11042	0.23626
295.993	5.71966	-2.89553	3.20508	0.19084
299.991	5.77649	-2.80717	3.22480	0.13645
304.017	5.82889	-2.73458	3.21211	0.03870
308.000	5.84971	-2.63695	3.23578	-0.01154
311.990	5.88901	-2.58491	3.21822	-0.03578
316.003	5.89333	-2.48851	3.23145	-0.07865
319.995	5.98540	-2.39122	3.25278	-0.09636
323.986	6.01756	-2.28768	3.24897	-0.12596
327.988	6.06321	-2.24086	3.20815	-0.07845
331.991	6.12085	-2.18017	3.27190	-0.08668
335.989	6.14128	-2.05843	3.28501	-0.02535
339.987	6.21799	-2.00358	3.31405	0.06822
343.988	6.25590	-1.92493	3.30641	0.12104
347.989	6.29293	-1.84937	3.37400	0.16506
351.989	6.12018	-1.84558	3.39317	0.31865
355.991	6.17305	-1.80682	3.41877	0.29738
359.994	6.18139	-1.80149	3.43076	0.42229
363.987	6.25252	-1.77245	3.46246	0.47151
368.010	6.18887	-1.77501	3.42623	0.48093
371.989	6.11648	-1.72403	3.42163	0.54088
375.989	5.95447	-1.69074	3.22683	0.56383
380.003	5.92763	-1.71349	3.07476	0.60944
384.061	5.90423	-1.74332	3.02499	0.63580
387.996	5.94190	-1.76305	3.05061	0.61717
391.986	5.88235	-1.76939	3.06984	0.59178
395.995	5.92682	-1.76972	2.95116	0.56415
399.995	5.92292	-1.76018	2.88411	0.58511
403.988	5.86190	-1.74466	2.85707	0.56966
407.988	5.81074	-1.74280	2.83331	0.53175
411.987	5.79339	-1.73127	2.77163	0.48914
415.989	5.78133	-1.74427	2.77111	0.46842
419.866	5.82081	-1.73000	2.79763	0.47839
423.862	5.84996	-1.70679	2.83737	0.47847
427.862	5.86339	-1.67430	2.89987	0.41484
431.878	5.85342	-1.66501	2.93497	0.40391
435.863	5.44235	-1.85110	2.96903	0.39881
439.858	5.57800	-2.19439	3.06033	0.39309
443.884	5.57343	-2.21819	3.18262	0.35695
447.864	5.63186	-2.20463	3.35835	0.28450
451.867	5.75645	-2.43258	3.37282	0.27716
455.923	5.73352	-2.32531	3.38602	0.31042
459.865	5.76925	-2.37798	3.27269	0.26843
463.858	5.35677	-2.25051	3.14098	0.27208
467.888	5.23546	-2.24611	2.60072	0.24449
471.863	5.15896	-2.28854	2.63831	0.25041
475.881	5.24698	-2.21402	2.74269	0.24689
479.861	5.41022	-2.28087	2.69225	0.25752
483.871	5.58203	-2.22381	2.67477	0.20158
487.869	5.77919	-2.31932	3.01289	0.15636
491.860	5.78376	-2.38451	3.10549	0.06496
495.876	5.48801	-2.58624	2.92396	0.01186
499.866	5.61178	-3.00193	2.94007	0.08021
503.863	5.67661	-2.44693	2.61669	0.16756
507.864	5.79750	-2.59446	2.75183	0.09010
511.864	5.68880	-2.81219	2.99552	0.10968
515.855	5.75637	-2.46259	2.93569	0.03345
519.863	5.65044	-2.41621	2.96735	-0.02055
523.868	5.66877	-2.46311	3.01559	0.23254
527.868	5.65597	-2.65489	3.04652	0.25623
531.861	5.66383	-2.60723	3.04209	0.38635
535.854	5.64899	-2.76467	3.03870	0.53061
539.876	5.67209	-2.83351	3.01767	0.48693
543.864	5.74615	-2.62332	3.04776	0.33811
547.869	5.77507	-2.69875	3.10010	0.26934
551.867	5.71829	-2.76439	3.11309	0.28177
555.861	5.68418	-2.83197	3.12586	0.25484
559.863	5.67288	-2.95888	3.17435	0.25292
563.865	5.72974	-2.96847	3.18390	0.34000
567.865	5.71377	-3.02946	3.21869	0.27782
571.873	5.68556	-3.04943	3.21295	0.30834
575.866	5.80791	-3.07861	3.21735	0.23666
579.863	5.81245	-3.04811	3.20098	0.30196
583.857	5.79806	-3.06651	3.18056	0.27560
587.880	5.80145	-3.10761	3.10624	0.32584
591.920	5.76937	-3.14692	3.17272	0.48346
595.860	5.56569	-3.12029	3.23259	0.42734
599.861	5.67079	-3.12836	3.22960	0.33575
603.855	5.54216	-3.11373	3.13457	0.25206
607.882	5.28652	-3.07074	3.01517	0.34596
611.862	5.17014	-3.00914	3.08397	0.34056
615.857	5.34250	-3.00792	2.97421	0.43920
619.872	5.49485	-2.99685	3.07303	0.40428
623.860	5.54260	-2.99690	3.32051	0.26827
627.861	5.29356	-2.96125	3.26151	0.19324
631.862	5.21786	-2.90691	3.47532	0.03830
635.858	5.41613	-2.99658	3.50529	0.10060
639.872	5.47800	-3.10329	3.39762	0.05571
643.858	5.50547	-3.14771	3.31806	0.12022
647.871	5.41743	-3.15547	3.27601	0.19824
651.862	5.47923	-3.12884	3.38580	0.29519
655.868	5.50604	-3.10667	3.15298	0.29548
659.860	5.50842	-3.06229	3.28506	0.38204
663.864	5.41777	-2.98482	3.30411	0.25068
667.859	5.36966	-2.95143	3.34833	0.22770
671.863	5.29885	-2.79707	3.25256	0.24995
675.911	5.30144	-2.70955	3.14625	0.23822
679.867	5.19894	-2.61063	3.09419	0.21803
683.864	5.13791	-2.62086	3.00054	0.23170
687.857	5.04669	-2.50927	2.95267	0.18418
691.860	5.02723	-2.49781	2.92943	0.16235
695.858	4.93329	-2.42319	2.84484	0.11312
699.863	4.89079	-2.39302	2.89715	0.09433
703.855	4.84736	-2.30908	2.86049	0.06865
707.856	4.83592	-2.27253	2.80263	0.06339
711.860	4.83925	-2.23707	2.72432	0.06046
715.861	4.79075	-2.21552	2.69718	0.08678
719.861	4.79492	-2.21600	2.67368	0.14799
723.858	4.87207	-2.29958	2.64153	0.12126
727.858	4.93573	-2.35547	2.60196	0.10773
731.864	5.07409	-2.38222	2.56713	0.12549
735.863	5.29605	-2.53718	2.57134	-0.04890
739.857	5.46475	-2.50455	2.67675	-0.05337
743.858	5.52064	-2.73848	2.64738	-0.06240
747.861	5.34346	-2.84542	3.24274	0.03625
751.860	5.67941	-2.51151	3.80666	0.25699
755.852	6.87450	-1.68680	4.38272	0.50290
759.875	7.49439	-0.59360	4.35908	1.03758
763.867	8.26483	-0.57644	4.88089	1.91363
767.851	8.53909	-0.55513	5.25062	2.03777
771.861	7.95553	-0.50159	5.09332	2.13060
775.873	8.01448	-0.68634	5.28182	2.20861
779.867	7.72334	-0.70221	5.25564	1.97674
783.858	7.78375	-0.58018	5.40528	1.96889
787.856	7.79559	-0.55358	5.34174	2.13510
791.889	7.80280	-0.43747	5.33340	2.24062
795.893	7.78582	-0.46142	5.33854	2.22657
799.855	7.78012	-0.41300	5.47223	2.17228
803.859	7.70670	-0.34829	5.47478	2.21132
807.857	7.63374	-0.33456	5.50382	2.10298
811.867	7.69853	-0.38200	5.48511	1.86313
815.859	7.69076	-0.37150	5.45976	1.99718
819.870	7.68735	-0.38544	5.40228	2.13738
823.855	7.65949	-0.35187	5.34314	2.10384
827.858	7.68813	-0.28012	5.31241	2.14424
831.860	7.64783	-0.24919	5.30168	2.08965
835.855	7.57422	-0.19521	5.29900	2.06265
839.854	7.74939	-0.21965	5.28647	2.00466
843.857	7.69753	-0.19804	5.28702	2.14470
847.860	7.67445	-0.17788	5.33165	2.36354
851.855	7.68637	-0.16544	5.27082	2.40895
855.861	7.63859	-0.04288	5.24223	2.38466
859.870	7.65783	-0.10164	5.21262	2.49133
863.915	7.60526	-0.11483	5.21525	2.38241
867.870	7.81123	-0.12299	5.14833	2.39998
871.855	7.83668	-0.18145	5.05873	2.43429
875.857	7.76774	-0.27531	4.97204	2.43165
879.851	7.86875	-0.21866	4.90622	2.37739
883.866	7.80258	-0.23469	5.07257	2.39211
887.854	7.86327	-0.21893	5.02765	2.32143
891.858	7.86664	-0.12155	5.28736	2.30474
895.850	7.93189	-0.17038	5.44857	2.26242
899.869	7.94275	-0.15229	5.61084	2.18444
903.864	7.91207	-0.16857	5.51487	2.09252
907.855	7.87404	0.00135	5.60748	1.93564
911.856	7.75619	0.05483	5.61394	1.88491
915.863	7.68737	0.05536	5.49851	1.74468
919.856	7.59290	0.02182	5.60561	1.63334
923.854	7.50722	0.01978	5.59877	1.65493
927.866	7.57544	-0.02926	5.52876	1.63509
931.863	7.54305	-0.03281	5.55703	1.62616
935.853	7.53610	-0.11724	5.46468	1.60837
939.851	7.42583	-0.12330	5.42432	1.54480
943.857	7.51474	-0.16905	5.30513	1.55791
947.866	7.64354	-0.20533	5.24774	1.57304
951.858	7.72385	-0.25471	5.20718	1.61211
955.857	7.71520	-0.28840	5.17900	1.61488
959.852	7.68228	-0.29334	5.14094	1.67034
963.859	7.77982	-0.26489	5.11356	1.73357
967.858	7.77174	-0.23249	5.08224	1.70472
971.853	7.79310	-0.19866	5.06703	1.72996
975.857	7.79520	-0.14405	5.08360	1.76699
979.857	7.69968	-0.11869	5.17718	1.78685
983.863	7.73173	-0.08160	5.23467	1.81336
987.857	7.70273	-0.06491	5.34248	1.82741
991.852	7.69320	0.00195	5.39861	1.81721
995.857	7.69093	0.07469	5.40629	1.84916
999.878	7.66967	0.13818	5.67620	1.89634
1003.855	7.66426	0.24162	5.70524	1.90792
1007.853	7.64939	0.22429	5.75539	1.87973
1011.851	7.68203	0.21846	5.81169	1.83593
1015.859	7.64440	0.25569	5.85441	1.89199
1019.863	7.63730	0.22594	5.83643	1.79912
1023.855	7.70784	0.25609	5.91567	1.79351
1027.857	7.75534	0.25139	5.95405	1.73768
1031.852	7.81936	0.28727	5.97781	1.70988
1035.858	7.88395	0.27299	6.01024	1.65884
1039.852	7.97067	0.21996	6.03947	1.62922
1043.857	7.99235	0.16453	6.00977	1.60812
1047.849	8.04051	0.12959	6.02583	1.52896
1051.859	8.05706	0.10216	5.99281	1.54041
1055.875	8.04219	0.02318	5.98962	1.51760
1059.847	8.05969	-0.02581	5.91074	1.50497
1063.875	8.12203	0.05016	5.84984	1.49822
1067.858	8.09992	-0.03914	5.82528	1.41990
1071.858	8.06088	-0.07076	5.77278	1.41625
1075.852	8.03733	-0.12883	5.63997	1.38133
1079.857	7.99876	-0.15677	5.60789	1.37545
1083.850	7.95881	-0.23401	5.51602	1.39292
1087.855	7.88923	-0.26923	5.41881	1.56781
1091.846	7.81778	-0.30694	5.35854	1.84333
1095.855	7.68771	-0.37258	5.35559	1.89753
1099.850	7.57583	-0.37167	5.29814	2.02509
1103.855	7.41782	-0.40541	5.28266	2.07113
1107.847	7.53020	-0.42642	5.23428	2.25822
1111.856	7.61392	-0.37553	5.24865	2.24932
1115.863	7.65020	-0.34735	5.24764	2.28323
1119.855	7.62353	-0.38998	5.30185	2.29651
1123.864	7.79946	-0.38081	5.30510	2.39158
1127.849	7.99866	-0.38328	5.33952	2.41288
1131.858	7.97296	-0.37484	5.41499	2.35556
1135.902	7.71793	-0.30886	5.39519	2.22826
1139.856	7.46492	0.89204	3.98294	2.57515
1143.848	5.85043	2.71264	4.04083	3.94158
1147.847	5.31369	2.26730	3.35847	4.98928
1151.854	5.56298	2.38448	3.00485	5.39973
1155.855	5.59868	2.42672	2.83625	5.76234
1159.851	5.45934	2.35376	2.74536	5.83619
1163.845	5.47299	2.18033	2.64876	5.77225
1167.869	5.47186	2.09595	2.72763	5.75891
1171.853	5.41490	2.23101	2.79357	5.61792
1175.848	5.38292	2.13050	2.78094	5.64539
1179.861	5.31411	2.11122	2.74531	5.73791
1183.851	5.14288	2.20134	2.64911	5.81397
1187.853	5.11396	2.23352	2.58306	5.81241
1191.862	5.22822	2.28984	2.56062	5.91762
1195.851	5.18281	2.29727	2.50065	5.94565
1199.853	5.13479	2.29139	2.46664	5.91655
1203.854	5.14749	2.33644	2.53432	5.93776
1207.852	5.16509	2.39110	2.56022	5.90050
1211.848	5.13289	2.35436	2.52386	5.97810
1215.848	5.16484	2.42848	2.63376	5.94994
1219.850	5.20932	2.49979	2.62690	6.00257
1223.854	5.21095	2.57114	2.64332	6.00517
1227.848	5.31866	2.61156	2.68041	5.96207
1231.849	5.36845	2.61297	2.73662	5.93685
1235.869	5.41035	2.54500	2.73942	5.96868
1239.859	5.44116	2.52554	2.74185	5.93928
1243.850	5.45117	2.50394	2.79825	6.00617
1247.849	5.43293	2.54061	2.91332	5.88488
1251.856	5.40523	2.49033	3.11638	5.92322
1255.874	5.36978	2.46741	3.06706	5.86766
1259.847	5.35148	2.48304	3.12714	5.90543
1263.851	5.32186	2.44036	3.20135	5.85162
1267.876	5.27203	2.38933	3.26611	5.82716
1271.849	5.26197	2.33809	3.34257	5.83376
1275.759	5.17742	2.34730	3.32216	5.83071
1279.717	5.16598	2.35700	3.41083	5.77512
1283.742	5.12693	2.32520	3.48355	5.72915
1287.732	5.09576	2.33107	3.48425	5.70658
1291.722	5.10999	2.28434	3.46642	5.75408
1295.722	5.09601	2.27903	3.41721	5.77181
1299.723	5.12252	2.26850	3.41815	5.84531
1303.744	5.14670	2.21003	3.42240	5.83267
1307.722	5.16393	2.16857	3.38071	5.82447
1311.726	5.22173	2.13605	3.39844	5.80895
1315.722	5.20497	2.17629	3.38085	5.82133
1319.727	5.27122	2.11070	3.40291	5.81501
1323.722	5.26647	2.10135	3.37475	5.85237
1327.733	5.28209	2.10943	3.36174	5.84243
1331.721	5.30618	2.07503	3.37932	5.84410
1335.727	5.28532	2.06032	3.44063	5.75544
1339.719	5.28362	2.14854	3.44767	5.77136
1343.726	5.26701	2.22196	3.49436	5.71028
1347.721	5.13592	2.30846	3.55031	5.62572
1351.726	5.16767	2.88744	3.57728	5.57365
1355.719	4.97539	3.10190	3.58524	5.47495
1359.721	4.93134	3.29597	3.58143	5.43991
1363.743	4.87700	3.59662	3.57854	5.40832
1367.720	4.68158	3.75594	3.57394	5.42665
1371.732	4.59746	3.77177	3.58146	5.49739
1375.721	4.55302	3.83869	3.58146	5.50685
1379.724	4.36394	3.84468	3.50573	5.56293
1383.722	4.51963	3.54740	3.46904	5.49058
1387.722	4.43497	3.64067	3.33730	5.69556
1391.721	4.41706	3.79774	3.23709	5.67036
1395.720	4.42461	3.52728	3.13835	6.10478
1399.729	4.46736	3.42985	3.11277	5.89400
1403.718	4.45959	3.53197	2.98752	6.03215
1407.733	4.43858	3.47629	2.82516	6.26839
1411.735	4.39180	3.42568	2.71862	6.45738
1415.725	4.35230	3.41754	2.59893	6.43040
1419.720	4.36414	3.26913	2.52991	6.48435
1423.727	4.32424	3.26244	2.45436	6.47090
1427.719	4.20990	3.25107	2.36993	6.50843
1431.725	4.27829	3.24258	2.33554	6.57407
1435.720	4.27200	3.19602	2.25734	6.53281
1439.745	4.42015	3.21675	2.10473	6.49361
1443.722	4.57845	3.22312	2.50779	6.48372
1447.723	4.47069	3.17398	2.41598	6.13250
1451.723	4.14971	2.72404	2.04091	3.85747
1455.728	1.22467	0.40835	1.18951	2.43546
1459.724	1.64417	-0.33013	0.95227	2.58880
1463.726	1.21442	-1.09567	0.06065	1.91496
1467.718	0.79059	-1.29959	-0.32657	0.58815
1471.742	0.76712	-1.72368	-0.04383	-0.01906
1475.723	0.91693	-1.78431	-0.57583	-0.14273
1479.731	0.82022	-1.58588	-0.64253	0.15140
1483.717	0.85783	-1.35027	-0.66427	0.62285
1487.726	0.76263	-1.50836	-0.67637	0.71835
1491.725	0.94336	-1.48182	-0.48666	0.67457
1495.719	0.83297	-1.75928	-0.53833	0.62433
1499.724	0.78928	-2.07648	-0.85925	0.42370
1503.718	0.75603	-2.54832	-0.81176	0.09785
1507.719	0.74029	-2.71894	-0.85793	0.08858
1511.722	0.78938	-2.88335	-0.87756	0.13164
1515.718	0.78603	-2.87403	-0.90505	0.19268
1519.733	0.76990	-2.79520	-0.72568	0.24390
1523.724	0.78431	-2.72273	-1.00623	0.25871
1527.717	0.73248	-2.62768	-0.87560	0.00566
1531.724	0.71732	-2.68355	-0.87307	-0.41562
1535.719	0.68367	-2.63331	-0.75779	-0.24091
1539.753	0.67595	-2.60098	-0.68106	-0.28544
1543.721	0.64555	-2.55016	-0.68030	-0.28609
1547.719	0.62059	-2.53405	-0.80193	-0.31714
1551.725	0.56394	-2.42684	-0.78898	-0.35307
1555.721	0.44026	-2.35165	-0.75724	-0.34619
1559.732	0.29865	-2.25687	-0.81285	-0.31990
1563.722	0.20958	-2.18766	-0.82228	-0.35923
1567.720	0.12625	-2.12710	-0.84582	-0.37865
1571.727	0.01978	-2.07673	-0.93443	-0.28093
1575.733	-0.03187	-2.03598	-0.92078	-0.21116
1579.722	0.03522	-2.00903	-0.86845	-0.16259
1583.718	0.23798	-2.01432	-0.88674	-0.09722
1587.716	0.49870	-2.15357	-0.89039	-0.05312
1591.722	0.23269	-2.19289	-0.83109	0.00865
1595.718	0.47440	-2.29265	-0.85880	0.04830
1599.720	0.64965	-2.54269	-0.84476	0.11976
1603.719	0.71067	-2.59789	-0.87418	0.16031
1607.735	0.69084	-2.62103	-0.89227	0.20605
1611.721	0.65776	-2.69610	-0.93386	0.27146
1615.726	0.75213	-2.76982	-0.88014	0.26901
1619.723	0.70233	-2.77003	-0.89302	0.27594
1623.723	0.78347	-2.84374	-1.00469	0.28465
1627.720	0.78526	-2.83452	-1.02637	0.25854
1631.715	0.79342	-2.76764	-1.04389	0.29036
1635.721	0.82203	-2.64195	-0.99241	0.28192
1639.727	0.83682	-2.59734	-0.92589	0.25544
1643.749	0.81553	-2.55393	-0.97333	0.20575
1647.715	0.99611	-2.47066	-0.94832	0.11804
1651.718	1.20281	-2.49868	-0.96760	0.04875
1655.717	1.27386	-2.46033	-0.94056	-0.05449
1659.725	1.29169	-2.37739	-0.86667	-0.01426
1663.712	1.29335	-2.38805	-0.86240	-0.09663
1667.714	1.20207	-2.42930	-0.89339	-0.05551
1671.717	1.17143	-2.57349	-0.89068	0.24585
1675.768	1.04190	-2.58553	-0.93465	0.35405
1679.722	0.85873	-2.67882	-1.07535	0.38340
1683.721	0.64856	-2.83939	-1.17245	0.46909
1687.716	0.65434	-2.87964	-1.23908	0.45435
1691.718	0.97254	-2.76991	-1.29846	0.38193
1695.725	1.16763	-2.76817	-1.23027	0.48431
1699.731	0.95656	-2.75701	-1.32756	0.60822
1703.712	0.97737	-2.76820	-1.30833	0.56048
1707.722	0.99859	-2.85765	-1.45591	0.58514
1711.719	0.87868	-2.85205	-1.21782	0.52428
1715.715	1.09559	-2.78257	-1.21536	0.35049
1719.718	1.17250	-2.65764	-1.40405	0.52859
1723.716	1.11077	-2.57942	-0.92644	0.33268
1727.722	0.97804	-2.30757	-0.96663	0.30503
1731.715	2.33076	-2.19663	0.76069	0.27269
1735.719	5.04405	-1.96879	3.61812	0.49494
1739.715	6.99905	-1.21013	5.13471	1.30221
1743.724	8.05010	-0.28036	6.95232	0.70760
1747.722	9.87579	-0.37137	7.62782	1.39172
1751.714	10.88786	-0.33589	9.11440	0.55976
1755.715	12.41137	-0.04674	10.78784	0.66802
1759.720	13.25559	0.02765	10.43220	1.27599
1763.715	13.22300	0.19974	10.50371	1.39684
1767.715	13.07577	0.39894	10.34912	1.35561
1771.714	12.59316	0.51528	10.22082	1.42748
1775.715	12.30090	0.38724	10.23954	1.46962
1779.720	13.08562	0.46962	10.32354	1.54538
1783.721	13.22937	0.59144	10.48689	1.53126
1787.716	13.42648	0.69186	10.59363	1.51948
1791.720	13.44723	0.69525	10.69520	1.49365
1795.709	13.55653	0.76305	10.73334	1.51988
1799.713	13.59973	0.78952	10.73902	1.56730
1803.733	13.52667	0.84479	10.72400	1.60898
1807.714	13.52440	0.83873	10.81470	1.57813
1811.737	13.54504	0.85245	10.82797	1.57074
1815.714	13.56460	0.85040	10.81288	1.57097
1819.714	13.51975	0.87230	10.84276	1.59771
1823.724	13.55126	0.87532	10.85444	1.58831
1827.720	13.50821	0.86000	10.84228	1.60776
1831.708	13.48155	0.83432	10.81576	1.59346
1835.734	13.42296	0.84225	10.77744	1.57618
1839.722	13.44313	0.84486	10.74213	1.57282
1843.719	13.41051	0.81199	10.73476	1.52597
1847.739	13.45289	0.78367	10.73952	1.46920
1851.713	13.45862	0.75220	10.74058	1.45409
1855.718	13.52327	0.76847	10.75488	1.47457
1859.715	13.55940	0.72364	10.82004	1.55244
1863.736	13.61851	0.68422	10.86124	1.57437
1867.729	13.64591	0.62253	10.91650	1.58464
1871.712	13.68921	0.58777	10.92741	1.60632
1875.722	13.65512	0.54239	10.98999	1.62344
1879.750	13.66105	0.45824	11.01543	1.64674
1883.716	13.61715	0.41229	11.03466	1.69281
1887.716	13.60409	0.36800	11.03690	1.75267
1891.711	13.51063	0.36508	11.03188	1.82363
1895.714	13.43460	0.35719	11.08474	1.78849
1899.713	13.27950	0.28705	11.17123	1.77634
1903.716	13.40751	0.35569	11.16156	1.76812
1907.722	13.31638	0.43486	11.21656	1.63513
1911.711	13.27899	0.49993	11.27813	1.54286
1915.726	13.20708	0.54808	11.28877	1.52125
1919.711	13.14270	0.59567	11.32562	1.45675
1923.723	13.25385	0.68468	11.30123	1.47741
1927.712	13.20322	0.68159	11.27376	1.46681
1931.715	13.14235	0.66470	11.24318	1.53521
1935.713	13.11130	0.72082	11.24156	1.49033
1939.712	13.09099	0.69489	11.10546	1.49922
1943.707	13.18045	0.70799	11.11901	1.58476
1947.719	13.25670	0.65271	11.20161	1.42708
1951.716	13.17075	0.59480	11.10233	1.45132
1955.710	13.07933	0.65325	11.05727	1.53719
1959.710	13.00990	0.62850	11.11098	1.50438
1963.712	13.12488	0.62724	11.06177	1.56848
1967.716	13.17988	0.68001	11.04408	1.32969
1971.710	13.16238	0.73703	11.06573	1.53066
1975.730	13.15534	0.84333	11.11745	1.52393
1979.724	13.24967	0.96872	11.13681	1.48685
1983.716	13.27332	1.08016	11.17467	1.53440
1987.722	13.20675	1.00053	11.20763	1.45669
1991.727	13.32465	0.97253	11.18415	1.39729
1995.706	13.21310	0.99750	11.19093	1.40038
1999.720	13.17887	0.94404	11.14082	1.38510
2003.710	13.24868	0.83870	10.98164	1.57127
2007.710	13.44543	0.82478	11.15136	1.56775
2011.713	13.36617	0.69106	11.14058	1.70852
2015.715	13.24162	0.73084	11.16674	1.51793
2019.713	13.23304	0.75365	11.14154	1.25217
2023.706	13.21011	0.73294	11.11325	1.45378
2027.733	13.13896	0.69081	11.06236	1.50036
2031.725	13.21860	0.63774	10.99016	1.70489
2035.718	13.30644	0.69912	11.00422	1.70749
2039.706	13.34446	0.70222	11.02325	1.66459
2043.722	13.34806	0.73378	11.09119	1.75437
2047.712	13.28453	0.75999	11.12364	1.81132
2051.721	13.18548	0.78565	11.11231	2.02645
2055.713	13.07149	0.78113	11.06755	2.07087
2059.711	13.15141	0.84895	10.98049	2.01572
2063.713	13.08413	0.80379	10.89176	1.83173
2067.708	12.95940	0.82187	10.92179	1.98614
2071.714	12.95181	0.94205	10.80110	2.31312
2075.723	12.33747	2.00437	9.02885	4.98967
2079.702	10.71602	3.10336	8.16530	4.89208
2083.708	10.62732	3.93554	8.05998	4.99346
2087.721	11.08077	4.07864	8.10951	5.09293
2091.709	11.61420	3.69904	8.50314	4.95845
2095.712	11.72738	3.48151	8.59861	4.97385
2099.714	11.37701	3.30184	8.78668	4.78642
2103.709	11.23449	3.28903	8.67510	4.81316
2107.723	11.29364	3.28286	8.64376	4.84405
2111.717	11.16600	3.31986	8.57175	4.90920
2115.716	11.20553	3.37761	8.54794	4.89455
2119.713	11.12615	3.48135	8.53889	4.92384
2123.705	11.18465	3.47135	8.57454	4.94531
2127.592	11.23277	3.40331	8.62011	5.02794
2131.586	11.22988	3.34070	8.64116	5.03141
2135.579	11.24325	3.29036	8.60606	5.11454
2139.588	11.23633	3.24810	8.58020	5.15808
2143.585	11.19571	3.16673	8.54384	5.21233
2147.586	11.23884	3.13203	8.52222	5.34837
2151.584	11.25665	3.07747	8.48474	5.43462
2155.584	11.25383	3.04385	8.43635	5.33952
2159.591	11.29123	2.93876	8.40596	5.33931
2163.584	11.32097	2.87293	8.39644	5.37097
2167.583	11.15953	2.86525	8.39304	5.38839
2171.585	10.55850	2.78433	8.38498	5.37286
2175.610	10.64739	2.74011	8.40016	5.31760
2179.593	10.68219	2.63325	8.41111	5.24806
2183.578	10.54545	2.56092	8.41544	5.23935
2187.588	10.45327	2.47790	8.45526	5.17519
2191.583	10.51563	2.42802	8.53882	5.09915
2195.583	10.73397	2.22001	8.57888	5.01607
2199.582	10.76748	2.35462	8.71683	4.91788
2203.590	10.78412	2.28462	8.74767	4.84396
2207.584	10.91665	2.24041	8.86531	4.82463
2211.582	11.02509	2.29947	8.91728	4.72665
2215.587	11.10304	2.31909	8.93372	4.70808
2219.581	11.14130	2.15530	8.97850	4.64731
2223.578	10.74055	2.55051	9.06804	4.61942
2227.582	10.71588	2.77822	9.12592	4.59846
2231.586	10.62761	2.84683	9.13894	4.51107
2235.578	10.46517	2.29571	9.04512	4.54102
2239.586	10.45075	1.88666	8.68460	4.55903
2243.587	9.29191	0.07869	8.02747	2.90332
2247.604	8.45393	-1.68353	7.75987	0.61992
2251.612	7.41316	-5.02857	6.99604	-1.59430
2255.581	6.66800	-5.08184	6.12271	-3.54161
2259.581	5.78971	-8.15918	5.74011	-4.83038
2263.589	5.91462	-9.43004	3.48185	-6.54162
2267.585	5.48565	-10.08576	2.88022	-7.40189
2271.584	2.21286	-12.08321	1.37044	-8.40620
2275.591	1.56089	-13.34008	-1.21859	-10.38979
2279.580	0.28629	-13.97163	-1.72619	-10.82560
2283.592	0.93527	-13.96816	1.02169	-10.05849
2287.588	1.73418	-13.67535	1.34065	-9.80128
2291.585	1.42384	-13.47947	1.23742	-9.77986
2295.583	1.48012	-13.54728	1.37766	-9.83673
2299.582	1.30833	-13.51777	0.67769	-9.80823
2303.585	1.08706	-13.69156	0.45346	-9.94858
2307.590	1.08674	-13.84541	0.59047	-9.87936
2311.588	0.72697	-14.07648	0.21728	-9.98690
2315.583	0.89919	-13.98591	-0.31444	-9.87104
2319.579	0.93688	-13.99866	-0.23443	-9.80219
2323.584	0.94678	-13.89647	-0.59478	-9.80257
2327.587	1.70249	-13.69637	-0.83843	-9.85093
2331.581	1.76842	-13.65168	-0.96604	-9.82626
2335.578	2.07866	-13.64737	-0.54781	-9.74857
2339.579	1.46427	-13.70398	-0.65409	-9.71382
2343.594	1.69465	-13.70779	-0.53684	-9.69758
2347.590	1.46809	-13.71812	-0.34702	-9.58182
2351.578	1.53051	-13.70344	-0.42016	-9.53520
2355.581	1.38587	-13.70272	-0.40772	-9.36691
2359.580	1.35440	-13.67111	-0.28734	-9.37791
2363.580	1.25334	-13.66456	-0.42869	-9.35186
2367.589	1.21343	-13.68340	-0.30736	-9.30297
2371.580	0.98985	-13.74266	-0.22068	-9.28319
2375.587	0.90587	-13.78864	-0.21035	-9.26763
2379.579	0.96167	-13.81547	-0.21792	-9.30879
2383.589	0.79588	-13.85631	-0.21477	-9.32121
2387.584	0.79344	-13.88610	-0.21445	-9.32985
2391.575	0.82855	-13.89533	-0.24706	-9.37620
2395.582	0.80171	-13.88931	-0.28505	-9.39717
2399.587	0.84769	-13.87550	-0.29046	-9.42447
2403.585	0.98588	-13.84923	-0.36506	-9.47232
2407.580	1.05796	-13.79715	-0.37343	-9.47509
2411.592	1.33837	-13.77054	-0.39926	-9.47001
2415.577	1.44689	-13.73320	-0.42271	-9.45797
2419.583	1.64662	-13.64689	-0.43147	-9.42653
2423.583	1.51417	-13.73744	-0.41137	-9.37092
2427.582	1.47042	-13.80547	-0.38814	-9.36851
2431.583	1.44205	-13.80744	-0.43115	-9.39010
2435.578	1.43637	-14.06282	-0.41033	-9.37680
2439.581	1.52918	-13.97881	-0.53381	-9.47264
2443.611	1.59207	-14.02550	-0.53778	-9.51370
2447.580	1.48994	-13.97919	-0.72734	-9.69272
2451.580	1.52952	-14.04907	-0.91527	-9.76350
2455.581	1.57872	-14.07578	-0.90014	-9.88297
2459.589	1.63313	-14.05948	-0.95122	-9.94441
2463.586	1.65689	-14.03772	-0.98325	-9.97810
2467.574	1.74008	-13.98315	-1.16171	-10.04365
2471.582	1.78344	-13.87631	-1.15999	-10.08166
2475.587	1.81706	-13.77173	-1.29710	-10.13643
2479.581	1.90820	-13.66700	-1.30042	-10.15809
2483.577	1.92300	-13.61074	-1.25034	-10.16422
2487.580	2.00586	-13.51168	-1.27393	-10.17251
2491.614	2.12696	-13.46371	-1.25329	-10.16195
2495.633	2.12677	-13.43909	-1.19284	-10.14222
2499.577	2.25927	-13.34327	-1.10423	-10.09916
2503.579	2.26623	-13.31384	-0.97809	-10.05710
2507.577	2.26299	-13.30230	-0.95083	-10.04412
2511.579	2.20473	-13.29752	-1.04786	-10.01909
2515.576	1.33664	-13.35984	-0.94388	-10.00860
2519.575	0.72305	-13.37662	-0.88366	-9.99337
2523.578	1.26041	-13.33568	-0.90681	-10.00965
2527.583	1.38937	-13.32687	-1.01997	-10.00694
2531.579	1.66683	-13.27600	-0.93530	-10.07642
2535.579	1.51819	-13.31129	-0.83597	-10.05659
2539.584	1.32840	-13.32691	-0.68270	-10.04350
2543.600	1.20078	-13.55621	-0.67605	-10.05621
2547.584	1.11869	-13.76162	-0.68888	-10.04387
2551.579	1.06932	-13.69002	-0.84133	-10.00495
2555.582	0.95115	-13.19158	-0.81498	-9.84358
2559.583	0.97616	-12.51304	-1.25895	-8.99409
2563.580	1.13429	-11.20942	-2.04463	-7.62665
2567.574	1.08984	-10.60619	-1.25875	-7.07821
2571.581	0.96390	-10.45371	-0.59928	-6.95676
2575.592	1.14970	-10.45985	-0.58652	-6.94556
2579.582	1.16572	-10.47125	-0.63300	-7.05314
2583.576	1.68870	-10.45989	-0.59091	-7.08706
2587.578	1.82343	-10.38624	-0.77191	-7.52976
2591.575	1.46782	-10.40759	-0.98529	-7.24863
2595.577	1.20415	-10.36535	-1.23603	-7.25042
2599.581	1.22097	-10.40016	-1.06193	-7.03254
2603.575	1.41998	-10.38058	-0.93723	-6.90745
2607.574	1.65525	-10.38513	-0.90820	-6.80025
2611.574	1.77194	-10.39201	-0.76116	-6.71357
2615.579	1.77635	-10.47659	-0.90624	-6.73685
2619.581	1.81753	-10.51036	-0.95978	-6.77012
2623.581	1.81880	-10.56864	-1.03694	-6.76633
2627.615	1.81186	-10.61236	-1.17446	-6.85097
2631.581	1.81399	-10.60138	-1.27663	-6.84214
2635.573	1.84684	-10.56543	-1.22980	-6.77556
2639.593	1.84409	-10.46192	-1.22216	-6.75495
2643.590	1.84052	-10.42971	-1.34495	-6.82231
2647.585	1.82038	-10.37011	-1.32805	-6.92484
2651.573	1.87723	-10.27717	-1.38198	-6.99016
2655.573	1.76321	-10.42860	-1.40594	-7.09484
2659.581	1.60174	-10.48784	-1.35571	-7.11270
2663.574	1.55531	-10.46516	-1.35415	-7.14438
2667.574	1.44356	-10.59025	-1.41692	-7.18210
2671.579	1.21385	-10.74316	-1.21596	-7.19666
2675.576	1.26760	-10.73179	-1.04940	-7.19853
2679.580	1.18614	-10.77703	-0.89098	-7.17228
2683.584	1.14062	-10.61187	-1.08289	-7.19132
2687.573	1.04607	-10.74564	-1.07163	-7.19993
2691.578	1.38500	-10.74278	-0.98787	-7.24912
2695.597	1.54229	-10.73428	-0.91602	-7.28650
2699.584	1.43334	-10.66140	-0.74553	-7.23084
2703.577	1.24940	-10.65628	-0.65059	-7.18775
2707.574	1.34924	-10.60687	-0.78677	-7.14755
2711.576	1.64528	-10.64254	-0.83257	-7.35894
2715.574	1.58118	-10.66703	-0.99839	-7.50462
2719.571	1.67687	-10.52852	-0.92808	-7.35890
2723.572	1.56995	-10.60057	-0.92584	-7.25396
2727.571	1.56384	-10.60288	-0.86828	-7.12641
2731.593	1.70450	-10.57477	-0.82275	-7.19127
2735.580	1.72210	-10.54751	-0.90562	-7.47419
2739.573	1.63442	-10.60253	-1.03848	-7.50137
2743.579	1.48997	-10.57768	-1.07627	-7.36949
2747.574	1.64392	-10.67513	-1.03330	-7.23033
2751.574	1.84976	-10.67384	-1.09728	-7.34999
2755.577	1.65488	-10.56728	-0.95482	-7.26383
2759.570	1.59792	-10.53159	-0.98822	-7.35987
2763.573	1.45859	-10.71396	-0.98556	-7.25223
2767.579	1.58438	-10.76708	-1.13496	-7.30803
2771.577	1.72947	-10.68975	-1.15163	-7.25619
2775.577	1.84200	-10.56933	-1.09351	-7.35171
2779.574	1.75054	-10.51273	-1.14392	-7.30263
2783.582	1.40095	-11.00692	-1.03163	-7.29786
2787.570	1.60804	-10.96458	-0.96447	-7.20857
2791.576	1.66938	-10.80075	-1.15245	-7.19259
2795.574	1.62029	-10.55085	-1.19839	-7.27966
2799.590	1.73983	-10.56688	-1.16322	-7.34032
2803.571	1.55742	-10.80375	-1.19061	-7.31033
2807.582	1.32160	-11.11911	-1.26912	-7.34345
2811.573	1.38297	-10.76761	-1.15682	-7.22613
2815.572	1.19745	-10.45470	-0.75918	-7.15853
2819.575	1.25061	-10.24395	-1.36791	-7.12592
2823.582	0.68419	-8.61873	-1.68600	-5.69760
2827.581	-1.02084	-5.46231	-3.26772	-4.10363
2831.649	-2.74096	-5.37949	-4.00287	-2.82385
2835.580	-4.71060	-2.73406	-6.86474	-1.05896
2839.597	-5.06511	-2.08173	-6.78245	-0.66803
2843.575	-5.24548	-1.74266	-7.60675	-0.03195
2847.569	-5.70531	-0.14828	-8.76438	1.52237
2851.571	-6.37236	0.63522	-8.14905	1.36531
2855.576	-5.90350	0.19252	-7.26942	1.62913
2859.569	-5.20578	0.04868	-6.90630	1.71161
2863.569	-5.57618	0.06564	-6.98411	0.87255
2867.582	-6.27883	0.22045	-6.88680	0.72888
2871.574	-6.60269	0.21226	-7.01220	0.34935
2875.572	-6.61168	0.08691	-7.57205	0.81755
2879.569	-6.49465	0.11508	-7.73492	1.07706
2883.576	-6.16976	0.08353	-7.68452	1.17920
2887.588	-6.33684	0.14495	-7.55513	1.67888
2891.581	-6.53132	0.17968	-7.56074	1.61440
2895.568	-6.36611	0.12864	-7.40106	1.40563
2899.569	-6.61325	0.16812	-7.54079	1.62245
2903.570	-6.71405	0.21690	-7.56379	1.86969
2907.581	-6.59606	0.28340	-7.42432	1.91858
2911.569	-6.55280	0.30182	-7.57288	1.96610
2915.575	-6.40293	0.26114	-7.48763	1.62784
2919.569	-6.32885	0.28990	-7.47975	1.73340
2923.569	-6.18318	0.28941	-7.47431	1.81987
2927.567	-6.04875	0.35494	-7.49115	1.80847
2931.573	-6.04571	0.38358	-7.59310	1.86334
2935.570	-5.85536	0.44956	-7.55659	2.15854
2939.574	-6.05226	0.57843	-7.59368	2.15402
2943.571	-6.08362	0.72809	-7.36933	1.95343
2947.568	-6.27206	0.93821	-7.35751	1.91663
2951.575	-6.18434	0.64321	-7.31862	1.86899
2955.581	-6.23933	0.67972	-7.40487	1.94020
2959.588	-6.16226	0.65432	-7.30122	1.85392
2963.570	-5.98221	0.62279	-7.43522	1.74857
2967.574	-5.90352	0.66588	-7.42402	1.72527
2971.583	-6.04401	0.66613	-7.43359	1.70264
2975.578	-5.96078	0.64963	-7.38471	1.63118
2979.573	-6.06333	0.58168	-7.36723	1.57271
2983.443	-6.01778	0.54336	-7.39476	1.53065
2987.445	-5.96208	0.50226	-7.41002	1.44229
2991.448	-5.93375	0.47886	-7.41917	1.47191
2995.459	-5.93409	0.44068	-7.46565	1.41611
2999.451	-5.89488	0.42825	-7.45897	1.39163
3003.446	-5.84220	0.43630	-7.49385	1.38120
3007.448	-5.88368	0.44151	-7.47236	1.41591
3011.442	-5.89210	0.43320	-7.42739	1.43349
3015.447	-5.86460	0.43010	-7.35288	1.45812
3019.450	-5.91715	0.44096	-7.31389	1.49994
3023.453	-5.84566	0.44243	-7.21335	1.54073
3027.442	-5.86330	0.42917	-6.86175	1.56791
3031.447	-6.02190	0.42778	-6.89143	1.61201
3035.634	-5.99924	0.45978	-6.84854	1.71147
3039.468	-6.31456	0.50119	-7.02910	1.82423
3043.474	-6.24955	0.50592	-7.47126	1.83686
3047.441	-6.16402	0.48340	-7.67496	1.87929
3051.448	-6.28180	0.51883	-8.44980	1.96175
3055.448	-6.37672	0.57193	-8.49974	2.07215
3059.441	-6.42106	0.56477	-8.46828	2.15339
3063.447	-6.42489	0.58177	-8.51066	2.15190
3067.444	-6.44121	0.59284	-8.44951	2.19350
3071.456	-6.62537	0.65348	-8.36934	2.23444
3075.441	-6.70205	0.69259	-8.26799	2.27282
3079.459	-6.76552	0.68614	-8.32850	2.27729
3083.446	-6.66766	0.65049	-8.27426	2.25143
3087.445	-6.59069	0.63233	-8.24091	2.28509
3091.446	-6.83005	0.70282	-8.19491	2.31803
3095.442	-6.91361	0.75740	-8.08214	2.33057
3099.442	-6.99296	0.76647	-7.92619	2.30534
3103.458	-6.94565	0.75150	-7.73796	2.24697
3107.448	-6.91126	0.75856	-7.56998	2.21354
3111.439	-6.87200	0.76615	-7.55776	2.18389
3115.443	-6.88132	0.73962	-7.49961	2.14406
3119.500	-6.87340	0.73941	-7.28879	2.07645
3123.445	-6.58117	0.68422	-7.19297	2.06488
3127.457	-6.54558	0.71160	-7.18596	2.01466
3131.441	-6.54073	0.73668	-7.13392	1.94359
3135.445	-6.46027	0.70085	-7.09211	1.90418
3139.441	-6.37969	0.63289	-6.95039	1.85854
3143.445	-6.36432	0.65711	-6.94582	1.77404
3147.444	-6.37190	0.72591	-6.91280	1.67792
3151.437	-6.24595	0.68539	-6.90163	1.69215
3155.457	-6.19221	0.62991	-6.88343	1.62473
3159.451	-6.10436	0.60333	-6.81705	1.58686
3163.446	-6.07133	0.54607	-6.88768	1.65338
3167.440	-6.05454	0.53690	-6.96802	1.59624
3171.449	-6.07761	0.55604	-6.97088	1.58635
3175.454	-5.95395	0.55718	-7.11858	1.64879
3179.447	-5.87093	0.53680	-7.45026	1.77726
3183.442	-5.89198	0.66538	-7.45862	1.80186
3187.441	-5.97376	0.62559	-7.54018	1.82429
3191.441	-6.12406	0.59459	-7.44664	2.02030
3195.446	-4.12772	0.54537	-5.50365	1.82460
3199.444	-2.62259	0.57893	-3.17621	2.12106
3203.436	0.78585	0.48294	0.28612	2.33991
3207.459	2.62293	0.31453	1.45795	2.33834
3211.447	4.36126	0.02835	2.54962	2.32327
3215.441	4.79107	-1.21951	3.14783	1.96087
3219.439	5.25493	-1.23262	3.37561	1.76132
3223.445	6.50445	-1.45203	4.38948	2.16548
3227.445	6.78297	-1.34912	4.30351	2.20311
3231.435	6.40967	-1.18215	4.37414	2.19219
3235.445	5.78784	-1.06107	4.17211	1.65303
3239.441	5.67278	-1.01622	4.05426	1.70335
3243.445	6.05412	-0.85967	4.18087	1.56486
3247.450	6.35547	-1.13868	4.36932	1.54991
3251.441	6.63318	-1.56056	4.42242	1.54567
3255.436	6.66068	-1.44622	4.47153	1.48798
3259.442	6.66315	-1.27416	4.46263	1.38595
3263.440	6.47059	-1.20316	4.53546	1.47025
3267.433	6.34689	-1.04498	4.50619	1.91189
3271.437	6.41489	-1.05205	4.50703	1.72081
3275.453	6.60833	-1.00395	4.49662	2.06529
3279.445	6.66851	-1.05055	4.50833	1.67272
3283.440	6.74760	-1.14984	4.56927	1.83969
3287.444	6.71493	-1.11366	4.61457	1.51813
3291.447	6.79511	-1.12857	4.60962	1.39101
3295.440	6.72660	-1.08494	4.61847	1.47320
3299.435	6.65887	-0.89846	4.53445	1.68847
3303.437	6.70712	-0.89047	4.59509	1.67826
3307.978	6.79153	-0.78340	4.60550	2.16570
3311.453	6.83350	-0.85721	4.57172	2.09689
3315.465	6.95338	-0.88203	4.59472	2.07286
3319.439	7.02482	-0.92857	4.65964	2.11553
3323.439	6.95885	-0.91131	4.73825	1.83467
3327.437	6.95413	-0.88368	4.60017	1.53462
3331.447	6.96203	-0.91274	4.62503	1.54848
3335.446	6.91948	-0.96690	4.47797	1.64217
3339.438	6.87161	-1.03238	4.51334	1.90888
3343.440	6.93149	-1.12090	4.58143	2.10001
3347.434	6.99920	-1.21984	4.57142	2.12274
3351.444	6.89818	-1.30125	4.58365	1.98892
3355.438	6.92877	-1.40822	4.66507	1.83328
3359.438	6.84380	-1.33452	4.82762	1.83199
3363.439	6.87531	-1.28699	4.75607	1.64774
3367.441	6.89443	-1.30405	4.67224	1.69913
3371.444	6.93066	-1.35119	4.39780	1.84569
3375.460	6.92677	-1.41288	4.49403	1.92061
3379.456	6.93369	-1.36185	4.53349	2.01361
3383.440	6.94660	-1.42788	4.57440	2.03076
3387.453	6.94638	-1.35472	4.61728	2.05775
3391.438	6.80940	-1.30004	4.62855	1.99392
3395.439	6.76200	-1.29667	4.79997	1.92935
3399.443	6.81008	-1.31540	4.86231	1.89219
3403.440	6.87262	-1.36294	4.88882	1.86284
3407.432	6.98934	-1.47713	4.59443	1.91564
3411.452	6.87814	-1.51159	4.38763	1.98607
3415.439	6.90476	-1.52445	4.39698	1.97221
3419.448	6.68996	-1.24893	4.27387	2.00112
3423.436	6.70122	-1.21520	4.30652	1.99150
3427.439	6.70009	-1.21585	4.45671	1.92078
3431.450	6.76809	-1.25502	4.58720	1.88837
3435.441	6.85549	-1.22865	4.68688	1.85525
3439.440	6.96653	-1.33287	4.81941	1.84636
3443.681	7.13182	-1.36275	4.95677	1.81459
3447.444	7.18003	-1.42389	5.04462	1.81853
3451.439	6.97758	-1.34117	4.85793	1.92270
3455.440	7.05672	-1.37929	4.99802	1.84042
3459.438	7.12261	-1.35970	4.61768	1.79055
3463.436	7.16564	-1.33370	4.42718	1.87628
3467.435	7.21801	-1.39775	4.28982	1.83593
3471.440	7.28991	-1.43596	4.30206	1.81959
3475.437	7.28212	-1.45808	4.46046	1.82081
3479.440	7.23191	-1.46932	4.47506	1.79499
3483.438	7.24698	-1.51364	4.81271	1.68095
3487.436	7.12674	-1.46525	4.75689	1.61106
3491.454	7.12630	-1.31819	4.58003	1.77567
3495.446	7.11191	-1.24230	4.57610	1.60809
3499.440	7.11841	-1.25529	4.53966	1.67906
3503.437	7.17394	-1.19789	4.54839	1.89255
3507.434	7.22524	-1.26653	4.63080	1.68434
3511.500	7.39059	-1.26503	4.71597	1.60230
3515.456	7.23894	-1.25695	4.67007	1.61847
3519.435	7.31648	-1.25139	4.67720	1.54067
3523.431	7.24774	-1.23520	4.69573	1.53174
3527.433	7.18032	-1.25024	4.63395	1.57868
3531.444	7.08004	-1.25212	4.59536	1.56176
3535.434	6.89463	-1.25456	4.57625	1.54896
3539.438	6.97272	-1.29074	4.57265	1.49255
3543.439	7.04276	-1.32151	4.58543	1.46084
3547.434	7.12779	-1.36239	4.67034	1.35894
3551.442	7.08148	-1.33500	4.59430	1.39503
3555.438	7.09302	-1.33770	4.58513	1.29404
3559.430	7.18386	-1.36839	4.64519	1.27324
3563.433	7.25731	-1.38940	4.68146	1.38317
3567.438	7.28544	-1.41442	4.75363	1.38167
3571.432	7.08092	-1.35282	4.67981	1.32617
3575.451	7.10015	-1.38052	4.57342	1.37782
3579.527	7.11938	-1.41360	4.51709	1.35671
3583.453	7.05166	-1.48018	4.19188	1.39749
3587.434	7.00216	-1.48936	4.52313	1.41485
3591.432	7.06129	-1.53077	4.55667	1.45843
3595.439	7.10966	-1.59339	4.50276	1.31046
3599.436	7.09915	-1.56541	4.57458	1.36969
3603.438	7.05767	-1.43410	4.50288	1.47804
3607.430	6.94259	-0.15760	4.33818	2.06371
3611.432	6.88761	0.65920	4.20331	2.43023
3615.483	6.75003	0.77370	4.20032	2.91408
3619.452	6.59554	0.45446	4.35257	2.60836
3623.439	6.65375	0.14937	4.15626	3.27320
3627.435	6.55743	0.01002	4.38334	2.99717
3631.432	6.51844	-0.39143	4.18279	2.98575
3635.465	6.69723	-0.57435	4.23478	2.94769
3639.438	6.53475	-0.47977	4.29172	2.93533
3643.432	6.45593	0.15326	4.31620	3.02067
3647.453	6.44324	0.26578	4.17129	3.14692
3651.430	6.33446	0.21015	4.11535	3.28441
3655.439	6.43060	0.41589	4.02287	3.68568
3659.432	6.44496	0.25408	4.08211	3.87092
3663.448	6.53326	0.16565	4.08179	3.88215
3667.432	6.67728	0.10405	4.10895	3.81996
3671.443	6.86479	0.06508	4.07137	3.51469
3675.436	6.62902	0.21005	4.10268	3.54912
3679.433	6.58026	0.43332	4.09184	3.61242
3683.433	6.33042	0.49369	4.12085	3.63458
3687.445	6.21632	0.58944	4.06653	3.50809
3691.437	6.33758	0.63351	4.12675	3.67686
3695.432	6.33701	0.76330	4.16282	3.49384
3699.428	6.29580	0.78485	4.24394	3.48973
3703.444	6.32399	0.87970	4.27106	3.46092
3707.439	6.37415	0.81789	4.26482	3.42230
3711.431	6.24553	0.86351	4.31069	3.39407
3715.510	6.18738	0.93189	4.32405	3.42668
3719.437	6.19106	0.95441	4.35304	3.41902
3723.432	6.19341	0.93539	4.39286	3.40301
3727.428	6.24325	0.91117	4.35282	3.51695
3731.435	6.27643	0.87032	4.33601	3.62817
3735.427	6.31301	0.91910	4.30766	3.68499
3739.436	6.30345	0.95080	4.26916	3.67476
3743.447	6.30504	0.92953	4.27535	3.69021
3747.441	6.31767	0.90712	4.19543	3.71850
3751.437	6.29987	0.91285	4.09397	3.86484
3755.436	6.31718	0.90541	4.00857	3.91643
3759.427	6.32677	0.90330	3.92919	3.97234
3763.436	6.34204	0.86401	3.86828	4.03554
3767.430	6.35270	0.84419	3.82746	4.04548
3771.435	6.37616	0.83423	3.80735	4.07296
3775.448	6.38060	0.84676	3.76445	4.04464
3779.434	6.40043	0.79108	3.75222	4.03445
3783.463	6.43650	0.73429	3.71384	4.05486
3787.436	6.48205	0.69749	3.73097	4.09539
3791.439	6.51900	0.69312	3.75454	4.09869
3795.433	6.54746	0.68844	3.85980	4.08770
3799.433	6.54041	0.70205	3.93771	4.07285
3803.427	6.53923	0.64229	3.99260	4.01429
3807.452	6.53306	0.66864	4.05204	3.96467
3811.435	6.55981	0.69247	4.12253	3.96652
3815.438	6.61381	0.60954	4.22604	3.86775
3819.434	6.65960	0.62479	4.25472	3.84331
3823.440	6.58521	0.65253	4.30613	3.72007
3827.438	6.62123	0.70391	4.28500	3.77359
3831.435	6.67260	0.67235	4.34184	3.74419
3835.309	6.68859	0.52409	4.42933	3.58644
3839.337	6.74907	0.38328	4.49124	3.44307
3843.309	6.74949	0.37851	4.45338	3.49969
3847.303	6.70957	0.39246	4.46475	3.35429
3851.305	6.68607	0.34159	4.50140	3.03548
3855.312	6.71593	0.20301	4.50042	3.00663
3859.310	6.66719	0.29908	4.53845	3.25221
3863.304	6.72707	0.29483	4.49334	3.17445
3867.303	6.64214	0.28762	4.50384	3.24990
3871.306	6.71167	0.25718	4.49677	3.23215
3875.326	6.74078	0.23369	4.43436	3.12802
3879.315	6.70222	0.27332	4.43756	3.13130
3883.299	6.68090	0.37010	4.39089	3.25168
3887.310	6.64202	0.37378	4.30825	3.33262
3891.311	6.69160	0.44149	4.27977	3.34413
3895.307	6.69451	0.45649	4.23071	3.31209
3899.306	6.69943	0.46253	4.15408	3.42785
3903.306	6.70235	0.46448	4.16682	3.42140
3907.312	6.64481	0.52026	4.11829	3.46367
3911.302	6.69615	0.57647	4.10090	3.47456
3915.304	6.70519	0.51961	4.13386	3.29454
3919.370	6.67130	0.49025	4.16053	3.34405
3923.305	6.60279	0.55133	4.18968	3.21825
3927.305	6.56696	0.34997	4.20491	3.22871
3931.306	6.54643	0.23198	4.18600	3.29435
3935.299	6.49127	0.18433	4.15658	3.48271
3939.321	6.46515	0.19000	4.12266	3.22348
3943.309	6.45588	0.32237	4.15243	3.16286
3947.300	6.44302	0.55469	4.19906	2.95296
3951.317	6.43978	0.64773	4.24613	3.09233
3955.302	6.40298	0.67570	4.27972	3.05882
3959.316	6.39454	0.78020	4.24559	3.00693
3963.301	6.36136	0.75771	4.18354	3.05947
3967.307	6.40704	0.49197	4.09340	3.07057
3971.303	6.45696	0.53268	4.08278	3.05133
3975.318	6.54957	0.63055	4.04327	3.38382
3979.307	6.59525	0.56435	3.91151	3.45283
3983.301	6.62868	0.57216	3.98284	3.55197
3987.333	6.66533	0.51829	3.91763	3.66699
3991.307	6.66819	0.50681	3.89207	3.84568
3995.303	6.61619	0.57565	4.01287	3.62263
3999.301	6.57034	0.56124	4.00393	3.76187
4003.306	6.49751	0.64849	4.08350	3.62169
4007.312	6.37829	0.76383	4.05777	3.72277
4011.309	6.48421	0.85249	4.07463	3.77852
4015.301	6.41545	0.71731	4.01808	3.88877
4019.303	6.26336	0.95341	4.06172	3.92083
4023.303	5.86899	0.83415	1.95713	3.44189
4027.304	3.24001	1.13340	-1.72815	2.58687
4031.308	7.67777	1.29144	-0.30682	1.98912
4035.301	8.12865	0.48147	0.35022	2.32091
4039.316	NaN	NaN	-0.62479	3.76330
4043.312	NaN	NaN	NaN	NaN
4047.333	NaN	NaN	NaN	NaN
4051.303	NaN	NaN	NaN	NaN
4055.330	NaN	NaN	NaN	NaN
4059.307	NaN	NaN	NaN	NaN
4063.300	NaN	NaN	NaN	NaN
4067.315	NaN	NaN	NaN	NaN
4071.298	NaN	NaN	NaN	NaN
4075.317	NaN	NaN	NaN	NaN
4079.331	NaN	NaN	NaN	NaN
4083.443	NaN	NaN	NaN	NaN
4087.365	NaN	NaN	NaN	NaN
4091.381	NaN	NaN	NaN	NaN
4095.326	NaN	NaN	NaN	NaN
4099.301	NaN	NaN	NaN	NaN
4103.300	NaN	NaN	NaN	NaN
4107.311	NaN	NaN	NaN	NaN
4111.295	NaN	NaN	NaN	NaN
4115.330	NaN	NaN	NaN	NaN
4119.301	NaN	NaN	NaN	NaN
4123.948	NaN	NaN	NaN	NaN
4127.993	NaN	NaN	NaN	NaN
4131.925	NaN	NaN	NaN	NaN
4135.877	NaN	NaN	NaN	NaN
4139.805	NaN	NaN	NaN	NaN
4143.779	NaN	NaN	NaN	NaN
4147.697	NaN	NaN	NaN	NaN
4151.709	NaN	NaN	NaN	NaN
4155.449	NaN	NaN	NaN	NaN
4159.323	NaN	NaN	NaN	NaN
4163.317	NaN	NaN	NaN	NaN
4167.315	NaN	NaN	NaN	NaN
4171.305	NaN	NaN	NaN	NaN
4175.299	NaN	NaN	NaN	NaN
4179.319	NaN	NaN	NaN	NaN
4183.305	NaN	NaN	NaN	NaN
4187.299	NaN	NaN	-15.74361	13.42314
4191.314	NaN	NaN	6.68935	4.92357
4195.301	NaN	NaN	6.59882	5.21108
4199.297	-3.06179	14.76514	5.92761	4.02528
4203.300	NaN	NaN	5.00381	2.91307
4207.312	NaN	NaN	3.99465	3.98204
4211.303	NaN	NaN	3.74009	3.60418
4215.299	NaN	NaN	3.57889	2.88664
4219.295	-0.27178	13.46009	2.58945	2.51532
4223.303	2.47930	-0.00429	3.08817	2.95408
4227.302	3.55819	-0.07051	3.32852	2.88438
4231.305	6.63443	-0.14634	2.88076	2.16484
4235.306	6.49178	-0.39915	4.06266	2.67507
4239.297	6.47769	-0.04731	5.19551	2.86019
4243.328	6.57176	-0.06789	6.22005	2.99871
4247.298	6.70612	0.09563	5.77006	3.06903
4251.306	6.54673	0.02701	4.26800	2.86036
4255.293	5.53933	0.10487	4.03688	2.80551
4259.336	6.46789	0.22000	3.43338	2.95435
4263.294	3.94251	0.20725	3.47492	3.03093
4267.309	4.77330	0.25667	3.57832	3.13814
4271.295	5.29457	0.09907	3.65697	3.17204
4275.302	5.16804	0.18212	3.79766	3.25987
4279.290	5.11620	0.22201	4.34344	3.30454
4283.307	5.00790	0.18244	4.08288	3.36327
4287.293	5.12302	0.18057	4.23404	3.27754
4291.305	5.68679	0.23300	3.95607	3.13831
4295.299	5.43416	0.20713	4.06367	2.96768
4299.303	5.23583	0.09228	4.09757	2.95220
4303.313	5.36545	0.14043	4.16976	2.89553
4307.303	5.70126	0.11421	4.08979	2.96178
4311.295	5.82965	0.16679	4.26373	3.11107
4315.301	6.41672	0.16357	4.38886	3.07327
4319.294	6.60899	0.19036	4.34129	3.04898
4323.295	6.51050	0.12026	4.30751	3.00645
4327.330	6.53321	0.23710	4.23530	2.88619
4331.302	6.47340	0.25328	4.18790	2.99300
4335.302	6.17214	0.23030	4.11925	3.13924
4339.296	6.30612	0.24084	4.07234	3.29158
4343.297	6.42354	0.23300	4.18339	3.39903
4347.296	6.32216	0.30245	4.12456	3.28914
4351.301	6.28925	0.36960	5.65083	3.40963
4355.295	6.30367	0.34627	4.15591	3.41750
4359.292	6.14138	0.33610	4.28903	3.33851
4363.295	6.13640	0.36635	4.13075	3.34541
4367.300	6.07233	0.41628	4.25107	3.38194
4371.303	6.04554	0.31610	4.17951	3.49066
4375.300	6.05606	0.21533	4.18324	3.45862
4379.300	6.07471	0.26039	4.26840	3.36110
4383.301	6.13007	0.34740	4.31758	3.28037
4387.297	6.11940	0.32643	4.23253	3.29412
4391.294	6.09209	0.39968	4.16470	3.28791
4395.338	6.10173	0.24955	4.28969	3.23272
4399.296	6.14641	0.20837	4.45155	3.17001
4403.292	6.15799	0.17089	4.27180	3.17601
4407.300	6.21220	0.18154	4.11043	3.23841
4411.297	6.21237	0.15966	4.16448	3.23883
4415.296	6.17342	0.18586	4.26881	3.17414
4419.300	6.20989	0.18980	4.32713	3.02020
4423.295	6.21404	0.21484	4.52649	2.99726
4427.319	6.23989	0.16686	4.33278	3.06063
4431.297	6.18176	0.10220	4.23777	2.84811
4435.328	6.19761	0.01161	4.37490	2.90934
4439.289	6.22169	0.06909	4.46941	2.85176
4443.340	5.99993	0.11620	4.06685	2.94849
4447.308	6.15465	0.19735	4.19941	3.03156
4451.299	6.23830	0.01480	4.39000	2.93330
4455.289	6.44520	-0.00644	5.11260	2.55600
4459.307	7.21948	-2.32611	5.80710	0.80706
4463.445	7.92524	-3.37004	7.89819	-1.23496
4467.299	8.18191	-6.17876	7.87998	-3.68372
4471.295	7.53888	-8.13380	7.23364	-4.88914
4475.309	7.51893	-8.83128	6.51711	-5.86049
4479.297	7.53562	-9.12856	6.36052	-7.46196
4483.297	7.39540	-9.47970	6.66553	-5.84561
4487.298	6.93523	-11.10736	6.05457	-8.35728
4491.294	7.23142	-11.43368	5.83903	-8.79871
4495.301	7.16964	-11.80163	5.24343	-8.84557
4499.292	6.90158	-11.82180	5.44613	-8.81958
4503.305	7.07117	-11.66765	5.18446	-8.80451
4507.301	7.24823	-11.51603	5.17937	-8.76026
4511.295	7.26456	-11.58046	5.50048	-8.75417
4515.297	7.02570	-11.67082	5.38154	-8.86408
4519.291	6.89412	-11.78650	5.25146	-8.97240
4523.305	6.80651	-11.83062	5.01726	-9.05692
4527.288	6.83315	-11.82232	5.20908	-9.01498
4531.299	6.81972	-11.85542	5.11511	-9.04898
4535.357	6.76963	-11.84844	4.95344	-8.91043
4539.293	6.54509	-11.94649	4.92987	-8.92920
4543.307	6.59001	-11.91732	5.00561	-8.85089
4547.290	6.62067	-11.90141	5.05897	-8.87594
4551.309	6.52988	-11.95001	5.13577	-8.86076
4555.294	6.41155	-11.98784	5.07156	-8.89278
4559.302	6.48117	-11.99593	5.07336	-8.91368
4563.293	6.49808	-12.04608	4.93240	-8.89423
4567.293	6.54337	-12.08837	5.01593	-8.81230
4571.296	6.50386	-12.05575	5.15143	-8.78979
4575.292	6.59086	-12.04691	5.26435	-8.70097
4579.302	6.32287	-12.10683	5.28864	-8.71850
4583.296	6.55072	-12.07970	5.23502	-8.73459
4587.299	6.55501	-12.04551	5.17715	-8.63843
4591.293	6.65328	-12.00503	5.17115	-8.61725
4595.291	6.62696	-12.05396	4.97955	-8.64020
4599.309	6.63220	-12.09592	4.96928	-8.67069
4603.309	6.59584	-12.11904	5.02804	-8.66567
4607.292	6.62395	-12.06423	4.99751	-8.61610
4611.289	6.78121	-12.01453	4.89511	-8.67886
4615.334	6.82466	-11.96770	4.90590	-8.72069
4619.299	6.83810	-11.99301	4.82597	-8.74341
4623.312	6.74496	-12.01200	4.85834	-8.63521
4627.297	6.71038	-11.94598	4.79189	-8.56625
4631.295	6.73157	-11.87443	4.79600	-8.63084
4635.288	6.76743	-11.77800	4.77367	-8.68187
4639.299	7.19100	-11.74694	4.82035	-8.70194
4643.313	6.95034	-11.65353	4.82057	-8.65638
4647.294	7.14042	-11.60295	4.88281	-8.66268
4651.291	7.17773	-11.52057	4.91910	-8.72042
4655.296	7.37060	-11.48170	4.86677	-8.50987
4659.293	6.66371	-11.58971	4.85839	-8.48500
4663.290	6.76131	-11.51893	4.89429	-8.45859
4667.342	6.82946	-11.49822	4.85216	-8.48116
4671.293	6.84994	-11.51449	4.96243	-8.52179
4675.289	6.89830	-11.58882	5.11388	-8.45993
4679.291	6.54947	-11.65612	4.91674	-8.52547
4683.304	6.76753	-11.67334	4.77781	-8.51908
4687.291	6.35010	-11.76338	4.68950	-8.51424
4691.175	6.32620	-11.77931	4.63938	-8.53601
4695.165	6.46316	-11.80667	4.61793	-8.52808
4699.169	6.52733	-11.87519	4.42217	-8.59215
4703.162	6.76562	-11.79804	4.65742	-8.53771
4707.201	6.43050	-11.84283	4.78291	-8.57554
4711.177	6.82594	-11.79301	4.55734	-8.57448
4715.170	6.59265	-11.79983	4.83913	-8.46695
4719.172	6.48176	-11.76534	4.70039	-8.49277
4723.170	6.60414	-11.74198	4.63262	-8.49656
4727.164	6.41143	-11.71069	4.63726	-8.47113
4731.167	6.34236	-11.65652	4.44761	-8.44943
4735.211	6.60118	-11.66697	4.71015	-8.42675
4739.169	6.48058	-11.73162	4.68607	-8.36966
4743.186	6.36508	-11.80446	4.99324	-8.38518
4747.172	6.42116	-11.73786	4.73406	-8.38151
4751.164	6.63624	-11.69509	4.74244	-8.32051
4755.170	6.54516	-11.74364	4.86113	-8.29239
4759.171	6.58771	-11.76865	5.00664	-8.28248
4763.165	6.52128	-11.83920	5.09224	-8.31213
4767.167	6.68729	-11.80982	4.87537	-8.33011
4771.160	6.70754	-11.76952	4.72450	-8.37747
4775.183	6.75517	-11.74198	4.81569	-8.44209
4779.167	6.75695	-11.67041	4.68516	-8.44898
4783.164	6.81515	-11.60000	4.80719	-8.44683
4787.164	6.80587	-11.64406	5.01231	-8.36134
4791.176	6.82077	-11.62015	4.80401	-8.32746
4795.172	6.39646	-11.60209	4.68851	-8.36995
4799.173	5.65130	-11.53421	3.51896	-8.29607
4803.673	3.15268	-11.54343	0.79210	-8.11222
4807.174	2.69408	-11.22267	0.59736	-7.66501
4811.169	0.64002	-11.24633	0.15461	-7.12458
4815.162	2.47796	-11.27142	0.37030	-7.16061
4819.167	2.67704	-11.10920	0.48257	-7.74249
4823.167	2.55646	-11.52324	0.73876	-7.27570
4827.171	2.57045	-11.33773	2.09973	-7.37397
4831.165	2.66788	-11.23960	0.82853	-7.46042
4835.167	2.57620	-11.20534	0.88195	-7.36512
4839.165	2.39594	-11.20359	0.46656	-7.23317
4843.175	2.54135	-11.07315	0.36037	-7.22140
4847.184	2.33316	-11.10614	0.17568	-7.21889
4851.162	2.31458	-11.08809	0.14650	-7.23155
4855.163	2.44464	-11.08523	0.35774	-7.31510
4859.183	2.47266	-11.15905	0.23328	-7.35202
4863.167	2.42389	-11.13540	0.11327	-7.44693
4867.170	2.61753	-11.09163	0.35903	-7.34292
4871.178	2.59926	-11.04574	0.27193	-7.53279
4875.167	2.42859	-11.13955	0.23115	-7.38907
4879.180	2.50298	-11.09188	0.32585	-7.40455
4883.167	2.45597	-11.09828	0.20680	-7.42129
4887.161	2.44940	-11.07247	0.19539	-7.44197
4891.169	2.45914	-11.00586	0.34727	-7.39882
4895.166	2.38955	-11.06049	0.26902	-7.42231
4899.161	2.45619	-11.09931	0.25798	-7.39343
4903.163	2.49374	-11.02416	0.32977	-7.33038
4907.163	2.45966	-11.06813	0.43098	-7.24602
4911.165	2.38856	-11.06358	0.38239	-7.28210
4915.161	2.38226	-11.04443	0.32724	-7.33879
4919.165	2.35853	-11.07749	0.34950	-7.34310
4923.170	2.34025	-11.10702	0.33980	-7.23548
4927.174	2.43201	-11.12618	0.33729	-7.30798
4931.168	2.43825	-11.03963	0.35022	-7.27797
4935.183	2.40979	-11.15026	0.28724	-7.33867
4939.305	2.44682	-11.19450	0.31039	-7.35647
4943.171	2.38794	-11.25242	0.34794	-7.40060
4947.177	2.41472	-11.24082	0.31766	-7.55399
4951.159	2.41489	-11.23303	0.28945	-7.51710
4955.161	2.43223	-11.17692	0.26173	-7.51846
4959.161	2.41700	-11.14848	0.23775	-7.49027
4963.171	2.38925	-11.11785	0.24688	-7.51530
4967.167	2.44866	-11.11548	0.26190	-7.41452
4971.157	2.44772	-11.19751	0.32809	-7.39539
4975.206	2.50132	-11.14598	0.26885	-7.49213
4979.158	2.39473	-11.15741	0.33799	-7.53917
4983.172	2.33152	-11.10811	0.31794	-7.43173
4987.162	2.19175	-11.19050	0.32528	-7.39036
4991.161	2.20808	-11.17731	0.44887	-7.44388
4995.187	2.35932	-11.12810	0.51580	-7.42678
4999.161	2.11440	-11.21296	0.23351	-7.37714
5003.173	2.30719	-11.18220	0.26508	-7.51849
5007.166	2.21167	-11.19905	0.26887	-7.66278
5011.166	2.15693	-11.25363	0.11084	-7.58859
5015.160	2.28787	-11.17250	0.15509	-7.57109
5019.179	2.26554	-11.21716	0.22889	-7.61652
5023.160	2.28787	-11.25550	0.41353	-7.53676
5027.160	2.34309	-11.28387	0.18221	-7.66221
5031.161	2.33289	-11.27184	0.14943	-7.71809
5035.170	2.39852	-11.23235	0.23755	-7.61066
5039.155	2.35244	-11.25316	0.19556	-7.63673
5043.158	2.31138	-11.24749	-0.02206	-7.80001
5047.170	2.26884	-11.27757	0.24607	-7.64361
5051.239	2.29897	-11.31444	0.28768	-7.57386
5055.169	2.34976	-11.29549	-0.01152	-7.70779
5059.159	2.26708	-11.33171	-0.00625	-7.77420
5063.163	2.23325	-11.33387	0.22286	-7.64528
5067.168	2.19935	-11.33236	0.19474	-7.69132
5071.159	2.15901	-11.31785	-0.13268	-7.79606
5075.165	2.13978	-11.30216	0.13846	-7.78857
5079.168	2.10828	-11.35737	0.20765	-7.64641
5083.162	2.09522	-11.37839	0.30918	-7.71739
5087.168	2.14223	-11.35326	0.07912	-7.77432
5091.159	2.25181	-11.36364	0.20867	-7.68858
5095.163	2.22632	-11.33087	0.22874	-7.69341
5099.163	2.18411	-11.35391	-0.08364	-7.75558
5103.157	2.20713	-11.35498	0.20499	-7.71504
5107.161	2.23586	-11.35861	0.28540	-7.67912
5111.159	2.33113	-11.36413	0.37943	-7.65760
5115.188	2.27630	-11.36827	0.09709	-7.71676
5119.163	2.33928	-11.30014	0.02152	-7.70540
5123.160	2.22349	-11.37407	0.26207	-7.68939
5127.160	2.20810	-11.37841	0.51825	-7.68432
5131.166	2.21913	-11.36035	0.13823	-7.71572
5135.160	2.19613	-11.41343	0.07994	-7.75522
5139.157	2.20218	-11.37141	0.18427	-7.79870
5143.180	2.24455	-11.39054	0.32374	-7.70835
5147.160	2.27468	-11.40821	0.25031	-7.73432
5151.155	2.00971	-11.39739	-0.10416	-7.94637
5155.159	2.10585	-11.40867	0.08542	-7.82337
5159.160	2.11301	-11.43682	0.01497	-7.80435
5163.158	2.12050	-11.45745	0.23798	-7.72588
5167.156	2.45250	-11.32367	0.21648	-7.81162
5171.168	3.21337	-10.88674	0.38926	-7.46920
5175.162	3.91479	-8.86428	2.03395	-4.60322
5179.163	4.73838	-6.50870	2.06751	-3.05258
5183.159	4.71309	-3.75276	2.54556	-1.00150
5187.156	4.78420	-3.17505	1.76539	-0.51472
5191.156	4.93736	-2.24003	2.19058	0.82222
5195.170	4.59704	-2.16454	2.40407	1.62632
5199.160	4.75706	-2.09713	2.56780	0.93452
5203.162	4.77503	-2.16525	2.52666	0.97570
5207.156	4.73512	-2.23059	2.67425	0.67518
5211.194	4.85223	-2.54866	2.79310	1.08722
5215.168	4.87347	-2.50924	2.71117	0.81605
5219.160	4.93100	-2.46353	2.74066	0.96896
5223.157	4.90700	-2.15190	2.92438	1.13877
5227.157	4.95324	-1.96001	2.91626	1.06202
5231.161	4.88582	-1.98781	3.03363	0.95375
5235.162	4.89742	-2.07009	3.06996	1.21707
5239.159	4.96590	-2.03667	3.09965	1.30304
5243.178	4.97689	-1.96397	2.66028	1.25417
5247.154	5.03757	-2.05920	2.85247	1.32048
5251.155	5.08091	-2.15024	3.01232	1.39432
5255.159	5.04967	-2.06200	3.11044	1.39741
5259.158	5.01874	-1.94493	2.93191	1.25944
5263.156	5.01142	-1.82107	2.95834	1.21226
5267.155	4.99820	-1.87427	3.10819	1.17407
5271.155	4.95576	-1.91485	3.14593	1.34747
5275.158	5.02228	-1.93172	2.85143	1.41253
5279.605	4.96088	-1.86125	2.88284	1.39557
5283.162	5.06523	-1.84251	3.00113	1.38915
5287.159	5.20184	-1.86960	3.05093	1.43395
5291.150	4.99376	-1.81007	3.05024	1.07769
5295.165	4.94930	-1.84278	3.14229	1.09208
5299.155	5.01413	-1.84990	3.09112	1.36418
5303.213	4.94287	-1.79448	3.14456	1.25475
5307.174	5.18530	-1.82799	3.08686	1.34656
5311.150	5.19423	-1.83378	3.12994	1.09872
5315.161	5.09685	-1.84291	3.23022	0.84307
5319.161	5.08702	-1.86121	3.17579	1.36013
