time (ms)	lx (deg)	ly (deg)	rx (deg)	ry (deg)
0.000	NaN	NaN	NaN	NaN
4.165	NaN	NaN	NaN	NaN
8.320	NaN	NaN	NaN	NaN
13.496	NaN	NaN	NaN	NaN
17.661	NaN	NaN	NaN	NaN
21.788	NaN	NaN	NaN	NaN
25.905	NaN	NaN	NaN	NaN
30.104	NaN	NaN	NaN	NaN
34.189	NaN	NaN	NaN	NaN
38.363	NaN	NaN	NaN	NaN
42.473	NaN	NaN	NaN	NaN
46.635	NaN	NaN	NaN	NaN
50.833	NaN	NaN	NaN	NaN
54.967	NaN	NaN	NaN	NaN
59.184	NaN	NaN	NaN	NaN
63.363	NaN	NaN	NaN	NaN
67.479	NaN	NaN	NaN	NaN
71.608	NaN	NaN	NaN	NaN
75.745	NaN	NaN	NaN	NaN
80.765	NaN	NaN	NaN	NaN
84.978	NaN	NaN	NaN	NaN
89.071	NaN	NaN	NaN	NaN
93.173	NaN	NaN	NaN	NaN
97.262	NaN	NaN	NaN	NaN
101.349	NaN	NaN	NaN	NaN
105.443	NaN	NaN	NaN	NaN
109.568	NaN	NaN	NaN	NaN
113.686	NaN	NaN	NaN	NaN
117.780	NaN	NaN	NaN	NaN
121.975	NaN	NaN	NaN	NaN
126.202	NaN	NaN	NaN	NaN
130.381	NaN	NaN	NaN	NaN
134.515	NaN	NaN	NaN	NaN
138.689	NaN	NaN	NaN	NaN
142.815	NaN	NaN	NaN	NaN
288.190	NaN	NaN	NaN	NaN
337.912	NaN	NaN	NaN	NaN
388.039	NaN	NaN	NaN	NaN
438.038	NaN	NaN	NaN	NaN
488.032	NaN	NaN	NaN	NaN
538.036	NaN	NaN	NaN	NaN
605.844	1.20584	0.57685	-1.32791	-0.32456
609.952	1.29055	0.68243	-1.29271	-0.20167
613.586	1.44438	0.65966	-1.27681	-0.20846
617.578	1.41328	0.69168	-1.06083	-0.35329
621.572	1.30948	0.75602	-1.10298	-0.31147
625.576	1.25704	0.88678	-1.22097	-0.29909
629.577	1.24307	0.85032	-1.21643	-0.28788
633.571	1.22484	0.85957	-1.23799	-0.31784
637.576	1.24783	0.85201	-1.17145	-0.35171
641.572	1.26408	0.83291	-1.17800	-0.38180
645.574	1.27361	0.79674	-1.12824	-0.38660
649.571	1.19383	0.81403	-1.04903	-0.36733
653.571	1.24002	0.78778	-1.01997	-0.38991
657.571	1.18468	0.90034	-0.94907	-0.41149
661.571	1.23188	0.87554	-0.93487	-0.31556
665.575	1.23253	0.92581	-0.94830	-0.28913
669.575	1.28457	0.86514	-0.96509	-0.27638
673.570	1.37002	0.89990	-0.97276	-0.37002
677.573	1.36752	0.93691	-0.97504	-0.30580
681.573	1.41087	0.92338	-0.98916	-0.06574
685.574	1.35209	0.93135	-1.08691	-0.10276
689.571	1.24143	0.94178	-1.10202	-0.07642
693.568	1.30985	0.93644	-1.14002	-0.09148
697.576	1.28797	0.94121	-1.08150	-0.11041
701.576	1.17460	1.03387	-1.05835	0.11389
705.570	1.01563	1.08556	-1.13285	0.24104
709.569	0.97735	1.09980	-1.19529	0.11145
713.574	0.94897	1.16016	-1.13223	0.10136
717.573	0.97790	1.19331	-1.07073	0.14519
721.571	1.18361	1.00866	-1.15637	0.18581
725.580	0.97703	1.15163	-1.21144	0.19174
729.575	1.13920	1.07988	-1.15506	0.08750
733.569	1.25091	1.08795	-1.05354	0.05754
737.568	1.03434	1.12867	-0.91689	0.02686
741.573	0.91202	1.19914	-0.97522	0.10172
745.601	0.95361	1.20201	-1.05079	0.12967
749.459	0.90381	1.25691	-1.13511	0.06924
753.445	1.02064	1.20342	-1.05729	0.04872
757.449	1.18222	1.12941	-1.02565	0.06047
761.448	1.09725	1.10902	-1.08865	0.08191
765.447	1.02436	1.15522	-1.17766	0.09731
769.443	1.27085	1.08223	-1.05672	0.04892
773.442	1.30476	0.99371	-1.04250	0.03128
777.449	1.11328	1.19517	-0.97663	0.07511
781.447	1.16870	1.14597	-1.05292	0.07285
785.446	1.31652	1.16652	-1.12139	0.03786
789.446	1.34544	1.11943	-1.05855	0.05933
793.449	1.40452	1.17641	-0.94095	0.07121
797.445	1.47375	1.08885	-0.96040	0.05242
801.447	1.41754	1.08545	-1.09440	0.05657
805.448	1.42918	0.99338	-1.01077	0.03613
809.505	1.46358	1.02476	-0.93155	0.11687
813.455	1.47977	1.09883	-0.80928	0.09074
817.446	1.36846	1.07382	-0.85647	0.15728
821.440	1.27294	1.07856	-1.10244	0.19170
825.446	1.02419	1.05570	-1.10026	0.18850
829.445	1.11574	0.99929	-0.91646	0.23586
833.450	0.93048	1.03459	-0.82843	0.21756
837.446	1.10157	1.10070	-0.95336	0.21849
841.444	0.93835	1.05153	-0.97358	0.17106
845.440	0.93728	1.07247	-1.04783	0.24365
849.440	1.01752	1.26429	-1.11534	0.19090
853.446	0.96261	1.04082	-1.15836	0.23768
857.444	0.82739	0.90953	-1.10971	0.19083
861.442	0.89500	1.12389	-1.07346	0.15995
865.442	0.67417	1.27369	-0.93879	0.18664
869.445	0.84905	1.17818	-0.84188	0.08624
873.451	1.00563	1.13511	-1.04850	-0.06497
877.444	1.02709	1.21197	-1.17746	-0.13408
881.470	1.11829	1.30078	-1.18812	0.01784
885.448	1.21802	1.14245	-1.16984	0.03702
889.450	1.33934	1.16646	-1.18076	-0.02420
893.441	1.21613	1.09703	-1.01109	-0.04798
897.442	1.01273	1.17109	-1.03389	0.03339
901.445	1.25017	1.19787	-0.95006	-0.00574
905.443	1.39336	1.19956	-0.92688	0.11732
909.441	1.48632	1.15526	-1.12524	0.03106
913.440	1.41231	1.17668	-1.25332	0.02308
917.451	1.49765	1.28003	-1.13553	0.05384
921.440	1.63241	1.29745	-1.02263	0.03916
925.440	1.53595	1.24100	-1.03297	0.14659
929.444	1.28060	1.27552	-0.85955	0.00137
933.444	1.31969	1.36305	-0.89649	-0.01449
937.441	1.53686	1.30056	-0.98283	-0.45854
941.440	1.50150	1.28745	-1.00474	0.03799
945.445	1.61907	1.31985	-1.02749	-0.14122
949.465	1.38220	1.29998	-1.07503	-0.06594
953.453	1.50291	1.28186	-1.02109	-0.07754
957.447	0.73362	1.30566	-0.88222	-0.07668
961.471	1.02235	1.36489	-0.83786	-0.15417
965.449	1.19075	1.22397	-0.86525	-0.12391
969.445	1.59708	1.33513	-0.87788	-0.15077
973.443	1.52751	1.11435	-1.02945	-0.13374
977.441	1.30010	1.07363	-1.11606	0.01635
981.438	1.25538	0.95471	-1.06158	0.00442
985.443	1.05895	0.86151	-1.01518	-0.04370
989.442	1.07086	0.69085	-0.87776	0.01948
993.441	0.90366	0.91654	-0.89071	0.03165
997.452	1.05394	0.97261	-0.87664	0.05685
1001.446	1.14761	1.28857	-1.06136	0.11640
1005.440	1.29494	1.02006	-1.02992	0.17377
1009.466	1.20229	1.65669	-0.98556	0.21519
1013.463	1.13893	1.21552	-0.91532	0.26779
1017.456	1.24282	1.32401	-0.71449	0.30361
1021.441	1.36062	1.05329	-0.71119	0.26340
1025.444	1.47322	1.29422	-0.74873	0.26676
1029.440	1.49780	1.43231	-0.76833	0.20407
1033.439	1.34256	1.48847	-0.74593	0.15723
1037.442	1.29769	1.43132	-0.81392	-0.01307
1041.448	1.39783	1.51676	-0.68960	-0.00492
1045.441	1.50222	1.54335	-0.57104	-0.02505
1049.437	1.46432	1.47558	-0.36993	-0.06073
1053.443	1.48639	1.37090	0.13240	-0.13853
1057.439	1.44803	1.36050	0.58955	-0.15025
1061.441	1.35722	1.39044	-0.74747	-0.16573
1065.438	1.11303	1.40663	-0.64719	-0.14503
1069.443	1.09671	1.45213	-0.74727	-0.11959
1073.439	1.15359	1.44334	-0.77670	-0.17845
1077.438	1.35698	1.38069	-0.73494	-0.18769
1081.447	1.43721	1.40455	-0.50669	-0.14954
1085.462	1.02121	1.39185	-0.69640	-0.02902
1089.444	0.89287	1.35642	-0.83709	0.03352
1093.442	1.62929	1.37535	-0.56113	0.08893
1097.438	2.32459	1.37599	0.06207	0.05683
1101.439	4.61285	1.45952	3.25389	0.11750
1105.457	7.14182	2.56014	4.44030	0.36956
1109.449	8.09929	2.01382	5.00534	0.62084
1113.440	7.95492	1.89799	7.11836	0.43429
1117.439	9.13964	1.86035	7.16779	0.00557
1121.435	9.54838	1.77006	7.28217	0.04841
1125.447	9.33775	2.04196	7.57181	0.37603
1129.438	8.77977	2.45307	7.12825	0.20744
1133.438	8.22022	2.57833	6.44674	0.49733
1137.442	8.11386	2.49504	6.72450	0.30482
1141.443	8.16357	2.43166	7.06828	0.69189
1145.437	8.90519	2.58815	7.00526	0.44347
1149.436	9.47266	2.54089	7.01597	0.58459
1153.444	9.19730	2.45803	7.11990	0.36584
1157.437	9.31610	2.54154	7.10646	0.47792
1161.442	9.30242	2.62576	6.94631	0.42636
1165.446	9.23372	2.64977	6.88964	0.34187
1169.443	8.94254	2.68905	6.79934	0.48033
1173.437	9.35119	2.67528	6.73630	0.53068
1177.442	9.20090	2.64516	6.83472	0.45357
1181.437	8.87331	2.72456	6.90830	0.49879
1185.438	9.03566	2.67337	6.79011	0.52867
1189.437	9.04524	2.61796	6.66504	0.48465
1193.437	9.24182	2.58365	6.73830	0.58671
1197.438	9.16075	2.54942	6.67525	0.46969
1201.442	9.22683	2.60179	6.73032	0.36733
1205.444	9.04163	2.56883	6.69331	0.22251
1209.446	9.12551	2.52590	6.70776	0.39007
1213.436	9.20586	2.57573	6.69618	0.21377
1217.477	9.17372	2.69893	6.83636	0.26930
1221.462	9.04761	2.48091	6.66577	0.22702
1225.448	9.15306	2.58515	6.69248	0.11827
1229.435	9.16419	2.73067	6.70543	-0.02937
1233.437	9.23512	2.75601	6.78184	0.01054
1237.434	9.23974	2.92083	6.84174	0.07683
1241.441	9.17147	2.85146	6.66736	-0.00207
1245.436	9.08493	2.87112	6.73216	0.04415
1249.440	9.17578	2.89770	6.80854	0.00898
1253.452	9.20796	2.90466	6.73289	0.07196
1257.451	9.17476	2.85621	6.64508	0.13462
1261.443	9.20279	2.92204	6.58756	0.11306
1265.437	9.17648	2.89537	6.62498	0.16565
1269.439	9.23502	2.91011	6.72423	0.29169
1273.436	9.20301	2.95752	6.55633	0.26716
1277.435	9.22552	2.93641	6.51900	0.30796
1281.433	9.23713	2.83136	6.60646	0.30754
1285.439	9.13129	2.84755	6.61021	0.36428
1289.449	9.27095	2.80457	6.61158	0.42495
1293.439	9.18925	2.90182	6.68577	0.46598
1297.435	9.24844	2.91538	6.69023	0.44926
1301.433	9.38073	2.95375	6.62897	0.51260
1305.438	9.38325	2.80863	6.67348	0.60680
1309.436	9.44158	2.77478	6.72102	0.67371
1313.436	9.25627	2.80226	6.73691	0.57117
1317.437	9.27919	2.89394	6.74359	0.57824
1321.440	9.29737	2.88790	6.81627	0.39635
1325.438	9.22214	2.84259	6.78023	0.45244
1329.435	9.23766	2.86385	6.72379	0.61168
1333.443	9.19225	2.97224	6.75311	0.54902
1337.436	9.22003	3.00723	6.72291	0.53866
1341.435	9.42049	2.98844	6.71980	0.52361
1345.432	9.33159	2.95252	6.75605	0.38488
1349.438	9.29645	3.06583	6.77829	0.42293
1353.435	9.24803	3.08024	6.71679	0.33449
1357.455	9.31293	2.99291	6.66837	0.31811
1361.443	9.47292	2.88377	6.70007	0.29566
1365.435	9.18891	2.94589	6.68700	0.36946
1369.434	9.17737	3.05828	6.67365	0.39276
1373.441	9.25625	3.08855	6.73882	0.36646
1377.438	9.21585	2.93674	6.73028	0.29011
1381.435	9.21957	2.91430	6.65823	0.23512
1385.462	9.21648	3.01369	6.58109	0.21239
1389.447	9.30740	3.01599	6.63171	0.18586
1393.435	9.38677	2.93421	6.56970	0.18347
1397.432	9.41047	2.96564	6.65867	0.17107
1401.437	9.16213	2.99096	6.64474	0.14683
1405.434	9.24486	2.97131	6.58602	0.10884
1409.435	9.34072	2.91464	6.55410	0.09030
1413.434	9.45795	2.78675	6.64413	0.05072
1417.439	9.49260	2.72229	6.65106	0.03070
1421.436	9.47155	2.81498	6.54793	0.01745
1425.454	9.46169	2.87428	6.64322	0.01728
1429.439	9.48666	2.77513	6.69796	0.01481
1433.437	9.47379	2.75092	6.80756	0.04138
1437.435	9.45592	2.71243	6.82963	0.06704
1441.470	9.47971	2.68969	6.80061	0.03558
1445.431	9.53072	2.69709	6.83692	0.03390
1449.435	9.61132	2.71765	6.87232	0.08837
1453.433	9.51348	2.70645	6.91131	0.14591
1457.441	9.49697	2.69951	6.87332	0.20109
1461.435	9.36600	2.73290	6.84353	0.17520
1465.430	9.31823	2.72407	6.83098	0.06763
1469.435	9.39040	2.68980	6.88898	0.11948
1473.431	9.45310	2.70112	6.92149	0.19520
1477.432	9.59006	2.73473	6.85304	0.13362
1481.430	9.64663	2.74080	6.86611	0.11761
1485.435	9.44899	2.63766	6.87861	0.20064
1489.433	9.43740	2.56427	6.90527	0.16856
1493.474	9.42489	2.55558	6.86921	0.22174
1497.445	9.54612	2.60686	6.84847	0.22932
1501.431	9.55780	2.66370	6.87345	0.27194
1505.435	9.65889	2.69817	6.86655	0.27979
1509.449	9.70577	2.76618	6.88861	0.29579
1513.438	9.59896	2.67181	6.84964	0.32685
1517.435	9.55823	2.74276	6.79701	0.28484
1521.433	9.52840	2.70410	6.76038	0.26399
1525.431	9.49765	2.72863	6.79425	0.29136
1529.429	9.69841	2.78051	6.85630	0.24301
1533.435	10.08801	2.83577	7.14714	0.30709
1537.432	12.60694	4.40937	8.94215	0.41103
1541.435	13.93990	5.11178	11.06277	0.58830
1545.431	14.80957	5.59740	11.64518	0.93380
1549.434	14.75289	5.91858	11.90526	2.07027
1553.431	14.59535	5.91344	12.09759	0.82884
1557.431	14.20241	5.84244	11.78416	0.89539
1561.456	14.41194	5.51764	11.43507	1.18309
1565.440	14.09448	5.69947	11.60273	1.07362
1569.434	14.26578	5.71904	11.85402	1.34905
1573.430	14.29387	5.75454	11.57198	1.31527
1577.434	14.50307	5.77553	11.65551	1.57030
1581.436	14.95227	5.80005	11.66268	1.68168
1585.430	14.87225	5.85261	11.66322	1.80176
1589.427	14.47522	5.71365	11.60287	2.01126
1593.434	14.43177	5.63157	11.27970	1.89099
1597.429	14.24487	5.58812	11.30343	2.10073
1601.305	14.53944	5.63731	10.98886	2.01551
1605.308	14.44623	5.70898	10.88599	2.06147
1609.308	14.38370	5.73517	10.88506	2.07817
1613.304	14.57741	5.74596	10.90212	2.10183
1617.303	14.55814	5.73103	10.97875	2.10811
1621.311	14.57306	5.76238	10.85401	2.11584
1625.306	14.41734	5.73011	10.81473	2.17052
1629.791	14.35822	5.67513	10.72522	2.08076
1633.317	14.30676	5.71414	10.76209	2.05623
1637.323	14.27870	5.76191	10.82476	2.08112
1641.314	14.27065	5.69996	10.91440	2.06866
1645.304	14.25879	5.70462	10.99487	2.06522
1649.309	14.35754	5.62437	10.99721	2.00308
1653.336	14.47985	5.62364	11.06198	1.98140
1657.306	14.39243	5.69846	11.02641	1.98354
1661.302	14.35412	5.62717	11.13463	2.01536
1665.307	14.35184	5.67865	11.21553	2.05254
1669.309	14.34431	5.43633	11.24490	2.08601
1673.303	14.30340	5.47153	11.28966	2.02346
1677.306	14.29921	5.56400	11.27500	2.03542
1681.302	14.33793	5.57679	11.25972	2.03925
1685.299	14.26366	5.67367	11.14849	2.12944
1689.305	14.39869	5.52392	11.13595	2.30398
1693.302	14.39301	5.64336	11.20849	2.17568
1697.320	14.26173	5.52930	11.22840	1.82759
1701.306	14.20548	5.57799	11.15898	2.01018
1705.303	14.18545	5.65126	11.06184	2.07666
1709.300	14.27191	5.61641	11.00355	2.18591
1713.311	14.34618	5.63562	11.02933	2.34495
1717.304	14.32724	5.64101	11.04035	2.39741
1721.304	14.28266	5.54559	11.09258	1.93448
1725.307	14.17007	5.54590	10.95753	2.02021
1729.307	14.16270	5.52947	10.91076	2.29096
1733.304	14.13601	5.59072	10.93801	2.30400
1737.302	14.26315	5.54764	10.91705	2.44290
1741.301	14.35072	5.55947	10.83137	2.44158
1745.309	14.45414	5.52525	10.99559	2.32630
1749.305	14.36357	5.48369	10.97303	2.17232
1753.307	14.39967	5.50015	10.88688	2.24610
1757.345	14.21575	5.30346	10.80635	2.30509
1761.307	14.02601	5.44609	10.63605	2.31792
1765.325	14.13703	5.53173	10.45730	2.38155
1769.307	14.12705	5.60595	10.73191	2.29515
1773.307	14.23438	5.60529	10.97337	2.20101
1777.303	14.32342	5.61153	10.87654	2.23333
1781.303	14.31109	5.61120	10.89092	2.26456
1785.300	14.26345	5.70567	10.80687	2.32560
1789.305	14.14158	5.70551	10.72786	2.32994
1793.313	14.05023	5.71575	10.60819	2.42517
1797.304	14.08811	5.73032	10.82572	2.44818
1801.305	14.16242	5.79553	10.86177	2.42665
1805.307	14.16525	5.80445	10.94270	2.61107
1809.307	14.12172	5.79723	11.07494	2.64475
1813.302	14.09114	5.71559	10.80328	2.62452
1817.307	14.09565	5.73270	10.76650	2.65402
1821.299	14.06256	5.55065	10.44201	2.66364
1825.300	14.04993	5.54651	10.27040	2.64013
1829.305	13.97561	5.57689	10.70610	2.55185
1833.308	13.95205	5.55307	10.75576	2.66817
1837.308	14.00436	5.58260	10.94681	2.55574
1841.301	14.05542	5.61954	11.05290	2.61820
1845.310	13.99900	5.47423	10.93404	2.65103
1849.303	13.95053	5.42497	10.22139	2.69674
1853.300	13.96344	5.35003	10.21964	2.59700
1857.299	14.01372	5.35799	10.04302	2.58932
1861.305	14.03192	5.27418	10.26838	2.53474
1865.304	13.98477	5.28568	10.36154	2.53189
1869.357	13.96185	5.43867	10.41141	2.63332
1873.304	14.07039	5.74522	10.82682	2.79144
1877.308	14.61346	6.63204	10.64758	4.66328
1881.303	14.88227	6.67790	10.66730	4.60716
1885.302	14.27236	6.93187	10.69666	4.63849
1889.304	14.15766	6.93445	11.16215	4.07714
1893.299	14.26814	6.79451	11.34254	3.84633
1897.298	14.32460	6.74429	11.50789	3.83585
1901.327	14.25921	6.69974	11.31686	3.70375
1905.310	14.30251	6.62502	11.31822	3.94241
1909.300	14.38074	6.19852	11.52121	4.02491
1913.298	14.35505	6.39670	11.36525	4.06247
1917.298	14.38167	6.58574	11.41330	4.17543
1921.305	14.32763	6.53243	11.29643	4.35731
1925.297	14.26578	6.54564	10.92722	4.17335
1929.297	14.24862	6.58757	10.69335	4.14679
1933.303	14.28469	6.59809	10.91559	4.25535
1937.301	14.24147	6.67653	10.88099	4.12111
1941.298	14.15689	6.71598	10.89784	4.25393
1945.298	14.25902	6.72612	10.92485	4.25286
1949.327	14.24660	6.80643	11.00584	4.17281
1953.308	14.26548	6.85843	10.85411	4.13461
1957.301	14.24890	6.85316	11.00006	3.81353
1961.306	14.28515	6.86757	10.91368	3.72369
1965.301	14.31652	6.91524	11.03164	3.75761
1969.303	14.36674	6.97114	11.17689	4.00729
1973.304	14.40388	6.98111	11.19898	4.05955
1977.299	14.45425	6.97950	11.35902	4.06886
1981.299	14.60700	6.94767	11.48568	4.01752
1985.296	14.51574	6.93319	11.50224	4.21658
1989.303	14.41238	6.85865	11.45569	4.11499
1993.297	14.34704	6.79653	11.59985	4.09485
1997.297	14.40093	6.74215	11.54084	4.16273
2001.306	14.45356	6.61918	11.44387	4.13021
2005.303	14.42991	6.59480	11.21589	4.26722
2009.337	14.39306	6.63338	10.89343	4.31514
2013.309	14.39748	6.55129	10.49622	4.27548
2017.296	14.51860	6.57557	10.61927	4.33668
2021.302	14.72130	6.58128	10.77303	4.51340
2025.299	14.62310	6.55345	10.97717	4.53028
2029.300	14.69343	6.49720	10.99728	4.56631
2033.296	14.65946	6.59933	10.86361	4.47152
2037.324	14.88354	6.63588	11.04716	4.46589
2041.303	15.04066	6.64856	10.92646	4.39030
2045.308	14.91717	6.78962	10.94665	4.42611
2049.301	14.79275	6.85856	11.14646	4.26727
2053.300	14.71637	6.88964	11.02490	4.08305
2057.297	14.68784	6.92566	11.08796	4.10360
2061.302	14.52833	6.96553	11.35394	4.28785
2065.299	14.70934	6.98542	11.45720	4.33360
2069.325	14.57687	6.99275	11.54940	4.22999
2073.298	14.53305	6.99399	11.51614	4.22105
2077.297	14.47922	6.97325	11.57527	4.22941
2081.296	14.39431	6.94429	11.65920	4.24987
2085.298	14.28103	6.91625	11.64194	4.31321
2089.300	14.29014	6.82424	11.71201	4.25500
2093.301	14.28967	6.81718	11.51008	4.24879
2097.297	14.27445	6.80165	11.50644	4.12683
2101.301	14.26075	6.74500	11.58413	4.28043
2105.302	14.22736	6.79544	11.41144	4.27071
2109.300	14.20796	6.76556	11.39392	4.32923
2113.295	14.21257	6.77794	11.33039	4.25084
2117.300	14.20705	6.83625	11.38709	4.16179
2121.298	14.18624	6.88845	11.29207	4.17339
2125.298	14.18855	6.93074	11.25130	4.05200
2129.303	14.18053	6.91439	11.18898	4.00715
2133.298	14.41985	6.95150	11.12252	3.99273
2137.295	14.32882	6.88609	11.08433	4.19331
2141.301	14.40470	6.81034	10.88108	4.26698
2145.298	14.31647	6.75994	10.88834	4.20759
2149.297	14.32272	6.88544	10.96899	4.17131
2153.294	14.40598	6.92641	10.87302	3.95275
2157.298	14.38016	6.89999	11.21632	4.12117
2161.297	14.45279	6.94488	11.31763	4.27657
2165.295	14.47669	6.96375	11.38192	4.15667
2169.299	14.28751	6.89406	11.37138	4.22470
2173.325	14.38952	6.87235	11.15210	4.15446
2177.297	14.30813	6.86146	11.35258	4.17809
2181.294	14.19583	6.87252	11.19583	4.03374
2185.299	14.20110	6.88022	11.31071	4.00575
2189.297	14.20381	6.87465	11.24798	4.00180
2193.294	14.16406	6.85556	11.30357	3.97889
2197.302	14.04603	6.80007	11.23425	4.01625
2201.298	14.03185	6.78461	11.14421	3.98831
2205.295	14.10018	6.76872	11.07544	3.97080
2209.305	14.10142	6.72745	11.08555	4.03274
2213.301	14.29398	6.77868	11.23225	4.05023
2217.294	15.07139	6.82320	11.36742	4.08655
2221.293	16.22524	6.90600	11.68484	4.12861
2225.301	16.20421	7.15818	11.70007	4.22031
2229.294	15.71025	7.27195	12.12599	4.49319
2233.298	15.75382	7.20557	12.21492	4.52746
2237.302	15.90933	7.20972	12.26886	4.50719
2241.322	15.84766	7.29650	12.44685	4.46311
2245.304	15.77136	7.35813	12.53980	4.58344
2249.292	15.86936	7.35484	12.61053	4.69661
2253.300	15.92223	7.43912	12.51745	4.69419
2257.325	15.97539	7.46143	12.79413	4.60590
2261.302	15.99154	7.48390	12.92399	4.66816
2265.296	15.93038	7.50159	13.07603	4.56912
2269.294	15.95179	7.47703	13.05084	4.60643
2273.299	15.95220	7.46572	13.04928	4.54700
2277.297	15.96546	7.48766	13.04622	4.40549
2281.315	15.93240	7.52723	13.03385	4.28644
2285.291	15.94724	7.57228	13.05689	4.31610
2289.296	15.94206	7.54514	13.10304	4.20653
2293.296	15.84810	7.58539	13.14534	4.16213
2297.293	15.84429	7.61656	13.17480	4.19402
2301.296	16.01883	7.62210	13.20336	4.39467
2305.294	16.04180	7.63146	13.15103	4.38950
2309.314	16.02167	7.61404	13.14698	4.45242
2313.299	15.99342	7.60053	13.14211	4.43553
2317.290	16.01958	7.60248	13.11865	4.43980
2321.296	15.97262	7.57464	13.07295	4.54250
2325.294	15.87983	7.52077	13.07019	4.62659
2329.296	15.85430	7.46536	13.03058	4.64204
2333.296	16.07535	7.56823	12.99432	4.66049
2337.299	16.11595	7.60259	12.94073	4.66342
2341.293	16.11877	7.52528	12.89720	4.66875
2345.291	16.05496	7.54028	12.90543	4.69588
2349.296	16.01096	7.49433	12.83937	4.75085
2353.294	16.02490	7.52398	12.88341	4.67582
2357.292	15.98262	7.53823	12.91802	4.81563
2361.290	15.91447	7.55117	12.93278	4.81359
2365.296	15.90931	7.63030	12.96802	4.83130
2369.293	15.84224	7.66625	13.03284	4.85642
2373.293	15.98725	7.71761	13.10702	4.91577
2377.325	15.94011	7.72145	13.13724	4.73083
2381.293	16.00434	7.70455	13.12420	4.65873
2385.297	16.03201	7.70089	13.19226	4.79496
2389.288	16.07611	7.70779	13.16426	4.70448
2393.295	16.08688	7.69218	13.24673	4.65905
2397.296	16.06318	7.67789	13.22820	4.70042
2401.292	16.00658	7.69051	13.19901	4.64179
2405.292	15.92673	7.68143	13.08729	4.56143
2409.295	16.04652	7.62901	13.00858	4.60255
2413.292	15.94740	7.58380	13.01374	4.61395
2417.295	15.85917	7.53337	12.93663	4.56169
2421.296	15.82508	7.48897	12.84524	4.60641
2425.294	15.76752	7.51037	12.99416	4.56360
2429.294	15.78212	7.55687	12.98737	4.58668
2433.290	15.94917	7.65859	13.28178	4.66460
2437.288	15.88293	7.74255	13.07427	4.87543
2441.295	16.29916	7.78909	13.29365	4.99024
2445.297	16.35799	7.85265	13.45890	4.85075
2449.302	16.00273	7.84992	13.45437	4.77947
2453.168	16.13361	7.83318	13.46461	4.87052
2457.164	15.99415	7.95028	13.54084	4.98902
2461.170	16.10436	7.97809	13.58303	4.98512
2465.172	16.14403	8.05078	13.72739	4.91348
2469.166	16.10285	8.08760	13.85810	5.02518
2473.164	16.03563	8.07684	13.88093	5.25731
2477.169	15.92347	8.05854	13.99714	5.08143
2481.169	15.91383	8.06368	13.90726	5.09178
2485.165	15.99654	8.04688	13.87646	5.03132
2489.161	15.97473	8.03927	13.83779	5.06452
2493.165	16.19780	8.05210	13.79178	5.06118
2497.166	16.29123	8.05609	13.84179	5.12291
2501.165	16.24365	8.06616	13.80369	5.09368
2505.209	16.18688	8.09259	13.79288	5.02076
2509.179	16.30179	8.06396	13.75835	5.10520
2513.167	16.12374	8.04923	13.72463	5.10485
2517.171	16.01816	8.04017	13.66116	5.10534
2521.162	15.99390	8.01085	13.62842	5.19403
2525.168	15.95631	7.97300	13.62502	5.11325
2529.163	16.13278	7.86617	13.65685	5.04189
2533.164	16.57675	7.78829	13.66327	5.00979
2537.162	16.29646	7.75545	13.65880	4.99975
2541.167	16.28425	7.68121	13.65755	4.97200
2545.164	16.23533	7.72371	13.63515	5.18174
2549.176	16.09778	7.69371	13.58252	5.29311
2553.162	15.96936	7.67658	13.59422	5.51733
2557.167	16.15863	7.68364	13.73266	5.33581
2561.165	16.01890	7.72241	13.72671	5.53075
2565.163	16.03946	7.73198	13.87898	5.64226
2569.161	16.15754	7.70040	13.74865	5.14999
2573.167	16.27716	7.68634	13.71961	5.20967
2577.165	16.19290	7.74323	13.70045	5.49244
2581.187	16.18050	7.78120	13.82976	5.54109
2585.174	16.03659	7.78330	13.65610	5.61155
2589.169	15.96142	7.65825	13.63299	5.56884
2593.163	15.92746	7.72760	13.47613	5.53767
2597.167	16.00844	7.69562	13.40809	5.49095
2601.164	15.98526	7.64852	13.24788	5.37531
2605.165	15.93348	7.58597	13.16550	5.41954
2609.162	15.91668	7.58944	13.15030	5.40366
2613.166	15.81796	7.60739	13.02950	5.45291
2617.165	15.74375	7.61823	12.99095	5.49327
2621.163	15.68488	7.61324	12.92347	5.48805
2625.162	15.67264	7.62589	12.93205	5.47664
2629.167	15.66125	7.60188	12.97375	5.41993
2633.172	15.68327	7.65334	13.07589	5.41282
2637.165	15.75249	7.67417	13.18680	5.39960
2641.167	16.01408	7.68790	13.25049	5.22604
2645.164	15.93355	7.70583	13.26281	5.32821
2649.166	15.98970	7.72312	13.29213	5.30354
2653.166	16.25576	7.73039	13.39400	5.31982
2657.163	16.54476	7.74647	13.38689	5.26622
2661.161	16.53715	7.76663	13.39414	5.35816
2665.167	16.14009	7.76857	13.19033	5.09001
2669.164	14.08979	7.83351	10.74623	5.10360
2673.169	12.96392	7.92424	10.07901	5.66814
2677.162	11.07231	7.95725	8.79249	5.36296
2681.166	11.07613	7.90318	8.90768	5.40478
2685.163	11.67101	7.88322	9.13214	5.44802
2689.164	12.68418	7.83449	9.29889	5.50743
2693.167	12.58552	7.84009	9.71216	5.64135
2697.165	12.57921	7.80115	9.61612	5.68356
2701.169	12.32324	7.76464	9.67321	5.84883
2705.163	12.00364	7.70588	9.50764	5.98607
2709.161	11.88299	7.71803	9.41194	6.01287
2713.168	11.80692	7.67109	9.47210	6.11217
2717.251	11.68562	7.58491	9.23739	6.02643
2721.176	11.85305	7.53551	9.19870	5.96301
2725.171	11.86424	7.51494	8.94181	5.90294
2729.159	11.92108	7.50253	8.84116	5.96509
2733.159	11.99220	7.47824	8.63643	6.06079
2737.164	11.94798	7.45398	8.63022	6.04114
2741.161	11.87791	7.42798	8.48469	6.01514
2745.159	11.85785	7.41314	8.50151	6.02232
2749.161	11.85252	7.41563	8.51710	5.98739
2753.163	11.89219	7.40160	8.47757	5.98010
2757.176	11.91971	7.42276	8.44691	5.97272
2761.168	11.93016	7.43044	8.45487	5.97834
2765.165	11.97035	7.46125	8.49173	5.99700
2769.160	11.95353	7.48485	8.62445	6.03856
2773.159	11.91557	7.53213	8.65322	6.03089
2777.158	11.86279	7.53500	8.65943	6.02423
2781.164	11.82483	7.54541	8.88327	6.02490
2785.166	11.80191	7.57515	8.97063	6.02502
2789.164	11.72505	7.58838	9.14247	5.98829
2793.185	11.70378	7.60203	9.14972	5.90101
2797.178	11.66337	7.58206	9.21836	5.77666
2801.163	11.63025	7.58482	9.31127	5.59389
2805.159	11.58770	7.58549	9.42124	5.52940
2809.158	11.55666	7.56780	9.40528	5.41954
2813.163	11.54101	7.56631	9.47903	5.31943
2817.161	11.54096	7.55057	9.56064	5.31472
2821.167	11.57246	7.56061	9.59090	5.28393
2825.165	11.61837	7.59660	9.58786	5.26357
2829.161	11.65535	7.60964	9.60060	5.22596
2833.159	11.75527	7.63397	9.61667	5.23195
2837.158	11.81025	7.68479	9.65008	5.27004
2841.171	11.72629	7.72870	9.69262	5.25570
2845.162	11.68139	7.74879	9.69007	5.28802
2849.161	11.79294	7.76917	9.66957	5.46263
2853.182	11.87517	7.78494	9.53839	5.50662
2857.165	11.94826	7.76411	9.33608	5.39816
2861.158	11.94733	7.73843	9.41921	5.32334
2865.160	12.03869	7.70303	9.25799	5.44782
2869.161	12.06000	7.64204	9.25966	5.57265
2873.160	12.05874	7.55781	9.33401	5.63003
2877.157	11.99849	7.41156	9.20917	5.71307
2881.172	11.98500	7.41427	9.23147	5.78315
2885.159	12.02831	7.39823	9.18308	5.86117
2889.159	12.04730	7.34460	9.25765	6.01706
2893.161	12.10715	7.31387	9.27598	6.05189
2897.158	12.14591	7.28401	9.40008	6.23404
2901.157	12.16309	7.30413	9.31528	5.89911
2905.162	12.20314	7.29828	9.32258	5.57078
2909.159	12.42460	7.29245	9.25821	5.54048
2913.159	12.24367	7.27732	9.23495	5.45508
2917.157	12.14489	7.32759	9.19679	5.34689
2921.169	12.09818	7.36937	9.26856	5.32862
2925.168	12.03930	7.39332	9.17793	5.07776
2929.159	12.13239	7.38368	9.31337	5.27927
2933.182	11.67156	7.31866	9.11806	5.09017
2937.171	10.51861	6.91665	8.33839	3.75286
2941.159	8.76612	5.71904	7.29177	2.64993
2945.208	7.98712	3.43087	5.99294	1.66536
2949.170	8.43037	2.73213	6.20258	-0.02619
2953.155	8.48114	2.46374	6.58278	0.20037
2957.155	8.64793	2.46168	6.67537	0.41507
2961.159	8.98930	2.77329	6.87509	1.16685
2965.162	8.94905	3.15114	6.71902	1.18220
2969.162	8.98278	3.37013	6.74002	1.17853
2973.154	9.03164	3.39181	6.78338	1.12194
2977.160	8.89409	3.22567	6.80423	0.84964
2981.158	8.88896	3.20066	6.72543	0.55660
2985.158	8.59327	3.10541	6.69260	0.57603
2989.179	8.63719	3.22070	6.79447	0.49383
2993.158	8.63277	3.21486	6.81696	0.81856
2997.161	8.64990	3.26398	6.78018	0.66672
3001.156	8.74561	3.13939	6.72766	0.75469
3005.162	8.73863	3.18847	6.66981	0.67613
3009.186	8.78774	3.21402	6.68418	0.66434
3013.168	8.91740	3.20259	6.64777	0.56397
3017.158	8.85945	3.12454	6.58469	0.55367
3021.160	8.80934	3.07558	6.52779	0.58232
3025.154	8.67730	3.05372	6.49920	0.62924
3029.155	8.79579	3.06103	6.45067	0.67413
3033.161	8.85313	3.07370	6.36589	0.75479
3037.155	9.00358	3.05978	6.31399	0.77158
3041.154	8.94104	3.13633	6.23820	0.89538
3045.159	8.96695	3.20245	6.23763	0.95008
3049.162	8.89201	3.17283	6.27645	0.97556
3053.160	8.94302	3.20733	6.19783	0.98235
3057.175	8.90727	3.17453	6.21573	1.04408
3061.158	8.93326	3.23876	6.21379	1.09335
3065.161	8.90526	3.21248	6.28717	1.12559
3069.156	8.99056	3.22166	6.25230	1.19658
3073.157	8.87251	3.27569	6.21536	1.22185
3077.159	8.84414	3.24611	6.25419	1.17650
3081.158	8.71116	3.21666	6.21056	1.06207
3085.153	8.80839	3.17220	6.23486	0.96174
3089.159	8.80168	3.12586	6.25372	0.82867
3093.158	8.83735	3.13504	6.26507	0.75740
3097.153	8.78959	3.09938	6.25007	0.87780
3101.154	8.85528	3.05410	6.25585	0.92416
3105.157	8.80839	3.03105	6.22517	0.79955
3109.157	8.78488	3.03687	6.21387	0.76264
3113.155	8.84511	3.03733	6.21031	0.83242
3117.153	8.91793	3.03676	6.28403	0.83329
3121.158	8.83447	3.26342	6.35434	0.93557
3125.161	8.89216	3.19843	6.35540	1.06881
3129.162	8.90032	3.27992	6.33025	0.89961
3133.159	8.83643	3.24512	6.25365	0.81815
3137.161	8.77281	3.22764	6.21301	0.97378
3141.154	8.67978	3.12515	6.22689	0.93185
3145.155	8.62821	3.15626	6.17396	0.85384
3149.152	8.61717	3.09874	6.18905	0.89593
3153.160	8.70301	3.17905	6.23942	0.93054
3157.152	8.72714	3.22500	6.29080	0.88622
3161.152	8.69244	3.23196	6.26667	1.01104
3165.157	8.65477	3.27354	6.33804	0.98831
3169.154	8.69605	3.26713	6.26792	0.82171
3173.159	8.70119	3.28011	6.32409	0.91960
3177.153	8.80510	3.40117	6.32694	0.96463
3181.156	8.80095	3.37251	6.32046	0.92062
3185.155	8.79795	3.35939	6.33672	0.91807
3189.151	8.73024	3.43353	6.36140	0.87524
3193.195	8.75565	3.48801	6.40351	0.86736
3197.172	8.71286	3.52531	6.39226	0.86536
3201.152	8.63585	3.51553	6.33638	0.90012
3205.157	8.60283	3.50928	6.32721	0.72175
3209.156	8.52952	3.51313	6.31424	0.71338
3213.156	8.56447	3.52263	6.31853	0.66324
3217.167	8.55100	3.53323	6.30646	0.58905
3221.166	8.47454	3.50191	6.25029	0.53546
3225.159	8.50746	3.48902	6.24428	0.51418
3229.158	8.50637	3.44863	6.21029	0.45621
3233.152	8.53688	3.43883	6.17474	0.48240
3237.152	8.48282	3.37917	6.08976	0.57320
3241.151	8.44528	3.32387	6.07479	0.59044
3245.157	8.44708	3.30438	5.96763	0.51805
3249.153	8.39088	3.31309	5.96934	0.59710
3253.153	8.35070	3.26871	5.93055	0.58425
3257.156	8.30762	3.23015	5.89105	0.59820
3261.158	8.25367	3.15824	5.82982	0.59879
3265.155	8.25299	3.12664	5.86187	0.65271
3269.151	8.24852	3.10503	5.85873	0.72162
3273.151	8.20321	3.08265	5.88078	0.72134
3277.157	8.22127	3.06885	5.86342	0.70706
3281.153	8.32335	3.07061	5.86430	0.67814
3285.150	8.48272	3.09452	5.84485	0.69994
3289.150	8.57876	3.11721	5.84127	0.72164
3293.153	8.68570	3.07249	5.83250	0.76231
3297.157	8.73114	3.06969	5.86364	0.71328
3301.151	8.68409	3.03608	5.88373	0.74670
3305.155	8.77688	3.08464	5.92265	0.77699
3309.028	8.78428	3.12797	5.98611	0.81779
3313.026	8.91798	3.17326	5.96937	0.85671
3317.025	8.90168	3.20933	6.06973	0.88669
3321.030	8.90897	3.29756	6.08411	0.97463
3325.025	8.90296	3.34163	6.12867	1.02361
3329.051	8.89223	3.41940	6.24036	1.08310
3333.029	8.81942	3.39182	6.19569	1.07272
3337.025	8.83624	3.42587	6.18627	1.08393
3341.029	8.84084	3.47248	6.15676	1.15324
3345.033	8.84923	3.50924	6.17332	1.19343
3349.059	8.78542	3.51259	6.19120	1.16027
3353.023	8.69850	3.48648	6.17447	1.11571
3357.028	8.66549	3.50145	6.21343	1.05448
3361.028	8.70597	3.53952	6.19775	0.97996
3365.027	8.65004	3.54628	6.16751	0.90851
3369.023	8.50843	3.52770	6.17975	0.84845
3373.028	8.50717	3.52149	6.14901	0.79880
3377.027	8.41765	3.51685	6.17749	0.76877
3381.023	8.42173	3.53366	6.21276	0.60311
3385.034	8.34910	3.55771	6.23783	0.50892
3389.025	8.36637	3.55850	6.27449	0.46759
3393.023	8.34648	3.56892	6.22927	0.41245
3397.031	8.38345	3.59870	6.24958	0.37400
3401.027	8.35347	3.59308	6.20438	0.33745
3405.026	8.31224	3.61031	6.23820	0.40041
3409.023	8.25542	3.57328	6.24955	0.48100
3413.028	8.23444	3.55578	6.22716	0.55347
3417.026	8.33688	3.55539	6.22937	0.68497
3421.025	8.38206	3.57998	6.25659	0.66184
3425.023	8.39766	3.57509	6.26709	0.74772
3429.032	8.47019	3.56793	6.28567	0.87141
3433.025	8.51231	3.57498	6.27045	0.90384
3437.025	8.54188	3.55177	6.30225	0.95747
3441.022	8.52345	3.54812	6.30539	1.06497
3445.028	8.55666	3.54784	6.34822	1.13040
3449.022	8.62717	3.52305	6.34662	1.15501
3453.024	8.62050	3.55571	6.33961	1.17569
3457.027	8.66358	3.52927	6.34846	1.20071
3461.027	8.71070	3.50996	6.35153	1.19643
3465.045	8.79155	3.48978	6.35479	1.23616
3469.039	8.77310	3.48342	6.31407	1.25517
3473.022	8.68322	3.48893	6.25492	1.24783
3477.027	8.55799	3.46584	6.27015	1.30248
3481.025	8.49957	3.46713	6.21470	1.30519
3485.022	8.57525	3.50251	6.24921	1.34068
3489.021	8.50671	3.52940	6.22517	1.31622
3493.024	8.54469	3.57057	6.23893	1.29098
3497.045	8.59034	3.61674	6.21191	1.20262
3501.028	8.45601	3.73487	6.19704	1.13016
3505.027	8.43040	3.72310	6.19395	0.99972
3509.029	8.40953	3.76811	6.16184	0.96256
3513.027	8.36307	3.75153	6.15173	0.98960
3517.034	8.43649	3.70798	6.19233	0.87036
3521.028	8.48891	3.65608	6.19476	0.81303
3525.024	8.56898	3.62747	6.21308	0.77336
3529.022	8.53265	3.61937	6.26301	0.71347
3533.049	8.54986	3.61610	6.25129	0.66429
3537.026	8.50389	3.57494	6.20926	0.62509
3541.029	8.51134	3.57614	6.18017	0.62392
3545.025	8.53884	3.59554	6.19859	0.57390
3549.026	8.55178	3.61018	6.22446	0.57150
3553.028	8.57044	3.61654	6.27228	0.49158
3557.028	8.56236	3.59953	6.35148	0.50244
3561.025	8.58815	3.62959	6.41060	0.47591
3565.024	8.61378	3.68988	6.40783	0.46051
3569.021	8.60038	3.71053	6.48641	0.54581
3573.024	8.59272	3.71291	6.42133	0.54361
3577.023	8.58956	3.69371	6.47176	0.61414
3581.020	8.58779	3.73483	6.50036	0.64096
3585.025	8.51547	3.73984	6.52752	0.65667
3589.025	8.48403	3.72441	6.49830	0.70453
3593.046	8.33399	3.70485	6.41996	0.71409
3597.028	8.25071	3.70977	6.29286	0.75798
3601.029	8.37946	3.69741	6.25659	0.71738
3605.026	8.31846	3.66520	6.15406	0.75598
3609.053	8.36115	3.64313	6.16368	0.77835
3613.028	8.61511	3.61964	6.28104	0.76123
3617.028	8.68555	3.61253	6.28317	0.82865
3621.023	8.45912	3.63624	6.18208	0.86541
3625.020	8.53719	3.60826	6.07776	0.76293
3629.019	7.44769	3.16888	6.00703	0.59214
3633.025	6.30806	2.25208	5.37593	-1.60354
3637.027	5.02630	0.63146	3.60672	-2.01880
3641.021	4.76248	0.38098	3.22468	-2.13927
3645.025	4.66679	-0.13446	3.07671	-2.28933
3649.024	4.94610	-0.12967	3.26094	-2.34200
3653.019	4.97635	0.07870	3.04930	-2.27712
3657.020	5.01962	0.58630	3.21535	-2.20160
3661.024	5.53466	0.24914	3.30567	-2.16675
3665.022	5.31170	0.31098	3.23534	-2.21171
3669.042	5.18343	0.33414	3.17302	-2.25820
3673.024	5.02669	0.26904	3.15770	-2.31152
3677.028	5.03277	0.17248	3.05006	-2.39613
3681.020	5.07254	0.05512	3.00022	-2.43793
3685.021	5.03790	-0.14416	3.03511	-2.44300
3689.019	5.11580	0.12147	2.96475	-2.39101
3693.020	5.26275	0.24460	3.06590	-2.32908
3697.025	5.26049	0.26640	3.03437	-2.35058
3701.025	5.13739	0.17456	3.01034	-2.40664
3705.021	5.01765	0.03983	2.98141	-2.51418
3709.019	4.89848	0.12936	2.92728	-2.60245
3713.020	4.62626	0.09132	2.95010	-2.51834
3717.030	4.88727	0.03147	2.93691	-2.56607
3721.027	5.03770	0.01381	2.98223	-2.60101
3725.020	5.01529	-0.00663	3.04229	-2.56402
3729.024	5.12289	0.02225	3.12959	-2.53974
3733.019	5.19126	0.03009	3.13838	-2.53605
3737.040	5.21722	-0.00789	3.08171	-2.59414
3741.023	5.20440	-0.04009	3.07389	-2.64779
3745.024	5.22574	-0.03474	3.02960	-2.62838
3749.019	5.36749	-0.02036	2.99725	-2.57946
3753.019	5.38853	-0.04196	3.04073	-2.54240
3757.019	5.39185	-0.02543	2.99334	-2.59066
3761.025	5.39704	-0.01640	2.91121	-2.59263
3765.026	5.31721	0.02368	2.81041	-2.56995
3769.019	5.28520	0.01487	2.79934	-2.54508
3773.056	5.24336	0.04365	2.72919	-2.58102
3777.022	5.10364	0.03289	2.67652	-2.59597
3781.021	5.12994	0.00624	2.64552	-2.57897
3785.016	5.07500	0.01238	2.67640	-2.52934
3789.022	5.03861	-0.00002	2.67053	-2.51669
3793.017	5.01305	-0.01792	2.71647	-2.57184
3797.016	4.99957	-0.08847	2.75433	-2.53497
3801.026	4.99699	-0.11476	2.81028	-2.47721
3805.023	5.02583	-0.14085	2.78270	-2.42558
3809.023	5.02644	-0.14062	2.85923	-2.41021
3813.019	5.07939	-0.17284	2.86584	-2.39873
3817.016	5.12014	-0.14397	2.89547	-2.38130
3821.015	5.16876	-0.18338	2.92257	-2.29995
3825.019	5.20669	-0.15454	2.91245	-2.26363
3829.018	5.24353	-0.14877	2.94468	-2.26458
3833.016	5.27612	-0.16145	2.94676	-2.25979
3837.023	5.25918	-0.17326	2.91228	-2.22068
3841.018	5.21722	-0.14853	2.86326	-2.19806
3845.024	5.13816	-0.11563	2.86170	-2.24596
3849.016	5.10856	-0.11652	2.85121	-2.24568
3853.021	5.04814	-0.13993	2.81521	-2.25135
3857.022	4.88673	-0.12040	2.80444	-2.28495
3861.019	4.87503	-0.14227	2.78599	-2.24187
3865.016	4.83565	-0.15176	2.78181	-2.27028
3869.020	4.76579	-0.17171	2.84051	-2.30304
3873.043	4.75637	-0.17765	2.93106	-2.29622
3877.021	4.72918	-0.17868	2.97255	-2.27708
3881.021	4.69600	-0.17289	3.01504	-2.25487
3885.021	4.68208	-0.16938	3.05172	-2.29233
3889.018	4.74257	-0.17587	3.06810	-2.27948
3893.017	4.77749	-0.17245	3.06169	-2.29959
3897.016	4.82828	-0.16545	3.10317	-2.30948
3901.016	4.88816	-0.15427	3.12568	-2.28464
3905.021	4.93164	-0.15741	3.12784	-2.30376
3909.018	5.03644	-0.15825	3.09146	-2.32313
3913.018	5.07385	-0.16373	3.06748	-2.31491
3917.012	5.06582	-0.16002	3.07711	-2.30196
3921.020	5.06395	-0.16500	2.98873	-2.33708
3925.019	5.11174	-0.16731	2.96223	-2.34130
3929.019	5.13584	-0.13422	2.90341	-2.35626
3933.020	5.16743	-0.16336	2.87487	-2.38729
3937.018	5.18279	-0.21592	2.83514	-2.40097
3941.020	5.20137	-0.20047	2.77725	-2.38100
3945.022	5.27717	-0.16972	2.80365	-2.32564
3949.016	5.27904	-0.19325	2.85886	-2.32796
3953.015	5.25758	-0.15703	2.85890	-2.28978
3957.020	5.20049	-0.12403	2.85413	-2.35037
3961.017	5.17304	-0.14077	2.81617	-2.35196
3965.017	5.18146	-0.14569	2.90995	-2.31348
3969.017	5.11760	-0.13709	2.92344	-2.32698
3973.020	5.19175	-0.10817	2.89643	-2.31034
3977.017	5.24469	-0.03685	2.97054	-2.23943
3981.017	5.26871	-0.03494	2.99425	-2.24978
3985.014	5.33704	-0.01282	2.98438	-2.30567
3989.081	5.16470	0.01054	2.85616	-2.34132
3993.019	5.21813	0.00663	2.90081	-2.37029
3997.013	5.13735	-0.01309	2.84343	-2.41354
4001.018	5.06146	-0.02507	2.81439	-2.43929
4005.015	5.16930	-0.07194	2.89416	-2.46266
4009.084	5.14586	-0.00450	2.83549	-2.42974
4013.037	5.21570	0.01987	2.83301	-2.46982
4017.019	5.20952	0.00082	2.81838	-2.47340
4021.016	5.28935	-0.15712	2.75789	-2.47516
4025.014	5.19446	-0.26566	2.77215	-2.46411
4029.017	5.08769	-0.04688	2.77867	-2.46360
4033.014	5.00339	-0.15994	2.83405	-2.49467
4037.015	5.11775	-0.04868	2.89168	-2.27031
4041.017	5.29263	0.52459	3.01309	-0.87354
4045.015	5.29068	1.35622	2.93473	-0.46796
4049.015	5.29558	1.66820	2.94537	-0.46475
4053.016	5.24833	1.39393	2.83732	-0.65536
4057.035	5.39674	1.46732	2.99881	-0.48423
4061.025	5.20364	1.30576	3.03380	-0.36611
4065.015	5.05289	1.55967	3.03675	-0.35065
4069.012	5.08089	1.63890	3.03526	-0.43370
4073.018	5.24658	1.64685	3.01834	-0.53618
4077.033	5.25279	1.71655	3.01705	-0.61479
4081.026	5.31795	1.67914	2.88804	-0.63647
4085.014	5.25266	1.72738	2.88727	-0.66570
4089.013	5.23900	1.67174	2.97190	-0.70366
4093.022	5.28891	1.68647	3.01014	-0.83126
4097.014	5.33903	1.70606	3.12237	-0.57900
4101.013	5.20118	1.72050	3.09421	-0.57934
4105.012	5.12336	1.77491	3.03150	-0.55203
4109.018	5.12622	1.75127	2.99576	-0.57835
4113.013	5.24489	1.76896	2.99195	-0.77240
4117.012	5.25756	1.75862	2.89369	-0.77255
4121.012	5.29361	1.76430	2.82504	-0.78344
4125.019	5.26297	1.76458	2.87225	-0.82851
4129.013	5.47225	1.81807	2.80729	-0.79203
4133.024	5.45882	1.86207	2.88074	-0.75303
4137.024	5.44500	1.85478	3.00472	-0.65573
4141.013	5.36528	1.86511	2.92230	-0.66258
4145.035	5.55890	1.87001	2.91072	-0.48782
4149.015	5.51305	1.81036	2.92220	-0.43424
4153.010	5.56497	1.87666	3.01470	-0.44321
4157.016	5.49559	1.89312	2.97745	-0.36364
4160.889	5.44038	1.92008	3.03321	-0.42918
4164.887	5.44931	1.92729	3.04081	-0.58170
4168.887	5.53960	1.99698	3.09730	-0.56797
4172.891	5.44237	1.94384	3.09275	-0.50240
4176.889	5.39463	1.96038	3.05098	-0.65059
4180.925	5.36713	1.97828	2.94530	-0.74693
4184.891	5.38454	2.04071	2.99099	-0.55408
4188.886	5.41652	2.01709	3.00212	-0.50262
4192.885	5.37325	2.03680	3.05098	-0.32337
4196.890	5.38646	2.00332	3.01368	-0.27301
4200.889	5.38489	2.02107	2.95866	-0.25491
4204.885	5.32451	2.03195	2.98958	-0.63872
4208.892	5.38336	2.05876	2.91886	-0.64772
4212.922	5.34681	2.04536	2.90146	-0.74004
4216.892	5.42938	2.08360	2.91572	-0.58695
4220.881	5.31716	2.10568	2.92334	-0.72424
4224.905	5.41497	2.05383	2.95809	-0.61472
4228.885	5.35035	2.01189	3.03150	-0.65420
4232.884	5.44638	2.03890	3.00279	-0.49857
4236.888	5.51487	2.11618	2.98480	-0.49578
4240.886	5.37945	2.16263	2.97203	-0.43263
4244.884	5.42220	2.12594	2.99784	-0.67871
4248.883	5.39733	2.13885	2.92428	-0.71806
4252.889	5.38260	2.09777	2.99507	-0.68626
4256.887	5.44650	1.95902	3.07486	-0.68968
4260.889	5.37062	1.99638	3.07065	-0.49524
4264.894	5.28606	1.99268	3.02989	-0.53987
4268.888	5.35458	2.00143	2.92369	-0.43577
4272.884	5.33642	1.99635	2.93116	-0.43473
4276.883	5.28303	1.95717	2.90485	-0.49700
4280.890	5.27085	1.93480	2.94421	-0.52421
4284.888	5.28082	1.90377	2.78235	-0.53957
4288.884	5.21365	1.88081	2.91294	-0.42920
4292.884	5.26681	1.88575	2.95403	-0.54631
4296.886	5.27870	1.81348	2.88799	-0.53183
4300.884	5.29723	1.86128	2.86403	-0.51571
4304.893	5.32597	1.84713	2.93673	-0.65245
4308.891	5.33721	1.85407	2.89485	-0.63478
4312.883	5.35551	1.92415	2.93621	-0.56749
4316.882	5.33256	1.83535	2.99485	-0.66608
4320.888	5.40597	1.90165	3.03665	-0.67048
4324.887	5.52787	1.95357	2.96552	-0.62156
4328.883	5.37062	1.93987	3.05858	-0.68130
4332.888	5.33962	1.94778	3.01165	-0.66171
4336.885	5.38039	1.94004	2.95396	-0.62199
4340.884	5.23713	2.03218	2.83581	-0.58640
4344.883	3.01475	2.09802	1.50678	-0.41925
4349.194	0.91579	2.22196	-1.54234	-0.28730
4352.891	-0.09036	2.42214	-2.00048	0.20471
4356.886	-0.25840	2.35398	-2.50231	0.13247
4360.890	0.25274	2.39327	-2.00581	0.54079
4364.885	0.58081	2.41758	-1.65277	0.32049
4368.887	1.40743	2.30582	-0.90004	0.23966
4372.883	1.70122	2.23200	-1.08664	0.48163
4376.889	0.96033	2.36957	-1.33053	0.48245
4380.885	0.85401	2.45464	-1.41080	0.53107
4384.887	0.64476	2.48397	-1.65044	0.63463
4388.893	0.52557	2.49568	-1.63799	0.66965
4392.918	0.85371	2.39194	-1.47347	0.62132
4396.881	0.71456	2.64031	-1.50309	0.52477
4400.886	0.84032	2.49924	-1.52109	0.53418
4404.883	0.78600	2.57022	-1.51358	0.54769
4408.883	0.74824	2.57642	-1.53277	0.52210
4412.880	0.75600	2.51747	-1.61198	0.50728
4416.886	0.81047	2.49965	-1.67690	0.46956
4420.883	0.72307	2.56386	-1.66405	0.50250
4424.883	0.67846	2.53400	-1.70522	0.44526
4428.881	0.74168	2.53171	-1.64828	0.46430
4432.890	0.76265	2.59803	-1.64223	0.42454
4436.885	0.80516	2.66187	-1.71940	0.37502
4440.881	0.72811	2.68037	-1.69267	0.44489
4444.880	0.69322	2.67739	-1.74457	0.42260
4448.884	0.89284	2.58902	-1.71491	0.38801
4452.881	0.79005	2.54182	-1.66971	0.41298
4456.881	0.70451	2.70860	-1.77677	0.50935
4460.887	0.75578	2.55360	-1.83382	0.39087
4464.883	0.77379	2.59790	-1.74459	0.36888
4468.884	0.80523	2.50491	-1.73990	0.52262
4472.886	0.90195	2.61316	-1.83883	0.46006
4476.886	0.84863	2.52716	-1.86134	0.39623
4480.906	0.83116	2.52915	-1.72912	0.41774
4484.892	0.89518	2.51668	-1.81044	0.35628
4488.886	0.87391	2.46650	-1.76031	0.36466
4492.879	0.84059	2.50038	-1.73192	0.61903
4496.881	0.73935	2.54183	-1.75342	0.41105
4500.887	0.69168	2.58101	-1.79802	0.42689
4504.883	0.48239	2.76168	-1.60248	0.77355
4508.883	0.34702	3.55625	-1.67219	1.44190
4512.891	1.01630	3.52363	-4.66571	0.63185
4516.893	-2.57347	6.78733	-4.23759	0.70452
4520.884	2.81345	6.47086	NaN	NaN
4524.880	NaN	NaN	NaN	NaN
4528.884	2.28068	13.48348	NaN	NaN
4532.883	NaN	NaN	NaN	NaN
4536.880	NaN	NaN	NaN	NaN
4540.879	NaN	NaN	NaN	NaN
4544.884	NaN	NaN	NaN	NaN
4548.881	NaN	NaN	NaN	NaN
4552.883	NaN	NaN	NaN	NaN
4556.890	NaN	NaN	NaN	NaN
4560.891	NaN	NaN	NaN	NaN
4564.908	NaN	NaN	NaN	NaN
4568.886	NaN	NaN	NaN	NaN
4572.893	NaN	NaN	NaN	NaN
4576.882	NaN	NaN	NaN	NaN
4580.880	NaN	NaN	NaN	NaN
4584.885	NaN	NaN	-5.89797	1.94692
4588.880	NaN	NaN	1.25795	0.87953
4592.879	NaN	NaN	-0.50813	1.11075
4596.890	-2.65067	2.81527	1.50485	1.09613
4600.880	-0.79756	2.18426	-1.57396	1.33452
4604.880	1.38198	2.21088	-1.90378	1.43670
4608.905	1.32141	2.18819	-3.16122	1.36288
4612.882	2.80276	2.02544	-5.40417	0.99704
4616.881	1.40688	2.17650	-3.50173	1.20504
4620.913	4.16361	2.10707	-3.56121	1.27883
4624.890	1.37451	2.35186	-3.29303	1.00096
4628.878	-0.65330	2.57902	-1.24893	0.89202
4632.880	0.32704	2.76332	-1.19512	0.95520
4636.881	0.03514	2.79711	-1.80172	0.87511
4640.881	0.34712	3.08709	-1.90443	0.96184
4644.881	0.52036	2.45997	-1.66076	0.87952
4648.881	0.46033	2.54593	-1.64878	0.92246
4652.877	0.63325	2.72916	-1.73445	0.78778
4656.877	0.51374	2.69840	-1.68486	0.82905
4660.881	0.38976	2.80736	-1.74251	0.75299
4664.879	0.32474	2.84639	-1.81714	0.68231
4668.877	0.27483	2.81718	-1.76056	0.69132
4672.876	0.39122	2.75805	-1.89126	0.66090
4676.882	0.43743	2.69241	-1.90743	0.56687
4680.884	0.48185	2.72819	-1.95636	0.61198
4684.877	0.49870	2.70004	-1.94134	0.61474
4688.912	0.54858	2.73979	-1.96367	0.56767
4692.889	0.60853	2.78079	-1.94231	0.57250
4696.878	0.58905	2.85697	-1.80504	0.55295
4700.885	0.59808	2.94787	-1.73752	0.53586
4704.879	0.66739	2.97371	-1.83191	0.48964
4708.878	0.71007	3.07017	-1.91804	0.39336
4712.876	0.74605	3.01853	-2.02862	0.41953
4716.881	0.76213	3.04305	-2.50992	0.46482
4720.885	0.70275	3.03590	-2.39584	0.44033
4724.888	0.62173	2.92977	-2.20867	0.39897
4728.875	0.52878	2.83174	-1.95091	0.34346
4732.880	0.61960	2.73653	-2.01992	0.31293
4736.880	0.59024	2.67571	-1.97453	0.30670
4740.877	0.53297	2.59750	-2.10905	0.33739
4744.876	0.56813	2.59672	-2.07541	0.37197
4748.877	0.60317	2.50143	-2.04366	0.37389
4752.875	0.61880	2.47362	-1.88239	0.40263
4756.905	0.56657	2.39444	-1.81828	0.27777
4760.886	0.54682	2.36255	-1.81530	0.17336
4764.880	0.51423	2.30313	-1.76316	0.17436
4768.880	0.58597	2.28742	-1.73108	0.18892
4772.879	0.60523	2.27337	-1.69302	0.04295
4776.875	0.62414	2.27969	-1.66529	-0.01602
4780.876	0.61183	2.27667	-1.67725	0.09175
4784.880	0.61116	2.28158	-1.63702	0.01254
4788.878	0.62831	2.25071	-1.59812	0.06766
4792.877	0.61759	2.26793	-1.58423	0.08063
4796.874	0.62419	2.30155	-1.60251	0.03877
4800.879	0.62451	2.32692	-1.59306	0.12469
4804.883	0.65995	2.39309	-1.54539	0.16474
4808.880	0.59069	2.45200	-1.62468	0.18580
4812.875	-1.12586	2.48876	-3.20362	0.14323
4816.881	-2.77104	2.42665	-4.01549	-0.08631
4820.878	-3.85953	2.19232	-5.90671	-0.32421
4824.908	-5.07097	-0.14517	-6.15328	-2.87807
4828.888	-5.26364	-1.44185	-6.31103	-3.00301
4832.877	-5.52947	-2.66993	-7.32844	-3.63908
4836.874	-5.59639	-2.81797	-7.21789	-4.99005
4840.871	-5.73795	-2.17672	-7.80475	-4.81650
4844.878	-5.74384	-2.29372	-7.97356	-4.44850
4848.881	-5.71075	-1.95387	-8.00452	-4.54281
4852.874	-5.69725	-2.11150	-7.97004	-4.45108
4856.873	-5.65698	-2.06005	-7.92999	-4.32519
4860.878	-5.73414	-2.01945	-7.89914	-4.45060
4864.876	-5.83296	-2.00160	-7.87523	-4.45592
4868.874	-6.02894	-2.04255	-7.92963	-4.48207
4872.873	-6.13454	-2.16366	-7.95166	-4.52249
4876.879	-5.94148	-2.12075	-8.01742	-4.57003
4880.875	-5.99559	-2.10282	-7.99949	-4.54680
4884.875	-5.94119	-2.12482	-7.97758	-4.53626
4888.882	-5.98552	-2.14851	-7.94533	-4.56122
4892.890	-6.04777	-2.19083	-7.88631	-4.58528
4896.881	-6.09800	-2.20134	-7.81023	-4.60668
4900.874	-6.13485	-2.22948	-7.82716	-4.61680
4904.876	-6.12617	-2.27812	-7.81637	-4.60204
4908.872	-6.11064	-2.31398	-7.80411	-4.61935
4912.876	-6.10654	-2.34811	-7.75770	-4.61673
4916.875	-6.08193	-2.34318	-7.71194	-4.59812
4920.874	-6.13412	-2.34130	-7.65749	-4.56489
4924.877	-6.16214	-2.31770	-7.71681	-4.72201
4928.881	-6.16962	-2.26113	-7.69576	-5.07729
4932.878	-6.18882	-2.17654	-7.72693	-4.75584
4936.872	-6.17109	-2.11876	-7.73453	-4.69843
4940.877	-6.19675	-1.98457	-7.76662	-4.64295
4944.874	-6.24332	-1.91133	-7.81495	-4.58391
4948.876	-6.21426	-1.77914	-7.75234	-4.59599
4952.877	-6.26451	-1.79649	-7.79079	-4.56316
4956.875	-6.36663	-1.87918	-7.89481	-4.55960
4961.181	-6.34044	-1.83242	-7.89483	-4.55407
4964.881	-6.39442	-1.85747	-7.94360	-4.93794
4968.872	-6.36015	-2.00336	-7.89690	-4.77337
4972.876	-6.37128	-1.98316	-7.86783	-4.75048
4976.871	-6.35238	-2.05923	-7.80918	-4.75780
4980.878	-6.37815	-2.20125	-8.03781	-4.48422
4984.874	-6.41721	-2.09749	-7.96427	-4.53423
4988.876	-6.38131	-2.12484	-8.00618	-4.37506
4992.876	-6.41513	-2.03071	-8.30940	-4.56086
4996.874	-6.44954	-2.20910	-8.22859	-4.66261
5000.871	-6.41672	-2.08149	-8.09538	-4.65052
5004.871	-6.49761	-2.14205	-7.97344	-4.65700
5008.876	-6.50687	-2.19899	-7.82175	-4.60511
5012.784	-6.42386	-2.29701	-7.95458	-4.40404
5016.765	-6.42910	-2.30921	-8.38129	-4.35778
5020.752	-6.48735	-2.28055	-8.53938	-4.35214
5024.747	-6.51552	-1.92161	-8.31168	-4.34503
5028.748	-6.40425	-1.44963	-8.07149	-4.35457
5032.749	-6.54009	-2.06258	-7.92768	-4.33828
5036.744	-6.46083	-2.24127	-7.79676	-4.33260
5040.747	-6.39082	-2.22558	-8.41531	-4.29844
5044.746	-6.34486	-2.28333	-8.42481	-4.14468
5048.745	-6.39146	-1.97388	-8.26619	-4.06626
5052.750	-6.35084	-1.83784	-8.02363	-3.98146
5056.747	-6.36062	-1.88512	-8.29662	-4.25412
5060.753	-6.37077	-2.04722	-7.95297	-4.27904
5064.748	-6.33780	-2.07110	-7.79690	-4.21493
5068.750	-6.38547	-1.99726	-7.84964	-4.27428
5072.751	-6.30252	-1.77743	-7.87387	-4.39200
5076.745	-6.26409	-1.96095	-8.08158	-4.05181
5080.750	-6.34523	-2.19024	-8.25122	-4.25720
5084.748	-6.29859	-2.22388	-8.30809	-4.18926
5088.746	-6.21171	-2.12659	-8.14730	-4.08916
5092.751	-6.24597	-2.01682	-8.01693	-4.16480
5096.750	-6.31122	-2.17722	-8.05122	-4.50121
5100.758	-6.26525	-2.33665	-7.92349	-4.33591
5104.748	-6.21397	-2.43954	-8.01499	-4.42831
5108.745	-6.22029	-2.34955	-7.96828	-4.50403
5112.744	-6.36829	-2.37088	-8.07669	-4.21557
5116.750	-6.34743	-2.48250	-8.12999	-4.12845
5120.746	-6.32596	-2.55222	-8.11751	-4.36794
5124.745	-6.23570	-2.53757	-7.97437	-4.31717
5128.744	-6.38168	-2.42165	-7.82177	-4.19184
5132.752	-6.49776	-2.34210	-7.97870	-4.46484
5136.746	-6.49210	-2.50632	-8.04171	-4.33705
5140.744	-6.29759	-2.55899	-7.96935	-4.07523
5144.756	-6.31764	-2.50764	-8.15404	-4.41425
5148.754	-6.65412	-2.50548	-8.04039	-4.29511
5152.744	-6.63171	-2.46519	-7.87046	-4.21196
5156.744	-6.54533	-2.47466	-7.97846	-4.32615
5160.749	-6.42334	-2.46646	-7.92782	-4.47962
5164.750	-6.68428	-2.76993	-7.90019	-4.12115
5168.752	-6.68891	-2.65825	-8.29871	-4.35249
5172.744	-6.64515	-2.62450	-8.15455	-4.28304
5176.745	-6.53531	-2.88535	-7.91551	-4.28812
5180.743	-6.53816	-2.77776	-8.31263	-4.52466
5184.755	-6.72917	-2.77093	-7.92427	-4.42609
5188.747	-6.31720	-2.71162	-7.84798	-4.34690
5192.743	-6.47666	-2.60432	-7.79912	-4.37849
5196.751	-4.54160	-2.44585	-7.32722	-4.27652
5200.747	-2.75180	-1.36226	-4.20691	-3.31162
5204.749	-1.38778	-0.21056	-3.13900	-2.04026
5208.747	0.00035	0.41937	-2.55502	-0.95044
5212.746	2.34641	0.93170	-0.66280	-0.37574
5216.807	2.34238	1.14915	-0.91607	-0.61700
5220.754	2.04490	1.08362	-0.65225	-0.87216
5224.745	1.79800	1.26030	-0.75851	-1.12776
5228.756	1.34698	1.38332	-1.31379	-1.03205
5232.748	0.67786	1.26083	-1.09326	-0.82481
5236.743	1.51759	1.14430	-1.27631	-0.56377
5240.748	1.84991	1.32939	-0.78541	-0.50182
5244.745	1.83387	1.14431	-0.77727	-0.47367
5248.745	1.76420	1.35473	-0.69486	-0.67964
5252.742	1.69510	1.47792	-0.66146	-0.71259
5256.747	1.64704	1.44874	-0.59302	-0.60917
5260.746	1.70033	1.35994	-0.64054	-0.75500
5264.742	1.67601	1.40992	-0.63191	-0.67046
5268.751	1.67878	1.45224	-0.67963	-0.57791
5272.744	1.71446	1.33632	-0.56982	-0.59061
5276.742	1.67977	1.45331	-0.58161	-0.62696
5280.741	1.70209	1.42093	-0.52684	-0.64421
5284.745	1.70705	1.28568	-0.63059	-0.65774
5288.744	1.71521	1.38636	-0.59312	-0.70544
5292.743	1.69812	1.50110	-0.57945	-0.66333
5296.741	1.71347	1.43670	-0.54153	-0.64677
5300.969	1.72525	1.30873	-0.68630	-0.68734
5304.744	1.65485	1.29713	-0.59334	-0.65739
5308.751	1.70958	1.32500	-0.72518	-0.43549
5312.745	1.67853	1.29424	-0.54560	-0.61596
5316.741	1.62740	1.35375	-0.68851	-0.64593
5320.741	1.78882	1.36047	-0.69357	-0.54392
5324.749	1.74657	1.41506	-0.56414	-0.51518
5328.745	1.78461	1.34451	-0.55287	-0.45849
5332.742	1.67968	1.28230	-0.61374	-0.52504
5336.746	1.80915	1.31004	-0.42859	-0.53549
5340.742	1.90641	1.32190	-0.66119	-0.37750
5344.741	1.81233	1.31214	-0.42634	-0.41787
5348.740	1.76891	1.30632	-0.61692	-0.49649
5352.751	1.81947	1.28309	-0.52674	-0.51332
5356.744	1.89806	1.32568	-0.51954	-0.49129
5360.742	1.81478	1.28727	-0.55885	-0.48820
5364.741	1.93472	0.98215	-0.36588	-0.58400
5368.745	1.87309	1.20111	-0.55689	-0.55320
5372.744	1.90703	1.05620	-0.46758	-0.50759
5376.743	1.81927	1.30755	-0.51805	-0.53213
5380.741	1.95844	1.31774	-0.45132	-0.51291
5384.743	1.93021	1.13824	-0.41852	-0.56424
5388.739	1.86132	1.30012	-0.41075	-0.53681
5392.749	1.81114	1.21389	-0.45860	-0.57189
5396.742	1.90567	1.24456	-0.43634	-0.58971
5400.740	1.90886	1.07738	-0.40336	-0.62315
5404.740	2.01801	1.20332	-0.36481	-0.65719
5408.744	1.75419	1.31881	-0.37392	-0.57726
5412.742	1.90259	1.40776	-0.47912	-0.59875
5416.739	1.79966	1.47727	-0.39790	-0.64042
5420.739	1.86917	1.25329	-0.37894	-0.62385
5424.745	2.01010	1.27471	-0.32054	-0.63419
5428.743	1.80943	0.34016	-0.53627	-0.55084
5432.740	1.89687	0.83372	-0.42313	-0.79885
5436.748	1.76400	1.04390	-0.41246	-0.80824
5440.743	1.87567	1.14818	-0.45316	-0.71204
5444.773	1.80876	1.15922	-0.42135	-0.66946
5448.742	1.83499	1.10578	-0.43480	-0.64469
5452.739	2.00276	1.05356	-0.58059	-0.69096
5456.739	1.87458	1.16526	-0.43701	-0.59341
5460.743	1.78962	1.30712	-0.50386	-0.75159
5464.765	2.06243	1.08431	-0.41355	-0.77883
5468.749	2.25387	1.37072	-0.33737	-0.87754
5472.739	5.33588	1.25924	2.03531	-0.83512
5476.746	5.49018	1.12768	2.74356	-0.96298
5480.740	6.23315	1.19092	4.73064	-0.99959
5484.741	6.40418	0.97236	4.51309	-1.68979
5488.738	7.30795	0.70049	4.81130	-2.07520
5492.742	6.89955	0.28347	4.85603	-2.87758
5496.737	6.54582	0.62807	4.66016	-2.10413
5500.737	6.51719	0.72124	4.64233	-2.15142
5504.763	7.08202	0.62132	4.61364	-2.35501
5508.749	7.18938	0.38701	4.75669	-2.62837
5512.740	7.05073	0.39775	4.79607	-2.21765
5516.745	7.21205	0.30374	5.01573	-2.17473
5520.751	7.13185	0.32396	4.69684	-2.25029
5524.741	7.27084	0.30198	4.65984	-2.51560
5528.738	7.46116	0.33400	4.87761	-2.45342
5532.736	7.40416	0.43248	4.98036	-2.49272
5536.743	7.28803	0.42202	5.28945	-2.42234
5540.740	7.32265	0.40974	5.15054	-2.40783
5544.738	7.36794	0.28626	5.01770	-2.56453
5548.737	7.41302	0.23638	4.71863	-2.50034
5552.742	7.42944	0.22699	4.65222	-2.48404
5556.739	7.42168	0.18035	4.67929	-2.37655
5560.745	7.30705	0.23336	4.68153	-2.44794
5564.739	7.20045	0.10510	4.81086	-2.44899
5568.741	7.26139	0.09939	5.01571	-2.41184
5573.884	7.23032	0.06225	5.15581	-2.39074
5576.742	7.24964	0.04654	5.28052	-2.46918
5580.742	7.30258	-0.02852	4.98613	-2.55939
5584.738	7.45150	-0.02429	4.37547	-2.57401
5588.736	7.32070	-0.01812	4.36444	-2.53940
5592.740	7.35329	-0.02524	4.65345	-2.47563
5596.740	7.40582	0.00448	4.76818	-2.43765
5600.741	7.43974	0.01626	4.99795	-2.40808
5604.744	7.37787	-0.00604	4.99098	-2.43709
5608.741	7.41375	0.00872	5.16639	-2.28777
5612.736	7.46453	0.09703	5.09295	-2.29453
5616.735	7.49005	0.22947	4.69204	-2.33302
5620.743	7.37868	0.27908	4.74040	-2.42882
5624.740	7.34079	0.37677	4.81572	-2.34859
5628.738	7.32680	0.46272	4.98568	-2.37135
5632.739	7.37714	0.49352	4.95258	-2.25671
5636.740	7.31313	0.41180	4.91876	-2.26625
5640.766	7.25965	0.34620	4.95975	-2.20162
5644.745	7.24393	0.42579	5.01851	-2.16746
5648.771	7.25775	0.59035	4.86717	-2.21092
5652.736	7.16075	0.55295	4.87273	-2.41355
5656.738	7.19979	0.47530	4.76638	-2.26802
5660.735	7.28598	0.38752	4.83390	-2.23150
5664.741	7.38104	0.34094	4.92198	-2.19512
5668.737	7.32761	0.29738	4.95972	-2.14595
5672.734	7.26774	0.32520	4.84775	-2.11100
5676.734	7.34638	0.27755	4.72859	-2.25133
5680.738	7.28417	0.21545	4.80379	-2.35217
5684.741	7.29018	0.18708	4.94566	-2.24623
5688.743	7.34360	0.12724	4.86034	-2.21759
5692.740	7.36772	0.04791	4.92124	-2.17146
5696.740	7.27624	0.05433	4.94184	-2.18155
5700.732	7.27572	0.05780	4.90794	-2.23257
5704.738	7.27016	0.05827	4.89414	-2.22772
5708.769	7.18254	-0.04726	4.99489	-2.21598
5712.745	7.20128	-0.05510	4.92361	-2.24455
5716.734	7.33357	-0.07202	4.91063	-2.22484
5720.735	7.31902	-0.12880	4.97738	-2.28107
5724.750	7.19635	-0.11195	5.04905	-2.30843
5728.741	7.11516	-0.10164	5.06259	-2.31041
5732.734	7.20016	-0.09649	5.08791	-2.24967
5736.733	7.29963	-0.06726	5.10893	-2.23561
5740.739	7.25335	-0.06826	5.03873	-2.23039
5744.758	7.46038	-0.10543	5.09965	-2.29560
5748.745	7.42241	-0.21115	5.29583	-2.50046
5752.734	8.03285	-0.32612	6.16876	-2.45526
5756.742	8.65931	-0.47333	7.16263	-2.52388
5760.739	8.49967	-0.55295	6.38427	-2.97594
5764.735	8.65860	-0.65345	5.52350	-2.87953
5768.742	8.80212	-0.77903	5.41290	-2.76259
5772.738	8.27807	-0.65990	5.53886	-2.69279
5776.737	8.13843	-0.64048	5.81410	-2.64326
5780.735	8.32315	-0.68551	6.42187	-2.62473
5784.739	8.34514	-0.77884	6.57389	-2.83438
5788.736	8.45337	-0.82362	6.23023	-2.99269
5792.735	8.62751	-0.85505	6.29960	-2.79937
5796.738	8.43112	-0.93794	6.26105	-2.79763
5800.735	8.53001	-0.96361	6.28116	-2.77657
5804.736	8.69059	-1.01927	6.40856	-2.78313
5808.737	8.38155	-0.87676	6.33983	-2.74677
5812.738	8.23542	-0.59850	6.42501	-2.91559
5816.734	8.37684	-0.68200	6.44155	-2.76551
5820.735	8.46407	-0.71692	6.42653	-2.97372
5824.740	8.64483	-0.72215	6.45304	-3.14161
5828.735	8.86769	-0.59171	6.39280	-3.04209
5832.731	9.11818	-0.63541	6.38682	-2.96519
5836.733	8.78505	-0.42022	6.33395	-2.92076
5840.737	8.77456	-0.43423	6.37638	-2.89510
5844.910	8.78440	-0.45055	6.32363	-2.95442
5848.735	8.98196	-0.25502	6.30007	-2.91546
5852.741	8.65681	-0.28568	6.29259	-2.95762
5856.735	8.70209	-0.47371	6.35765	-2.95836
5860.736	8.69450	-0.45218	6.31289	-3.27119
5864.733	8.65754	-0.41337	6.37498	-3.21944
5868.801	8.86716	-0.40960	6.36493	-3.10672
5872.615	8.81794	-0.42758	6.50690	-2.88431
5876.607	8.83355	-0.42250	6.45875	-2.87426
5880.606	8.85078	-0.55187	6.47720	-3.07548
5884.738	8.65797	-0.70624	6.11137	-3.12135
5888.609	8.66932	-0.74927	6.37319	-3.21306
5892.613	8.68565	-0.73124	6.09849	-3.21033
5896.615	8.87251	-0.76273	6.27356	-3.17959
5900.605	8.94343	-0.72319	6.39168	-2.89122
5904.606	9.07409	-0.55761	6.76616	-3.02981
5908.611	10.67682	-0.49428	8.51768	-2.90540
5913.060	13.06261	-0.12440	10.92375	-3.02706
5916.617	14.32647	-0.11159	12.34318	-3.03311
5920.611	15.46410	0.58059	13.95652	-3.11406
5924.609	15.93637	0.20609	14.00424	-3.44988
5928.606	17.17096	0.33618	14.63769	-3.39740
5932.605	17.46432	-0.28274	15.30166	-3.46558
5936.611	17.16527	0.30784	14.51381	-4.60227
5940.613	16.48057	0.43631	14.44539	-4.42535
5944.618	15.99757	0.44832	14.42672	-4.33701
5948.613	16.37380	0.46869	14.51630	-4.38728
5952.611	16.14945	0.48903	14.50800	-3.53647
5956.605	16.69063	0.47463	14.62981	-3.74716
5960.605	16.65874	0.42769	14.72315	-3.80465
5964.612	16.77532	0.42082	14.98028	-3.81544
5968.608	16.93639	0.45540	15.05961	-3.86017
5972.608	16.84939	0.37181	15.25256	-4.01088
5976.605	16.89398	0.47890	15.42511	-4.02822
5980.637	16.98516	0.47458	15.21303	-4.09237
5984.613	16.81863	0.51070	15.09624	-3.90930
5988.605	16.78742	0.52156	15.08625	-3.55898
5992.607	16.87191	0.55186	15.02059	-3.54004
5996.608	16.89277	0.54852	15.21550	-3.60719
6000.606	16.90904	0.55194	15.20464	-3.70546
6004.610	16.83500	0.56129	15.20009	-3.77586
6008.641	16.79900	0.56879	15.14754	-3.85896
6012.622	16.78239	0.55238	15.14569	-3.90381
6016.606	16.81039	0.53451	15.08766	-3.88501
6020.607	16.77063	0.37765	15.01925	-3.74174
6024.608	16.80500	0.33084	14.90419	-3.54689
6028.610	16.84989	0.14655	14.86031	-3.39190
6032.607	16.91081	0.24495	14.90410	-3.38056
6036.607	16.75282	0.12119	14.98296	-3.50924
6040.610	16.82608	0.26237	15.02610	-3.41576
6044.604	16.83832	0.28728	15.13586	-3.33684
6048.608	16.74085	0.29683	15.00996	-3.40812
6052.606	16.82001	0.26174	14.90700	-3.66698
6056.610	16.78471	0.39468	14.69901	-3.64067
6060.607	16.82240	0.47977	14.70609	-3.59375
6064.612	16.89889	0.47123	14.70658	-3.77122
6068.660	17.04226	0.52352	14.69072	-3.68832
6072.609	16.92488	0.57973	14.45179	-3.48215
6076.602	17.07236	0.60196	14.41897	-3.47737
6080.603	17.04471	0.55703	14.40826	-3.44478
6084.608	16.89387	0.31651	14.48902	-3.44240
6088.605	16.99413	0.46624	14.47506	-3.39160
6092.604	16.87196	0.28901	14.49130	-3.39145
6096.607	16.93310	0.44964	14.56239	-3.29930
6100.604	16.77063	0.33328	14.68312	-3.29881
6104.613	16.84339	0.37693	14.86673	-3.27223
6108.602	16.74649	0.29906	14.78955	-3.21686
6112.607	16.64683	0.33892	14.81878	-3.20737
6116.626	16.66519	0.35893	14.67102	-3.29286
6120.609	16.59148	0.32433	14.65885	-3.37623
6124.607	16.61361	0.42582	14.62261	-3.49957
6128.604	16.66788	0.45003	14.67634	-3.53423
6132.605	16.72994	0.47767	14.72847	-3.60453
6136.608	16.82683	0.48504	14.69000	-3.67392
6140.605	16.92631	0.48388	14.57083	-3.65153
6144.602	17.03897	0.61237	14.40849	-3.60944
6148.609	17.04126	0.65669	14.27525	-3.57762
6152.609	17.00155	0.64324	14.25527	-3.59451
6156.605	16.95663	0.69126	14.22521	-3.61531
6160.604	17.05610	0.74790	14.23041	-3.55491
6164.601	16.95769	0.82220	14.22400	-3.48175
6168.607	16.96948	0.89507	14.17789	-3.44117
6172.605	16.92594	0.84439	14.24060	-3.42524
6176.602	16.91350	0.82040	14.18335	-3.41358
6180.601	16.80416	0.87607	14.20040	-3.37193
6184.608	16.81922	0.89467	14.27657	-3.38076
6188.610	16.77448	0.92630	14.40765	-3.40634
6192.604	16.75771	0.94948	14.44062	-3.46780
6196.607	16.74453	0.95475	14.56513	-3.52513
6200.604	16.80157	0.96239	14.67618	-3.52925
6204.602	16.80214	0.97145	14.62577	-3.58012
6208.606	16.79941	0.96045	14.64638	-3.52743
6212.605	16.75682	0.98241	14.58099	-3.47692
6216.600	16.73570	1.43342	14.34238	-2.95464
6220.601	16.72328	1.98257	14.08605	-2.20987
6224.605	16.71950	1.77928	13.95439	-2.31547
6228.614	16.77734	1.65602	14.04813	-2.49294
6232.607	16.75794	1.41297	14.24200	-2.56526
6236.601	16.71824	1.57487	14.29559	-2.55665
6240.600	16.74613	1.62074	14.29699	-2.35356
6244.606	16.66189	1.78617	14.08524	-2.46193
6248.605	16.64498	1.80124	14.05925	-2.39635
6252.626	16.72935	2.04523	14.07062	-2.22254
6256.608	16.75775	2.10103	14.06247	-2.19429
6260.604	16.77543	2.11923	14.09882	-2.17334
6264.604	16.77891	2.08189	14.17549	-2.19703
6268.625	16.81560	2.02570	14.19606	-2.22699
6272.608	16.80562	2.12226	14.22340	-2.23783
6276.602	16.82879	2.12519	14.22860	-2.21876
6280.603	16.78080	2.11313	14.19210	-2.16451
6284.599	16.72746	2.05393	14.17621	-2.20542
6288.603	16.72883	2.02725	14.19767	-2.22738
6292.601	16.73431	1.99988	14.19513	-2.27804
6296.598	16.68769	1.90125	14.16487	-2.35428
6300.603	16.72897	1.86002	14.11031	-2.36928
6304.602	16.69978	1.71276	14.07683	-2.33534
6308.602	16.68671	1.65338	14.13678	-2.27497
6312.608	16.75816	1.67359	14.14254	-2.15259
6316.606	16.68345	1.62912	14.14107	-2.11632
6320.605	16.74089	1.72502	14.18920	-2.02199
6324.606	16.76654	1.78158	14.27933	-2.05608
6328.599	16.63059	1.74031	14.16543	-2.03175
6332.604	16.32158	1.91457	13.42294	-2.13997
6336.601	12.92705	1.33144	11.69193	-2.01841
6340.598	10.81734	1.19619	9.08014	-2.10768
6344.599	7.19266	-0.56558	7.33454	-2.29785
6348.603	5.45521	-2.99653	6.45596	-3.12790
6352.601	3.13536	-3.11665	4.24645	-4.27676
6356.603	3.28083	-3.73373	2.26552	-4.74200
6360.602	0.36395	-5.85655	1.26788	-5.70806
6364.604	-0.47887	-6.16607	-0.15863	-6.01388
6368.601	-2.95923	-7.17279	-2.96153	-6.15450
6372.599	-4.93588	-6.38867	-4.24534	-6.02696
6376.599	-6.65184	-6.49984	-5.75762	-5.69377
6380.604	-7.49444	-6.27094	-7.05459	-5.25804
6384.628	-8.69535	-5.04478	-8.94779	-5.38698
6388.611	-9.29343	-5.35795	-9.56306	-5.16821
6392.602	-9.97938	-5.44091	-9.63558	-5.28895
6396.603	-9.92165	-5.40187	-9.68392	-5.31775
6400.602	-9.60290	-5.41956	-9.48545	-5.46295
6404.601	-9.48748	-5.42894	-9.25763	-5.43393
6408.601	-9.60881	-5.29373	-9.31644	-5.30393
6412.598	-9.73834	-5.13871	-9.42945	-5.34420
6416.603	-9.92984	-5.08388	-9.55782	-5.30021
6420.598	-9.78129	-5.10973	-9.55495	-5.33696
6424.600	-9.65983	-5.07470	-9.66390	-5.34409
6428.598	-9.80428	-5.03022	-9.73942	-5.30038
6432.603	-9.76131	-5.03016	-9.76430	-5.33381
6436.599	-9.72132	-5.10622	-9.73660	-5.31781
6440.604	-9.72383	-5.10591	-9.82296	-5.26560
6444.597	-9.78011	-5.01963	-9.91936	-5.17867
6448.601	-9.81127	-4.95872	-9.95993	-5.16143
6452.599	-9.88261	-4.90741	-10.03835	-5.20285
6456.624	-9.79732	-4.91880	-10.00771	-5.16228
6460.606	-9.77700	-4.99824	-10.03436	-5.09017
6464.601	-9.80183	-4.98535	-10.05960	-5.10813
6468.599	-9.85589	-4.86099	-10.04150	-5.19048
6472.604	-9.84669	-4.85444	-10.01438	-5.21765
6476.601	-9.85618	-4.98136	-9.99496	-5.25279
6480.603	-9.83508	-4.90565	-9.97178	-5.37375
6484.654	-9.79460	-4.84219	-10.03282	-5.39664
6488.609	-9.72891	-4.77970	-10.01739	-5.40727
6492.595	-9.68824	-4.78010	-10.02069	-5.50860
6496.598	-9.65917	-4.70093	-10.02487	-5.55757
6500.600	-9.60907	-4.66853	-10.15721	-5.61180
6504.598	-9.63344	-4.52626	-10.09780	-5.63462
6508.613	-9.62401	-4.48789	-10.29884	-5.65157
6512.610	-9.57971	-4.49164	-10.39033	-5.65676
6516.597	-9.57266	-4.39524	-10.41229	-5.66554
6520.602	-9.60533	-4.50613	-10.46575	-5.68949
6524.600	-9.61559	-4.41760	-10.41700	-5.71141
6528.599	-9.59990	-4.44861	-10.46198	-5.73918
6532.597	-9.57225	-4.54694	-10.47804	-5.78806
6536.595	-9.57850	-4.52943	-10.51734	-5.78503
6540.600	-9.61136	-4.62091	-10.46141	-5.79473
6544.597	-9.63276	-4.57340	-10.41750	-5.81828
6548.598	-9.66072	-4.53997	-10.51264	-5.82923
6552.595	-9.66024	-4.59394	-10.47422	-5.85899
6556.601	-9.66060	-4.64504	-10.43743	-5.85373
6560.597	-9.65708	-4.63501	-10.46690	-5.84699
6564.605	-9.56996	-4.69579	-10.39607	-5.88931
6568.599	-9.53571	-4.77575	-10.36576	-5.90170
6572.601	-9.60514	-4.73268	-10.31866	-5.91322
6576.597	-9.66009	-4.76751	-10.31629	-5.85097
6580.594	-9.68901	-4.80831	-10.35243	-5.82273
6584.603	-9.75946	-4.91168	-10.28138	-5.84915
6588.600	-9.74203	-4.78831	-10.24502	-5.84476
6592.669	-9.69819	-4.78113	-10.21214	-5.79109
6596.603	-9.68182	-4.64696	-10.19440	-5.81073
6600.596	-9.56687	-4.31981	-10.20430	-5.84729
6604.599	-9.41004	-4.64126	-10.18236	-5.91880
6608.595	-9.62907	-4.50246	-10.07456	-5.94277
6612.599	-9.54015	-4.41217	-10.06321	-5.94368
6616.597	-9.60195	-4.15243	-10.08770	-5.88955
6620.594	-9.44752	-4.18946	-10.10747	-5.91533
6624.593	-9.54365	-4.22385	-10.06273	-5.85267
6628.600	-9.57966	-4.25978	-10.17666	-5.80565
6632.597	-9.57896	-4.26225	-10.14364	-5.79831
6636.599	-9.44870	-4.14670	-10.20430	-5.69381
6640.601	-9.46343	-4.19019	-10.21906	-5.71752
6644.596	-9.38706	-4.25441	-10.27938	-5.81816
6648.602	-9.19000	-4.27441	-10.32746	-5.75192
6652.594	-9.31941	-4.24095	-10.33819	-5.78147
6656.600	-9.39327	-4.27272	-10.33980	-5.69608
6660.622	-9.37494	-4.35708	-10.37976	-5.71668
6664.604	-9.47609	-4.40605	-10.40068	-5.71650
6668.595	-9.48492	-4.27578	-10.46954	-5.79835
6672.598	-9.43619	-4.29060	-10.41544	-5.93268
6676.594	-9.39895	-4.21106	-10.41998	-5.95054
6680.601	-9.42339	-4.31606	-10.37335	-5.97724
6684.594	-9.51643	-4.30822	-10.39590	-6.02173
6688.598	-9.46493	-4.24115	-10.34489	-5.97935
6692.619	-9.43866	-4.38501	-10.25233	-6.05290
6696.601	-9.43001	-4.38746	-10.25627	-6.01113
6700.597	-9.27958	-4.26940	-10.22784	-6.06944
6704.597	-9.28538	-4.14489	-10.23377	-6.06009
6708.595	-9.20690	-4.07982	-10.23365	-6.04742
6712.595	-8.94564	-3.95846	-10.17834	-5.94696
6716.590	-8.74423	-4.06436	-10.06030	-5.76694
6720.599	-6.28420	-3.90855	-8.61642	-5.81618
6724.470	-5.16903	-3.06828	-7.25467	-5.39348
6728.888	-4.76810	-3.58459	-6.81422	-4.63492
6732.471	-5.50815	-3.48436	-7.09954	-4.65223
6736.474	-6.84752	-3.54403	-7.57522	-5.47004
6740.469	-7.42466	-3.37118	-8.64924	-5.57978
6744.468	-7.25462	-3.29995	-8.31086	-5.50224
6748.473	-6.48509	-3.08413	-7.76867	-5.47557
6752.469	-5.44731	-2.89867	-7.66994	-5.11227
6756.470	-5.44948	-2.57189	-7.35876	-5.33412
6760.510	-5.49414	-2.59510	-7.18247	-5.29149
6764.471	-5.37141	-2.33718	-7.18416	-5.17563
6768.466	-5.51069	-2.31585	-7.28027	-5.20781
6772.466	-5.75084	-2.72222	-7.23022	-5.18758
6776.475	-5.89195	-2.81392	-7.46070	-5.12899
6780.473	-5.66774	-2.37299	-7.42615	-5.10316
6784.470	-5.83797	-1.93368	-7.36013	-5.16890
6788.469	-6.09680	-1.90204	-7.21796	-5.01402
6792.471	-6.09722	-2.15942	-7.34760	-5.05112
6796.491	-6.03378	-2.18951	-7.56215	-5.04038
6800.472	-6.00705	-2.64137	-7.46494	-5.13590
6804.466	-5.99507	-3.05076	-7.40670	-5.10287
6808.470	-6.10563	-3.34795	-7.42119	-5.07417
6812.467	-6.16498	-3.22433	-7.42803	-4.99793
6816.475	-6.23638	-3.09301	-7.46197	-5.12000
6820.475	-5.99387	-2.77442	-7.58478	-5.20273
6824.472	-5.83815	-3.10262	-7.45792	-5.13317
6828.467	-5.88198	-3.05575	-7.44101	-5.11289
6832.466	-6.01274	-2.78973	-7.58637	-5.05168
6836.473	-5.97455	-2.80179	-7.86293	-4.99897
6840.469	-5.89021	-2.76135	-7.64184	-4.98607
6844.466	-5.97197	-2.79440	-7.58066	-4.91776
6848.465	-6.01336	-2.76197	-7.44669	-4.82029
6852.471	-6.10764	-2.88157	-7.49551	-4.86638
6856.467	-6.10522	-2.99719	-7.62260	-4.85143
6860.473	-6.12148	-2.95954	-7.70041	-4.87255
6864.489	-6.12919	-3.17421	-7.70892	-4.86818
6868.471	-6.16106	-3.20717	-7.69785	-4.92908
6872.468	-6.25068	-3.22630	-7.77639	-5.00321
6876.474	-6.28741	-3.32969	-7.74710	-5.05232
6880.467	-6.31456	-3.39999	-7.74637	-5.11975
6884.465	-6.34770	-3.34370	-7.71435	-5.19461
6888.468	-6.39660	-3.41588	-7.64571	-5.20007
6892.466	-6.40383	-3.46005	-7.69293	-5.22240
6896.466	-6.31340	-3.59584	-7.71199	-5.28411
6900.474	-6.35501	-3.51862	-7.63421	-5.28866
6904.468	-6.29349	-3.48833	-7.64815	-5.34114
6908.465	-6.28337	-3.42394	-7.51530	-5.36805
6912.461	-6.41736	-3.42810	-7.52349	-5.34990
6916.504	-6.31946	-3.72230	-7.47090	-5.33528
6920.464	-6.41158	-3.75247	-7.38195	-5.30264
6924.463	-6.38244	-3.61366	-7.29306	-5.29477
6928.467	-6.33895	-3.67558	-7.18946	-5.22897
6932.471	-6.20339	-3.73793	-7.28718	-5.22648
6936.470	-6.14840	-3.65410	-7.22378	-5.31506
6940.465	-6.22829	-3.44562	-7.16930	-5.31633
6944.471	-6.21737	-3.48977	-7.20717	-5.30616
6948.470	-6.43314	-3.55508	-7.16630	-5.31588
6952.467	-6.32799	-3.75276	-7.19791	-5.28229
6956.465	-6.36996	-3.73792	-7.17140	-5.13951
6960.461	-6.40248	-3.70095	-7.24639	-4.85467
6964.468	-6.38729	-3.59835	-7.29926	-4.71882
6968.466	-6.39177	-3.63204	-7.34013	-4.73976
6972.466	-6.38528	-3.60791	-7.28771	-4.78506
6976.463	-6.35758	-3.23536	-7.01387	-4.77746
6980.468	-6.30803	-2.68806	-7.03716	-4.66780
6984.469	-4.29527	-2.58603	-5.75731	-4.74991
6988.464	-2.77092	-1.85661	-5.13289	-4.10768
6992.466	-2.49280	0.57735	-3.05328	-3.45063
6996.463	-2.28814	0.44183	-2.89024	-2.23349
7000.465	-2.20091	0.72264	-2.81224	-2.36814
7004.467	-2.18245	0.70351	-2.68588	-2.34114
7008.499	-2.01246	0.84295	-3.27465	-2.16354
7012.484	-2.02411	0.99372	-1.85237	-2.05783
7016.470	-2.01729	1.21635	-2.59146	-1.88382
7020.466	-2.26891	1.50590	-2.27139	-1.79541
7024.472	-2.16483	1.91357	-2.12342	-0.63150
7028.470	-1.15543	2.31009	-1.33160	-0.35666
7032.463	-0.25356	2.20778	-1.39148	0.65470
7036.459	1.99828	2.37355	-1.12268	0.70040
7040.464	2.04019	2.66402	-0.77402	0.62368
7044.463	1.94203	3.05061	-0.12977	0.76799
7048.463	1.98184	3.85190	0.22073	0.95337
7052.465	1.97862	4.51636	0.32148	1.26897
7056.461	2.04431	4.84954	0.35015	1.45279
7060.463	2.21606	4.73720	0.45128	1.74963
7064.466	2.06932	4.59601	0.29898	1.92042
7068.483	2.06376	4.62724	-0.11550	1.57126
7072.498	2.17254	4.76632	0.01085	1.52548
7076.474	2.23417	4.79973	0.20177	1.37438
7080.464	2.33529	4.78719	0.23812	1.26125
7084.462	2.38254	4.79176	0.19854	1.65873
7088.460	2.45753	4.78652	-0.26056	1.85077
7092.466	2.54965	4.79745	-0.21889	1.82407
7096.461	2.51160	4.74582	-0.03745	1.89532
7100.463	2.61672	4.56909	-0.05554	1.82753
7104.466	2.55321	4.40127	0.03944	1.90242
7108.469	2.53290	4.06899	0.04167	1.82651
7112.485	2.58571	3.86835	0.13992	1.71259
7116.468	2.55433	3.74029	0.13478	1.85014
7120.465	2.52205	4.51456	-0.07783	2.01736
7124.487	2.45322	4.47060	-0.12471	1.96261
7128.460	2.39507	4.39192	-0.25783	1.86716
7132.463	2.36775	4.26467	-0.17839	1.85883
7137.046	2.28925	4.15865	0.07674	1.93315
7140.473	2.19157	3.88085	0.32412	1.92545
7144.466	2.15356	3.80369	0.32895	1.77011
7148.463	2.19412	3.70541	0.44031	1.64017
7152.471	2.25776	3.60520	0.11838	1.51974
7156.460	2.29297	3.89637	-0.29669	1.84270
7160.465	2.38888	3.87683	-0.52902	1.81005
7164.462	2.42795	3.95550	-0.62550	1.65298
7168.460	2.38400	4.02367	-0.05045	1.74874
7172.459	2.17232	4.17940	0.18804	1.81645
7176.466	2.32218	4.13570	0.37042	1.72182
7180.463	2.42602	4.06275	0.32945	1.49121
7184.462	2.44227	3.99365	0.14250	1.37103
7188.459	2.46065	3.87855	-0.25100	1.73968
7192.467	2.58784	3.95282	-0.40953	1.56988
7196.459	2.60426	3.99667	-0.32990	1.59582
7200.466	2.53741	4.05399	0.13538	1.51276
7204.474	2.28435	4.20828	0.12384	1.54646
7208.463	2.25677	4.17978	0.23135	1.43070
7212.461	2.24463	4.10003	0.10329	1.73419
7216.459	2.36581	3.81300	0.21256	1.56723
7220.465	2.49558	3.47979	0.23564	1.42343
7224.463	2.25603	3.88444	0.37256	1.34233
7228.460	2.35952	4.03530	-0.04264	1.59259
7232.471	2.60443	4.04389	0.17012	1.43257
7236.468	2.17995	4.13900	0.21001	1.22099
7240.458	2.27332	4.00555	-0.12262	1.39359
7244.459	2.18979	3.60015	0.06961	1.36143
7248.462	2.42728	3.87808	0.23373	1.10718
7252.461	2.41185	4.23602	0.21432	1.34955
7256.459	2.70686	4.03558	0.10081	1.22011
7260.463	2.83846	3.93975	0.14362	1.23096
7264.460	2.30298	3.96935	-0.28490	1.36752
7268.459	2.57662	3.94080	-0.28024	1.27292
7272.499	2.60235	3.88156	0.16203	1.26193
7276.484	2.28898	4.16519	0.26696	1.43897
7280.462	2.56315	4.05531	0.26014	1.80900
7284.459	2.84172	3.81167	0.45522	1.61886
7288.457	2.56550	3.95590	0.40353	2.04037
7292.466	2.57494	4.05604	0.26110	2.19765
7296.461	2.36705	4.26169	0.34456	1.88405
7300.458	2.18912	4.58675	0.41686	2.27823
7304.465	2.37654	5.04659	0.25103	4.02748
7308.460	2.94525	6.09436	0.11433	5.14298
7312.462	2.23635	8.01037	0.30930	7.26333
7316.464	3.36221	8.40535	0.35814	8.59510
7320.464	3.51827	9.27324	0.37082	8.69894
7324.462	2.22047	9.15708	0.29458	8.85014
7328.459	2.41757	8.84059	0.28935	8.65120
7332.466	2.33326	8.58142	0.47416	7.65367
7336.480	2.21883	8.86074	0.35370	8.04770
7340.465	2.57134	8.85956	0.49289	7.63715
7344.463	3.69296	8.54837	0.50565	8.08603
7348.459	3.44770	8.68766	0.50195	8.30403
7352.459	2.29845	8.88217	0.68114	8.20482
7356.456	2.86584	8.81064	0.95130	8.43809
7360.464	2.49644	8.77008	0.79538	9.08137
7364.460	2.65149	8.67646	0.86706	8.72584
7368.456	2.36148	8.87606	0.81972	8.14029
7372.455	2.80954	8.91031	0.90924	8.25346
7376.462	3.73777	8.82804	0.82588	8.31108
7380.459	2.67031	9.02000	0.87260	8.37904
7384.455	2.65446	8.96435	0.84543	8.38282
7388.459	2.25409	8.92864	0.85838	8.53744
7392.456	2.29418	8.97610	0.90019	8.69833
7396.455	2.36936	8.88467	0.92257	8.65926
7400.465	2.34369	8.90787	1.01089	8.55520
7404.460	3.18254	8.88873	0.80089	8.52279
7408.463	2.85494	8.64124	0.30739	8.51571
7412.461	2.11732	8.99810	0.47195	8.55151
7416.455	2.16374	9.01094	0.73521	8.56534
7420.460	2.38905	8.86232	0.79201	8.31254
7424.459	2.35709	8.91239	0.97549	8.26357
7428.458	1.99401	8.94536	1.03635	8.10522
7432.456	1.91848	9.15623	0.77615	8.34125
7436.460	1.89957	8.98598	0.96286	8.60784
7440.462	1.94870	8.89373	0.84813	8.48565
7444.461	1.91003	8.89216	0.92274	8.51768
7448.461	2.08872	8.70003	0.88560	8.40530
7452.459	1.95934	9.14260	0.96765	8.34008
7456.457	2.03318	9.22639	0.95043	9.05106
7460.455	2.10798	9.02814	0.94730	9.01341
7464.461	2.08463	9.20878	0.96740	8.65757
7468.459	2.07653	9.18223	0.95105	8.63145
7472.457	2.21625	9.09023	0.97611	8.65014
7476.481	2.68923	8.80193	1.12164	8.55920
7480.465	2.82343	8.78200	1.06128	8.58514
7484.463	2.43412	8.80799	1.03156	8.57429
7488.458	2.48901	8.98097	1.02881	8.59363
7492.460	2.35524	9.32444	0.97792	8.60365
7496.460	2.66077	9.17105	1.02059	8.62287
7500.454	3.30265	8.88972	1.05034	8.48832
7504.456	3.56282	8.78941	0.94988	8.47295
7508.477	2.58175	8.68654	0.75166	8.40645
7512.464	3.39458	8.50065	1.13283	7.92794
7516.454	3.40863	6.14869	1.04721	5.02448
7520.460	3.77829	5.71478	2.11105	2.93351
7524.462	3.48019	3.93759	1.36963	2.20528
7528.455	3.64743	4.28904	-0.28950	0.50141
7532.454	3.68196	2.50537	-2.78384	-0.11281
7536.458	3.48323	4.16508	-2.49924	0.31260
7540.458	NaN	NaN	7.19124	1.11056
7544.474	NaN	NaN	8.03039	7.64055
7548.464	NaN	NaN	NaN	NaN
7552.456	NaN	NaN	NaN	NaN
7556.477	-1.65014	13.07879	NaN	NaN
7560.458	NaN	NaN	NaN	NaN
7564.454	NaN	NaN	NaN	NaN
7568.465	NaN	NaN	NaN	NaN
7572.470	NaN	NaN	NaN	NaN
7576.461	NaN	NaN	NaN	NaN
7580.330	NaN	NaN	NaN	NaN
7584.394	NaN	NaN	NaN	NaN
7588.337	NaN	NaN	NaN	NaN
7592.328	NaN	NaN	NaN	NaN
7596.329	NaN	NaN	NaN	NaN
7600.332	NaN	NaN	-1.00062	-3.88544
7604.330	NaN	NaN	4.16566	-4.54754
7608.327	NaN	NaN	-2.72845	-3.94412
7612.353	3.92398	2.58332	-1.45043	-4.13858
7616.356	3.83332	-2.31379	-2.41083	-4.81015
7620.331	1.79534	-2.81249	-2.97153	-4.73414
7624.329	0.29635	-3.96757	-2.77262	-5.17235
7628.328	0.14570	-4.41228	2.88690	-5.09078
7632.327	-0.68350	-4.85508	3.21844	-5.21903
7636.334	-0.04418	-4.28103	2.60797	-5.30775
7640.326	1.77970	-3.53191	2.35226	-5.05471
7644.332	3.25476	-3.24164	2.26356	-5.24775
7648.330	3.19437	-3.67105	2.28920	-5.43480
7652.327	3.58217	-4.38810	2.19011	-5.25601
7656.331	3.57797	-3.77767	2.11916	-5.48753
7660.332	3.53461	-4.35260	2.17616	-5.46698
7664.329	3.26005	-4.59370	2.17891	-5.50282
7668.327	3.11114	-4.51453	2.10763	-5.45755
7672.326	3.12583	-4.74093	2.05350	-5.59519
7676.330	3.28402	-4.58948	2.03563	-5.74248
7680.357	3.44621	-4.61590	2.01424	-5.80470
7684.336	3.50019	-4.32119	1.95668	-5.72063
7688.325	3.58455	-4.64671	1.99228	-5.71372
7692.330	3.65581	-4.72391	1.91300	-5.69129
7696.331	3.73386	-4.65944	1.91018	-5.76917
7700.336	3.67576	-4.48632	1.96243	-5.74303
7704.329	3.63421	-4.70050	1.99032	-5.79663
7708.329	3.57080	-4.68028	1.86575	-5.77202
7712.350	3.76178	-4.84967	1.93603	-5.78968
7716.339	3.74807	-4.61201	1.91652	-5.83390
7720.332	3.80177	-4.78952	1.93812	-5.67931
7724.327	3.77898	-4.63217	1.95981	-5.69389
7728.325	3.75983	-4.72432	2.04180	-5.75008
7732.331	3.76902	-4.69220	2.01132	-5.74166
7736.330	3.69264	-4.79487	2.05601	-5.88629
7740.338	3.69716	-5.03701	1.96806	-5.85223
7744.327	3.61871	-5.06589	1.94389	-5.84892
7748.330	3.64120	-5.01808	1.89548	-5.84690
7752.334	3.69516	-4.95573	1.88353	-5.84239
7756.327	3.77029	-5.01095	1.85080	-5.73529
7760.334	3.92033	-5.03170	1.88422	-5.63421
7764.335	3.97812	-4.94426	2.07903	-5.73372
7768.328	3.83544	-5.02361	1.89002	-5.69279
7772.328	3.94490	-5.01992	1.89248	-5.69746
7776.359	3.60047	-5.13252	1.85251	-5.51415
7780.336	3.49745	-5.05329	1.86444	-5.48867
7784.325	3.65638	-5.03975	1.83769	-5.44189
7788.326	3.78173	-4.96381	1.96040	-5.42568
7792.328	3.74760	-4.91065	1.99015	-5.38177
7796.326	3.82746	-4.95511	2.04924	-5.41451
7800.325	3.96434	-4.81969	2.02438	-5.34139
7804.324	3.67699	-4.80815	1.99687	-5.37026
7808.327	3.79025	-4.84453	1.95324	-5.34698
7812.327	3.69983	-4.88329	1.96719	-5.27399
7816.354	3.49589	-4.90063	1.97532	-5.27820
7820.342	3.69163	-4.90921	1.99394	-5.37246
7824.331	3.65047	-5.07910	2.01551	-5.32002
7828.323	3.68582	-5.33322	2.06245	-5.25240
7832.323	3.66533	-5.04191	2.01330	-5.22836
7836.328	3.82064	-5.11750	2.00358	-5.27518
7840.326	4.04036	-5.07817	2.00130	-5.21672
7844.324	3.82650	-5.04549	1.94640	-5.27957
7848.322	3.54507	-5.17876	1.98564	-5.19344
7852.329	3.46894	-5.18922	1.97894	-5.14871
7856.329	3.51928	-5.20178	1.96201	-5.25664
7860.325	3.85679	-5.29435	1.94089	-5.18538
7864.327	3.79074	-5.18286	1.90438	-5.16197
7868.328	3.99307	-5.17857	1.86211	-5.23700
7872.324	3.43677	-5.23921	1.84218	-5.31364
7876.327	3.30651	-5.20145	1.86023	-5.27818
7880.323	3.60225	-5.18762	1.83253	-5.31860
7884.322	3.76991	-5.21269	1.81057	-5.35510
7888.322	3.53822	-5.22738	1.80583	-5.28642
7892.327	3.77273	-5.18269	1.86471	-5.30875
7896.324	3.53451	-5.22620	1.94283	-5.39231
7900.324	3.57735	-5.20921	1.91117	-5.43492
7904.333	3.75294	-5.18495	1.91682	-5.45014
7908.324	3.64780	-5.19638	1.97396	-5.44653
7912.324	3.68228	-5.18135	2.02354	-5.41179
7916.323	3.67764	-5.13543	1.94342	-5.32574
7920.324	3.84574	-5.17980	1.98732	-5.34338
7924.325	3.60939	-5.17075	1.96942	-5.34733
7928.322	3.48224	-5.15650	1.97649	-5.33591
7932.326	3.58062	-5.13074	2.03142	-5.35033
7936.325	3.58870	-5.12400	2.05883	-5.21346
7940.323	3.75094	-4.95079	1.97396	-5.20294
7944.323	3.64180	-4.24965	1.91199	-4.66129
7948.330	3.46914	-2.47181	1.95763	-3.50555
7952.798	3.57028	0.65033	1.69344	-1.38027
7956.332	3.51755	1.91871	1.27333	0.08886
7960.396	3.61174	3.16310	1.37285	1.90580
7964.372	3.36527	3.85742	0.92167	2.64456
7968.333	3.41701	4.55233	1.12122	3.59453
7972.323	3.47129	5.52468	1.04119	5.61475
7976.326	3.35340	6.24245	0.45021	4.59843
7980.327	3.38808	6.08753	0.22281	5.31646
7984.324	3.35481	5.61636	0.45331	5.00267
7988.329	3.34000	5.06192	0.72278	4.15154
7992.328	3.32832	5.07542	0.66084	4.28334
7996.326	3.19665	5.29012	0.64000	5.06080
8000.357	3.12744	5.45538	0.66895	5.24390
8004.321	3.08181	5.57182	0.63002	5.20752
8008.356	3.02234	5.79592	0.67352	5.12886
8012.329	2.94411	6.10872	0.66809	5.30003
8016.328	2.95238	6.14329	0.58017	5.22620
8020.327	2.94876	6.01719	0.53292	5.33504
8024.324	2.94567	5.98029	0.63114	5.23840
8028.326	2.94500	5.96362	0.64776	5.35217
8032.326	2.89562	6.07895	0.63694	5.46847
8036.326	2.92668	6.05704	0.65104	5.40369
8040.319	2.95990	6.06955	0.67057	5.44246
8044.322	3.00195	6.11370	0.70427	5.36650
8048.324	2.99388	6.08669	0.79871	5.39374
8052.323	2.99168	6.02353	0.87175	5.42457
8056.319	3.02955	5.93469	0.59513	5.26802
8060.321	3.06615	5.87852	0.59382	5.02275
8064.321	3.08010	5.87842	0.61987	4.88965
8068.320	3.10398	5.87536	0.63595	4.69340
8072.328	3.14016	5.85257	0.65037	4.86804
8076.327	3.25476	5.79150	0.69248	5.05121
8080.322	3.23761	5.79282	0.71432	4.95487
8084.318	3.25980	5.74913	0.67427	4.91858
8088.349	3.29441	5.74024	0.50341	4.85659
8092.325	3.40732	5.74734	0.43038	5.02638
8096.326	3.40885	5.77810	0.42619	4.69726
8100.318	3.44463	5.68702	0.42996	4.72527
8104.320	3.43200	5.73364	0.48135	4.70821
8108.319	3.39557	5.68311	0.60292	4.69625
8112.327	3.24939	5.58483	0.59111	4.77893
8116.321	3.21933	5.52299	0.65119	5.03794
8120.319	3.15696	5.46004	0.69967	4.98125
8124.317	3.19605	5.38565	0.55778	4.91489
8128.324	3.18677	5.29302	0.43326	4.95477
8132.322	3.16928	5.34961	0.09843	4.98053
8136.323	2.87081	5.43567	0.04261	4.90049
8140.328	2.95299	5.33716	0.13794	4.92687
8144.322	3.03489	5.31221	0.36804	5.07349
8148.320	3.05469	5.41441	0.58568	5.06938
8152.318	3.14298	5.46727	0.61248	5.11152
8156.327	3.03692	5.42994	0.66657	5.15349
8160.325	3.03952	5.47176	0.62158	5.13315
8164.321	2.92473	5.38189	0.33824	4.79497
8168.318	2.99480	5.43212	0.46351	4.93524
8172.317	2.93540	5.45845	0.50470	4.88612
8176.323	2.94782	5.52198	0.57855	4.60723
8180.319	3.08946	5.48697	0.84890	5.04370
8184.321	3.23816	5.48675	0.50513	4.85603
8188.318	3.27475	5.52151	0.55989	4.64134
8192.323	3.40981	5.54009	0.56888	4.55406
8196.327	3.47388	5.49072	0.62851	4.65254
8200.323	3.53013	5.51974	0.59061	4.95373
8204.320	3.48538	5.55450	0.43435	4.54119
8208.318	3.47925	5.54107	0.41216	4.58315
8212.316	3.27227	5.57203	0.38420	4.87059
8216.321	2.97084	5.62971	0.36985	5.10268
8220.319	3.10450	5.70339	0.43631	5.28264
8224.319	3.05598	5.80704	-0.00645	5.04716
8228.319	3.02314	6.01067	0.00841	4.87965
8232.321	3.04091	6.12180	0.30856	4.71014
8236.324	3.01019	5.86328	0.48267	4.75007
8240.321	3.03054	5.65049	0.50696	4.89966
8244.316	3.10703	5.53514	0.62302	5.00199
8248.320	2.99688	5.60372	0.65786	5.03985
8252.321	3.11319	5.61747	0.49431	5.18376
8256.321	3.35093	5.60717	0.38770	5.12145
8260.323	3.53004	5.64675	0.33697	4.70854
8264.317	3.18982	5.49072	0.38946	4.67786
8268.317	3.39903	5.46837	0.46616	4.64180
8272.322	3.38864	5.57582	0.57262	4.62543
8276.345	3.46976	5.55682	0.68699	4.69136
