time (ms)	lx (deg)	ly (deg)	rx (deg)	ry (deg)
0.000	14.38307	1.46308	12.57351	-1.55650
3.994	14.45018	1.50155	12.37086	-1.50371
7.997	14.45660	1.54828	12.42046	-1.58626
12.027	14.17192	1.56762	12.08378	-1.44920
16.002	10.21428	1.49696	8.42326	-1.15127
19.995	8.57221	1.34234	7.38031	-1.28166
23.997	6.08806	1.21301	6.30176	-0.98117
27.993	3.44194	0.98716	2.80273	-1.13236
31.998	3.03927	0.89073	2.62883	-1.37399
35.998	1.35375	0.82490	0.59719	-1.36125
39.999	1.41447	1.02945	0.39383	-1.22343
43.998	1.28202	0.81112	-0.01333	-1.19631
47.875	1.39765	0.73639	-0.01904	-1.12192
51.868	1.92733	0.80374	0.46830	-0.87285
55.868	1.91707	0.75381	0.49709	-0.98725
59.868	1.64427	0.83550	0.61258	-1.06450
63.872	1.48448	0.88960	0.03755	-1.16020
67.869	1.36662	0.83218	-0.23621	-1.16260
71.869	1.29402	0.76106	-0.43589	-1.19638
75.873	1.16379	0.81262	-0.50565	-1.22083
79.875	1.11231	0.80906	-0.38199	-1.20312
83.870	1.15426	0.77181	-0.48242	-1.24197
87.879	1.09964	0.60546	-0.38325	-1.25922
91.869	1.24711	0.55756	-0.46038	-1.25598
95.872	1.08624	0.73216	-0.41234	-1.30599
99.867	1.09902	0.66267	-0.42137	-1.33988
103.874	1.07093	0.71214	-0.44125	-1.33000
107.868	1.06595	0.69212	-0.43507	-1.28440
111.871	1.09835	0.80645	-0.39899	-1.37543
115.865	1.14238	0.93391	-0.39306	-1.41091
119.873	1.27646	1.02047	-0.37107	-1.40277
123.869	1.33202	0.48732	-0.40738	-1.36954
127.878	1.28422	-0.26957	-0.42934	-1.32622
131.866	1.25999	-0.24510	-0.41792	-1.28174
135.870	1.33356	0.04944	-0.41214	-1.20209
139.869	1.33244	0.15474	-0.39263	-1.16154
143.872	1.29970	-0.12570	-0.40834	-1.15336
147.867	1.39453	-0.16763	-0.41544	-1.14892
151.872	1.37979	0.07547	-0.38028	-1.18831
155.871	1.38123	0.76578	-0.40395	-1.69388
159.874	1.38193	0.90184	-0.40363	-1.56554
163.869	1.48419	0.24567	-0.37717	-1.65577
167.876	1.40527	0.07939	-0.34241	-1.92647
171.876	1.49803	0.20543	-0.29180	-1.95053
175.872	1.46757	0.48094	-0.28885	-1.64904
179.878	1.50450	0.43716	-0.28848	-1.65931
183.866	1.46507	0.37862	-0.28332	-1.91223
187.867	1.47575	0.64628	-0.28220	-1.84759
191.868	1.46169	0.98130	-0.31109	-1.82284
195.871	1.49599	1.83475	-0.36335	-1.40292
199.869	1.57111	2.51602	-0.34886	-1.38780
203.894	1.55504	1.57031	-0.35303	-1.39940
207.869	1.52265	1.23559	-0.34454	-1.38711
211.877	1.55675	2.06644	-0.37305	-1.25890
215.870	1.55876	1.00999	-0.43045	-1.07253
219.867	1.58562	1.07272	-0.45289	-1.00432
223.865	1.58688	1.34100	-0.47267	-0.88376
227.870	1.61342	1.46329	-0.50724	-0.89670
231.868	1.67774	1.21566	-0.52845	-0.76279
235.866	1.64831	1.28701	-0.55175	-0.80184
239.871	1.65731	1.26195	-0.60553	-0.77876
243.867	1.61245	1.32894	-0.58664	-0.76164
247.865	1.61783	1.26533	-0.61431	-0.70835
251.874	1.61416	1.33671	-0.59615	-0.69329
255.869	1.60486	1.31512	-0.59454	-0.73379
259.868	1.62589	1.42949	-0.55910	-0.78363
263.871	1.56880	1.51212	-0.50470	-0.82619
267.867	1.55936	1.65100	-0.49125	-0.84468
271.864	1.54306	1.74781	-0.44316	-0.82692
275.863	1.50487	1.84318	-0.41561	-0.85368
279.864	1.47074	0.80547	-0.35596	-0.81766
283.867	1.40554	1.61860	-0.29652	-0.71573
287.869	1.33202	0.67861	-0.26589	-0.65196
291.863	1.30273	1.55318	-0.21636	-0.68195
295.887	1.32203	0.59685	-0.17370	-0.56828
299.881	1.28727	1.41918	-0.18596	-0.47796
303.868	1.23000	1.50430	-0.16995	-0.27110
307.864	1.26130	1.58834	-0.16886	-0.19472
311.865	1.24868	1.54838	-0.17084	-0.15839
315.865	1.27956	1.15276	-0.18303	-0.16619
319.868	1.29618	1.19275	-0.18613	-0.02644
323.865	1.31317	1.22118	-0.19107	-0.01223
327.864	1.33351	1.24391	-0.22857	0.03379
331.866	1.35400	1.24475	-0.24348	0.08404
335.868	1.46246	1.29661	-0.23860	0.13982
339.874	1.43032	1.31880	-0.26545	0.15635
343.865	1.51772	1.26013	-0.24512	0.17712
347.868	1.56593	1.24627	-0.25024	0.09942
351.867	1.58740	1.21601	-0.22822	-0.00378
355.864	1.60439	1.16585	-0.20479	-0.06135
359.868	1.62172	1.19608	-0.20189	-0.07967
363.865	1.62706	1.19484	-0.13603	-0.27550
367.867	1.67358	1.23779	-0.10520	-0.29630
371.862	1.72468	1.22015	-0.03494	-0.36003
375.875	1.81106	1.23191	-0.01427	-0.46194
379.871	1.86618	1.19084	-0.00246	-0.52594
383.868	1.84371	1.15590	0.06204	-0.56751
387.886	1.73388	1.14864	-0.00725	-0.70039
391.873	1.62435	1.07417	-0.10448	-0.66856
395.863	1.68754	1.04312	-0.41035	-0.76273
399.864	1.63197	1.03339	-0.57215	-0.81548
403.863	1.52253	0.96046	-0.44477	-0.84131
407.867	1.44269	0.87636	-0.43750	-0.83458
411.864	1.55782	0.86151	-0.37387	-0.86089
415.863	1.37211	0.88547	-0.50230	-0.86892
419.867	1.03749	0.85073	-0.52612	-0.81777
423.876	0.89381	0.85159	-0.46567	-0.81010
427.903	0.70273	0.85851	-0.52505	-0.78813
431.864	0.65598	0.87807	-0.51438	-0.75097
435.868	0.49671	1.02235	-0.53071	-0.73410
439.865	0.41594	1.44771	-0.45535	-0.65306
443.860	0.48480	1.52162	-0.38588	-0.58116
447.868	0.41370	1.68146	-0.39318	-0.66176
451.864	0.41524	1.92290	-0.37256	-0.72701
455.865	0.37390	1.94718	-0.39040	-0.74542
459.866	0.38648	1.91303	-0.37668	-0.77153
463.864	0.47597	1.90305	-0.33965	-0.82278
467.863	0.57066	2.04561	-0.33278	-0.84579
471.862	0.62320	2.13934	-0.27952	-0.89215
475.862	0.76484	2.15046	-0.26123	-0.82766
479.859	0.78409	2.22099	-0.21591	-0.88972
483.863	0.91071	2.35596	-0.21981	-0.88356
487.864	1.00496	2.29391	-0.23120	-0.89417
491.864	1.01543	2.55783	-0.20780	-0.85082
495.861	1.10542	2.39045	-0.14541	-0.83989
499.861	1.12680	2.38440	-0.15806	-0.77914
503.868	1.21271	2.39008	-0.11575	-0.78208
507.862	1.20631	2.35470	-0.09783	-0.77077
511.866	1.21578	2.36801	-0.10907	-0.79167
515.864	1.22519	2.31728	-0.11570	-0.81681
519.858	1.21134	2.24923	-0.10900	-0.89375
523.868	1.19326	2.37249	-0.10582	-0.97099
527.863	1.15220	2.15555	-0.10935	-1.01061
531.864	1.15493	2.04616	-0.08557	-1.03008
535.862	1.12752	2.01514	-0.11285	-1.14922
539.862	1.07498	1.82436	-0.11389	-1.02020
543.869	0.97765	1.75365	-0.11664	-0.95958
547.858	0.88011	1.81404	-0.14372	-0.94239
551.866	0.83327	1.76491	-0.15568	-0.87763
555.859	0.75977	1.75263	-0.17638	-0.82903
559.868	0.58121	1.54847	-0.17740	-0.80342
563.861	0.56228	1.41694	-0.18891	-0.86714
567.861	0.59945	1.48718	-0.22264	-0.78217
571.861	0.62667	1.47272	-0.27041	-0.74272
575.860	0.79965	1.45456	-0.34672	-0.68132
579.865	1.15955	1.35387	-0.32558	-0.63404
583.866	1.28092	1.40089	-0.39345	-0.61851
587.865	1.33998	1.50033	-0.45088	-0.63371
591.863	1.46246	1.50979	-0.39226	-0.59726
595.864	1.40743	1.61406	-0.46999	-0.57025
599.858	1.45180	1.61609	-0.44031	-0.60596
603.867	1.32967	1.94544	-0.47150	-0.64059
607.861	1.35417	2.03276	-0.50470	-0.61770
611.864	1.38324	2.00742	-0.46314	-0.77492
615.858	1.46591	1.84272	-0.44914	-0.77537
619.858	1.42761	1.86451	-0.44013	-0.83214
623.859	1.33728	1.94918	-0.42733	-0.82849
627.869	1.25924	1.96184	-0.47232	-0.85549
631.861	1.20212	1.94700	-0.52835	-0.85665
635.864	1.08929	0.99739	-0.62290	-0.85559
639.862	1.08304	1.34718	-0.74183	-0.82713
643.858	1.20390	0.41819	-0.73819	-0.78485
647.858	1.25096	0.44210	-0.66149	-0.75418
651.861	1.18485	0.24898	-0.63863	-0.65488
655.858	1.24632	0.38832	-0.48847	-0.61097
659.858	1.26125	0.20314	-0.46406	-0.42269
663.857	1.15858	0.28588	-0.57267	-0.46827
667.865	1.13075	0.24854	-0.49510	-0.43926
671.859	1.13003	0.24330	-0.47604	-0.40738
675.863	1.30139	0.30690	-0.42184	-0.41919
679.859	1.23369	0.37712	-0.29094	-0.41566
683.857	1.23360	0.35357	-0.24118	-0.41393
687.859	1.22236	0.31350	-0.21621	-0.43085
691.856	1.18001	0.34739	-0.21130	-0.45694
695.863	1.11457	0.38190	-0.24614	-0.46442
699.858	1.05262	0.57489	-0.24758	-0.53968
703.866	1.05580	0.55246	-0.27604	-0.45152
707.858	1.00077	0.58886	-0.26294	-0.47187
711.865	1.00581	0.59053	-0.24612	-0.44379
715.858	1.07056	0.73549	-0.21730	-0.51913
719.865	1.01727	0.75366	-0.24202	-0.56510
723.859	1.02365	1.07833	-0.26026	-0.47455
727.861	1.02173	0.93504	-0.28706	-0.43865
731.855	1.01151	0.68247	-0.31409	-0.38358
735.861	1.03302	0.76153	-0.32756	-0.48926
739.860	0.96415	0.59682	-0.29865	-0.48886
743.857	0.93773	0.56353	-0.26830	-0.43557
747.862	0.90713	0.48220	-0.31124	-0.57501
751.863	0.92294	1.00834	-0.36084	-0.59635
755.862	0.88302	1.03498	-0.37181	-0.62365
759.886	0.77015	1.03417	-0.42738	-0.63152
763.872	0.71811	0.68083	-0.47711	-0.60128
767.869	0.57597	1.10805	-0.53227	-0.54652
771.859	0.58811	0.77930	-0.58530	-0.51237
775.859	0.43869	1.20529	-0.66908	-0.52866
779.857	0.43385	1.16963	-0.75039	-0.39461
783.857	0.37901	1.20183	-0.77183	-0.37635
787.859	0.30985	1.33287	-0.83158	-0.36248
791.860	0.31751	1.38396	-0.87609	-0.28354
795.868	0.33270	1.21999	-0.82493	-0.27522
799.858	0.28788	1.24654	-0.84622	-0.20260
803.862	0.30756	1.28742	-0.83493	-0.14548
807.855	0.30761	1.31827	-0.52304	-0.11154
811.861	0.31632	1.30113	-0.04271	-0.07564
815.857	0.27143	1.32222	-0.18663	-0.08401
819.859	0.31808	1.27572	0.01027	-0.09271
823.861	0.36985	1.21144	0.04286	-0.09060
827.860	0.53510	1.20560	0.12252	-0.07321
831.878	0.60367	1.17509	0.06917	-0.08598
835.866	0.73213	1.16887	0.14369	-0.08359
839.859	0.83635	1.13961	0.16839	-0.06486
843.853	1.17753	1.18337	0.12803	-0.05700
847.856	1.31481	1.23938	0.18802	-0.03255
851.854	1.46702	1.20878	0.12885	-0.00422
855.858	1.40522	1.24028	0.05246	0.02187
859.860	1.33488	1.20240	-0.02616	0.00651
863.855	1.34242	1.22894	-0.08463	0.05507
867.859	1.32977	1.25494	-0.15000	0.00440
871.856	1.42186	1.19659	-0.23309	-0.05256
875.863	1.33862	1.20771	-0.16859	-0.29938
879.854	1.37803	1.00433	-0.22048	-0.48556
883.854	1.52506	1.17426	-0.29865	-0.30775
887.858	1.52275	1.19924	-0.33809	-0.31990
891.853	1.50656	1.06082	-0.39392	-0.36649
895.858	1.46705	1.05515	-0.49756	-0.41250
899.732	1.38230	1.15812	-0.57602	-0.38121
903.732	1.33163	1.37357	-0.51255	-0.53996
907.732	1.49411	1.34545	-0.54081	-0.45260
911.731	1.48312	1.19055	-0.56831	-0.41470
915.733	1.45026	1.40945	-0.65320	-0.44151
919.728	1.44059	1.40524	-0.60335	-0.43478
923.739	1.46725	1.51788	-0.60210	-0.30416
927.731	1.42794	1.24602	-0.46217	-0.36909
931.732	1.41134	1.26262	-0.44311	-0.39941
935.731	1.36533	1.36638	-0.49173	-0.37090
939.731	1.35717	1.44183	-0.54026	-0.31994
943.728	1.36360	1.40829	-0.43820	-0.39292
947.726	1.39249	1.20058	-0.39998	-0.45782
951.731	1.30464	1.19533	-0.28960	-0.41971
955.732	1.22340	1.16860	-0.20462	-0.46549
959.728	1.09371	1.07371	-0.15650	-0.46494
963.736	1.01906	1.13155	-0.09545	-0.37984
967.735	1.08785	1.18301	-0.00663	-0.32900
971.726	1.10859	1.32768	-0.20063	-0.45642
975.735	1.14836	1.48398	-0.16710	-0.52326
979.724	1.24533	1.45496	-0.22822	-0.55836
983.732	1.32550	1.54143	-0.11533	-0.61864
987.726	1.42890	1.65376	-0.19899	-0.64774
991.734	1.31434	1.74518	-0.14273	-0.59072
995.729	1.35898	1.43198	-0.11180	-0.51628
999.733	1.40961	1.53661	-0.19487	-0.49416
1003.729	1.40755	1.61567	-0.18777	-0.46877
1007.732	1.46214	1.62591	-0.16392	-0.44116
1011.737	1.56137	1.45660	-0.18698	-0.39594
1015.727	1.52888	1.45337	-0.16975	-0.46141
1019.734	1.49626	1.44259	-0.15846	-0.35362
1023.730	1.54420	1.38573	-0.15978	-0.33215
1027.731	1.35162	1.34436	-0.22544	-0.09858
1031.729	1.32475	1.30133	-0.27905	-0.14870
1035.733	1.34981	1.16430	-0.36869	-0.19258
1039.731	1.34810	1.29394	-0.46120	-0.20209
1043.731	1.34157	1.28937	-0.70595	-0.19868
1047.733	1.34480	1.26112	-0.80813	-0.21162
1051.760	1.34827	1.22109	-0.89267	-0.20376
1055.728	1.31910	1.26868	-0.63022	-0.37845
1059.729	1.38721	1.35428	-0.59344	-0.20333
1063.726	1.44495	1.40476	-0.50679	-0.11172
1067.730	1.50291	1.53493	-0.29831	-0.08707
1071.727	1.46926	1.63233	-0.40849	-0.11612
1075.728	1.49631	1.65180	-0.12218	-0.16219
1079.731	1.45041	1.75180	-0.13593	-0.35869
1083.727	1.36749	1.80783	-0.10967	-0.24633
1087.730	1.30290	1.71652	-0.13640	-0.29130
1091.731	1.48245	1.63676	-0.32804	-0.28295
1095.729	1.47657	1.69299	-0.40303	-0.38587
1099.726	1.45199	1.66742	-0.12563	-0.23313
1103.732	1.42712	1.33558	-0.03832	-0.45242
1107.727	1.55911	1.13732	-0.06793	-0.47963
1111.730	1.40192	1.30161	-0.33049	-0.17078
1115.723	1.28675	1.33454	-0.05614	-0.49695
1119.731	1.00400	1.49101	-0.21395	-0.42118
1123.727	1.14784	1.36451	-0.23301	-0.36493
1127.730	1.52283	1.26352	-0.23314	-0.31883
1131.729	1.44760	1.46385	-0.20345	-0.23336
1135.729	1.49364	1.64611	-0.13766	-0.35564
1139.731	1.23178	1.93241	-0.20154	-0.32559
1143.732	1.18043	1.48861	-0.28927	-0.25621
1147.727	1.23590	1.70882	-0.24706	-0.23167
1151.724	1.20137	1.15897	-0.13952	-0.15205
1155.726	1.37545	1.19493	-0.07284	-0.12159
1159.726	1.28370	1.24252	-0.21939	0.12994
1163.728	1.27343	1.18273	-0.24356	-0.20401
1167.744	1.19944	1.23206	-0.15732	-0.28082
1171.730	1.19964	1.20603	-0.14134	-0.40565
1175.734	1.51075	1.20245	-0.25284	0.29195
1179.743	1.29234	1.18799	-0.19328	-0.48114
1183.728	0.97579	1.15608	-0.42956	-0.61329
1187.722	0.76332	1.13307	-0.53694	-0.21367
1191.730	1.01677	0.98825	-1.32999	-0.10243
1195.727	0.38246	0.98513	-1.46769	-0.63317
1199.728	0.15997	0.95916	-0.60292	-0.41870
1203.729	-0.10031	0.91541	-0.68752	-0.35981
1207.728	0.24510	0.93001	-1.12085	-0.27172
1211.728	0.89361	0.92074	-1.62916	-0.35060
1215.729	0.49857	0.84972	-1.98720	-0.26187
1219.734	0.26356	0.72977	-0.99040	-0.38247
1223.727	0.14027	0.56676	-1.08224	-0.53762
1227.729	-0.21872	0.49175	-1.26698	-0.45268
1231.724	0.31992	0.61401	-1.27651	-0.36474
1235.751	0.09542	0.65035	-0.97502	-0.48209
1239.731	-0.13625	0.76618	-1.35030	-0.55796
1243.727	0.19566	1.38263	-1.42618	-0.73042
1247.725	0.19288	1.33875	-1.18631	-0.56237
1251.724	0.24286	1.21801	-1.25250	-0.52818
1255.734	0.08076	1.23173	-1.17845	-0.45682
1259.762	0.10272	1.34829	-1.16808	-0.41454
1263.759	0.07165	1.09216	-1.31503	-0.25180
1267.729	0.09418	1.12699	-1.28556	-0.29677
1271.724	0.06597	1.20058	-1.41578	-0.15551
1275.725	0.04060	1.26757	-1.44458	-0.24531
1279.723	0.00424	1.22165	-1.51035	-0.21715
1283.727	0.05998	1.26996	-1.47429	-0.17523
1287.724	0.03231	1.21385	-1.41732	-0.17908
1291.725	0.03425	1.19818	-1.34155	-0.21471
1295.720	0.04045	1.16944	-1.34901	-0.34404
1299.732	0.12396	1.19795	-1.44131	-0.39860
1303.723	0.17139	1.19497	-1.29060	-0.42985
1307.724	0.25388	1.24672	-1.26515	-0.43825
1311.728	0.23919	1.24541	-1.28281	-0.69592
1315.723	0.27667	1.22849	-1.21502	-0.65378
1319.726	0.33387	1.24671	-1.27448	-0.67726
1323.725	0.35896	1.26827	-1.20906	-0.83161
1327.724	0.13786	1.26640	-1.16751	-0.84297
1331.725	0.14193	1.28133	-1.15141	-0.93346
1335.724	0.08507	1.27095	-1.10445	-0.91711
1339.732	-0.05182	1.18548	-1.10031	-0.92195
1343.722	-0.08202	1.18603	-1.10244	-0.90921
1347.723	-0.29513	1.15951	-1.13395	-0.71975
1351.721	-0.22519	1.17780	-1.24513	-0.45765
1355.725	-0.03082	1.06454	-1.30982	-0.47737
1359.722	-0.20735	1.10828	-1.28807	-0.37381
1363.722	-0.32868	1.12493	-1.32178	-0.69581
1367.721	-0.07339	1.00676	-1.22303	-0.95907
1371.723	-0.29466	1.07985	-1.19884	-1.31351
1375.726	0.24463	0.96253	-1.04119	-0.89457
1379.724	0.72776	0.85334	-0.86260	-0.81587
1383.729	0.85950	0.65455	-0.90282	-0.77503
1387.727	0.48289	0.83246	-0.74647	-0.79600
1391.722	0.52528	0.74707	-0.70372	-0.70761
1395.728	0.87354	0.59331	-0.53203	-0.83106
1399.723	0.96718	0.65453	-0.53034	-0.93016
1403.725	0.72367	0.65211	-0.43331	-1.00288
1407.721	0.91043	0.95134	-0.51059	-1.37118
1411.726	1.08371	1.03117	-0.48341	-1.11237
1415.723	0.94457	0.76414	-0.40286	-1.10816
1419.725	1.12653	0.58434	-0.32565	-1.10615
1423.726	1.05220	0.45418	-0.33238	-1.19788
1427.725	1.03766	0.43312	-0.35950	-1.38052
1431.723	1.06091	0.51231	-0.38943	-1.37592
1435.719	1.06518	0.34171	-0.33625	-1.33185
1440.049	1.06927	0.70620	-0.32183	-1.27269
1443.724	0.90153	0.49142	-0.31905	-1.29234
1447.727	1.00960	0.40062	-0.38050	-1.40029
1451.726	1.06508	0.42099	-0.48656	-1.42247
1455.721	1.06426	0.45137	-0.58751	-1.44936
1459.723	1.10636	0.43937	-0.50542	-1.48984
1463.723	1.08277	0.44372	-0.55687	-1.51743
1467.728	1.09281	0.39781	-0.55711	-1.54259
1471.721	1.03198	0.46839	-0.55520	-1.54241
1475.724	1.05932	0.46973	-0.48130	-1.56925
1479.716	1.09641	0.51665	-0.55587	-1.59580
1483.726	1.10346	0.51059	-0.59218	-1.64234
1487.721	1.14087	0.51518	-0.65243	-1.68465
1491.782	1.13692	0.48940	-0.76895	-1.67120
1495.724	1.14665	0.44773	-0.79282	-1.63078
1499.718	1.13323	0.43248	-0.77583	-1.56844
1503.719	1.11909	0.42349	-0.87394	-1.39512
1507.730	1.12100	0.37477	-0.67268	-1.48487
1511.726	1.12023	0.43134	-0.64464	-1.56372
1515.722	1.12531	0.34707	-0.58163	-1.46687
1519.719	1.10294	0.18561	-0.58347	-1.40395
1523.718	1.10919	0.01600	-0.55071	-1.31726
1527.723	1.15473	-0.10000	-0.57999	-1.21078
1531.719	1.07825	0.05272	-0.52545	-1.23975
1535.720	1.03610	0.15898	-0.44410	-1.19479
1539.724	1.05084	0.14840	-0.39807	-1.19733
1543.718	1.11474	-0.04842	-0.27498	-1.18150
1547.725	0.81193	0.35180	-0.19916	-1.25008
1551.718	0.84801	0.27005	-0.42835	-1.14300
1555.723	0.94281	0.04184	-0.43807	-0.97247
1559.736	1.03960	0.40889	-0.38343	-1.09134
1563.728	1.17150	0.24680	-0.32784	-1.28111
1567.716	1.96853	-0.51187	0.00139	-2.81744
1571.724	2.64289	-2.34013	1.46152	-3.75335
1576.109	2.82630	-5.02682	2.59411	-6.34450
1579.725	2.70678	-6.95784	2.76983	-6.48107
1583.722	2.86900	-7.72159	-0.34258	-5.25942
1587.723	3.10750	-9.45116	0.18561	-5.21187
1591.724	3.06105	-12.04552	-1.07374	-7.10304
1595.718	3.21461	-12.21517	-0.46671	-6.72131
1599.721	3.21169	-12.44881	0.37119	-5.61799
1603.717	3.49332	-11.85782	0.72851	-6.22055
1607.720	3.29122	-12.12798	0.24994	-4.59009
1611.717	3.63542	-10.99448	-1.72951	-5.41900
1615.718	3.70334	-11.86198	-1.50857	-4.83259
1619.720	3.86677	-11.69869	-0.13312	-5.79217
1623.716	5.77531	-12.02743	-1.14221	-5.00359
1627.723	7.00409	-10.60916	-1.06098	-4.26310
1631.723	6.30671	-9.96492	-0.07947	-3.06819
1635.717	6.63176	-10.20705	-3.33045	-4.28796
1639.722	4.05663	-9.93624	-3.56887	-3.22904
1643.743	-19.99372	-11.58067	NaN	NaN
1647.720	-19.99372	-11.74883	NaN	NaN
1651.717	-19.99372	-11.87385	NaN	NaN
1655.720	-19.99372	-11.92134	NaN	NaN
1659.720	-19.99372	-11.98864	NaN	NaN
1663.845	-19.99372	-12.02976	NaN	NaN
1668.006	-19.99372	-12.07651	NaN	NaN
1672.149	-19.99372	-12.07724	NaN	NaN
1676.271	-19.99372	-12.07727	NaN	NaN
1680.414	-19.99372	-12.07740	NaN	NaN
1684.542	NaN	NaN	NaN	NaN
1688.701	NaN	NaN	NaN	NaN
1692.813	NaN	NaN	NaN	NaN
1696.976	NaN	NaN	NaN	NaN
1701.084	NaN	NaN	NaN	NaN
1705.260	NaN	NaN	NaN	NaN
1710.257	NaN	NaN	NaN	NaN
1714.519	NaN	NaN	NaN	NaN
1718.656	NaN	NaN	NaN	NaN
1722.765	NaN	NaN	NaN	NaN
1726.879	NaN	NaN	NaN	NaN
1730.977	NaN	NaN	NaN	NaN
1735.186	NaN	NaN	NaN	NaN
1739.301	NaN	NaN	NaN	NaN
1743.432	NaN	NaN	NaN	NaN
1747.579	NaN	NaN	NaN	NaN
1751.784	NaN	NaN	NaN	NaN
1755.930	NaN	NaN	NaN	NaN
1760.110	NaN	NaN	NaN	NaN
1764.446	NaN	NaN	NaN	NaN
1768.648	NaN	NaN	NaN	NaN
1772.916	NaN	NaN	NaN	NaN
1777.942	NaN	NaN	NaN	NaN
1782.088	NaN	NaN	NaN	NaN
1786.248	NaN	NaN	NaN	NaN
1790.379	NaN	NaN	NaN	NaN
1794.510	NaN	NaN	NaN	NaN
1798.652	NaN	NaN	NaN	NaN
1802.834	NaN	NaN	NaN	NaN
1806.974	NaN	NaN	NaN	NaN
1811.086	NaN	NaN	NaN	NaN
1815.177	NaN	NaN	NaN	NaN
1819.310	NaN	NaN	NaN	NaN
1823.459	NaN	NaN	NaN	NaN
1827.704	NaN	NaN	NaN	NaN
1831.887	NaN	NaN	NaN	NaN
1836.007	NaN	NaN	NaN	NaN
1840.134	NaN	NaN	NaN	NaN
1845.224	NaN	NaN	NaN	NaN
1849.499	NaN	NaN	NaN	NaN
1853.613	NaN	NaN	NaN	NaN
1857.691	NaN	NaN	NaN	NaN
1861.883	NaN	NaN	NaN	NaN
1865.986	NaN	NaN	NaN	NaN
1870.115	NaN	NaN	NaN	NaN
1874.221	NaN	NaN	NaN	NaN
1878.348	NaN	NaN	NaN	NaN
1882.452	NaN	NaN	NaN	NaN
1886.625	NaN	NaN	NaN	NaN
1890.754	NaN	NaN	NaN	NaN
1894.856	NaN	NaN	NaN	NaN
1898.943	NaN	NaN	NaN	NaN
1903.075	NaN	NaN	NaN	NaN
1907.268	NaN	NaN	NaN	NaN
1912.414	NaN	NaN	NaN	NaN
1916.621	NaN	NaN	NaN	NaN
1920.749	NaN	NaN	NaN	NaN
1924.866	NaN	NaN	NaN	NaN
1928.940	NaN	NaN	NaN	NaN
1933.051	NaN	NaN	NaN	NaN
1937.202	NaN	NaN	NaN	NaN
1941.297	NaN	NaN	NaN	NaN
1945.480	NaN	NaN	NaN	NaN
1949.564	NaN	NaN	NaN	NaN
1953.724	NaN	NaN	NaN	NaN
1957.823	NaN	NaN	NaN	NaN
1961.958	NaN	NaN	NaN	NaN
1966.040	NaN	NaN	NaN	NaN
1970.227	NaN	NaN	NaN	NaN
1974.392	NaN	NaN	NaN	NaN
1979.474	NaN	NaN	NaN	NaN
1983.632	NaN	NaN	NaN	NaN
1987.730	NaN	NaN	NaN	NaN
1991.800	NaN	NaN	NaN	NaN
1995.928	NaN	NaN	NaN	NaN
2000.059	NaN	NaN	NaN	NaN
2004.136	NaN	NaN	NaN	NaN
2008.191	NaN	NaN	NaN	NaN
2012.395	NaN	NaN	NaN	NaN
2016.510	NaN	NaN	NaN	NaN
2020.724	NaN	NaN	NaN	NaN
2024.926	NaN	NaN	NaN	NaN
2029.093	NaN	NaN	NaN	NaN
2033.203	NaN	NaN	NaN	NaN
2037.352	NaN	NaN	NaN	NaN
2041.529	NaN	NaN	NaN	NaN
2172.556	NaN	NaN	NaN	NaN
2240.021	NaN	NaN	NaN	NaN
2243.708	NaN	NaN	NaN	NaN
2247.706	NaN	NaN	NaN	NaN
2251.702	NaN	NaN	NaN	NaN
2255.711	NaN	NaN	NaN	NaN
2259.705	NaN	NaN	NaN	NaN
2263.706	NaN	NaN	NaN	NaN
2267.735	NaN	NaN	NaN	NaN
2271.705	NaN	NaN	NaN	NaN
2275.706	NaN	NaN	NaN	NaN
2279.706	NaN	NaN	NaN	NaN
2283.708	NaN	NaN	NaN	NaN
2287.703	NaN	NaN	NaN	NaN
2291.700	NaN	NaN	NaN	NaN
2295.703	NaN	NaN	NaN	NaN
2299.710	NaN	NaN	NaN	NaN
2303.703	NaN	NaN	NaN	NaN
2307.704	NaN	NaN	NaN	NaN
2311.705	NaN	NaN	NaN	NaN
2315.707	NaN	NaN	NaN	NaN
2319.702	NaN	NaN	NaN	NaN
2323.699	NaN	NaN	NaN	NaN
2327.707	NaN	NaN	NaN	NaN
2331.703	NaN	NaN	NaN	NaN
2335.700	NaN	NaN	NaN	NaN
2339.700	NaN	NaN	NaN	NaN
2343.705	NaN	NaN	NaN	NaN
2347.701	NaN	NaN	NaN	NaN
2351.700	NaN	NaN	NaN	NaN
2355.703	NaN	NaN	NaN	NaN
2359.700	NaN	NaN	NaN	NaN
2363.699	NaN	NaN	NaN	NaN
2367.697	NaN	NaN	NaN	NaN
2371.706	NaN	NaN	NaN	NaN
2375.702	NaN	NaN	NaN	NaN
2379.708	NaN	NaN	NaN	NaN
2383.702	NaN	NaN	NaN	NaN
2387.703	NaN	NaN	NaN	NaN
2391.701	NaN	NaN	NaN	NaN
2395.699	NaN	NaN	NaN	NaN
2399.696	NaN	NaN	NaN	NaN
2403.705	NaN	NaN	NaN	NaN
2407.708	NaN	NaN	NaN	NaN
2411.700	NaN	NaN	NaN	NaN
2415.699	NaN	NaN	NaN	NaN
2419.706	NaN	NaN	NaN	NaN
2423.707	NaN	NaN	NaN	NaN
2427.700	NaN	NaN	NaN	NaN
2431.701	NaN	NaN	NaN	NaN
2435.701	NaN	NaN	NaN	NaN
2439.702	NaN	NaN	NaN	NaN
2443.699	NaN	NaN	NaN	NaN
2447.705	NaN	NaN	NaN	NaN
2451.708	NaN	NaN	NaN	NaN
2455.705	NaN	NaN	NaN	NaN
2459.702	NaN	NaN	NaN	NaN
2463.708	NaN	NaN	NaN	NaN
2467.702	NaN	NaN	NaN	NaN
2471.705	NaN	NaN	NaN	NaN
2475.702	NaN	NaN	NaN	NaN
2479.698	NaN	NaN	NaN	NaN
2483.702	NaN	NaN	NaN	NaN
2487.704	NaN	NaN	NaN	NaN
2491.701	NaN	NaN	NaN	NaN
2495.770	NaN	NaN	NaN	NaN
2499.703	NaN	NaN	NaN	NaN
2503.705	NaN	NaN	NaN	NaN
2507.703	NaN	NaN	NaN	NaN
2511.703	NaN	NaN	NaN	NaN
2515.702	NaN	NaN	NaN	NaN
2519.696	NaN	NaN	NaN	NaN
2523.706	NaN	NaN	NaN	NaN
2527.697	NaN	NaN	NaN	NaN
2531.700	NaN	NaN	NaN	NaN
2535.694	NaN	NaN	NaN	NaN
2539.704	NaN	NaN	NaN	NaN
2543.705	2.72392	12.81613	NaN	NaN
2547.707	2.71718	12.82101	NaN	NaN
2551.701	NaN	NaN	NaN	NaN
2555.703	2.71085	12.82481	NaN	NaN
2559.703	2.70562	12.82918	NaN	NaN
2563.698	NaN	NaN	NaN	NaN
2567.707	2.69953	12.83372	NaN	NaN
2571.702	2.69398	12.83848	NaN	NaN
2575.699	NaN	NaN	NaN	NaN
2579.699	2.68764	12.84373	NaN	NaN
2583.706	2.68170	12.84920	NaN	NaN
2587.723	NaN	NaN	NaN	NaN
2591.700	NaN	NaN	NaN	NaN
2595.702	2.66489	12.86300	NaN	NaN
2599.703	NaN	NaN	NaN	NaN
2603.699	NaN	NaN	NaN	NaN
2607.697	2.64819	12.87709	NaN	NaN
2611.706	NaN	NaN	NaN	NaN
2615.700	NaN	NaN	NaN	NaN
2619.703	NaN	NaN	NaN	NaN
2623.696	2.62439	12.89634	NaN	NaN
2627.712	2.61077	12.90718	NaN	NaN
2631.706	2.60438	12.91357	NaN	NaN
2635.705	NaN	NaN	NaN	NaN
2639.705	NaN	NaN	NaN	NaN
2643.704	2.59227	12.92418	NaN	NaN
2647.697	NaN	NaN	NaN	NaN
2651.707	NaN	NaN	NaN	NaN
2655.704	NaN	NaN	NaN	NaN
2659.701	NaN	NaN	NaN	NaN
2663.698	NaN	NaN	NaN	NaN
2667.698	NaN	NaN	NaN	NaN
2671.707	NaN	NaN	NaN	NaN
2675.702	NaN	NaN	NaN	NaN
2679.701	NaN	NaN	NaN	NaN
2683.704	2.55302	12.96144	NaN	NaN
2687.701	NaN	NaN	NaN	NaN
2691.701	NaN	NaN	NaN	NaN
2695.698	NaN	NaN	NaN	NaN
2699.705	NaN	NaN	NaN	NaN
2703.701	NaN	NaN	NaN	NaN
2707.701	NaN	NaN	NaN	NaN
2711.704	NaN	NaN	NaN	NaN
2715.703	NaN	NaN	NaN	NaN
2719.728	NaN	NaN	NaN	NaN
2723.698	NaN	NaN	NaN	NaN
2727.702	NaN	NaN	NaN	NaN
2731.573	NaN	NaN	NaN	NaN
2735.575	NaN	NaN	NaN	NaN
2739.569	NaN	NaN	NaN	NaN
2743.580	NaN	NaN	NaN	NaN
2747.739	NaN	NaN	NaN	NaN
2751.911	NaN	NaN	NaN	NaN
2756.091	NaN	NaN	NaN	NaN
2760.317	NaN	NaN	NaN	NaN
2764.577	NaN	NaN	NaN	NaN
2768.779	NaN	NaN	NaN	NaN
2772.884	NaN	NaN	NaN	NaN
2777.020	NaN	NaN	NaN	NaN
2781.131	NaN	NaN	NaN	NaN
2787.591	NaN	NaN	NaN	NaN
2795.577	NaN	NaN	NaN	NaN
2799.681	NaN	NaN	NaN	NaN
2805.451	NaN	NaN	NaN	NaN
2808.483	NaN	NaN	NaN	NaN
2815.581	NaN	NaN	NaN	NaN
2819.616	NaN	NaN	NaN	NaN
2823.616	NaN	NaN	NaN	NaN
2827.605	NaN	NaN	NaN	NaN
2831.674	NaN	NaN	NaN	NaN
2835.697	NaN	NaN	NaN	NaN
2839.681	NaN	NaN	NaN	NaN
2843.625	NaN	NaN	NaN	NaN
2847.635	NaN	NaN	NaN	NaN
2851.589	NaN	NaN	NaN	NaN
2856.340	NaN	NaN	NaN	NaN
2860.093	NaN	NaN	NaN	NaN
2863.927	NaN	NaN	NaN	NaN
2867.605	NaN	NaN	NaN	NaN
2871.587	NaN	NaN	NaN	NaN
2875.582	NaN	NaN	NaN	NaN
2881.438	NaN	NaN	NaN	NaN
2884.335	NaN	NaN	NaN	NaN
2891.575	NaN	NaN	NaN	NaN
2897.447	NaN	NaN	NaN	NaN
2900.607	NaN	NaN	NaN	NaN
2907.577	NaN	NaN	NaN	NaN
2911.577	NaN	NaN	NaN	NaN
2915.574	NaN	NaN	NaN	NaN
2919.573	NaN	NaN	NaN	NaN
2924.317	NaN	NaN	NaN	NaN
2928.109	NaN	NaN	NaN	NaN
2931.926	NaN	NaN	NaN	NaN
2935.805	NaN	NaN	NaN	NaN
2939.596	NaN	NaN	NaN	NaN
2943.571	NaN	NaN	NaN	NaN
2947.568	NaN	NaN	NaN	NaN
2951.626	NaN	NaN	NaN	NaN
2955.583	NaN	NaN	NaN	NaN
2959.574	NaN	NaN	NaN	NaN
2963.583	NaN	NaN	NaN	NaN
2967.583	NaN	NaN	NaN	NaN
2971.582	NaN	NaN	NaN	NaN
2975.567	NaN	NaN	NaN	NaN
2979.587	NaN	NaN	NaN	NaN
2985.317	NaN	NaN	NaN	NaN
2987.887	NaN	NaN	NaN	NaN
2995.577	NaN	NaN	NaN	NaN
3000.944	NaN	NaN	NaN	NaN
3011.605	NaN	NaN	NaN	NaN
3015.581	NaN	NaN	NaN	NaN
3019.570	NaN	NaN	NaN	NaN
3023.572	NaN	NaN	NaN	NaN
3027.568	NaN	NaN	NaN	NaN
3031.572	NaN	NaN	NaN	NaN
3035.569	NaN	NaN	NaN	NaN
3039.571	NaN	NaN	NaN	NaN
3043.568	NaN	NaN	NaN	NaN
3051.577	NaN	NaN	NaN	NaN
3055.573	NaN	NaN	NaN	NaN
3059.591	NaN	NaN	NaN	NaN
3063.571	NaN	NaN	NaN	NaN
3067.565	NaN	NaN	NaN	NaN
3071.572	NaN	NaN	NaN	NaN
3075.571	NaN	NaN	NaN	NaN
3079.572	NaN	NaN	NaN	NaN
3083.669	NaN	NaN	NaN	NaN
3087.805	NaN	NaN	NaN	NaN
3091.980	NaN	NaN	NaN	NaN
3096.139	NaN	NaN	NaN	NaN
3100.315	NaN	NaN	NaN	NaN
3105.940	NaN	NaN	NaN	NaN
3108.978	NaN	NaN	NaN	NaN
3115.581	NaN	NaN	NaN	NaN
3119.571	NaN	NaN	NaN	NaN
3123.568	NaN	NaN	NaN	NaN
3127.873	NaN	NaN	NaN	NaN
3131.574	NaN	NaN	NaN	NaN
3135.588	NaN	NaN	NaN	NaN
3139.573	NaN	NaN	NaN	NaN
3143.573	NaN	NaN	NaN	NaN
3147.572	NaN	NaN	NaN	NaN
3151.569	NaN	NaN	NaN	NaN
3156.818	NaN	NaN	NaN	NaN
3167.570	NaN	NaN	NaN	NaN
3171.649	NaN	NaN	NaN	NaN
3177.437	NaN	NaN	NaN	NaN
3180.232	NaN	NaN	NaN	NaN
3187.571	NaN	NaN	NaN	NaN
3191.570	NaN	NaN	NaN	NaN
3195.664	NaN	NaN	NaN	NaN
3199.579	NaN	NaN	NaN	NaN
3203.570	NaN	NaN	NaN	NaN
3207.568	NaN	NaN	NaN	NaN
3211.572	NaN	NaN	NaN	NaN
3215.575	NaN	NaN	NaN	NaN
3219.572	NaN	NaN	NaN	NaN
3223.568	NaN	NaN	NaN	NaN
3227.572	NaN	NaN	NaN	NaN
3231.568	NaN	NaN	NaN	NaN
3235.569	NaN	NaN	NaN	NaN
3239.568	NaN	NaN	NaN	NaN
3243.569	NaN	NaN	NaN	NaN
3247.570	NaN	NaN	NaN	NaN
3251.568	NaN	NaN	NaN	NaN
3255.570	NaN	NaN	NaN	NaN
3259.581	NaN	NaN	NaN	NaN
3263.685	NaN	NaN	NaN	NaN
3267.569	2.44011	13.07406	NaN	NaN
3271.568	NaN	NaN	NaN	NaN
3275.563	NaN	NaN	NaN	NaN
3279.568	1.35050	13.85237	NaN	NaN
3283.564	0.93572	14.00267	NaN	NaN
3287.566	1.00660	14.08273	NaN	NaN
3291.564	0.85424	14.08060	NaN	NaN
3295.565	0.98271	14.12858	NaN	NaN
3299.572	0.53232	14.13350	NaN	NaN
3303.626	0.25455	14.13836	NaN	NaN
3307.572	1.12645	14.13880	NaN	NaN
3311.564	1.25309	14.16212	NaN	NaN
3315.567	8.64594	14.04171	NaN	NaN
3319.561	2.62425	14.18128	NaN	NaN
3323.563	8.17216	14.07221	NaN	NaN
3327.563	2.78637	14.18114	NaN	NaN
3331.604	8.31484	14.05167	NaN	NaN
3335.562	NaN	NaN	NaN	NaN
3339.564	NaN	NaN	NaN	NaN
3343.566	2.83294	14.10431	NaN	NaN
3347.566	1.02278	14.05617	NaN	NaN
3351.560	NaN	NaN	NaN	NaN
3355.565	NaN	NaN	NaN	NaN
3359.563	NaN	NaN	NaN	NaN
3363.563	NaN	NaN	NaN	NaN
3367.559	NaN	NaN	NaN	NaN
3371.564	NaN	NaN	NaN	NaN
3375.564	NaN	NaN	NaN	NaN
3379.560	2.45099	13.50338	NaN	NaN
3383.573	2.38908	13.41467	NaN	NaN
3387.597	NaN	NaN	NaN	NaN
3391.568	3.40620	9.45014	NaN	NaN
3395.562	-20.46697	6.43067	NaN	NaN
3399.579	-20.03259	-12.07453	NaN	NaN
3403.561	-22.65532	5.10086	NaN	NaN
3407.565	-21.94198	4.01095	NaN	NaN
3411.562	-22.35772	3.93093	NaN	NaN
3415.563	-22.34966	0.33715	NaN	NaN
3419.562	-20.07891	-12.07107	NaN	NaN
3423.570	-22.03028	-0.41665	NaN	NaN
3427.566	-22.44813	-3.03325	NaN	NaN
3431.563	-22.76648	-3.61910	NaN	NaN
3435.559	-22.91898	-5.84406	NaN	NaN
3439.565	-20.01266	-12.07601	NaN	NaN
3443.561	-20.01108	-12.07613	NaN	NaN
3447.565	-20.00632	-12.07649	NaN	NaN
3451.559	-20.00049	-12.07692	NaN	NaN
3455.565	-19.99896	-12.07703	NaN	NaN
3459.565	-19.99780	-12.07712	NaN	NaN
3463.562	-19.99756	-12.07714	NaN	NaN
3467.598	-19.99377	-12.07742	NaN	NaN
3471.563	NaN	NaN	NaN	NaN
3475.564	NaN	NaN	NaN	NaN
3479.564	NaN	NaN	NaN	NaN
3483.562	NaN	NaN	NaN	NaN
3487.564	NaN	NaN	NaN	NaN
3491.587	NaN	NaN	NaN	NaN
3495.571	NaN	NaN	NaN	NaN
3499.566	NaN	NaN	NaN	NaN
3503.565	NaN	NaN	NaN	NaN
3507.569	NaN	NaN	NaN	NaN
3511.601	15.88197	2.61778	NaN	NaN
3515.562	16.90850	2.57072	NaN	NaN
3519.563	16.94191	2.45492	NaN	NaN
3523.559	2.26497	13.22920	NaN	NaN
3527.558	2.26356	13.23136	NaN	NaN
3531.565	2.26123	13.23382	NaN	NaN
3535.590	2.25922	13.23608	NaN	NaN
3539.561	2.25712	13.23826	NaN	NaN
3543.557	2.25513	13.24023	NaN	NaN
3547.561	NaN	NaN	NaN	NaN
3551.563	NaN	NaN	NaN	NaN
3555.561	NaN	NaN	NaN	NaN
3559.553	NaN	NaN	NaN	NaN
3563.562	NaN	NaN	NaN	NaN
3567.558	NaN	NaN	NaN	NaN
3571.559	NaN	NaN	NaN	NaN
3575.563	NaN	NaN	NaN	NaN
3579.559	NaN	NaN	NaN	NaN
3583.431	NaN	NaN	NaN	NaN
3587.433	NaN	NaN	NaN	NaN
3591.432	NaN	NaN	NaN	NaN
3595.471	NaN	NaN	NaN	NaN
3603.440	NaN	NaN	NaN	NaN
3607.623	16.08376	-0.77269	NaN	NaN
3611.441	NaN	NaN	NaN	NaN
3619.438	NaN	NaN	NaN	NaN
3623.436	NaN	NaN	NaN	NaN
3627.433	NaN	NaN	NaN	NaN
3631.433	-11.87292	-11.37698	NaN	NaN
3635.434	20.64897	-4.55227	NaN	NaN
3639.441	20.58984	-4.54264	NaN	NaN
3643.441	20.84001	-2.95016	NaN	NaN
3647.433	-19.99372	-12.06244	NaN	NaN
3651.434	-19.99372	-12.06298	NaN	NaN
3655.432	19.67448	-7.27423	NaN	NaN
3659.436	21.40723	-6.33150	NaN	NaN
3663.433	-19.99372	-12.06146	NaN	NaN
3667.429	-19.99372	-12.06246	NaN	NaN
3671.435	-19.99372	-12.06351	NaN	NaN
3675.454	21.17833	-8.35398	NaN	NaN
3679.436	21.36286	-7.83210	NaN	NaN
3683.434	20.32025	-8.54876	NaN	NaN
3687.429	21.40533	-8.42700	NaN	NaN
3691.437	17.80731	-8.70262	NaN	NaN
3695.433	17.29912	-8.74320	NaN	NaN
3699.436	-19.99372	-12.07740	NaN	NaN
3703.434	-19.99372	-12.07740	NaN	NaN
3707.431	18.92732	-11.94743	NaN	NaN
3711.431	19.63394	-12.24160	NaN	NaN
3715.433	19.60714	-12.35594	NaN	NaN
3719.445	19.82986	-13.28310	NaN	NaN
3723.473	19.77214	-12.53938	NaN	NaN
3727.428	19.31706	-9.85778	NaN	NaN
3731.434	-19.99372	-12.22935	NaN	NaN
3735.430	-19.99372	-12.20638	NaN	NaN
3739.431	19.32338	-9.23741	NaN	NaN
3743.442	19.56139	-9.91306	NaN	NaN
3747.431	19.71243	-9.63001	NaN	NaN
3751.429	19.65723	-9.83813	NaN	NaN
3755.435	19.89519	-10.07028	NaN	NaN
3759.430	19.95700	-9.79643	NaN	NaN
3763.453	20.76753	-11.86606	NaN	NaN
3767.433	20.76156	-11.38928	NaN	NaN
3771.433	20.76740	-11.79019	NaN	NaN
3775.429	20.55975	-8.75949	NaN	NaN
3779.434	2.13797	13.37638	NaN	NaN
3783.432	20.74514	-8.62772	NaN	NaN
3787.427	20.92047	-9.85525	NaN	NaN
3791.432	20.71894	-8.45115	NaN	NaN
3795.430	20.29037	-8.40606	NaN	NaN
3799.432	20.23762	-8.66587	NaN	NaN
3803.435	20.23742	-8.48337	NaN	NaN
3807.430	20.15622	-8.48417	NaN	NaN
3811.434	20.01872	-8.57511	NaN	NaN
3815.433	20.14788	-10.39657	NaN	NaN
3819.428	19.85346	-9.65093	NaN	NaN
3823.435	2.12734	13.39083	NaN	NaN
3827.431	19.72747	-10.32640	NaN	NaN
3831.428	19.72849	-10.60287	NaN	NaN
3835.430	2.12981	13.39280	NaN	NaN
3839.432	2.12793	13.39369	NaN	NaN
3843.432	19.64468	-10.63882	NaN	NaN
3847.433	19.53778	-10.71198	NaN	NaN
3851.438	19.37862	-10.35716	NaN	NaN
3855.430	2.12587	13.39528	NaN	NaN
3859.430	18.15953	-10.91396	NaN	NaN
3863.428	2.12449	13.39673	NaN	NaN
3867.432	17.68209	-10.92855	NaN	NaN
3871.429	17.48250	-11.13952	NaN	NaN
3875.431	17.72455	-11.30470	NaN	NaN
3879.451	17.46694	-11.36645	NaN	NaN
3883.433	17.17263	-11.27287	NaN	NaN
3887.437	-19.99372	-11.50596	NaN	NaN
3891.427	17.18301	-11.44678	NaN	NaN
3895.434	2.11775	13.40454	NaN	NaN
3899.431	-19.99372	-11.62101	NaN	NaN
3903.433	-19.99372	-11.73047	NaN	NaN
3907.431	-19.99372	-11.78710	NaN	NaN
3911.429	-19.99372	-11.85012	NaN	NaN
3915.426	-19.99372	-11.91117	NaN	NaN
3919.478	-19.99372	-11.96059	NaN	NaN
3923.435	-19.99372	-12.00696	NaN	NaN
3927.434	2.11103	13.41432	NaN	NaN
3931.429	-19.99372	-12.03946	NaN	NaN
3935.431	NaN	NaN	NaN	NaN
3939.427	NaN	NaN	NaN	NaN
3943.429	NaN	NaN	NaN	NaN
3947.453	NaN	NaN	NaN	NaN
3951.432	NaN	NaN	NaN	NaN
3955.432	NaN	NaN	NaN	NaN
3959.427	NaN	NaN	NaN	NaN
3963.430	NaN	NaN	NaN	NaN
3967.427	NaN	NaN	NaN	NaN
3971.434	NaN	NaN	NaN	NaN
3975.426	NaN	NaN	NaN	NaN
3979.430	2.10548	13.42562	NaN	NaN
3983.428	NaN	NaN	NaN	NaN
3987.424	NaN	NaN	NaN	NaN
3991.430	NaN	NaN	NaN	NaN
3995.430	NaN	NaN	NaN	NaN
3999.429	NaN	NaN	NaN	NaN
4003.430	NaN	NaN	NaN	NaN
4007.426	NaN	NaN	NaN	NaN
4011.474	NaN	NaN	NaN	NaN
4015.450	NaN	NaN	NaN	NaN
4019.425	NaN	NaN	NaN	NaN
4023.430	NaN	NaN	NaN	NaN
4027.425	NaN	NaN	NaN	NaN
4031.427	NaN	NaN	NaN	NaN
4035.421	NaN	NaN	NaN	NaN
4039.429	NaN	NaN	NaN	NaN
4043.425	NaN	NaN	NaN	NaN
4047.427	NaN	NaN	NaN	NaN
4051.423	NaN	NaN	NaN	NaN
4055.431	NaN	NaN	NaN	NaN
4059.430	NaN	NaN	NaN	NaN
4063.427	NaN	NaN	NaN	NaN
4067.423	2.09579	13.43881	NaN	NaN
4071.427	NaN	NaN	NaN	NaN
4075.424	2.09544	13.43919	NaN	NaN
4079.426	2.09566	13.43947	NaN	NaN
4083.450	2.09569	13.43970	NaN	NaN
4087.429	NaN	NaN	NaN	NaN
4091.424	NaN	NaN	NaN	NaN
4095.433	NaN	NaN	NaN	NaN
4099.424	NaN	NaN	NaN	NaN
4103.426	2.09708	13.43988	NaN	NaN
4107.428	NaN	NaN	NaN	NaN
4111.425	NaN	NaN	NaN	NaN
4115.427	2.09651	13.43981	NaN	NaN
4119.422	NaN	NaN	NaN	NaN
4123.427	NaN	NaN	NaN	NaN
4127.427	NaN	NaN	NaN	NaN
4131.426	NaN	NaN	NaN	NaN
4135.464	NaN	NaN	NaN	NaN
4139.435	NaN	NaN	NaN	NaN
4143.427	NaN	NaN	NaN	NaN
4147.422	2.09346	13.43740	NaN	NaN
4151.428	2.09346	13.43707	NaN	NaN
4155.425	2.09311	13.43698	NaN	NaN
4159.422	NaN	NaN	NaN	NaN
4163.423	NaN	NaN	NaN	NaN
4167.424	NaN	NaN	NaN	NaN
4171.420	2.09259	13.43684	NaN	NaN
4175.421	NaN	NaN	NaN	NaN
4179.427	2.09219	13.43668	NaN	NaN
4183.429	2.09187	13.43661	NaN	NaN
4187.425	NaN	NaN	NaN	NaN
4191.419	NaN	NaN	NaN	NaN
4195.427	NaN	NaN	NaN	NaN
4199.425	NaN	NaN	NaN	NaN
4203.425	2.09140	13.43692	NaN	NaN
4207.425	2.09170	13.43710	NaN	NaN
4211.420	2.09187	13.43727	NaN	NaN
4215.427	NaN	NaN	NaN	NaN
4219.432	2.09222	13.43703	NaN	NaN
4223.428	2.09259	13.43705	NaN	NaN
4227.425	2.09311	13.43709	NaN	NaN
4231.423	NaN	NaN	NaN	NaN
4235.428	NaN	NaN	NaN	NaN
4239.423	NaN	NaN	NaN	NaN
4243.425	NaN	NaN	NaN	NaN
4247.418	2.09318	13.43709	NaN	NaN
4251.424	2.09323	13.43712	NaN	NaN
4255.424	NaN	NaN	NaN	NaN
4259.424	NaN	NaN	NaN	NaN
4263.436	NaN	NaN	NaN	NaN
4267.426	NaN	NaN	NaN	NaN
4271.420	NaN	NaN	NaN	NaN
4275.420	NaN	NaN	NaN	NaN
4279.422	NaN	NaN	NaN	NaN
4283.423	NaN	NaN	NaN	NaN
4287.433	NaN	NaN	NaN	NaN
4291.421	NaN	NaN	NaN	NaN
4295.419	NaN	NaN	NaN	NaN
4299.421	NaN	NaN	NaN	NaN
4303.427	NaN	NaN	NaN	NaN
4307.423	NaN	NaN	NaN	NaN
4311.418	NaN	NaN	NaN	NaN
4315.426	NaN	NaN	NaN	NaN
4319.420	NaN	NaN	NaN	NaN
4323.426	2.09304	13.43822	NaN	NaN
4327.431	NaN	NaN	NaN	NaN
4331.423	NaN	NaN	NaN	NaN
4335.420	NaN	NaN	NaN	NaN
4339.453	NaN	NaN	NaN	NaN
4343.420	NaN	NaN	NaN	NaN
4347.426	NaN	NaN	NaN	NaN
4351.414	NaN	NaN	NaN	NaN
4355.437	NaN	NaN	NaN	NaN
4359.424	2.09286	13.43994	NaN	NaN
4363.422	2.09308	13.44052	NaN	NaN
4367.422	NaN	NaN	NaN	NaN
4371.417	2.09318	13.44156	NaN	NaN
4375.424	NaN	NaN	NaN	NaN
4379.421	NaN	NaN	NaN	NaN
4383.418	NaN	NaN	NaN	NaN
4387.429	2.09316	13.44170	NaN	NaN
4391.421	NaN	NaN	NaN	NaN
4395.422	2.09311	13.44181	NaN	NaN
4399.418	2.09306	13.44193	NaN	NaN
4403.420	2.09306	13.44210	NaN	NaN
4407.419	NaN	NaN	NaN	NaN
4411.416	2.09313	13.44273	NaN	NaN
4415.424	NaN	NaN	NaN	NaN
4419.420	2.09321	13.44334	NaN	NaN
4423.423	2.09346	13.44367	NaN	NaN
4427.423	NaN	NaN	NaN	NaN
4431.422	2.09460	13.44328	NaN	NaN
4435.417	NaN	NaN	NaN	NaN
4439.297	NaN	NaN	NaN	NaN
4443.294	NaN	NaN	NaN	NaN
4447.296	NaN	NaN	NaN	NaN
4451.299	NaN	NaN	NaN	NaN
4455.296	NaN	NaN	NaN	NaN
4459.293	2.09715	13.44244	NaN	NaN
4463.293	2.09680	13.44282	NaN	NaN
4467.298	NaN	NaN	NaN	NaN
4471.295	2.09769	13.44164	NaN	NaN
4475.301	2.09593	13.44320	NaN	NaN
4479.294	2.09532	13.44386	NaN	NaN
4483.296	2.09487	13.44429	NaN	NaN
4487.294	2.09457	13.44462	NaN	NaN
4491.329	2.09430	13.44488	NaN	NaN
4495.291	2.09410	13.44509	NaN	NaN
4499.296	2.09393	13.44528	NaN	NaN
4503.297	2.09336	13.44588	NaN	NaN
4507.292	2.09331	13.44595	NaN	NaN
4511.299	2.09321	13.44604	NaN	NaN
4515.310	2.09271	13.44656	NaN	NaN
4519.303	2.09266	13.44661	NaN	NaN
4523.298	2.09264	13.44666	NaN	NaN
4527.294	2.09291	13.44673	NaN	NaN
4531.295	2.09321	13.44679	NaN	NaN
4535.291	2.09351	13.44681	NaN	NaN
4539.296	2.09378	13.44684	NaN	NaN
4543.294	2.09408	13.44686	NaN	NaN
4547.291	NaN	NaN	NaN	NaN
4551.292	NaN	NaN	NaN	NaN
4555.293	NaN	NaN	NaN	NaN
4559.295	NaN	NaN	NaN	NaN
4563.334	NaN	NaN	NaN	NaN
4567.290	NaN	NaN	NaN	NaN
4571.291	NaN	NaN	NaN	NaN
4575.283	NaN	NaN	NaN	NaN
4579.291	NaN	NaN	NaN	NaN
4583.288	NaN	NaN	NaN	NaN
4587.287	NaN	NaN	NaN	NaN
4591.290	NaN	NaN	NaN	NaN
4595.290	NaN	NaN	NaN	NaN
4599.292	NaN	NaN	NaN	NaN
4603.296	NaN	NaN	NaN	NaN
4607.289	NaN	NaN	NaN	NaN
4611.290	NaN	NaN	NaN	NaN
4615.283	NaN	NaN	NaN	NaN
4619.293	NaN	NaN	NaN	NaN
4623.288	NaN	NaN	NaN	NaN
4627.294	NaN	NaN	NaN	NaN
4631.284	NaN	NaN	NaN	NaN
4635.293	NaN	NaN	NaN	NaN
4639.290	NaN	NaN	NaN	NaN
4643.292	NaN	NaN	NaN	NaN
4647.289	NaN	NaN	NaN	NaN
4651.293	NaN	NaN	NaN	NaN
4655.294	NaN	NaN	NaN	NaN
4659.290	NaN	NaN	NaN	NaN
4663.293	NaN	NaN	NaN	NaN
4667.290	NaN	NaN	NaN	NaN
4671.291	NaN	NaN	NaN	NaN
4675.289	NaN	NaN	NaN	NaN
4679.287	NaN	NaN	NaN	NaN
4683.289	NaN	NaN	NaN	NaN
4687.289	NaN	NaN	NaN	NaN
4691.289	NaN	NaN	NaN	NaN
4695.284	NaN	NaN	NaN	NaN
4699.290	NaN	NaN	NaN	NaN
4703.290	NaN	NaN	NaN	NaN
4707.287	NaN	NaN	NaN	NaN
4711.287	NaN	NaN	NaN	NaN
4715.289	NaN	NaN	NaN	NaN
4719.283	NaN	NaN	NaN	NaN
4723.296	NaN	NaN	NaN	NaN
4727.292	NaN	NaN	NaN	NaN
4731.289	NaN	NaN	NaN	NaN
4735.282	NaN	NaN	NaN	NaN
4739.292	NaN	NaN	NaN	NaN
4743.288	NaN	NaN	NaN	NaN
4747.285	NaN	NaN	NaN	NaN
4751.286	NaN	NaN	NaN	NaN
4755.287	NaN	NaN	NaN	NaN
4759.289	NaN	NaN	NaN	NaN
4763.303	NaN	NaN	NaN	NaN
4767.293	NaN	NaN	NaN	NaN
4771.285	NaN	NaN	NaN	NaN
4775.287	NaN	NaN	NaN	NaN
4779.287	NaN	NaN	NaN	NaN
4783.284	NaN	NaN	NaN	NaN
4787.286	NaN	NaN	NaN	NaN
4791.288	NaN	NaN	NaN	NaN
4795.291	NaN	NaN	NaN	NaN
4799.287	NaN	NaN	NaN	NaN
4803.289	NaN	NaN	NaN	NaN
4807.289	NaN	NaN	NaN	NaN
4811.291	NaN	NaN	NaN	NaN
4815.287	NaN	NaN	NaN	NaN
4819.283	NaN	NaN	NaN	NaN
4823.281	NaN	NaN	NaN	NaN
4827.289	NaN	NaN	NaN	NaN
4831.291	NaN	NaN	NaN	NaN
4835.282	NaN	NaN	NaN	NaN
4839.285	NaN	NaN	NaN	NaN
4843.288	NaN	NaN	NaN	NaN
4847.285	NaN	NaN	NaN	NaN
4851.285	NaN	NaN	NaN	NaN
4855.294	NaN	NaN	NaN	NaN
4859.284	NaN	NaN	NaN	NaN
4863.286	NaN	NaN	NaN	NaN
4867.279	NaN	NaN	NaN	NaN
4871.288	NaN	NaN	NaN	NaN
4875.284	NaN	NaN	NaN	NaN
4879.283	NaN	NaN	NaN	NaN
4883.279	NaN	NaN	NaN	NaN
4887.291	NaN	NaN	NaN	NaN
4891.293	NaN	NaN	NaN	NaN
4895.286	NaN	NaN	NaN	NaN
4899.286	NaN	NaN	NaN	NaN
4903.287	NaN	NaN	NaN	NaN
4907.286	NaN	NaN	NaN	NaN
4911.280	NaN	NaN	NaN	NaN
4915.289	NaN	NaN	NaN	NaN
4919.284	NaN	NaN	NaN	NaN
4923.282	NaN	NaN	NaN	NaN
4927.288	NaN	NaN	NaN	NaN
4931.299	NaN	NaN	NaN	NaN
4935.290	NaN	NaN	NaN	NaN
4939.287	NaN	NaN	NaN	NaN
4943.285	NaN	NaN	NaN	NaN
4947.286	NaN	NaN	NaN	NaN
5072.213	NaN	NaN	NaN	NaN
5139.702	2.80439	-1.09316	2.31346	-8.15366
5143.765	3.00960	-1.07699	2.26490	-8.27319
5147.432	3.01767	-1.04493	2.39587	-8.37304
5151.414	3.01373	-1.36572	2.22124	-8.40912
5155.413	3.02940	-1.58779	2.22912	-8.38432
5159.409	3.06751	-1.63251	2.15467	-8.39284
5163.409	3.08644	-1.70277	2.10714	-8.39422
5167.412	3.06340	-1.75923	2.07311	-8.39709
5171.409	3.02922	-1.92770	2.06961	-8.37016
5175.409	3.02442	-1.99034	2.12654	-8.39200
5179.413	3.06783	-1.99975	2.09970	-8.39586
5183.411	3.06954	-2.04850	2.10684	-8.40812
5187.411	3.05311	-2.13013	2.17836	-8.40316
5191.415	3.03177	-2.25845	2.14922	-8.37666
5195.410	3.05922	-2.45691	2.19732	-8.34945
5199.413	3.05603	-2.59826	2.15509	-8.40507
5203.413	3.02130	-2.88541	2.18144	-8.47227
5207.411	3.01517	-2.86590	2.13004	-8.49267
5211.411	3.00198	-3.17048	2.15115	-8.52592
5215.411	3.05217	-3.39879	2.12741	-8.55925
5219.419	3.03947	-3.47928	2.09869	-8.56169
5223.410	3.00564	-3.61921	2.12335	-8.54531
5227.414	3.00529	-3.72767	2.12815	-8.58523
5231.405	3.00363	-3.88004	2.12577	-8.58140
5235.414	3.00272	-3.97002	2.09901	-8.60685
5239.408	3.03123	-4.14260	2.08776	-8.64684
5243.413	3.05759	-4.24263	2.13143	-8.65313
5247.405	3.06961	-4.47434	2.13477	-8.64250
5251.413	3.08750	-4.34397	2.19420	-8.69349
5255.410	3.10148	-4.54586	2.22802	-8.70562
5259.423	3.11165	-4.52974	2.23135	-8.82336
5263.411	3.12927	-4.66434	2.23454	-8.90217
5267.411	3.07575	-4.76959	2.22002	-8.95893
5271.411	3.04197	-4.85729	2.20852	-9.00089
5275.407	3.06632	-4.95034	2.12394	-9.09300
5279.406	3.07444	-5.01930	2.15938	-9.08422
5283.412	2.99985	-5.06345	2.14414	-9.12072
5287.428	2.99101	-5.30976	2.19009	-9.11772
5291.417	3.02244	-5.30969	2.13725	-9.12374
5295.408	2.95062	-5.90354	2.10902	-9.09047
5299.408	2.92762	-5.89097	2.07903	-9.01569
5303.413	2.85613	-6.09364	2.04706	-8.96787
5307.413	2.80352	-6.15817	2.02976	-8.94233
5311.410	2.78362	-6.06248	2.01089	-8.90021
5315.408	2.71733	-6.16146	1.99533	-8.92444
5319.439	2.70844	-6.19728	1.99630	-8.94518
5323.409	2.58576	-6.35609	1.98068	-8.92180
5327.405	2.69230	-6.42198	1.99577	-8.92126
5331.411	2.68306	-6.50263	1.95542	-9.03373
5335.408	2.63638	-6.48661	1.93115	-9.08934
5339.407	2.80209	-6.47817	1.92421	-9.15112
5343.409	2.72266	-6.56112	1.86714	-9.18032
5347.405	2.89926	-6.58336	1.90829	-9.24672
5351.408	2.98579	-6.62301	1.92840	-9.27274
5355.405	3.15780	-6.64976	1.95859	-9.35040
5359.421	2.99641	-6.73264	1.95510	-9.37143
5363.412	3.13308	-6.86289	1.96372	-9.39290
5367.410	3.04345	-7.03352	1.95440	-9.44129
5371.408	3.13845	-7.03376	1.90011	-9.46655
5375.407	3.19098	-7.01165	1.89962	-9.47131
5379.411	3.20582	-7.00691	1.89982	-9.48383
5383.402	3.01715	-7.25670	1.89062	-9.50666
5387.427	2.87274	-7.31274	1.93135	-9.53011
5391.408	3.08310	-7.33740	1.87547	-9.52194
5395.407	3.03286	-7.57810	1.86330	-9.53309
5399.408	2.92594	-7.65977	1.86107	-9.54134
5403.407	2.86408	-7.73678	1.85613	-9.57745
5407.406	2.86975	-7.79756	1.87832	-9.60423
5411.412	2.72174	-7.85707	1.88264	-9.63313
5415.280	2.80384	-7.92075	1.96107	-9.64587
5419.281	2.73519	-7.94967	2.06944	-9.70173
5423.279	3.00480	-7.90000	2.03781	-9.75734
5427.284	4.01732	-7.38539	2.79862	-9.75045
5431.286	5.32823	-7.73835	4.46561	-9.45763
5435.282	7.01282	-7.43589	5.22837	-9.23768
5439.280	6.92684	-6.58741	5.40776	-9.16821
5443.284	6.76045	-6.76887	5.30835	-9.39587
5447.281	6.61477	-6.97276	4.46879	-9.37790
5451.277	6.46311	-7.36848	4.52133	-9.35631
5455.282	6.21713	-7.48485	4.49788	-9.27741
5459.279	6.29825	-7.47671	4.48441	-9.22772
5463.279	6.40660	-7.44075	4.74789	-9.20708
5467.281	6.54901	-7.32104	4.87140	-9.16331
5471.282	6.56270	-7.44231	4.86549	-9.13619
5475.284	6.44221	-7.57341	5.01669	-9.14389
5479.277	6.45650	-7.61398	4.95635	-9.18689
5483.282	6.41258	-7.71902	4.82069	-9.21475
5487.280	6.30041	-7.76611	4.84058	-9.22705
5491.284	6.31394	-7.89739	4.88508	-9.23116
5495.277	6.21051	-7.98670	4.74424	-9.13643
5499.296	6.23185	-7.90043	4.78770	-9.12462
5503.284	6.22711	-7.96208	4.88188	-9.10980
5507.280	6.01211	-8.06532	4.86014	-9.03232
5511.287	6.04163	-8.26856	4.94016	-8.98501
5515.290	5.77605	-8.17345	5.01026	-8.95932
5519.286	5.87093	-8.27618	4.97039	-8.96661
5523.280	5.51730	-8.25276	4.88840	-8.95149
5527.283	5.79553	-8.05224	5.03295	-8.94785
5531.318	5.52814	-7.70322	4.96743	-8.90174
5535.283	5.58943	-7.67054	5.03625	-8.90232
5539.278	5.33123	-7.67149	4.95807	-8.91965
5543.282	5.29196	-7.71858	4.94396	-8.93655
5547.273	5.28067	-7.84760	4.92519	-8.94821
5551.279	5.29457	-7.58916	4.90021	-8.95187
5555.286	5.16297	-7.75879	4.84849	-8.97963
5559.279	5.15017	-7.81030	4.75221	-9.00071
5563.283	5.21228	-7.74527	4.71346	-8.99659
5567.278	5.59496	-7.83948	4.74259	-8.99204
5571.281	5.58638	-7.64249	4.70803	-9.00434
5575.274	5.53682	-7.79126	4.63043	-9.01651
5579.281	5.91847	-7.82040	4.61257	-9.05577
5583.278	6.02239	-7.87932	4.61664	-9.09173
5587.297	6.12384	-7.97781	4.58348	-9.14370
5591.281	6.26848	-8.06831	4.58387	-9.19845
5595.277	6.40241	-8.12693	4.59300	-9.27963
5599.282	6.28911	-8.33748	4.57756	-9.30012
5603.283	6.34817	-8.54035	4.58493	-9.35125
5607.280	6.43170	-8.59864	4.58481	-9.39658
5611.277	6.44346	-8.70839	4.56673	-9.42498
5615.276	6.52189	-8.84381	4.56365	-9.41024
5619.276	6.55001	-8.97536	4.56863	-9.42133
5623.284	6.49626	-8.94079	4.58131	-9.38245
5627.278	6.47556	-8.99435	4.53561	-9.36273
5631.282	6.46784	-9.08488	4.53278	-9.35775
5635.273	6.42346	-9.12818	4.51790	-9.32550
5639.297	6.40278	-9.23446	4.50355	-9.27268
5643.286	6.35255	-9.24860	4.45323	-9.18448
5647.274	6.30965	-9.30709	4.46024	-9.12640
5651.276	6.25036	-9.41125	4.49383	-9.09123
5655.278	6.19478	-9.40088	4.47930	-8.85059
5659.277	6.21387	-9.52421	4.60937	-8.79855
5663.276	6.18539	-9.43120	4.62394	-8.81128
5667.277	6.20783	-8.60051	4.58940	-8.79252
5671.279	6.29369	-8.52338	4.60279	-8.84444
5675.273	6.43983	-8.92744	4.61181	-8.91014
5679.281	6.47936	-9.19361	4.65925	-9.03347
5683.281	6.34152	-9.34034	4.71871	-8.74727
5687.301	6.40719	-9.25536	4.76179	-8.73507
5691.280	6.26851	-8.54855	4.70564	-8.82314
5695.274	6.13660	-8.94638	4.65183	-9.02694
5699.292	6.30190	-9.54776	4.77002	-8.72728
5703.284	6.08458	-8.73884	4.64625	-8.95718
5707.276	6.12087	-8.99584	4.75216	-9.04617
5711.275	6.09192	-9.10644	4.57566	-9.01006
5715.278	5.99669	-9.37834	4.76993	-8.80541
5719.273	5.99642	-8.79723	4.77875	-8.93965
5723.280	6.05943	-8.26297	4.59075	-8.94811
5727.279	6.05366	-10.05967	4.74353	-8.91318
5731.280	5.96070	-9.66975	4.81291	-8.95987
5735.275	6.04458	-9.33504	4.75568	-8.85844
5739.275	6.04833	-9.19277	4.82035	-8.77679
5743.278	6.01535	-9.00478	4.86975	-8.76663
5747.275	6.12534	-8.83314	4.88429	-8.75979
5751.271	6.17192	-8.72220	4.92452	-8.72819
5755.327	6.28018	-8.30009	4.96216	-8.67378
5759.279	6.37373	-8.01970	4.95255	-8.81328
5763.293	6.33042	-8.39813	4.99179	-8.79072
5767.287	6.28646	-8.99737	5.02551	-8.79487
5771.274	6.24595	-9.43607	5.05686	-8.86224
5775.279	6.12946	-8.84465	4.98295	-8.92893
5779.276	6.12342	-8.92306	5.02785	-9.08434
5783.280	6.13613	-8.89206	5.02482	-9.10415
5787.293	6.08828	-9.26124	5.02999	-9.01590
5791.279	5.89571	-9.09363	4.92373	-9.11622
5795.274	5.92734	-9.54673	4.91659	-9.15116
5799.274	5.91889	-9.24964	4.87845	-9.20691
5803.273	5.84846	-9.47754	4.79371	-9.17949
5807.281	5.95376	-9.15346	4.74903	-9.23478
5811.274	5.83788	-9.30408	4.86142	-9.25770
5815.273	6.02698	-9.49114	4.73190	-9.26350
5819.275	5.89986	-8.94121	4.74168	-9.19734
5823.275	6.11658	-7.98029	4.78232	-8.91372
5827.280	5.29159	-7.97083	3.98116	-8.31502
5831.274	4.48231	-6.23534	2.46699	-7.43465
5835.277	2.34798	-5.62314	0.29649	-6.07928
5839.270	1.26026	-2.36906	-1.10306	-4.54310
5843.279	0.84639	-1.31432	-1.39408	-3.51712
5847.278	0.35469	0.00701	-2.23499	-2.77955
5851.278	-1.27155	0.81954	-3.77968	-2.16086
5855.269	-1.77762	0.56850	-3.39725	-1.84779
5859.277	-1.22524	0.03225	-3.10084	-1.67401
5863.274	-1.09187	-0.73067	-2.56144	-1.46489
5867.277	-0.73402	-0.45017	-2.91733	-1.82554
5871.268	-0.55704	-0.34297	-3.12499	-1.66713
5875.277	-0.98045	0.68021	-3.17950	-1.58868
5879.273	-1.37352	-0.64221	-3.30485	-1.44606
5883.277	-0.87605	0.35443	-3.27244	-1.56248
5887.293	-1.22094	0.70887	-3.36233	-1.74015
5891.274	-1.29489	0.18538	-3.36762	-1.44590
5895.286	-1.42370	0.39768	-3.38862	-1.47762
5899.271	-1.16419	0.35045	-3.69501	-1.42467
5903.277	-1.31406	0.12985	-3.45002	-1.48833
5907.275	-1.34274	0.90940	-3.55671	-1.46033
5911.274	-1.36700	0.33360	-3.50773	-1.51667
5915.271	-1.35353	0.52873	-3.32610	-1.47506
5919.273	-1.31545	0.30571	-3.69909	-1.42873
5923.275	-1.32334	0.38786	-3.50054	-1.53889
5927.274	-1.42903	0.31968	-3.47569	-1.64451
5931.292	-1.22151	0.32296	-3.51518	-1.58705
5935.273	-1.26634	0.20985	-3.71466	-1.58234
5939.275	-1.12221	0.28317	-3.45175	-1.69771
5943.273	-1.20663	0.25571	-3.52487	-1.68212
5947.304	-1.18480	0.19535	-3.43726	-1.81478
5951.288	-1.34170	0.17486	-3.78731	-1.81106
5955.274	-1.26135	0.05642	-3.73060	-1.84497
5959.272	-1.03533	0.04532	-3.62927	-1.71275
5963.273	-1.20688	0.03642	-3.46518	-1.89149
5967.275	-1.22338	0.07570	-3.70186	-1.82216
5971.273	-1.12596	0.01401	-3.74617	-1.80686
5975.282	-1.29253	-0.08456	-3.66973	-1.93922
5979.274	-1.22754	0.16456	-3.49169	-1.79805
5983.270	-1.18284	-0.05928	-3.94920	-1.70917
5987.280	-1.12638	-0.01535	-3.88903	-1.90954
5991.277	-1.30454	-0.17370	-3.69679	-1.90347
5995.270	-1.25384	0.03056	-3.58245	-1.72404
5999.275	-1.23694	-0.09222	-3.53384	-1.80516
6003.271	-1.35221	-0.03304	-3.42886	-1.78139
6007.270	-1.25900	0.09147	-3.79986	-1.84816
6011.270	-1.29849	-0.16635	-3.73389	-1.94713
6015.275	-1.27286	-0.09055	-3.60586	-1.81968
6019.279	-1.31771	-0.17477	-3.48847	-1.95985
6023.269	-1.25280	-0.19368	-3.30329	-1.85850
6027.269	-1.40685	-0.09785	-3.58316	-1.94241
6031.274	-1.39959	-0.27830	-3.62333	-1.80998
6035.269	-1.40703	-0.50415	-3.65149	-1.78783
6039.270	-1.50336	-0.33758	-3.60971	-1.76973
6043.273	-1.44220	-0.27586	-3.62084	-1.88622
6047.270	-1.37684	-0.19153	-3.69192	-1.79929
6051.270	-1.42248	-0.16480	-3.67062	-1.81373
6055.275	-1.40294	-0.16833	-3.67870	-1.78158
6059.273	-1.48778	-0.28606	-3.81896	-1.80733
6063.275	-1.48863	-0.28423	-3.80157	-1.77150
6067.270	-1.47796	-0.25720	-3.77735	-1.73967
6071.270	-1.43515	-0.30674	-3.67247	-1.72072
6075.272	-1.46301	-0.09999	-3.55300	-1.76599
6079.267	-1.47357	0.18482	-3.47381	-1.79764
6083.270	-1.40653	0.04715	-3.66731	-1.82419
6087.288	-1.38738	0.08471	-3.71933	-1.81011
6091.270	-1.32113	-0.10896	-3.57488	-1.88032
6095.272	-1.41137	-0.02613	-3.28808	-2.04269
6099.278	-1.45574	-0.11114	-3.48889	-1.82286
6103.277	-1.47960	-0.47435	-3.35474	-1.72864
6107.268	-1.40036	-0.10749	-3.11873	-1.84557
6111.274	-1.43498	0.27986	-3.24573	-2.00343
6115.272	-1.44168	0.17379	-3.73438	-1.92628
6119.274	-1.31967	-0.20535	-3.58363	-1.96272
6123.269	-1.23826	-0.36606	-3.23868	-2.11236
6127.276	-1.34175	-0.77111	-3.55258	-1.90085
6131.271	-1.36050	-0.28228	-3.40900	-2.07135
6135.274	-1.42159	-0.35029	-3.37109	-2.27784
6139.286	-1.59068	-0.03741	-3.36980	-2.34013
6143.275	-1.86761	0.13930	-3.42693	-2.30119
6147.274	-2.50816	0.43017	-3.75076	-2.11178
6151.269	-3.27066	0.87823	-4.73150	-1.91529
6155.275	-3.26992	0.77140	-5.21779	-0.82186
6159.300	-2.97485	0.61218	-5.00521	-1.68257
6163.276	-2.72493	0.16968	-4.10382	-1.70795
6167.267	-2.53248	0.60436	-4.10651	-1.91695
6171.272	-2.84484	0.93349	-4.97403	-1.51486
6175.269	-2.61275	1.00353	-4.69899	-1.73163
6179.275	-2.61714	0.91952	-4.53941	-1.47000
6183.269	-2.69896	0.92279	-4.96194	-1.37006
6187.268	-2.71632	0.76576	-4.60441	-1.00656
6191.271	-2.65540	1.00268	-4.56932	-1.16607
6195.264	-2.65585	1.06987	-4.75433	-1.24188
6199.272	-2.67905	1.22714	-4.78121	-1.28940
6203.285	-2.67605	1.15667	-4.65222	-1.37685
6207.270	-2.61773	1.02690	-4.69704	-1.34295
6211.270	-2.56476	0.72237	-4.85682	-1.26446
6215.267	-2.61211	0.85977	-4.76840	-1.46769
6219.267	-2.70245	0.84102	-4.44857	-1.32316
6223.271	-2.74105	1.05881	-4.85517	-1.20766
6227.269	-2.71644	1.03295	-4.62130	-0.91417
6231.272	-2.93797	1.05756	-4.45673	-1.19225
6235.268	-2.88821	0.93227	-4.29290	-1.36596
6239.267	-2.91653	0.67673	-4.67934	-1.08748
6243.270	-2.76564	0.65905	-4.56350	-1.15682
6247.270	-2.75891	0.44368	-4.40078	-1.15158
6251.265	-2.84677	0.56845	-4.43830	-1.16871
6255.270	-2.87732	0.63226	-4.78945	-1.05293
6259.268	-2.96728	0.79870	-4.76943	-0.92121
6263.276	-2.94243	0.84260	-4.74106	-1.11016
6267.147	-2.90431	1.02003	-4.53650	-1.14540
6271.147	-2.93406	1.00159	-4.63585	-1.27553
6275.140	-2.87477	1.11723	-4.75391	-1.31470
6279.141	-2.76418	1.04355	-4.69282	-1.28937
6283.141	-2.70545	0.60646	-4.57855	-1.29054
6287.159	-2.69113	0.31156	-4.55014	-1.30084
6291.143	-2.57677	0.38730	-4.41840	-1.22842
6295.145	-2.38449	0.65629	-4.78740	-1.42669
6299.141	-2.20436	1.03518	-4.70993	-1.40955
6303.144	-2.54601	0.98961	-4.66556	-1.34130
6307.139	-2.39658	0.95294	-4.62256	-1.21230
6311.147	-2.57139	0.77608	-4.79588	-1.26717
6315.144	-2.37565	0.42224	-4.76724	-1.16943
6319.140	-2.41432	0.51239	-4.49405	-1.19335
6323.140	-2.56164	0.69222	-4.39269	-1.15622
6327.153	-2.60582	0.85736	-4.59551	-1.30006
6331.149	-2.58935	0.69498	-4.74037	-1.32519
6335.143	-2.69787	0.60927	-4.70264	-1.16439
6339.150	-2.86554	0.72450	-4.64542	-0.83461
6343.146	-2.94020	0.80730	-4.50809	-1.42780
6347.144	-2.80157	0.80985	-4.40187	-1.31128
6351.146	-2.72588	0.58558	-4.30852	-1.10268
6355.147	-2.98576	0.58937	-4.44025	-1.38515
6359.142	-3.26745	0.68613	-4.48507	-1.42968
6363.145	-3.86279	0.58323	-4.82121	-2.08675
6367.428	-6.03265	0.13243	-6.04006	-1.85785
6371.176	-6.73013	-1.85673	-6.36439	-2.82030
6375.147	-6.60585	-3.01771	-6.70761	-3.20843
6379.135	-6.19810	-3.35924	-7.76160	-3.97724
6383.143	-6.03802	-3.07060	-7.22778	-3.80572
6387.144	-6.05116	-3.03751	-7.46221	-3.65111
6391.147	-6.17072	-2.79128	-7.08295	-3.58994
6395.146	-6.25924	-2.47235	-6.98871	-3.91737
6399.139	-6.31659	-2.44523	-7.15921	-4.09844
6403.137	-6.29244	-2.32366	-7.10345	-4.03510
6407.140	-6.16797	-2.32091	-7.18438	-4.18124
6411.138	-6.35358	-2.26093	-7.26271	-4.13606
6415.133	-6.30239	-2.53200	-7.32927	-4.15070
6419.144	-6.25593	-2.57773	-7.64847	-4.17464
6423.138	-6.31147	-2.77917	-7.50449	-4.14834
6427.142	-6.35143	-2.53008	-7.49378	-4.13425
6431.136	-6.41633	-2.44271	-7.31884	-4.13863
6435.148	-6.38565	-2.54591	-7.26451	-4.16096
6439.139	-6.43650	-2.47855	-7.28400	-4.16563
6443.144	-6.42601	-2.46070	-7.19566	-4.11519
6447.139	-6.43096	-2.60519	-7.33930	-4.11780
6451.138	-6.44716	-2.72269	-7.35153	-4.08721
6455.142	-6.45412	-2.66835	-7.34797	-3.99982
6459.139	-6.39312	-2.81477	-7.35022	-4.00255
6463.142	-6.45765	-2.69859	-7.21269	-4.02438
6467.134	-6.52691	-2.63926	-7.22803	-3.98725
6471.142	-6.51973	-2.65352	-7.22409	-4.03330
6475.140	-6.52233	-2.72689	-7.36484	-3.97039
6479.146	-6.54347	-2.87178	-7.36547	-4.04192
6483.138	-6.49198	-3.11510	-7.36137	-4.08464
6487.153	-6.47485	-3.38325	-7.32627	-4.21672
6491.142	-6.39824	-2.59718	-7.33374	-4.25920
6495.138	-6.32301	-2.60486	-7.31049	-4.21515
6499.138	-6.17955	-2.34803	-7.35959	-4.21822
6503.137	-6.00845	-2.37461	-7.38749	-4.27947
6507.137	-5.74060	-2.54969	-7.38546	-4.26317
6511.181	-5.72593	-2.45112	-7.25074	-4.18072
6515.141	-5.86214	-2.85796	-7.26119	-4.21380
6519.145	-6.03837	-2.82655	-7.48544	-4.25282
6523.139	-5.91369	-2.27770	-7.49886	-4.29311
6527.138	-5.89500	-2.45917	-7.25306	-4.11940
6531.141	-5.75979	-2.74152	-7.21831	-4.14012
6535.135	-5.83191	-2.67884	-7.15885	-4.04696
6539.141	-6.05928	-2.46556	-7.19969	-3.92650
6543.139	-6.10607	-2.58028	-7.08495	-3.95588
6547.141	-6.13120	-2.74083	-7.07505	-3.95314
6551.135	-6.08666	-2.87286	-7.01213	-3.99054
6555.142	-6.03123	-3.06884	-7.01854	-4.03812
6559.141	-6.16209	-2.85996	-7.11186	-3.86133
6563.143	-6.25313	-2.83145	-6.99128	-3.87141
6567.141	-6.27783	-2.87601	-6.90686	-3.86044
6571.169	-6.21497	-3.11207	-6.86701	-3.90802
6575.137	-6.20148	-3.13255	-6.87672	-3.94543
6579.141	-6.25019	-3.03775	-6.86799	-3.89855
6583.139	-6.13422	-3.19440	-6.84020	-3.98546
6587.176	-6.17420	-2.89109	-6.99800	-3.91150
6591.139	-6.17656	-2.78755	-7.03518	-4.06303
6595.135	-6.15311	-2.39294	-7.07207	-4.07476
6599.134	-6.12281	-2.33250	-7.16459	-4.07237
6603.140	-6.00275	-2.33650	-7.19840	-4.12026
6607.138	-5.89380	-2.29557	-7.05195	-4.12356
6611.135	-5.84097	-2.53103	-6.98472	-4.10755
6615.135	-5.79892	-2.44002	-7.09326	-4.02886
6619.134	-5.75146	-2.28932	-7.18621	-4.08662
6623.135	-5.65336	-2.45069	-7.27443	-4.29582
6627.138	-5.78595	-2.65602	-7.33703	-4.31578
6631.134	-5.76866	-2.67983	-7.30837	-4.34745
6635.139	-5.70335	-2.79004	-7.18496	-4.42898
6639.138	-5.70635	-2.83874	-7.21711	-4.38666
6643.141	-5.75802	-2.89474	-7.12100	-4.28285
6647.134	-5.77652	-2.85931	-7.06122	-4.20814
6651.132	-5.81290	-2.91022	-7.01570	-4.23838
6655.134	-5.76775	-2.85282	-7.07522	-4.31224
6659.138	-5.92299	-3.00859	-6.93689	-4.25616
6663.134	-5.95174	-3.04863	-7.01367	-4.25544
6667.134	-5.97970	-3.14909	-7.06767	-4.39278
6671.134	-5.98250	-3.51670	-7.09030	-4.27892
6675.138	-6.04507	-3.64060	-7.04956	-4.25408
6679.129	-6.05771	-3.58950	-7.05249	-4.20871
6683.139	-6.09346	-3.37817	-7.01783	-4.12897
6687.162	-6.03250	-3.27442	-7.03196	-4.08188
6691.138	-6.04870	-3.35045	-7.03800	-3.99540
6695.133	-6.00212	-3.31864	-7.04618	-3.93417
6699.143	-6.05383	-3.32057	-7.07999	-3.80886
6703.138	-5.97234	-3.08980	-7.20697	-4.01628
6707.135	-5.80096	-3.14433	-7.28940	-3.96318
6711.137	-4.88136	-2.75840	-7.16967	-3.68397
6715.132	-3.94453	-1.16548	-6.41251	-2.32622
6719.136	-2.88512	-1.64059	-4.98583	-2.19654
6723.137	-1.55566	0.44597	-4.59859	-0.86032
6727.142	-1.51973	0.99764	-4.10858	-0.33209
6731.134	-2.41043	1.31591	-4.08063	-0.86767
6735.133	-3.06169	0.98424	-4.16843	-1.53051
6739.137	-3.19924	0.55306	-4.70727	-1.53404
6743.133	-2.69515	0.48967	-4.48599	-1.55267
6747.132	-2.19103	0.54279	-4.28769	-1.39147
6751.133	-2.29010	0.67019	-4.32034	-1.33827
6755.136	-1.97049	0.78601	-4.16393	-1.12144
6759.134	-2.16748	0.76700	-4.12424	-1.18675
6763.191	-2.21375	0.81369	-4.00892	-1.21053
6767.156	-2.14516	1.01827	-3.98995	-1.19166
6771.137	-2.26579	0.92426	-4.08989	-1.24505
6775.149	-2.22743	0.24527	-3.97839	-1.30072
6779.141	-2.22057	0.12281	-3.93562	-1.22459
6783.162	-2.24993	0.08122	-3.88122	-1.16638
6787.145	-2.26708	-0.02997	-3.81424	-1.12615
6791.134	-2.38392	-0.03146	-3.82148	-1.05689
6795.132	-2.45639	0.15243	-3.79373	-0.95994
6799.134	-2.55262	0.14974	-3.80866	-0.92794
6803.131	-2.49134	0.01358	-3.77281	-0.98440
6807.131	-2.55621	0.03726	-3.77654	-0.99895
6811.141	-2.41249	0.26533	-3.69378	-1.02894
6815.134	-1.52042	0.31646	-3.70188	-0.98475
6819.135	-1.54696	0.27672	-3.73668	-0.93221
6823.130	-1.77764	0.36615	-3.79697	-0.86078
6827.134	-1.93556	0.59473	-3.93739	-0.93063
6831.134	-2.25293	0.82333	-3.85758	-1.09581
6835.130	-2.38160	1.01274	-3.80429	-1.21482
6839.137	-2.12771	1.19973	-3.76376	-1.36858
6843.130	-1.99045	0.75402	-3.79702	-1.45062
6847.134	-1.90792	0.84119	-3.90481	-1.47432
6851.135	-2.06612	0.77800	-3.89365	-1.32129
6855.131	-2.10972	0.63630	-4.04722	-1.19900
6859.131	-2.11465	0.42659	-4.06952	-1.22070
6863.133	-2.23628	0.35494	-4.22913	-1.16519
6867.131	-2.26524	1.05408	-4.24213	-1.27760
6871.128	-2.29029	1.10417	-3.99825	-1.34072
6875.130	-2.23219	0.94081	-3.92443	-1.46720
6879.134	-2.22713	0.55596	-3.95137	-1.56302
6883.130	-2.22763	0.61676	-4.11925	-1.51371
6887.150	-2.18349	0.28032	-4.12241	-1.55128
6891.136	-2.23333	0.42367	-4.05219	-1.40492
6895.134	-2.21908	-0.03240	-4.17586	-1.22217
6899.136	-2.17427	-0.23220	-4.16596	-1.22305
6903.133	-2.18478	-0.08102	-4.26146	-1.30469
6907.135	-2.14278	0.14087	-4.07298	-1.35504
6911.136	-2.05809	0.19802	-3.88441	-1.43422
6915.133	-2.06592	0.34793	-3.88500	-1.36920
6919.133	-2.09157	0.30065	-3.90306	-1.22808
6923.130	-2.15787	0.43119	-3.94829	-1.07220
6927.134	-2.25149	0.58594	-3.99479	-0.96863
6931.131	-2.30127	0.84902	-3.91272	-1.16892
6935.141	-2.29423	0.98386	-3.78373	-1.07677
6939.132	-2.24963	0.56792	-3.87571	-1.10367
6943.134	-2.15948	0.30783	-3.81649	-1.13145
6947.131	-2.26254	0.72531	-3.89095	-1.04300
6951.132	-2.29475	0.59106	-4.11957	-0.94903
6955.136	-2.31255	0.45699	-3.84972	-1.19736
6959.132	-2.30026	-0.01842	-3.81854	-1.41879
6963.133	-2.29535	0.23116	-3.92613	-1.42892
6967.130	-2.26453	0.04407	-4.04646	-1.58367
6971.132	-2.27461	0.08854	-3.96419	-1.37257
6975.139	-2.30043	0.13537	-3.98489	-1.29875
6979.168	-2.24022	0.11958	-4.06883	-1.01763
6983.135	-2.31691	0.10885	-4.23806	-1.11430
6987.133	-2.34736	0.04648	-4.22592	-1.32124
6991.135	-2.35447	-0.03816	-4.11456	-1.15976
6995.130	-2.30541	-0.09425	-3.91020	-1.51509
6999.134	-2.27397	-0.19181	-3.95957	-1.67814
7003.129	-2.24475	-0.05475	-4.00998	-1.58882
7007.153	-2.32208	-0.05174	-4.06029	-1.41524
7011.128	-2.31386	-0.11933	-3.76767	-1.27504
7015.128	-2.30900	-0.05758	-4.06152	-1.12066
7019.138	-2.38318	-0.00117	-4.16818	-1.54765
7023.128	-3.66839	-0.11856	-4.69322	-1.79620
7027.131	-4.48322	-2.81187	-5.48983	-4.12964
7031.126	-6.04519	-5.89020	-5.74121	-7.15238
7035.133	-6.58636	-8.11720	-6.47215	-7.52798
7039.130	-7.79715	-8.96527	-6.44572	-9.11029
7043.131	-7.90043	-11.85212	-6.95406	-9.86093
7047.133	-10.66536	-14.65245	-7.61351	-11.42881
7051.130	-19.99372	-11.83493	-8.27662	-12.17462
7055.126	-19.99372	-11.93364	-8.13025	-12.52155
7059.138	-19.99372	-11.97610	-8.58747	-12.70107
7063.129	-19.99372	-11.99987	-8.82165	-12.60162
7067.129	-19.99372	-12.01516	-8.18874	-12.48156
7071.127	-19.99372	-12.02588	-8.26420	-12.57138
7075.129	-19.99372	-12.03385	-8.16160	-12.58502
7079.130	-19.99372	-12.04004	-8.26974	-12.65519
7083.127	-19.99372	-12.04500	-8.25391	-12.85632
7087.143	-19.99372	-12.07959	-8.51081	-12.82110
7091.134	NaN	NaN	-8.57648	-12.79521
7095.125	NaN	NaN	-8.29132	-13.00013
7099.133	NaN	NaN	-8.54253	-12.90191
7103.131	NaN	NaN	-8.43846	-12.97235
7107.131	NaN	NaN	-8.53821	-13.01307
7111.125	NaN	NaN	-8.54564	-12.95345
7115.126	NaN	NaN	-8.46551	-13.05570
7119.130	NaN	NaN	-8.54202	-13.05806
7123.004	NaN	NaN	-8.55891	-13.05817
7127.005	NaN	NaN	-8.64146	-13.02794
7130.998	NaN	NaN	-8.55032	-12.92981
7135.007	NaN	NaN	-8.60555	-12.95630
7139.002	NaN	NaN	-8.71530	-12.81419
7143.001	NaN	NaN	-8.63173	-12.89506
7147.011	NaN	NaN	-8.71366	-12.91150
7151.004	NaN	NaN	-8.65790	-12.83022
7155.006	NaN	NaN	-8.64410	-12.85473
7158.997	NaN	NaN	-8.66964	-12.76078
7163.006	NaN	NaN	-8.66508	-12.78020
7167.003	NaN	NaN	-8.59885	-12.70493
7171.005	NaN	NaN	-8.60989	-12.69333
7174.997	NaN	NaN	-8.77036	-12.69871
7179.006	NaN	NaN	-8.70180	-12.78033
7183.001	NaN	NaN	-8.60460	-12.75933
7187.016	NaN	NaN	-8.63600	-12.80270
7191.013	NaN	NaN	-8.65409	-12.75390
7195.012	NaN	NaN	-8.60975	-12.74820
7199.005	NaN	NaN	-8.68211	-12.76362
7203.006	NaN	NaN	-8.59143	-12.95045
7206.999	NaN	NaN	-8.51605	-12.84778
7211.007	NaN	NaN	-8.50930	-12.89333
7215.027	NaN	NaN	-8.60570	-12.91109
7219.003	NaN	NaN	-8.51239	-13.00200
7222.995	NaN	NaN	-8.49525	-12.87898
7227.005	NaN	NaN	-8.47002	-12.87928
7231.005	NaN	NaN	-8.40579	-12.92505
7235.004	NaN	NaN	-8.44863	-12.92000
7238.995	NaN	NaN	-8.50042	-12.88110
7242.998	-9.61156	-13.72594	-8.39608	-12.84167
7247.003	-19.99372	-12.08756	-8.43205	-12.71628
7251.001	-19.99372	-12.08749	-8.55964	-12.79153
7255.003	-19.99372	-12.08738	-8.58619	-12.83194
7258.997	-19.99372	-12.08720	-8.57063	-12.76934
7263.003	-19.99372	-12.08698	-8.58963	-12.69590
7267.002	-19.99372	-12.08673	-8.65016	-12.76768
7270.995	-19.99372	-12.08644	-8.77962	-12.84490
7275.010	-19.99372	-12.08613	-8.81947	-12.76824
7278.999	-9.57961	-14.75556	-8.77824	-12.75147
7283.003	-19.99372	-12.08714	-8.74784	-12.77518
7287.016	-19.99372	-12.07814	-8.73000	-12.86593
7291.003	-19.99372	-12.07814	-8.81910	-12.89448
7294.999	-9.84440	-14.62394	-8.72995	-12.81170
7298.998	-19.99372	-12.08238	-8.74726	-12.83580
7303.004	-9.83493	-14.85448	-8.69828	-12.91920
7307.001	-9.96819	-14.83783	-8.74202	-12.96463
7311.002	-10.12748	-14.68538	-8.79041	-12.90485
7315.003	-19.99372	-12.09689	-8.70803	-12.83547
7318.997	-19.99372	-12.09629	-8.61094	-12.85734
7323.003	-19.99372	-12.09267	-8.60344	-12.86251
7327.011	-10.19224	-14.77889	-8.59182	-12.96910
7331.008	-19.99372	-12.09544	-8.73097	-12.89914
7334.998	-10.72939	-14.72997	-8.81680	-12.82731
7339.003	-11.94653	-13.99688	-9.67338	-12.35731
7342.994	-12.86272	-13.88192	-11.31660	-12.21111
7347.004	-12.87364	-13.05239	-11.72196	-11.27178
7350.997	-12.78531	-12.78734	-11.17219	-11.04362
7355.009	-12.94188	-13.86733	-10.93973	-11.30674
7358.998	-12.81566	-13.76993	-10.13056	-11.43889
7363.003	-19.99372	-12.35166	-10.25776	-11.55377
7366.998	-12.66280	-13.52868	-10.56613	-11.51198
7370.997	-12.59332	-12.68867	-10.44242	-11.53202
7374.996	-12.71089	-12.78498	-10.72211	-11.52144
7378.997	-12.61469	-12.99053	-10.89607	-11.47940
7383.000	-12.55911	-12.91638	-11.04353	-11.49406
7387.018	-12.66048	-12.74871	-11.01443	-11.46485
7391.013	-12.56427	-12.82637	-10.95390	-11.51894
7395.004	-12.61294	-12.88039	-10.87326	-11.54907
7399.001	-12.60181	-12.84336	-10.91502	-11.57669
7403.001	-12.49826	-12.92264	-10.98867	-11.57509
7407.000	-12.52218	-12.80411	-11.02746	-11.54172
7411.001	-12.58864	-12.79397	-11.14932	-11.60515
7414.992	-12.46041	-12.75604	-11.13482	-11.61250
7419.000	-12.48374	-12.81033	-11.11301	-11.66312
7422.996	-12.45042	-12.68434	-11.12429	-11.70194
7426.998	-12.59765	-12.56148	-11.08447	-11.68299
7430.996	-12.38057	-12.53610	-11.03071	-11.65730
7435.000	-12.38666	-12.34930	-10.96124	-11.59163
7439.002	-12.28296	-12.23773	-11.01510	-11.67412
7443.031	-12.24059	-12.16489	-11.08622	-11.74366
7447.001	-12.24436	-12.21692	-11.06088	-11.78050
7450.998	-12.17352	-12.14280	-11.12818	-11.80235
7455.367	-12.12314	-12.11229	-11.06571	-11.74317
7459.012	-12.08471	-12.16591	-11.03573	-11.79906
7463.002	-12.00913	-12.08004	-11.05854	-11.79284
7466.998	-11.92838	-12.04295	-10.91586	-11.77528
7471.002	-11.96498	-12.00986	-10.99286	-11.86399
7474.998	-11.98828	-12.13316	-11.04977	-11.89992
7478.996	-11.93995	-12.28780	-10.99609	-11.92457
7482.999	-12.00160	-12.39269	-10.95050	-11.95452
7487.005	-12.02178	-12.50648	-10.92160	-11.97442
7491.001	-12.05867	-12.61537	-10.89444	-11.96792
7494.992	-12.22227	-12.86771	-10.89374	-12.00033
7499.000	-12.26057	-12.67657	-10.86749	-12.02174
7502.996	-12.30225	-12.79497	-10.84789	-12.02643
7506.999	-12.32843	-12.69427	-10.83702	-12.03883
7511.046	-12.29514	-12.88130	-10.91258	-12.04872
7515.004	-12.27363	-13.06500	-10.95131	-12.02146
7518.998	-12.35055	-13.13244	-11.01967	-11.97047
7523.002	-12.32115	-12.90810	-11.03537	-11.95141
7527.005	-12.28635	-12.76164	-11.02356	-11.92082
7530.997	-12.19325	-12.70882	-11.03741	-11.85253
7534.996	-12.14051	-12.52477	-11.09621	-11.78366
7538.999	-12.16017	-12.48315	-11.12706	-11.69788
7542.993	-12.30720	-12.39901	-11.17063	-11.52704
7547.000	-12.25901	-12.54575	-11.24963	-11.65651
7550.996	-12.16944	-12.72737	-11.30858	-11.66697
7554.999	-12.13427	-12.83646	-11.33538	-11.66467
7558.991	-11.81258	-12.28135	-11.22995	-11.65927
7563.004	-10.71224	-12.31028	-9.75676	-11.62121
7566.998	-8.15253	-11.67770	-8.09092	-11.60600
7570.995	-4.93009	-10.15517	-5.27634	-11.35884
7574.994	-4.20489	-9.62701	-3.56423	-11.61065
7578.999	-1.69810	-9.83680	-1.90663	-11.73912
7582.994	-0.63330	-9.81309	-0.55245	-11.80828
7587.008	-0.23460	-10.25518	1.58512	-12.25229
7590.995	2.79112	-10.01291	1.89768	-12.43333
7594.998	3.67816	-10.10894	4.33335	-12.18133
7598.995	4.16389	-9.80999	5.86863	-12.45807
7602.996	5.49404	-9.28838	5.99166	-11.80358
7607.002	6.35689	-9.00879	6.41393	-11.81832
7610.995	5.89240	-9.23602	6.24016	-12.32757
7614.998	5.73596	-9.00406	6.46468	-12.16734
7618.993	5.17636	-9.05544	6.29224	-12.21725
7622.999	5.20258	-9.16188	6.43209	-12.27143
7626.991	5.69205	-9.41372	6.51074	-12.27493
7630.999	5.76765	-9.35789	6.59464	-12.21788
7635.011	5.86339	-9.43510	6.42589	-12.04220
7638.999	5.74102	-9.44861	6.34844	-11.91896
7642.997	5.91074	-9.50023	6.56997	-11.89742
7647.002	5.96689	-9.63628	6.63286	-11.93881
7650.995	5.95010	-9.72354	6.55329	-11.98237
7654.993	5.89579	-9.30364	6.74834	-11.93718
7659.023	5.92594	-9.60297	6.36640	-11.82918
7662.994	5.99416	-9.83435	6.16290	-11.71873
7666.993	6.05452	-10.00788	6.49347	-11.69090
7670.993	5.97796	-10.45254	6.42410	-11.64525
7674.989	5.90259	-10.05240	6.61389	-11.71431
7678.996	5.77155	-10.14605	6.47022	-11.64276
7682.987	6.06100	-9.93058	6.23236	-11.63010
7687.011	5.92753	-9.60193	6.41420	-11.59764
7691.003	5.88039	-9.69193	6.37891	-11.61439
7694.989	5.96662	-10.10566	6.62642	-11.52586
7698.990	6.06620	-10.21393	6.04468	-11.52715
7702.996	5.97710	-9.81193	6.14536	-11.53570
7706.987	6.06549	-9.94069	6.24394	-11.54399
7710.998	6.16699	-10.42411	6.55332	-11.58522
7714.992	6.00707	-11.30528	6.26569	-11.53698
7718.996	5.79804	-11.47415	6.18102	-11.51343
7722.987	5.82508	-10.71659	6.15892	-11.48346
7726.994	6.02990	-10.44428	6.11567	-11.50031
7730.995	6.17411	-10.68107	6.36197	-11.47985
7734.992	6.51790	-10.76444	6.38418	-11.45980
7738.993	5.76239	-10.63789	6.13876	-11.50488
7742.995	5.63559	-11.08743	6.07601	-11.38200
7746.990	5.94956	-10.86220	6.19868	-11.27554
7751.010	6.53504	-10.84893	6.11383	-11.26539
7754.996	6.30146	-11.44180	6.21961	-11.22582
7758.992	5.56183	-11.21114	6.23766	-11.25800
7762.999	5.80047	-10.94726	6.18350	-11.25100
7767.001	6.41886	-10.87297	6.17327	-11.12704
7770.992	6.33243	-11.35169	6.18154	-11.09842
7775.002	5.72809	-11.12193	6.02455	-11.13666
7778.991	5.80035	-11.14506	6.05069	-11.25054
7782.995	6.33873	-11.26846	6.12099	-11.12337
7787.000	5.98940	-11.74747	5.86673	-11.07654
7790.992	5.90792	-11.18365	5.99156	-11.11705
7794.992	6.56912	-11.33589	6.26748	-11.10398
7798.996	5.94445	-11.82363	6.03591	-11.02506
7802.990	6.09690	-11.15221	6.13780	-10.92756
7806.991	6.62292	-11.60559	6.25397	-10.99064
7810.994	5.87872	-11.88890	6.08600	-10.93114
7814.998	6.07155	-11.40869	5.98864	-10.89384
7818.991	6.18657	-11.80593	6.12789	-10.89936
7822.991	5.92066	-11.49045	6.03189	-10.86516
7827.007	6.26005	-11.50401	6.22137	-10.81409
7830.993	6.07886	-11.73720	6.10151	-10.83500
7834.997	6.45466	-11.47765	6.34412	-10.85794
7838.990	7.58805	-11.09736	6.84663	-10.87668
7842.996	9.40206	-11.50667	9.84305	-10.89906
7846.987	11.13986	-11.71879	10.83283	-11.28837
7850.996	11.37796	-11.64550	12.58131	-11.51471
7854.996	13.16426	-11.05304	13.30035	-12.20912
7859.024	12.61358	-11.07868	13.77574	-12.03549
7862.996	12.94085	-11.21957	13.76799	-12.17644
7866.992	11.56860	-11.07810	13.24955	-12.01871
7870.986	12.26955	-10.78485	13.30646	-11.99409
7874.994	12.12654	-10.87545	13.32167	-12.15537
7878.988	12.70929	-11.19085	13.33751	-11.79710
7882.992	12.25351	-10.94695	13.01081	-11.97353
7887.002	12.86588	-11.33913	13.46658	-12.02479
7890.990	12.97090	-11.24865	13.14103	-12.06062
7894.993	12.41814	-11.17721	13.33095	-12.12927
7898.993	12.87310	-11.30259	13.26065	-12.10901
7902.996	12.75254	-11.49173	12.96460	-11.92440
7906.993	12.67440	-11.41723	13.24071	-11.90002
7910.986	12.79293	-11.56979	13.25028	-11.85971
7914.992	12.81936	-11.61260	12.92397	-11.75013
7918.989	13.01173	-11.40144	13.40359	-11.72334
7922.992	12.60344	-11.64380	13.02622	-11.75567
7926.984	12.61916	-11.70066	13.15765	-11.55350
7930.986	12.90477	-11.63534	13.03171	-11.83350
7934.988	12.58727	-11.63465	12.95150	-11.60532
7938.993	12.83680	-11.64859	12.90803	-11.51399
7942.991	12.82946	-10.70494	13.00335	-11.52958
7946.987	12.86791	-11.58106	13.00294	-11.40769
7950.988	12.90258	-10.53482	12.68094	-11.45722
7954.990	12.86871	-11.42815	12.76593	-11.29360
7958.987	12.62776	-11.36061	12.83720	-11.26556
7962.987	12.51378	-11.65682	12.65732	-11.17947
7966.986	12.71935	-11.15278	13.10594	-11.19698
7970.991	12.91609	-11.45238	12.64562	-11.26423
7974.863	12.72844	-11.38648	12.94770	-11.18059
7978.997	13.01081	-11.43637	12.67412	-11.15859
7982.861	12.66748	-11.09513	12.84050	-11.18462
7986.880	13.00327	-11.43464	12.65321	-11.14259
7990.871	12.69535	-11.01227	12.59602	-11.15599
7994.859	12.91901	-11.34109	12.94615	-11.15121
7998.866	12.76761	-11.16543	12.62525	-11.18548
8002.859	12.89584	-11.43490	12.81299	-11.26382
8006.863	12.70761	-11.21310	12.70607	-11.23441
8010.873	12.80239	-11.39451	12.58460	-11.22252
8014.865	12.98501	-11.88613	12.77471	-11.26341
8018.862	12.86492	-11.22471	12.74093	-11.14974
8022.863	12.84189	-11.88929	12.65392	-11.23883
8026.869	12.84064	-11.34925	12.65429	-11.18921
8030.862	12.77516	-11.37861	12.67083	-11.14265
8034.863	13.07615	-11.40824	12.67062	-11.16661
8038.865	12.80251	-11.36013	12.60980	-11.07209
8042.862	12.83390	-11.49697	12.59798	-11.08287
8046.860	12.77936	-11.37472	12.63305	-11.03790
8050.867	12.80450	-11.13660	12.55015	-11.04192
8054.861	12.75457	-11.51098	12.42600	-10.93833
8058.866	12.78245	-11.08661	12.47463	-10.99593
8062.862	12.76900	-11.03791	12.54710	-11.02041
8066.871	12.83649	-11.20462	12.53417	-10.95917
8070.866	12.78571	-11.05048	12.43282	-10.93405
8074.863	12.69311	-11.15286	12.58923	-10.94596
8078.860	12.74813	-11.08768	12.37269	-10.91947
8082.860	12.77851	-11.21590	12.32952	-10.84730
8086.877	12.71047	-11.13240	12.27078	-10.79064
8090.866	12.67107	-11.11022	12.28436	-10.83334
8094.879	12.75148	-11.22565	12.25010	-10.71016
8098.908	12.74355	-11.29332	12.23888	-10.72811
8102.863	12.68253	-11.19123	12.32355	-10.72999
8106.865	12.62930	-11.26295	12.25218	-10.70822
8110.860	12.67182	-11.21954	12.32194	-10.75651
8114.870	12.82837	-11.28855	12.22232	-10.68502
8118.860	12.92562	-11.38049	12.22895	-10.67279
8122.863	12.83545	-11.26391	12.20494	-10.64055
8126.856	12.85289	-11.24183	12.32096	-10.66474
8130.865	12.89996	-11.17563	12.32343	-10.69854
8134.878	12.76319	-11.25694	12.30215	-10.72960
8138.860	12.94763	-11.23875	12.26230	-10.61516
8142.858	12.86553	-11.30181	12.27742	-10.60669
8146.860	13.06810	-11.31440	12.15471	-10.56143
8150.867	13.17313	-11.34826	12.28256	-10.59715
8154.865	12.92632	-11.43871	12.15607	-10.48908
8158.856	12.90671	-11.33593	12.18557	-10.48639
8162.865	12.67433	-11.37491	12.22267	-10.55824
8166.876	12.83236	-11.23895	12.24386	-10.57356
8170.868	12.83965	-11.10110	12.21392	-10.60827
8174.856	12.73392	-11.22363	12.21831	-10.56292
8178.863	12.80341	-10.95264	12.38038	-10.57365
8182.859	12.79791	-10.76302	12.34811	-10.58605
8186.860	12.79815	-10.91329	12.29763	-10.58637
8190.864	12.63532	-10.90657	12.25043	-10.60988
8194.870	12.64737	-11.39327	12.29398	-10.57139
8198.865	12.78901	-10.98128	12.48487	-10.56751
8202.858	12.89225	-10.95398	12.68812	-10.60590
8206.862	12.99682	-10.97108	12.56460	-10.55977
8210.853	13.21684	-11.12566	12.44702	-10.55776
8214.867	13.32898	-11.25780	12.40193	-10.53612
8218.860	13.08300	-12.24589	12.14492	-10.49481
8222.863	13.01958	-11.67355	12.19837	-10.43796
8226.853	12.98266	-11.37472	12.43329	-10.40903
8230.864	12.87539	-11.55396	12.37548	-10.40453
8234.862	13.02533	-11.51677	12.46756	-10.38295
8238.864	12.92658	-11.48560	12.60580	-10.36215
8242.854	13.16056	-11.44818	12.35557	-10.38121
8246.860	12.98805	-11.45360	12.15154	-10.38519
8250.857	13.06501	-11.35249	12.26889	-10.38957
8254.862	12.97721	-11.07942	12.41727	-10.35091
8258.873	12.67813	-11.08237	12.14179	-10.35155
8262.904	11.78994	-11.02821	10.83027	-10.41050
8266.870	9.82404	-11.26594	9.82356	-10.40923
8270.862	9.26628	-11.33149	9.24646	-10.31655
8274.855	9.53931	-11.27054	9.05700	-10.06397
8278.866	10.02608	-11.33494	9.08588	-10.01795
8282.857	10.17050	-11.39038	9.57353	-10.11258
8286.859	11.06757	-11.53332	9.73031	-10.00285
8290.862	9.95100	-11.38533	9.46167	-10.10744
8294.856	9.98783	-11.45093	9.57220	-10.01023
8298.861	9.97317	-11.52852	9.24124	-9.96175
8302.853	10.11055	-11.68868	9.21336	-9.86243
8306.862	10.06465	-12.04506	9.22501	-9.81087
8310.858	9.85785	-12.78321	9.15739	-9.82878
8314.861	10.07598	-12.45948	9.16313	-9.82675
8318.860	10.06304	-12.24832	9.10589	-9.85138
8322.860	9.94431	-12.32148	9.07615	-9.83627
8326.856	9.79525	-12.28900	9.01544	-9.86412
8330.857	9.70458	-12.28876	9.09033	-9.87857
8334.856	9.66882	-12.40555	9.04965	-9.86163
8338.859	9.62410	-12.40158	9.15350	-9.87961
8342.856	9.77500	-12.36328	9.20767	-9.88820
8346.859	9.70319	-12.36093	9.29831	-9.91307
8350.858	9.67319	-12.32167	9.54122	-9.91625
8354.857	9.83561	-12.19472	9.45088	-9.91080
8358.859	9.84028	-12.12651	9.33966	-9.93529
8362.857	9.92678	-12.14482	9.42977	-9.95311
8366.856	9.82216	-12.24981	9.50337	-9.97314
8370.856	9.88504	-12.30242	9.30892	-10.00063
8374.855	9.87348	-12.22194	9.43634	-10.00296
8378.855	10.06799	-12.10254	9.41661	-10.00725
8382.858	10.09864	-12.02314	9.37854	-10.03094
8386.876	10.15266	-11.93897	9.38368	-10.04356
8390.859	10.21358	-11.79487	9.35607	-10.05047
8394.856	10.24120	-11.72581	9.31926	-10.07395
8398.855	10.31088	-11.66912	9.32925	-10.10975
8402.859	10.02692	-12.00148	9.31206	-10.11528
8406.859	9.96273	-11.96537	9.28552	-10.11379
8410.860	9.96903	-12.01629	9.21280	-10.09708
8414.854	9.79619	-11.92101	9.19070	-10.05564
8418.856	9.92261	-11.85117	9.06659	-10.02485
8422.859	9.90515	-11.69648	9.01690	-10.01207
8426.856	9.88480	-11.61928	8.98460	-9.97748
8430.855	10.05688	-11.14664	9.05013	-10.04315
8434.855	10.00442	-11.16562	9.08133	-10.07986
8438.856	9.80226	-11.61452	9.24520	-10.10461
8442.860	9.76056	-11.69984	9.23140	-10.06592
8446.857	9.79002	-11.66913	9.20284	-10.11531
8450.880	9.71613	-11.61678	9.34930	-10.13900
8454.865	9.60070	-11.65688	9.28627	-10.16130
8458.856	9.67078	-11.84720	9.45761	-10.11884
8462.854	9.64871	-11.82876	9.62063	-10.19239
8466.858	9.67765	-11.91755	9.52770	-10.18389
8470.855	9.74969	-11.94841	9.55879	-10.22324
8474.889	9.70589	-12.02304	9.50781	-10.21607
8478.856	9.66627	-12.17592	9.50885	-10.20676
8482.853	9.85717	-11.96991	9.46730	-10.18199
8486.867	9.95252	-11.96351	9.49497	-10.22238
8490.857	9.92490	-11.92551	9.47681	-10.21980
8494.853	10.02627	-11.84744	9.52905	-10.25921
8498.852	10.01173	-11.94611	9.59573	-10.27150
8502.855	10.01915	-11.96790	9.60085	-10.30738
8506.855	9.93756	-11.86699	9.49938	-10.32189
8510.863	9.92601	-11.91286	9.57503	-10.33852
8514.855	9.82501	-12.15251	9.62581	-10.33637
8518.853	9.89229	-12.07986	9.67053	-10.35091
8522.856	9.82094	-12.11496	9.76531	-10.41237
8526.853	9.70991	-12.23461	9.80619	-10.47229
8530.862	9.72262	-12.24419	9.79961	-10.46527
8534.852	9.89388	-12.28053	9.82108	-10.46963
8538.857	9.78252	-12.40494	9.85247	-10.45198
8542.853	9.78725	-12.40711	9.72431	-10.46912
8546.855	9.90472	-12.30199	9.82402	-10.48208
8550.851	10.07507	-12.34425	9.87165	-10.52195
8554.857	10.16875	-12.19682	9.86654	-10.52647
8558.848	10.11844	-12.13267	9.90021	-10.57334
8562.857	10.31095	-11.94445	9.81132	-10.63241
8566.858	10.15141	-11.94789	9.71556	-10.61971
8570.858	10.10939	-12.13244	9.72139	-10.58723
8574.850	10.12808	-12.12927	9.67929	-10.60394
8578.855	10.08868	-12.04147	9.67729	-10.59392
8582.852	10.24163	-11.96586	9.65201	-10.58544
8586.867	10.15437	-12.10743	9.71809	-10.56998
8590.852	10.09441	-12.18339	9.70847	-10.61695
8594.858	10.02422	-12.03948	9.69241	-10.59818
8598.857	10.01185	-11.97207	9.61660	-10.60319
8602.854	9.95635	-11.91383	9.61455	-10.57799
8606.853	9.92006	-11.89151	9.64707	-10.56871
8610.863	9.87384	-12.05092	9.74285	-10.55338
8614.852	9.96749	-11.84692	9.82732	-10.55528
8618.858	10.01982	-11.69230	9.81467	-10.57359
8622.852	9.99128	-11.66950	9.85536	-10.62031
8626.856	10.06292	-11.68687	9.89200	-10.66124
8630.847	10.05399	-11.63461	9.86876	-10.69666
8634.856	9.98978	-11.62171	9.85014	-10.70285
8638.866	10.08337	-11.52600	9.82961	-10.71478
8642.855	10.06994	-11.49802	9.87835	-10.73436
8646.856	9.97832	-11.54564	9.89778	-10.74071
8650.856	9.93511	-11.63753	9.91592	-10.71962
8654.856	10.00793	-11.54706	9.88687	-10.71790
8658.848	9.94151	-11.57517	9.81272	-10.71229
8662.855	10.15427	-11.55583	9.78934	-10.68669
8666.854	10.14030	-11.30569	9.69359	-10.46277
8670.851	10.23959	-9.86339	9.65869	-9.29436
8674.851	10.26655	-6.71201	9.51590	-7.17990
8679.144	10.91988	-3.14385	9.38612	-4.96326
8682.865	10.98140	-2.83066	9.24073	-3.17601
8686.849	12.04543	0.77825	9.16020	-2.13989
8690.863	12.27792	2.22397	9.08544	0.01646
8694.856	12.71748	2.86002	9.04841	0.13357
8698.907	12.57231	4.86672	8.76210	1.85565
8702.857	12.11766	4.95340	8.51523	2.83249
8706.854	11.63047	5.56376	8.54367	3.27376
8710.849	11.19776	6.27020	8.45560	4.06241
8714.849	11.04867	6.63049	8.60749	4.57393
8718.849	11.09238	6.64289	8.49755	4.43241
8722.851	11.33838	6.52928	8.74231	4.44044
8726.854	12.11119	6.47869	8.55333	4.00150
8730.848	12.37766	6.67825	8.66047	4.17796
8734.860	12.01231	6.80454	8.66181	4.23062
8738.850	11.75577	6.89450	8.63660	4.43646
8742.853	11.66263	6.96853	8.62843	4.46305
8746.852	11.58186	7.01182	8.64378	4.46548
8750.855	11.37271	7.02568	8.67660	4.50369
8754.851	11.21176	7.08665	8.65167	4.53439
8758.849	11.22489	7.13323	8.56534	4.48093
8762.862	10.87860	7.19831	8.55217	4.52461
8766.853	11.16390	7.13582	8.37920	4.58021
8770.844	11.69355	7.15373	8.53430	4.60008
8774.879	11.44935	7.15536	8.75703	4.61411
8778.854	11.50472	7.11230	8.58806	4.56740
8782.848	11.59446	7.10880	8.64716	4.51657
8786.865	11.35532	7.06731	8.58248	4.48342
8790.851	11.35604	7.08245	8.86226	4.40727
8794.850	11.56731	7.19157	8.92415	4.38227
8798.851	11.40362	7.29403	8.91318	4.37379
8802.850	11.62692	7.23758	8.98155	4.39164
8806.848	11.57574	7.23547	9.02537	4.35292
8810.849	11.63390	7.24681	8.98811	4.31169
8814.850	11.55978	7.24301	8.89693	4.27266
8818.854	11.59865	7.22079	8.77931	4.23543
8822.853	11.60142	7.09745	8.76685	4.25340
8826.853	11.57836	7.06716	8.64912	4.28879
8830.720	11.63861	7.05203	8.53098	4.26544
8834.728	11.80293	7.09871	8.46194	4.30360
8838.723	11.89846	7.12582	8.52884	4.37522
8842.727	11.87258	7.09541	8.44132	4.35684
8846.719	11.97859	7.11129	8.55384	4.30626
8850.728	12.03897	7.11725	8.46458	4.26126
8854.723	12.02242	7.08545	8.45953	4.26427
8858.727	12.04581	7.09424	8.71545	4.27245
8862.718	11.90906	7.10723	8.84969	4.26454
8866.726	11.74083	7.14495	8.77477	4.23963
8870.725	11.64944	7.12721	8.89460	4.14461
8874.740	11.54752	7.17630	8.90437	3.98451
8878.726	11.20825	7.17061	8.92069	3.86629
8882.724	11.23174	7.12200	9.04231	3.77135
8886.729	11.42561	7.08280	8.92723	3.71171
8890.731	11.65499	7.04172	9.05337	3.82797
8894.722	11.88622	7.00161	9.01133	3.89425
8898.722	12.14463	6.98406	9.01484	3.81638
8902.720	11.84154	6.96071	9.01024	3.80924
8906.731	11.83614	6.95603	9.00339	3.81899
8910.721	12.16496	6.98057	9.00097	3.74341
8914.725	12.06698	7.08488	8.92818	3.71798
8918.718	11.92738	7.11798	9.04147	3.85888
8922.726	11.93883	7.17542	9.03733	3.92165
8926.721	11.73543	7.25307	9.03808	4.13180
8930.725	11.53232	7.30157	9.03808	4.05691
8934.715	11.41674	7.33142	8.94329	4.04808
8938.726	11.12734	7.33117	8.99099	4.04228
8942.721	10.97925	7.33512	9.05766	4.11112
8946.729	11.24144	7.28069	9.02249	4.08576
8950.766	11.52426	7.23024	9.10719	4.02992
8954.732	11.68853	7.13050	9.12273	3.82029
8958.721	11.50036	7.09567	9.12294	3.80820
8962.725	11.52500	7.10769	9.12055	3.73992
8966.717	11.49073	7.11850	9.11065	3.87054
8970.726	11.44721	7.10544	9.17266	3.88201
8974.721	11.51480	7.07642	9.24646	3.85918
8978.724	11.55874	7.00333	9.27126	3.93004
8982.719	11.70571	6.89362	9.30508	3.98718
8986.746	11.71820	6.81349	9.29384	4.06430
8990.727	11.66344	6.78064	9.20555	4.01184
8994.730	11.58791	6.72977	9.19121	4.11376
8998.720	11.58229	6.53148	9.23290	4.04758
9002.725	11.51769	6.46163	9.20320	4.08948
9006.717	11.46685	6.37436	9.22813	4.01542
9010.732	11.39275	6.29194	9.27416	3.76866
9014.728	11.39585	6.33767	9.24191	3.54332
9018.723	11.42618	6.28694	9.22025	3.78638
9022.718	11.33860	6.28696	9.21215	3.73017
9026.726	11.36353	6.31296	9.20678	3.62792
9030.725	11.39301	6.32509	9.19358	3.63191
9034.724	11.48118	6.39114	9.22276	3.57310
9038.720	11.55890	6.39571	9.24646	3.61833
9042.719	11.58839	6.48780	9.22284	3.57594
9046.722	11.58439	6.55618	9.21568	3.57134
9050.721	11.70366	6.62543	9.19135	3.63919
9054.718	11.73566	6.67352	9.15986	3.73756
9058.719	11.88691	6.73640	9.15834	3.80506
9062.722	11.94073	6.75872	9.11905	3.82050
9066.720	11.97584	6.77511	9.12798	3.87065
9070.724	11.90559	6.75249	9.11842	3.91063
9074.727	11.89238	6.82189	9.12899	3.97293
9078.723	11.89133	6.82705	9.13557	4.03990
9082.719	12.03548	6.80904	9.09052	4.09731
9086.742	12.19097	6.79829	9.06138	4.19519
9090.722	12.28420	6.79867	9.04468	4.23844
9094.719	12.37401	6.81512	8.99022	4.31481
9098.725	12.36502	6.79810	8.88591	4.34204
9102.720	12.43731	6.76740	8.87265	4.26788
9106.719	12.47728	6.75998	8.81375	4.35952
9110.718	12.36992	6.77648	8.85620	4.11373
9114.748	12.21857	6.79141	8.89400	4.07296
9118.721	12.18199	6.73051	9.07349	4.07495
9122.718	12.08074	6.73247	9.30285	4.08681
9126.714	11.76571	6.70039	9.37254	4.07612
9130.723	11.75907	6.47673	9.30924	4.06949
9134.717	11.70061	6.37561	9.29993	4.03632
9138.720	11.83303	6.23679	9.43474	4.16274
9142.723	11.68857	6.27341	9.38090	4.12712
9146.718	11.78424	6.17072	9.42467	4.19861
9150.721	11.80704	6.24894	9.41827	4.24101
9154.723	11.75467	6.20218	9.37494	4.29740
9158.718	11.77294	6.21403	9.33401	4.32109
9162.718	11.80837	6.20569	9.25456	4.36133
9166.720	11.88794	6.22062	9.18366	4.41078
9170.717	11.88178	6.24551	9.07731	4.45048
9174.716	11.76847	6.18740	9.03401	4.53136
9178.717	11.26775	6.03600	8.97247	2.36510
9182.720	10.91901	5.36724	8.71865	2.10134
9186.717	9.87586	4.34522	8.64247	0.94970
9190.723	9.68035	2.14305	8.75213	-0.75574
9194.716	9.53675	0.57057	8.63345	-1.69960
9198.726	9.46046	-0.30450	8.45138	-2.87114
9202.722	9.45450	0.19842	8.26313	-2.42933
9206.715	9.32267	0.03234	7.89795	-2.62604
9210.717	9.22347	0.10304	7.53174	-2.36303
9214.719	9.47068	0.43255	7.60585	-2.43995
9218.717	9.51894	0.62699	7.56776	-2.23655
9222.718	9.53188	0.29787	7.63874	-2.55982
9226.720	9.41344	0.23879	7.41909	-2.68918
9230.711	9.42989	0.27335	7.30771	-2.81096
9234.722	9.40231	0.09154	7.28417	-2.75094
9238.721	9.41859	0.08575	7.15435	-2.76634
9242.720	9.35590	0.12973	7.12982	-2.75510
9246.712	9.31431	0.06439	7.07351	-2.81551
9250.722	9.29174	0.18586	7.01555	-2.83195
9254.717	9.27177	-0.12924	7.17319	-2.84557
9258.720	9.28429	-0.19018	7.14235	-2.84593
9262.717	9.39194	-0.24207	7.10015	-2.85591
9266.717	9.11090	-0.74542	7.07984	-2.84118
9270.716	9.13702	-0.80971	7.07666	-2.78988
9274.715	9.15219	-0.68063	7.09314	-2.72500
9278.720	9.13078	-0.59820	7.03555	-2.64256
9282.723	9.09817	-0.71881	7.05159	-2.62084
9286.714	9.19682	-0.60780	7.22514	-2.64004
9290.722	9.28770	-0.59116	7.26759	-2.60258
9294.716	9.27733	-0.59332	7.26732	-2.55651
9298.718	9.40185	-0.49042	7.26688	-2.53943
9302.713	9.47944	-0.64752	7.31662	-2.57922
9306.719	9.42769	-0.59093	7.39764	-2.64630
9310.714	9.49815	-0.49310	7.37326	-2.71823
9314.715	9.44614	-0.44869	7.42361	-2.84887
9318.718	9.47679	-0.46928	7.49812	-2.92533
9322.723	9.47379	-0.40841	7.48761	-3.03004
9326.710	9.46254	-0.39639	7.50008	-3.11586
9330.716	9.35358	-0.39931	7.50447	-3.17321
9334.716	9.34017	-0.38856	7.46775	-3.18063
9338.710	9.30240	-0.41454	7.47363	-3.25726
9342.713	9.22371	-0.46303	7.45862	-3.31452
9346.713	9.15959	-0.44913	7.42427	-3.36018
9350.717	9.10886	-0.44102	7.41211	-3.39200
9354.710	9.01992	-0.46700	7.45611	-3.40207
9358.762	9.00402	-0.46773	7.44835	-3.42929
9362.727	8.99092	-0.43093	7.43337	-3.43191
9366.714	8.96804	-0.46643	7.45967	-3.44012
9370.714	8.98087	-0.47257	7.49795	-3.44159
9374.716	9.01798	-0.51461	7.45001	-3.48387
9378.714	8.98051	-0.51471	7.48839	-3.47562
9382.713	9.04209	-0.53727	7.46709	-3.52647
9386.730	9.03123	-0.53415	7.49607	-3.51421
9390.716	8.97840	-0.54250	7.51798	-3.46122
9394.714	9.01399	-0.54669	7.53959	-3.42683
9398.715	9.02009	-0.54562	7.54164	-3.36751
9402.714	9.03270	-0.60781	7.50505	-3.31051
9406.717	9.09108	-0.65339	7.48241	-3.28833
9410.718	9.12164	-0.66033	7.42102	-3.26887
9414.715	9.13579	-0.67345	7.41536	-3.21562
9418.713	9.14290	-0.63404	7.35476	-3.16780
9422.713	9.27457	-0.69511	7.33176	-3.02802
9426.711	9.30851	-0.68810	7.33562	-3.02676
9430.716	9.26358	-0.67816	7.27895	-2.98371
9434.716	9.37569	-0.63573	7.24092	-2.96904
9438.718	9.46418	-0.61010	7.22727	-2.94132
9442.713	9.44416	-0.51046	7.17416	-2.92121
9446.718	9.60413	-0.38409	7.15980	-2.90672
9450.737	9.62251	-0.34052	7.12808	-2.81220
9454.718	9.66557	-0.23950	7.12901	-2.78890
9458.713	9.70637	-0.16572	7.14524	-2.72932
9462.713	9.77623	-0.10251	7.14194	-2.71042
9466.714	9.84105	-0.19305	7.16415	-2.67664
9470.716	9.79824	-0.08778	7.16820	-2.62677
9474.708	9.84378	-0.11292	7.21528	-2.61572
9478.715	9.85553	-0.07132	7.22991	-2.69352
9482.712	9.84893	-0.03594	7.20316	-2.76565
9486.717	9.83455	-0.02350	7.20218	-3.00121
9490.723	9.74774	0.01007	7.27255	-2.78613
9494.711	9.75533	-0.01660	7.32810	-2.83210
9498.715	9.71189	-0.04783	7.41973	-3.00707
9502.713	9.67495	-0.02682	7.39398	-3.03079
9506.713	9.63522	0.01267	7.44613	-3.06090
9510.738	9.60357	-0.00674	7.45094	-3.09300
9514.720	9.55150	-0.01495	7.45411	-3.13666
9518.713	9.56074	0.04489	7.49642	-3.15814
9522.712	9.53849	0.02875	7.48737	-3.14330
9526.711	9.51249	0.02691	7.49000	-3.13863
9530.719	9.50590	-0.01189	7.51722	-3.14360
9534.713	9.50653	-0.05676	7.48073	-3.19743
9538.711	9.47823	-0.03159	7.48027	-3.21964
9542.712	9.48685	-0.01125	7.45294	-3.21620
9546.750	9.47913	-0.03784	7.43618	-3.18218
9550.711	9.42760	-0.03807	7.30573	-3.19388
9554.711	9.32673	0.02614	7.16121	-3.01080
9558.710	7.59254	0.34900	6.58366	-2.78266
9563.132	7.94998	0.55854	5.43216	-2.90294
9566.724	6.89118	0.87637	4.49196	-2.33558
9570.718	6.20742	1.34984	3.93932	-1.95521
9574.711	6.34390	1.01237	3.93705	-1.67281
9578.719	6.76148	1.11755	4.14609	-1.68684
9582.717	6.65017	0.82950	4.23661	-1.64126
9586.709	6.63071	0.86332	4.02734	-1.64152
9590.716	6.56192	0.93494	3.98457	-1.55451
9594.706	6.58895	1.03162	4.03828	-1.53863
9598.715	6.58393	1.06628	4.02799	-1.48837
9602.710	6.49136	1.09173	4.03720	-1.43455
9606.714	6.45944	0.96359	3.94950	-1.39325
9610.705	6.45672	0.94459	4.02097	-1.36786
9614.719	6.46419	0.87435	4.06387	-1.41008
9618.713	6.48896	0.78526	4.07332	-1.41838
9622.714	6.40910	0.73685	4.08890	-1.45970
9626.707	6.38903	0.69661	4.08500	-1.47955
9630.735	6.34116	0.71206	4.27271	-1.46337
9634.711	6.30848	0.65831	4.74387	-1.50301
9638.720	6.25470	0.61183	4.70720	-1.52318
9642.714	6.24092	0.60246	4.69078	-1.52522
9646.707	6.20926	0.59582	4.65789	-1.56487
9650.714	6.16353	0.61912	4.86229	-1.57714
9654.715	6.14415	0.57344	4.86882	-1.56525
9658.709	6.11096	0.58331	4.90410	-1.55681
9662.708	6.13027	0.54855	4.99086	-1.54001
9666.709	6.30095	0.55309	4.99573	-1.52481
9670.713	6.59038	0.52392	5.02979	-1.51409
9674.706	7.29445	0.58443	5.02477	-1.51029
9678.714	7.30485	0.56547	4.98369	-1.48664
9682.584	7.49239	0.79503	4.94704	-1.48952
9686.585	7.50825	0.84545	4.90425	-1.46974
9690.584	7.39471	0.97425	4.89395	-1.44000
9694.586	7.51127	0.95872	4.78496	-1.46228
9698.586	7.47082	0.98738	4.70424	-1.46154
9702.589	7.41895	1.11455	4.63790	-1.45695
9706.581	7.44132	1.09802	4.54405	-1.43857
9710.584	7.42551	1.13357	4.48002	-1.42338
9714.586	7.31067	1.12093	4.39935	-1.38012
9718.589	7.13263	1.09569	4.31484	-1.35705
9722.585	6.98066	1.06575	4.22251	-1.34812
9726.583	6.72489	1.06718	4.11950	-1.31454
9730.586	6.58388	1.04970	4.04772	-1.30512
9734.583	6.81627	0.98115	4.01211	-1.32804
9738.583	6.65997	0.91980	3.97052	-1.31317
9742.588	6.66367	0.89048	3.88268	-1.31549
9746.586	6.68494	0.83897	3.82904	-1.29111
9750.583	6.62412	0.93734	3.74683	-1.30947
9754.587	6.66511	0.87718	3.69585	-1.32167
9758.583	6.59091	0.87736	3.68055	-1.34492
9762.641	6.58291	0.89985	3.80597	-1.35005
9766.614	6.57455	0.95535	3.88290	-1.47983
9770.592	6.61119	0.90656	4.31578	-1.53423
9774.583	6.58976	0.79841	4.36224	-1.55137
9778.585	6.58046	0.62148	3.89476	-1.40886
9782.580	4.26477	0.71785	2.70201	-1.39579
9786.589	2.40736	0.80988	0.96934	-1.06970
9790.583	0.50984	0.83278	-0.60156	-1.58111
9794.584	0.12074	0.71815	-1.79105	-1.03405
9798.582	-2.16104	0.74098	-2.81850	-1.20395
9802.581	-2.34629	0.65874	-3.43667	-1.09870
9806.580	-2.40246	0.56051	-4.33226	-0.92526
9810.584	-2.54801	0.61632	-5.02770	-0.89756
9814.581	-2.52198	0.63383	-4.43475	-0.82866
9818.580	-2.56035	0.68370	-4.02174	-0.80950
9822.583	-2.63064	0.71752	-4.00717	-0.80215
9826.586	-2.69232	0.79261	-4.33865	-0.78965
9830.581	-2.93579	0.82418	-4.48742	-0.86397
9834.581	-2.92346	0.88031	-4.71277	-0.80046
9838.583	-2.74692	0.94962	-4.82900	-0.88323
9842.580	-2.84918	0.97085	-4.94455	-0.88285
9846.587	-2.76695	1.05055	-4.44006	-0.97838
9850.583	-2.47363	1.05513	-4.56407	-1.01830
9854.596	-2.28742	1.04165	-4.56022	-1.07994
9858.583	-2.50932	0.99979	-4.53897	-1.14787
9862.581	-2.34106	0.95648	-4.26250	-1.15451
9866.588	-2.49342	0.98752	-4.25805	-1.24835
9870.591	-2.65607	0.97042	-4.23515	-1.30798
9874.580	-2.59155	0.97173	-4.18015	-1.30592
9878.581	-2.63504	0.92800	-4.18941	-1.33270
9882.582	-2.63361	0.89688	-4.23095	-1.35239
9886.594	-2.73571	0.90703	-4.20479	-1.40084
9890.586	-2.88064	0.89587	-4.29263	-1.39761
9894.581	-2.84895	0.93776	-4.32446	-1.40223
9898.580	-2.82749	1.00213	-4.42516	-1.37121
9902.579	-2.86128	1.02912	-4.56136	-1.33999
9906.586	-2.90789	1.08976	-4.47467	-1.27805
9910.584	-2.82226	1.12083	-4.56898	-1.27137
9914.585	-2.59730	1.14690	-4.59827	-1.25943
9918.578	-2.64631	1.16995	-4.68287	-1.26295
9922.583	-2.54747	1.23262	-4.67014	-1.20826
9926.581	-2.71575	1.32410	-4.66635	-1.24745
9930.584	-2.72590	1.37949	-4.68185	-1.22181
9934.576	-2.64101	1.42741	-4.56427	-1.22748
9938.586	-2.64757	1.44990	-4.53919	-1.27073
9942.579	-2.72545	1.47625	-4.42530	-1.32062
9946.584	-2.83350	1.57609	-4.38953	-1.37512
9950.584	-2.85574	1.62970	-4.36804	-1.40752
9954.580	-3.01613	1.63232	-4.36330	-1.45893
9958.583	-2.88049	1.65962	-4.34475	-1.49076
9962.577	-2.95708	1.63290	-4.35119	-1.49521
9966.612	-3.10975	1.63493	-4.42785	-1.54175
9970.579	-2.91713	1.55445	-4.47195	-1.54507
9974.583	-2.90992	1.44350	-4.51408	-1.53736
9978.583	-2.81085	1.36785	-4.57867	-1.52628
9982.579	-2.78181	1.36707	-4.56587	-1.47435
9986.577	-2.48272	1.37660	-4.58543	-1.33662
9990.582	-2.55542	1.40014	-4.63703	-1.12563
9994.583	-2.54680	1.35286	-4.70732	-1.06105
9998.596	-2.61186	1.36450	-4.71698	-1.05972
10002.581	-2.66692	1.35564	-4.74915	-0.98899
10006.578	-2.80518	1.45209	-4.71886	-1.08901
10010.587	-2.72714	1.41568	-4.70949	-1.10821
10014.581	-2.76611	1.44160	-4.73340	-1.07668
10018.578	-2.88064	1.44634	-4.61788	-1.11937
10022.580	-2.99440	1.50261	-4.58168	-1.39916
10026.578	-3.12675	1.53451	-4.55729	-1.46305
10030.576	-3.17435	1.57394	-4.58284	-1.76097
10034.582	-3.07431	1.55391	-4.48396	-1.78153
10038.576	-3.15048	1.56336	-4.46879	-1.80723
10042.580	-3.21372	1.57755	-4.43863	-1.59834
10046.577	-3.18435	1.54499	-4.42141	-1.73025
10050.581	-3.05444	1.49088	-4.48934	-1.75753
10054.579	-2.99596	1.44203	-4.47654	-1.71611
10058.581	-2.90005	1.41281	-4.32407	-1.71886
10062.576	-2.92242	1.42119	-4.32005	-1.50106
10066.581	-2.74484	1.36909	-4.34265	-1.35603
10070.578	-2.86012	1.51899	-4.33019	-1.51159
10074.586	-3.17383	1.42292	-4.70656	-1.50554
10078.587	-6.03692	1.50823	-7.23513	-1.40704
10082.578	-7.24341	1.54533	-7.86500	-1.29029
10086.576	-7.87742	1.53426	-9.91659	-1.06264
10090.582	-8.74777	1.60714	-10.11755	-1.16136
10094.576	-9.32096	1.64089	-10.77591	-1.17495
10098.577	-9.68623	1.21357	-11.24893	-1.13940
10102.573	-9.55012	0.87338	-11.41717	-1.06956
10106.574	-9.57512	0.82949	-11.36677	-1.02421
10110.580	-9.52555	1.39447	-11.21871	-1.06742
10114.576	-9.52833	1.36898	-11.11697	-1.04649
10118.587	-9.66376	1.44391	-11.27617	-1.01437
10122.577	-9.79792	1.27381	-11.27629	-0.98811
10126.583	-9.95218	1.43532	-11.36486	-1.00872
10130.575	-9.78946	1.10755	-11.44838	-1.03652
10134.580	-9.88114	0.95673	-11.51652	-0.85775
10138.596	-10.01327	1.27089	-11.30720	-0.95136
10142.582	-9.97690	1.24902	-11.33247	-0.86571
10146.582	-10.17872	1.28887	-11.26758	-0.88389
10150.579	-9.96342	1.28662	-11.32259	-0.83797
10154.582	-10.11743	1.22867	-11.33795	-0.81125
10158.581	-10.26586	1.21275	-11.25614	-0.76419
10162.582	-10.23829	1.22620	-11.25034	-0.69968
10166.577	-10.03703	1.29352	-11.30839	-0.76095
10170.581	-9.90070	1.22184	-11.26300	-0.68839
10174.834	-10.01919	1.22332	-11.13673	-0.59093
10178.580	-9.96029	1.25026	-11.16538	-0.60157
10182.576	-10.13689	1.25390	-11.19824	-0.62966
10186.629	-10.00764	1.27715	-11.14600	-0.80050
10190.578	-10.10988	1.31035	-11.20851	-0.88672
10194.574	-10.02625	1.32590	-11.22776	-0.96691
10198.575	-10.05592	1.38114	-11.18372	-1.07701
10202.584	-10.16954	1.26514	-11.25290	-0.80737
10206.582	-10.11288	1.25219	-11.28054	-0.90714
10210.574	-10.20356	1.19678	-11.28553	-0.72371
10214.574	-10.09802	1.20985	-11.31030	-0.70599
10218.576	-10.08272	1.22027	-11.31514	-0.89370
10222.575	-10.14819	1.25701	-11.31343	-0.71463
10226.572	-10.22704	1.33951	-11.16543	-0.87769
10230.574	-10.26821	1.25229	-11.22690	-0.94391
10234.577	-10.25242	1.21713	-11.24889	-0.91428
10238.576	-10.29644	1.29323	-11.21465	-0.80629
10242.583	-10.32914	1.44099	-11.26228	-0.76166
10246.577	-10.00598	1.41958	-11.35077	-0.80598
10250.569	-9.54650	1.42203	-11.37293	-0.73121
10254.579	-9.56945	1.48327	-11.42134	-0.80154
10258.577	-9.88336	1.59204	-11.34609	-0.70553
10262.577	-9.90171	1.57541	-11.32569	-0.68444
10266.578	-10.02223	1.66114	-11.22420	-0.78121
10270.576	-10.11074	1.63158	-11.35468	-0.82263
10274.577	-10.38555	1.66115	-11.34953	-0.78123
10278.576	-10.38279	1.73936	-11.35492	-0.84396
10282.585	-9.97065	1.81477	-11.35718	-0.97402
10286.591	-9.48625	1.78128	-11.37207	-0.78324
10290.577	-9.52514	1.74959	-11.40152	-0.80388
10294.577	-9.78404	1.80948	-11.33998	-0.92590
10298.575	-9.91168	1.83920	-11.26844	-0.89799
10302.573	-10.03351	1.79703	-11.25326	-0.93395
10306.573	-10.10605	1.78446	-11.16865	-0.92879
10310.572	-10.28332	1.72333	-11.24614	-0.88502
10314.577	-10.19709	1.73386	-11.26548	-0.66014
10318.573	-10.26497	1.77922	-11.33946	-0.74250
10322.577	-9.34843	1.82322	-11.37441	-0.13669
10326.582	-9.40306	1.78607	-11.34895	-0.65361
10330.572	-9.41233	1.75634	-11.34139	-0.70766
10334.578	-9.53822	1.80774	-11.34821	-0.66623
10338.573	-9.85447	1.86596	-11.30436	-0.61849
10342.576	-9.54863	1.85366	-11.33760	-0.54818
10346.571	-8.87891	1.87905	-11.22045	-0.45908
10350.578	-8.80219	1.99902	-8.66734	-0.44951
10354.575	-5.71846	2.09989	-6.80296	-0.32742
10358.577	-3.50924	2.12017	-4.40929	-0.34140
10362.571	-3.34066	2.04887	-4.14147	-0.23191
10366.577	-2.25199	1.94865	-3.20800	-0.39306
10370.576	-1.86315	1.85741	-3.19934	-0.36570
10374.573	-2.35642	1.74575	-3.79319	-0.37697
10378.613	-3.10572	1.67849	-3.90795	-0.39207
10382.580	-3.47962	1.72022	-4.21676	-0.33168
10386.580	-3.11745	1.77937	-3.95945	-0.34889
10390.578	-2.73727	1.75818	-3.80414	-0.36936
10394.573	-2.51668	1.70648	-3.78296	-0.36651
10398.575	-2.08374	1.65206	-3.80139	-0.40890
10402.572	-1.63541	1.62721	-3.83038	-0.45166
10406.603	-1.42437	1.63087	-3.86625	-0.48634
10410.578	-1.36878	1.61021	-3.81143	-0.51028
10414.567	-1.40884	1.56905	-3.64941	-0.52408
10418.588	-1.31917	1.49322	-3.73663	-0.57146
10422.574	-1.64660	1.53351	-3.76092	-0.54871
10426.572	-1.89890	1.52541	-3.75578	-0.61479
10430.570	-1.98333	1.46277	-3.48101	-0.66911
10434.571	-1.97627	1.36509	-3.26176	-0.75271
10438.572	-2.00782	1.41237	-3.36099	-0.83748
10442.571	-2.32203	1.34292	-3.18207	-0.87851
10446.909	-1.80043	1.37210	-3.23301	-0.88494
10450.581	-1.99625	1.33285	-3.17970	-0.94442
10454.574	-2.15908	1.28479	-3.29112	-0.97296
10458.572	-1.95787	1.28230	-3.33156	-1.01587
10462.575	-2.00909	1.25989	-3.36077	-1.00332
10466.569	-2.04339	1.29290	-3.35592	-1.04094
10470.573	-1.84285	1.27886	-3.38630	-1.06030
10474.569	-1.86109	1.25616	-3.43734	-1.07053
10478.576	-1.74010	1.18615	-3.56833	-1.09508
10482.572	-1.67747	1.10552	-3.67408	-1.10144
10486.571	-1.68161	1.05668	-3.78449	-1.12121
10490.576	-1.75877	0.99519	-3.84523	-1.12036
10494.576	-1.72220	0.87338	-3.94181	-1.13062
10498.568	-1.77464	0.89598	-3.93273	-1.14364
10502.575	-1.82155	0.90028	-3.99131	-1.11013
10506.570	-1.94179	0.77232	-4.08043	-1.11905
10510.587	-2.04223	0.75137	-4.08923	-1.10588
10514.600	-2.08857	0.73081	-4.05794	-1.10541
10518.587	-2.08726	0.68649	-3.95560	-1.12078
10522.569	-2.12459	0.68106	-4.00820	-1.07254
10526.574	-2.17653	0.65817	-3.96474	-1.09986
10530.572	-2.20037	0.62822	-3.92937	-1.11916
10534.575	-2.16389	0.59288	-3.84041	-1.16218
10538.448	-2.17834	0.57899	-3.87443	-1.18411
10542.446	-2.08362	0.56711	-3.87042	-1.19485
10546.447	-2.04265	0.52534	-3.79087	-1.26111
10550.448	-2.03759	0.49095	-3.70722	-1.27627
10554.441	-1.95649	0.44458	-3.68550	-1.30012
10558.450	-1.92741	0.41799	-3.68394	-1.31113
10562.449	-1.86228	0.44403	-3.72131	-1.32597
10566.448	-1.82138	0.43416	-3.63354	-1.37973
10570.442	-1.82276	0.42207	-3.61401	-1.40093
10574.446	-1.71129	0.47102	-3.57528	-1.41723
10578.450	-1.71999	0.49029	-3.60000	-1.40395
10582.491	-1.64593	0.47131	-3.54534	-1.39982
10586.446	-1.68739	0.49919	-3.51179	-1.50492
10590.456	-1.70350	0.56674	-3.49057	-1.56882
10594.444	-1.64980	0.62338	-3.48523	-1.63959
10598.445	-1.68694	0.63420	-3.50361	-1.71410
10602.449	-1.68724	0.78594	-3.47997	-1.71402
10606.447	-1.69200	0.96667	-3.48197	-1.70708
10610.448	-1.74553	1.04135	-3.50185	-1.75472
10614.443	-1.75865	1.05580	-3.53322	-1.75776
10618.449	-1.76904	1.07498	-3.55634	-1.82010
10622.450	-1.80060	0.93694	-3.56168	-1.86325
10626.460	-1.84961	1.01229	-3.59797	-1.84090
10630.476	-1.96893	1.12734	-3.60081	-1.69947
10634.463	-1.93710	0.83991	-3.63945	-1.64105
10638.450	-2.07432	1.18642	-3.67432	-1.51853
10642.439	-2.11301	1.21928	-3.70374	-1.45556
10646.441	-2.16102	1.17590	-3.72672	-1.24635
10650.445	-2.09856	1.38806	-3.67385	-1.25178
10654.447	-2.11901	1.60878	-3.67037	-1.18516
10658.440	-2.14434	1.73861	-3.65144	-1.16493
10662.451	-2.16059	1.78672	-3.64946	-1.13130
10666.442	-2.18159	1.97870	-3.59735	-1.09413
10670.445	-1.77405	2.12626	-3.58932	-1.07562
10674.441	-1.67189	2.08582	-3.57933	-1.06137
10678.438	-1.74251	2.01827	-3.58247	-1.06216
10682.447	-1.68771	2.09051	-3.61723	-1.08116
10686.455	-1.68072	2.08372	-3.65042	-1.04123
10690.444	-1.67263	2.10742	-3.64901	-1.03752
10694.440	-1.52216	2.10080	-3.67996	-1.02196
10698.443	-1.54319	1.98647	-3.69182	-1.04421
10702.447	-1.58259	1.90185	-3.67719	-0.96666
10706.453	-1.56541	1.83253	-3.66056	-0.95698
10710.441	-1.53850	1.79308	-3.64291	-0.89455
10714.447	-1.52957	1.72121	-3.65920	-0.80877
10718.444	-1.61699	1.67965	-3.64101	-0.75159
10722.444	-1.70442	1.65922	-3.65791	-0.73791
10726.437	-1.81942	1.63991	-3.63295	-0.65869
10730.447	-1.84190	1.52553	-3.60151	-0.67805
10734.440	-2.02426	1.48462	-3.58717	-0.65133
10738.445	-2.00078	1.05915	-3.63656	-0.59831
10742.439	-2.07717	0.97221	-3.68819	-0.55116
10746.446	-1.98415	1.12731	-3.80779	-0.52942
10750.446	-1.93224	0.89528	-3.89152	-0.51739
10754.441	-2.01828	1.06122	-3.80426	-0.55168
10758.440	-2.03013	1.06553	-3.71384	-0.54532
10762.509	-1.84136	1.03092	-3.80471	-0.57640
10766.452	-1.84835	1.27736	-3.75534	-0.63284
10770.455	-1.72428	1.02505	-3.58991	-0.66908
10774.441	-1.78416	1.08073	-3.48884	-0.71605
10778.446	-1.60930	0.94540	-3.41476	-0.73756
10782.439	-1.71734	1.05860	-3.51777	-0.80751
10786.525	-1.68647	1.35863	-3.47952	-0.86056
10790.449	-1.68295	1.15188	-3.44253	-0.91225
10794.439	-1.67045	1.06950	-3.47559	-0.93922
10798.441	-1.72297	1.01333	-3.55787	-0.95917
10802.444	-1.71216	0.91384	-3.66570	-1.02027
10806.441	-1.80070	0.88328	-3.84955	-1.01222
10810.439	-1.81143	0.91488	-4.03851	-1.02284
10814.441	-2.18600	0.77530	-4.16092	-1.05125
10818.445	-2.43689	0.90689	-4.76855	-1.03427
10822.441	-3.37433	1.06299	-5.50982	-1.04350
10826.443	-3.26888	0.87826	-5.54683	-1.02007
10830.444	-3.15209	0.95764	-5.17863	-1.00493
10834.443	-3.29273	0.90835	-5.09298	-0.97530
10838.437	-3.43509	0.97304	-5.36422	-0.97000
10842.446	-3.41454	1.01489	-5.38599	-0.97662
10846.441	-3.43991	1.05084	-5.42466	-0.94099
10850.438	-3.47188	1.03876	-5.46475	-0.96289
10854.443	-3.44068	0.99994	-5.42533	-0.98435
10858.437	-3.30977	1.03439	-5.41822	-0.98520
10862.440	-3.37640	1.00923	-5.38762	-0.97197
10866.441	-3.39673	0.96752	-5.30486	-0.94083
10870.444	-3.39196	0.91599	-5.29098	-0.96589
10874.442	-3.37952	0.86894	-5.35229	-0.95602
10878.443	-3.33260	0.83815	-5.42129	-0.97869
10882.440	-3.31625	0.83538	-5.32279	-1.02374
10886.437	-3.30440	0.80893	-5.28780	-0.98217
10890.439	-3.41817	0.85033	-5.21309	-1.18251
10894.441	-3.39817	0.86832	-5.11568	-1.05575
10898.435	-3.45841	0.90405	-5.14306	-1.04014
10902.444	-3.44226	0.83989	-5.14325	-1.16832
10906.441	-3.44609	0.82649	-5.11386	-1.14603
10910.441	-3.43632	0.81884	-5.08419	-1.16464
10914.440	-3.32177	0.86889	-5.02785	-1.21259
10918.446	-3.33881	0.83083	-5.03223	-1.26368
10922.437	-3.42618	0.85203	-4.96581	-1.20697
10926.442	-3.45361	0.84464	-5.01228	-1.17014
10930.436	-3.42967	0.85937	-5.01433	-1.18971
10934.442	-3.32392	0.83672	-5.12267	-1.17716
10938.439	-3.38793	0.81494	-5.13602	-1.04483
10942.442	-3.26042	0.81006	-5.13636	-1.04183
10946.437	-3.28845	0.90047	-5.06452	-0.96410
10950.439	-3.31660	0.91678	-5.01590	-0.77720
10954.443	-3.34178	0.90669	-5.07737	-0.67240
10958.437	-3.36075	0.90883	-5.10325	-0.60696
10962.441	-3.42334	0.88529	-5.12223	-0.63375
10966.439	-3.45645	0.88982	-5.18360	-1.03649
10970.443	-4.41647	0.06999	-5.17535	-3.55233
10974.436	-4.65715	-3.09261	-5.15497	-5.26866
10978.441	-4.91903	-6.29121	-6.06264	-6.78792
10982.439	-5.25365	-7.90794	-5.26824	-8.71078
10986.439	-5.76723	-9.61634	-6.04880	-9.28015
10990.438	-7.83303	-12.49943	-6.82721	-10.53678
10994.441	-7.76959	-14.72812	-7.10240	-11.40181
10998.438	-19.99372	-11.99465	-6.43939	-11.97896
11002.436	-19.99372	-12.02300	-6.52632	-12.02356
11006.440	-19.99372	-12.03720	-6.91329	-12.04077
11010.438	-7.79827	-14.30974	-7.14604	-11.89327
11014.444	-7.56252	-13.34471	-7.16444	-11.85427
11018.436	-7.85909	-14.53267	-7.16034	-11.93856
11022.441	-7.94136	-14.73208	-7.09343	-12.13180
11026.432	-19.99372	-12.15093	-7.11017	-12.21044
11030.470	-19.99372	-12.13982	-7.00108	-12.23920
11034.436	-19.99372	-12.16180	-6.77095	-12.32315
11038.447	-19.99372	-12.14643	-6.94577	-12.27494
11042.431	-19.99372	-12.14364	-6.90463	-12.30311
11046.439	-19.99372	-12.14058	-7.02003	-12.36585
11050.435	-19.99372	-12.13734	-7.01991	-12.33770
11054.439	-8.07411	-14.87189	-6.98749	-12.34797
11058.438	-8.08800	-14.99143	-6.95342	-12.35306
11062.437	-7.95767	-15.04800	-6.97560	-12.35814
11066.440	-7.94645	-14.82047	-7.02416	-12.32017
11070.433	-19.99372	-12.08834	-7.11787	-12.28739
11074.437	-19.99372	-12.08816	-7.33310	-12.25380
11078.440	-19.99372	-12.08790	-7.31025	-12.20823
11082.443	-19.99372	-12.08756	-7.43227	-12.15792
11086.433	-19.99372	-12.08720	-7.50137	-12.10654
11090.440	-19.99372	-12.08678	-7.64700	-12.10243
11094.434	-7.85132	-14.90176	-7.63255	-12.07885
11098.439	-7.98298	-14.74142	-7.23237	-12.09199
11102.430	-7.94068	-14.28293	-6.97856	-12.10033
11106.440	-7.96088	-14.37460	-6.93098	-12.09685
11110.434	-7.97775	-14.41533	-7.32004	-12.07815
11114.439	-7.91874	-14.56827	-6.76263	-12.05845
11118.433	-7.77907	-14.50018	-6.99514	-12.04572
11122.447	-7.79191	-14.57821	-6.90703	-12.03758
11126.441	-19.99372	-12.23819	-6.92503	-12.03189
11130.436	-7.51557	-14.57763	-6.89522	-12.02791
11134.458	-7.51515	-14.59306	-7.02025	-11.95349
11138.444	-7.49925	-14.64148	-6.96348	-11.91554
11142.434	-7.72122	-14.64594	-7.03861	-11.84745
11146.439	-7.82433	-14.70767	-7.14690	-11.83322
11150.429	-7.75390	-14.72952	-7.15081	-11.83267
11154.440	-19.99372	-12.20145	-7.12833	-11.82428
11158.434	-19.99372	-12.15419	-7.24913	-11.84144
11162.446	-19.99372	-12.12096	-7.28090	-11.91534
11166.433	-7.48624	-14.79321	-7.24356	-12.08500
11170.437	-7.53749	-14.80358	-7.28412	-12.04793
11174.433	-7.44298	-14.82758	-7.35590	-12.01078
11178.438	-7.61282	-14.82905	-7.27860	-12.02787
11182.428	-7.74861	-14.75754	-7.35017	-12.07707
11186.445	-7.54284	-14.61752	-7.39593	-12.09200
11190.441	-7.43349	-14.67516	-7.39776	-12.11221
11194.441	-19.99372	-12.15946	-7.36142	-12.17901
11198.461	-19.99372	-12.15551	-7.39828	-12.19293
11202.448	-19.99372	-12.15104	-7.29807	-12.21787
11206.442	-19.99372	-12.14627	-7.23587	-12.18659
11210.430	-19.99372	-12.12888	-7.16703	-12.12703
11214.433	-19.99372	-12.11716	-7.18699	-12.12963
11218.434	-7.55822	-14.60039	-7.22263	-12.02750
11222.437	-7.64052	-14.73080	-7.26874	-11.98924
11226.432	-19.99372	-12.10256	-7.23809	-11.89536
11230.437	-19.99372	-12.08609	-7.28974	-11.87277
11234.433	-7.73850	-14.34731	-7.34829	-11.84338
11238.437	-7.67623	-13.75584	-7.33672	-11.86615
11242.431	-7.63552	-14.39022	-7.25455	-11.93048
11246.442	-7.48973	-14.44969	-7.27973	-11.97805
11250.434	-7.58781	-14.71839	-7.29086	-11.97359
11254.463	-7.64720	-14.70897	-7.30515	-12.04462
11258.427	-19.99372	-12.24450	-7.31484	-11.96466
11262.458	-19.99372	-12.19942	-7.31799	-11.89144
11266.433	-7.66268	-14.61716	-7.33657	-11.92468
11270.438	-7.71988	-14.52465	-7.44735	-11.89519
11274.431	-7.53564	-14.02373	-7.50956	-11.94894
11278.431	-7.19803	-13.76889	-7.36169	-12.07168
11282.431	-7.37509	-14.43112	-7.27909	-12.09501
11286.444	-7.44455	-14.28966	-7.32715	-12.15131
11290.439	-7.44918	-14.47960	-7.30412	-12.13764
11294.436	-7.61763	-14.45231	-7.19344	-12.09552
11298.432	-7.47797	-14.43276	-7.08803	-12.05861
11302.436	-7.56647	-14.63327	-7.03064	-11.93724
11306.427	-7.41443	-14.36083	-7.09756	-12.05887
11310.436	-7.53427	-14.20635	-7.11462	-12.10200
11314.431	-7.39405	-14.11870	-7.35654	-12.15159
11318.436	-7.32126	-13.93532	-7.23401	-12.10043
11322.427	-7.36120	-14.12747	-7.08427	-11.90108
11326.439	-7.33549	-14.21081	-7.05090	-11.75910
11330.461	-7.52344	-14.26444	-7.07896	-11.70664
11334.432	-7.49866	-14.24365	-7.15728	-11.63943
11338.436	-7.48654	-14.29707	-7.37904	-11.70220
11342.431	-7.49593	-13.97215	-7.64308	-11.57200
11346.435	-7.41019	-13.84158	-7.63145	-11.66149
11350.426	-7.46124	-13.82228	-7.40562	-11.66209
11354.436	-7.52920	-13.80680	-7.04078	-11.79932
11358.430	-7.44023	-13.73948	-6.97499	-11.73602
11362.435	-6.90554	-13.65911	-6.81940	-11.61351
11366.429	-3.82190	-12.49668	-5.02479	-11.52188
11370.440	-1.63214	-11.69044	-2.19888	-11.29462
11374.432	-0.41594	-11.00352	-1.60789	-11.43564
11378.431	2.57075	-9.42974	0.10309	-11.29695
11382.431	2.27226	-9.94823	1.30035	-10.98330
11386.449	2.58975	-9.75940	1.69520	-11.26198
11390.308	2.97418	-9.23531	2.45854	-11.10395
11394.305	2.90230	-9.06887	2.34681	-11.02609
11398.308	2.74098	-9.32539	2.03353	-11.00556
11402.433	2.76121	-9.14819	1.97436	-10.99265
11406.308	2.67264	-9.41660	2.14652	-10.93390
11410.306	2.80432	-9.47898	2.24760	-10.89385
11414.304	3.28486	-9.40868	2.34017	-10.86356
11418.315	4.22923	-9.20933	2.53095	-10.86711
11422.308	3.79317	-9.23839	2.58407	-10.84630
11426.306	4.19928	-9.22168	2.80172	-10.84383
11430.305	4.01865	-9.24486	2.73075	-10.79174
11434.305	3.54433	-9.30919	2.73749	-10.78277
11438.307	3.19281	-9.39619	2.77701	-10.79219
11442.304	3.15454	-9.36687	2.78956	-10.78935
11446.304	3.33144	-9.40709	2.76425	-10.76334
11450.307	3.38113	-9.41287	2.82192	-10.74144
11454.304	3.26881	-9.42571	2.80845	-10.73430
11458.309	3.31979	-9.42016	2.76567	-10.74848
11462.311	3.53233	-9.57266	2.72068	-10.73934
11466.305	3.32090	-9.58497	2.58264	-10.73217
11470.304	3.23361	-9.79036	2.61877	-10.73285
11474.341	3.41236	-9.76475	2.40483	-10.74042
11478.305	3.53602	-9.86719	2.58098	-10.72921
11482.302	3.72978	-9.92036	2.43142	-10.71811
11486.320	3.74295	-10.05163	2.40137	-10.69114
11490.308	3.62860	-10.05739	2.43196	-10.68978
11494.302	3.90429	-10.15341	2.41189	-10.71318
11498.303	4.03073	-10.19781	2.31968	-10.74240
11502.307	3.94866	-10.17875	2.27330	-10.75401
11506.306	4.03927	-10.11614	2.24948	-10.74670
11510.302	4.04954	-10.15682	2.23457	-10.72898
11514.305	4.08431	-10.10012	2.15794	-10.73155
11518.306	4.03110	-10.07818	2.14057	-10.72954
11522.298	4.10769	-9.97969	2.18042	-10.71984
11526.308	3.92695	-9.84031	2.17304	-10.71483
11530.302	3.96422	-9.82630	2.21588	-10.71341
11534.306	3.98351	-9.78968	2.16768	-10.66097
11538.307	3.90627	-9.73929	2.18818	-10.68198
11542.306	3.87583	-9.63422	2.27293	-10.68708
11546.320	3.79519	-9.44403	2.46377	-10.70199
11550.306	3.74550	-9.54187	2.51346	-10.73151
11554.307	3.66609	-9.45896	2.46221	-10.74620
11558.302	3.65428	-9.47435	2.47987	-10.76317
11562.306	3.73636	-9.96013	2.48487	-10.76778
11566.303	3.66735	-11.10948	2.47848	-10.79191
11570.305	3.66103	-10.69568	2.47764	-10.76417
11574.310	3.59149	-10.66283	2.33133	-10.70380
11578.305	3.61458	-10.56848	2.48899	-10.60380
11582.302	3.57520	-11.11230	2.34634	-10.53889
11586.313	3.58344	-11.44832	2.23595	-10.61785
11590.305	3.56198	-11.65417	2.37865	-10.34597
11594.301	3.80270	-11.53214	2.77324	-10.50460
11598.304	5.34009	-10.88543	5.56768	-10.48102
11602.696	8.11805	-10.91417	7.16173	-10.58828
11606.313	10.29983	-10.48786	9.32386	-10.50818
11610.305	11.72467	-10.25047	10.62926	-11.31429
11614.303	12.60701	-10.07496	11.75312	-11.34750
11618.300	12.64345	-9.89456	12.05955	-11.55804
11622.301	14.15141	-9.77170	13.27957	-11.58697
11626.313	13.92068	-9.74012	13.43892	-11.90246
11630.302	13.22020	-9.73524	13.19056	-12.16192
11634.301	11.99590	-9.77471	12.79347	-12.02822
11638.302	11.50534	-9.82256	12.75122	-12.12913
11642.304	11.73897	-9.80414	13.01235	-12.05217
11646.296	12.10255	-9.76073	13.12013	-12.11495
11650.301	12.66545	-9.71297	13.20334	-12.13945
11654.303	12.73002	-9.70099	13.23869	-12.17048
11658.301	12.94617	-9.65899	13.18706	-12.20758
11662.300	12.55453	-9.72888	13.17939	-12.24460
11666.306	12.36487	-9.76870	13.16701	-12.26600
11670.308	12.43417	-9.78612	13.06398	-12.24267
11674.303	12.51934	-9.77139	13.08446	-12.21278
11678.304	12.60160	-9.80182	13.07351	-12.19523
11682.296	12.66613	-9.74945	13.08234	-12.16488
11686.318	12.66356	-9.72969	13.05350	-12.15945
11690.307	12.74400	-9.67654	13.05121	-12.12194
11694.297	12.78656	-9.70564	13.00924	-12.08961
11698.345	12.80298	-9.76208	12.97431	-12.05280
11702.311	12.88329	-9.77965	12.95534	-11.97404
11706.296	12.99847	-9.76859	12.97681	-11.92615
11710.308	12.96668	-9.77718	12.94082	-11.85754
11714.301	13.06925	-9.78290	12.95683	-11.82456
11718.304	13.09035	-9.92307	12.93014	-11.74142
11722.294	13.11090	-9.96673	12.88909	-11.68349
11726.304	13.17795	-10.04173	12.83873	-11.59809
11730.298	13.20454	-9.98255	12.74803	-11.48041
11734.303	13.20446	-9.93042	12.81235	-11.38916
11738.301	13.21898	-9.90696	12.79744	-11.24410
11742.300	13.26248	-9.95108	12.74367	-11.19128
11746.302	13.25044	-10.05881	12.79956	-11.04046
11750.300	13.35992	-10.05898	12.71913	-11.04269
11754.304	13.37930	-10.09598	12.45130	-10.96397
11758.299	13.33765	-10.09054	12.54401	-10.93765
11762.326	13.34998	-10.26138	12.25254	-10.93309
11766.310	13.46073	-10.33880	12.59900	-10.84229
11770.299	13.32066	-10.24344	12.21089	-10.85034
11774.299	13.28411	-10.29876	12.13515	-10.83440
11778.298	13.19510	-10.33369	12.24389	-10.78393
11782.301	13.18470	-10.36610	12.22168	-10.77427
11786.307	13.32216	-10.29360	12.36061	-10.75925
11790.311	13.28724	-10.38472	12.47543	-10.72672
11794.302	13.34068	-10.32368	12.21020	-10.78389
11798.297	13.31347	-10.40694	12.19583	-10.80851
11802.300	13.33990	-10.36608	12.09868	-10.80430
11806.301	13.37869	-10.25967	12.17886	-10.82029
11810.297	13.44404	-10.21764	12.22547	-10.82883
11814.298	13.49120	-10.10620	12.25038	-10.93858
11818.301	13.42228	-10.13872	12.30706	-11.00732
11822.299	13.39720	-10.04925	12.37397	-11.16320
11826.301	13.34618	-10.05876	12.47319	-11.12579
11830.299	13.16988	-10.20176	12.21499	-10.95012
11834.301	13.35337	-10.16265	12.25901	-10.95934
11838.297	13.34921	-10.24221	12.16641	-10.84178
11842.297	13.23255	-10.15237	12.23495	-10.77159
11846.300	13.27757	-10.20852	12.20420	-10.70681
11850.299	13.23426	-10.28008	12.20475	-10.57150
11854.297	13.23424	-10.38693	12.08717	-10.54422
11858.297	13.20736	-10.43504	12.01939	-10.51178
11862.301	13.32498	-10.47753	12.08164	-10.48193
11866.298	13.34911	-10.51129	12.05751	-10.41663
11870.297	13.37279	-10.57834	11.99918	-10.35793
11874.301	13.43031	-10.58267	12.02378	-10.33019
11878.304	13.42782	-10.67021	11.90745	-10.32021
11882.299	13.46050	-10.69031	11.99700	-10.27550
11886.295	13.54943	-10.68312	12.00189	-10.25932
11890.326	13.53908	-10.48593	11.94517	-10.25217
11894.297	13.56373	-8.58003	11.60889	-9.95715
11898.292	13.59155	-6.25469	11.68829	-8.76194
11902.301	13.63677	-3.69661	11.46423	-6.54891
11906.296	13.66006	-2.94256	11.26844	-5.07858
11910.300	13.58076	-1.54529	11.20163	-4.20789
11914.292	13.63388	0.13543	11.01462	-3.26805
11918.305	13.74189	0.68435	11.14161	-2.70679
11922.296	13.83407	0.75816	11.20553	-2.81500
11926.300	13.75366	0.10526	11.52753	-2.93248
11930.290	13.69647	-0.26670	11.54937	-3.01277
11934.300	13.56990	-0.06935	11.45527	-3.20223
11938.295	13.80077	0.06960	11.36195	-3.21899
11942.302	13.96916	0.15423	11.18286	-3.13931
11946.298	14.05523	0.37449	11.12682	-2.98349
11950.290	14.19168	0.42731	11.03277	-2.95954
11954.296	14.28240	0.47843	11.01299	-2.94145
11958.300	14.33243	0.25520	11.06602	-2.97672
11962.302	14.34175	0.24168	11.23110	-2.99504
11966.300	14.28145	0.14494	11.27343	-2.90751
11970.296	14.32199	0.13873	11.24158	-2.88666
11974.299	14.37783	0.09534	11.15757	-2.88752
11978.298	14.37629	0.01726	11.26302	-2.79944
11982.297	14.46733	0.09745	11.15668	-2.75676
11986.294	14.69766	0.16897	11.22501	-2.69920
11990.295	14.67235	0.06971	11.26066	-2.70067
11994.295	14.94720	0.09404	11.24733	-2.68929
11998.296	15.01163	0.02350	11.33860	-2.58555
12002.300	15.18761	0.06573	11.35969	-2.57106
12006.295	15.09886	0.07154	11.33058	-2.54803
12010.295	15.10665	0.03239	11.33368	-2.51755
12014.301	15.19900	0.00950	11.26648	-2.52566
12018.295	15.20783	0.06848	11.24729	-2.50209
12022.300	15.23415	0.12254	11.17763	-2.48819
12026.290	15.28612	0.08835	11.21014	-2.41818
12030.300	15.22153	0.06771	11.16344	-2.46011
12034.296	15.19299	-0.01789	11.07432	-2.44930
12038.299	15.16807	-0.04806	11.10926	-2.43713
12042.295	15.12724	-0.04373	11.04539	-2.47700
12046.304	15.09969	-0.10607	11.04092	-2.47913
12050.294	15.06970	-0.18303	11.00771	-2.50263
12054.298	15.05614	-0.19912	10.95158	-2.54945
12058.290	14.95137	-0.22270	10.97975	-2.55677
12062.299	14.96932	-0.26053	11.03387	-2.53449
12066.294	14.96094	-0.25610	11.04269	-2.56136
12070.298	14.96246	-0.27137	10.96098	-2.61517
12074.313	14.99669	-0.28049	10.98463	-2.59120
12078.293	15.01851	-0.23561	10.97844	-2.60304
12082.307	15.01955	-0.17580	11.00587	-2.57393
12086.305	15.02649	-0.16423	11.04491	-2.56789
12090.301	14.84176	-0.17881	10.94751	-2.55635
12094.290	14.84487	-0.17109	10.94526	-2.61051
12098.299	14.74135	-0.11410	10.95490	-2.62117
12102.294	14.74112	-0.08865	10.96442	-2.67843
12106.304	14.52384	-0.08253	10.98841	-2.79390
12110.296	14.49627	-0.08702	10.95038	-2.95815
12114.294	14.42504	-0.12153	11.00568	-3.00253
12118.326	14.41853	-0.16168	11.05469	-3.08226
12122.293	14.02695	-0.23052	11.12209	-3.22262
12126.300	14.04750	-0.30899	11.16258	-3.31934
12130.296	14.06184	-0.32104	11.18286	-3.38113
12134.295	13.99328	-0.37206	11.24903	-3.41521
12138.296	14.08103	-0.39612	11.27476	-3.44375
12142.298	13.90941	-0.46187	11.34838	-3.47661
12146.294	13.87917	-0.51370	11.40319	-3.53788
12150.297	13.76069	-0.47259	11.25600	-3.49966
12154.291	13.80566	0.84070	10.50330	-2.93218
12158.297	13.56523	1.64015	10.42735	-2.25436
12162.291	12.87805	2.43316	9.77847	-1.27131
12166.296	12.92517	2.45044	10.17767	-1.19757
12170.295	13.14451	2.25183	10.10509	-1.52473
12174.292	13.59333	2.24902	10.40428	-1.66601
12178.292	13.59912	2.03578	10.08346	-1.79673
12182.291	13.41850	1.90205	10.22462	-1.58000
12186.310	13.37686	1.96193	10.00952	-1.56025
12190.295	13.35640	1.92172	10.04985	-1.47345
12194.290	13.40882	2.03731	9.97536	-1.33902
12198.294	13.38801	2.12389	9.96807	-1.37669
12202.292	13.37700	2.03864	9.78857	-1.30206
12206.297	13.44331	1.91045	9.76599	-1.35223
12210.297	13.45313	1.90296	9.66771	-1.37456
12214.330	13.60906	1.96084	9.69528	-1.33083
12218.290	13.71505	1.92890	9.57686	-1.30489
12222.291	13.63716	1.99727	9.53559	-1.28943
12226.294	13.55897	2.00464	9.58224	-1.22741
12230.292	13.50992	1.95917	9.51826	-1.23528
12234.290	13.81106	2.04949	9.44356	-1.26018
12238.292	13.67033	1.98235	9.37525	-1.27106
12242.293	13.63377	1.97704	9.42047	-1.26876
12246.167	13.72577	1.95483	9.40859	-1.25824
12250.167	14.11869	2.00923	9.45928	-1.26306
12254.177	13.88626	2.02724	9.49270	-1.26445
12258.166	13.68804	2.00523	9.46882	-1.30609
12262.165	13.80060	1.96759	9.46355	-1.36539
12266.166	13.76668	1.94996	9.46848	-1.38480
12270.167	13.85461	1.97279	9.48702	-1.45037
12274.166	13.87683	1.98178	9.52010	-1.53391
12278.164	13.74376	1.92606	9.59616	-1.54165
12282.205	13.81956	1.89264	9.64403	-1.67097
12286.189	13.88570	1.86658	9.67806	-1.62521
12290.178	13.94843	1.78594	9.73419	-1.59863
12294.170	13.81851	1.73217	9.91587	-1.58865
12298.169	13.78354	1.65667	9.96114	-1.62918
12302.177	13.87197	1.65616	9.99758	-1.61572
12306.167	13.91224	1.59861	10.17312	-1.45751
12310.167	13.90707	1.54519	10.24553	-1.47316
12314.166	13.94390	1.50416	10.18517	-1.51015
12318.170	13.94481	1.43643	10.31131	-1.48492
12322.166	14.01522	1.38236	10.29786	-1.26920
12326.201	14.04404	1.42011	10.33961	-1.31284
12330.170	14.08358	1.41887	10.27785	-1.28578
12334.163	14.03360	1.36762	10.27616	-1.31851
12338.167	14.11344	1.36534	10.23454	-1.37115
12342.163	14.13617	1.50114	10.28650	-1.31917
12346.164	14.15953	1.81838	10.14016	-1.26859
12350.164	14.18843	1.74231	10.05045	-1.32435
12354.163	14.20583	1.96056	9.96049	-1.37291
12358.163	14.15778	1.70434	9.85992	-1.34150
12362.166	14.19109	1.88616	9.95957	-1.38571
12366.163	14.15706	1.94361	9.95182	-1.32899
12370.163	14.12294	1.99004	10.02714	-1.33365
12374.164	14.00379	1.83282	10.09503	-1.36386
12378.170	13.83039	1.86095	10.02745	-1.38133
12382.171	13.83849	1.95577	10.01621	-1.25748
12386.180	13.88392	1.93324	9.97594	-1.33026
12390.167	13.81647	1.84088	10.10307	-1.34534
12394.169	13.75647	1.88367	10.22704	-1.39162
12398.168	13.77258	1.83108	10.28203	-1.41559
12402.163	13.83720	1.93139	10.29908	-1.48940
12406.166	13.69359	2.02341	10.46604	-1.57163
12410.158	12.45499	1.98970	10.22106	-1.56245
12414.167	10.97411	2.02643	7.28820	-1.41882
12418.615	6.94978	2.00773	6.59824	-1.45102
12422.179	5.71912	1.96335	3.51757	-1.58112
12426.169	3.49292	1.63819	2.99057	-1.36835
12430.161	3.39184	1.60022	1.99880	-1.37698
12434.161	1.61557	1.15043	0.30342	-0.99057
12438.164	0.62608	0.75900	-1.06659	-0.97092
12442.163	-0.00620	0.92458	-1.62582	-0.90653
12446.162	-0.85195	0.95732	-2.50316	-0.73559
12450.162	-1.06895	0.82628	-3.38738	-0.67617
12454.166	-0.99559	0.79224	-3.17072	-0.70931
12458.161	-0.59468	0.62853	-2.61798	-0.72755
12462.175	-0.33635	0.54107	-2.39758	-0.74222
12466.164	-0.86726	0.53965	-2.60428	-0.80304
12470.164	-1.00491	0.53041	-2.77243	-0.90839
12474.161	-1.21886	0.41674	-3.03007	-0.80577
12478.170	-1.22789	0.34982	-3.06184	-0.83323
12482.162	-0.98884	0.49878	-3.02900	-0.84271
12486.206	-1.14801	0.67580	-3.01418	-0.87148
12490.176	-1.14121	0.58668	-3.05974	-0.91230
12494.161	-1.21963	0.61580	-3.05014	-0.89467
12498.166	-1.16081	0.95196	-3.02093	-0.71420
12502.157	-1.19986	1.02318	-3.14758	-0.52254
12506.171	-1.22600	1.46021	-3.13185	-0.51474
12510.180	-1.32657	1.61255	-3.22158	-0.59110
12514.170	-1.30665	1.55701	-3.18982	-0.50702
12518.166	-1.25500	1.26652	-3.06664	-0.57734
12522.161	-1.30424	1.17313	-2.99579	-0.57222
12526.167	-1.28621	1.07711	-3.04019	-0.59187
12530.162	-1.39527	1.04788	-2.99287	-0.50592
12534.176	-1.32416	0.29687	-2.87700	-0.48652
12538.161	-1.27145	0.67125	-2.81677	-0.50565
12542.165	-1.21120	0.32341	-2.80694	-0.52290
12546.187	-1.25146	0.46101	-2.78926	-0.56168
12550.166	-1.07299	0.43962	-2.77453	-0.72592
12554.159	-1.07413	0.48069	-2.78292	-0.74498
12558.162	-1.15908	0.52121	-2.81647	-0.69039
12562.162	-1.18316	0.51592	-2.87938	-0.63191
12566.154	-1.22605	0.54418	-2.96346	-0.53412
12570.165	-1.37607	0.60081	-3.12606	-0.62418
12574.161	-1.36643	0.59969	-3.16963	-0.58513
12578.159	-1.38414	0.67574	-2.96483	-0.75223
12582.159	-1.58103	0.80123	-3.05744	-0.80084
12586.182	-1.33726	0.88596	-3.26643	-0.81114
12590.166	-1.28380	0.96553	-3.29577	-1.09261
12594.164	-1.06086	1.10313	-3.14340	-1.06095
12598.159	-1.14295	1.16255	-3.16960	-1.19009
12602.161	-1.16054	1.29011	-2.99250	-1.15628
12606.158	-1.25810	1.18036	-2.96676	-1.30829
12610.162	-1.38061	1.10252	-2.91178	-1.36096
12614.162	-1.23732	1.02282	-2.90596	-1.41848
12618.156	-1.23320	0.95417	-2.87264	-1.41726
12622.161	-1.21472	0.84512	-2.96641	-1.42158
12626.161	-1.22253	0.70023	-3.06600	-1.44739
12630.162	-1.15434	0.76319	-2.95220	-1.47415
12634.181	-1.13655	0.77286	-3.10183	-1.43333
12638.178	-0.97390	0.87407	-3.04365	-1.40164
12642.163	-1.01638	0.82120	-3.02680	-1.48462
12646.159	-1.21273	0.69780	-3.01215	-1.42036
12650.160	-1.21221	0.67504	-3.05556	-1.42558
12654.159	-1.34723	0.72307	-3.09119	-1.35873
12658.158	-1.18981	0.92326	-3.21228	-1.34637
12662.158	-1.07656	0.91073	-3.20147	-1.34839
12666.162	-0.74761	1.02113	-3.25785	-1.30098
12670.166	-0.93956	1.12989	-3.15580	-1.28527
12674.164	-1.13429	1.17405	-3.11834	-1.36623
12678.158	-1.21507	1.12614	-3.01089	-1.37612
12682.158	-1.51144	1.17469	-3.02145	-1.39773
12686.175	-1.09202	1.22140	-3.10371	-1.31725
12690.437	-1.03982	1.13420	-3.14112	-1.25027
12694.164	-0.77434	1.17951	-3.17876	-1.27639
12698.165	-1.18961	1.17803	-3.06073	-1.29101
12702.163	-1.75379	1.18912	-3.20214	-1.23779
12706.160	-2.36133	1.30757	-3.50645	-1.04375
12710.159	-5.70750	1.31494	-7.10900	-0.65336
12714.165	-6.19120	1.42050	-7.78557	-0.98697
12718.167	-7.25252	1.41565	-8.28942	-0.58828
12722.158	-8.52700	1.41341	-9.93959	-0.42769
12726.163	-8.05784	1.45552	-10.47199	-0.29425
12730.154	-8.94668	1.52469	-10.70490	-0.24202
12734.156	-8.88683	1.50374	-10.59821	-0.24000
12738.157	-8.21488	1.55368	-10.14109	-0.32545
12742.161	-8.42153	1.57506	-10.12371	-0.33082
12746.156	-8.48988	1.63316	-10.21349	-0.31440
12750.157	-8.44815	1.61332	-10.49443	-0.31653
12754.161	-8.77829	1.73320	-10.11291	-0.31863
12758.163	-8.86052	1.60490	-10.33896	-0.32825
12762.213	-9.51877	1.64135	-10.34143	-0.33505
12766.171	-9.07218	1.81336	-10.50712	-0.35698
12770.160	-8.96566	1.93716	-10.38091	-0.29436
12774.152	-8.67774	2.07859	-10.41237	-0.28854
12778.155	-8.76392	2.11681	-10.40507	-0.24702
12782.158	-8.81835	1.73598	-10.55593	-0.09854
12786.166	-8.75000	1.57242	-10.54111	-0.16971
12790.164	-8.84268	1.58896	-10.54521	-0.08142
12794.151	-8.73218	1.90863	-10.49656	-0.18000
12798.166	-8.30439	1.83120	-10.30980	-0.34476
12802.155	-8.43343	1.84666	-10.44528	-0.45692
12806.160	-8.50365	2.15229	-10.46765	-0.39705
12810.158	-8.46832	2.29872	-10.47307	-0.47379
12814.162	-8.47483	1.89227	-10.52617	-0.36343
12818.157	-8.53644	1.90137	-10.64060	-0.29714
12822.173	-8.53345	1.46380	-10.54250	-0.28133
12826.165	-8.50535	1.32521	-10.27417	-0.37458
12830.159	-8.47600	1.35040	-10.23334	-0.29689
12834.156	-8.55258	1.53902	-10.29993	-0.27717
12838.160	-8.42051	1.62277	-10.32846	-0.17548
12842.161	-8.53353	1.59427	-10.36254	-0.18269
12846.155	-8.72093	1.71864	-10.38773	-0.15924
12850.159	-8.93939	1.71807	-10.45082	-0.08445
12854.150	-8.66673	1.67162	-10.45795	-0.05290
12858.160	-8.62753	1.82778	-10.19404	0.03828
12862.156	-8.57148	2.07964	-10.27266	0.10203
12866.159	-8.63372	2.22465	-10.26487	-0.12473
12870.151	-8.82921	2.17337	-10.39775	-0.03573
12874.159	-8.81741	2.25075	-10.42257	-0.13170
12878.161	-8.70611	2.12177	-10.51136	-0.12089
12882.159	-8.78881	2.28991	-10.31150	-0.23311
12886.171	-8.75356	2.31266	-10.37181	-0.31869
12890.160	-8.73090	2.40323	-10.39078	-0.24725
12894.159	-8.75664	2.21748	-10.47849	-0.30015
12898.154	-8.64289	1.90832	-10.45769	-0.35894
12902.161	-8.65783	1.53417	-10.50472	-0.40040
12906.155	-8.67675	1.52916	-10.50318	-0.50936
12910.159	-8.72881	2.02385	-10.38288	-0.54522
12914.153	-8.66329	1.41069	-10.39813	-0.58092
12918.158	-8.62025	1.52328	-10.26626	-0.51977
12922.162	-8.62503	1.45211	-10.32678	-0.39798
12926.159	-8.60528	1.33651	-10.44192	-0.57331
12930.155	-8.63787	1.22587	-10.49116	-0.46824
12934.155	-8.51158	1.18982	-10.57596	-0.41403
12938.155	-8.51967	1.15317	-10.45701	-0.51657
12942.159	-8.58614	1.12625	-10.35356	-0.32579
12946.151	-8.59274	1.11137	-10.41275	-0.26666
12950.176	-8.60565	1.18069	-10.39131	-0.20140
12954.165	-8.63056	1.18041	-10.50297	-0.06042
12958.155	-8.59752	1.07694	-10.57136	-0.07240
12962.162	-8.65324	0.96229	-10.63511	-0.03585
12966.196	-8.60031	1.03388	-10.52943	-0.07869
12970.151	-8.64298	1.08762	-10.62794	-0.03881
12974.159	-8.64985	1.32225	-10.67454	-0.00020
12978.178	-8.67990	1.69623	-10.57527	-0.01558
12982.152	-8.71230	1.31239	-10.67308	-0.01839
12986.161	-8.66428	1.09137	-10.73143	-0.01765
12990.160	-8.73822	1.06338	-10.73468	-0.05349
12994.149	-8.60465	0.91943	-10.59457	-0.12088
12998.157	-8.66292	1.09130	-10.56613	-0.20339
13002.153	-8.79470	1.25476	-10.58380	-0.19307
13006.160	-8.74598	1.28554	-10.57901	-0.24600
13010.148	-8.78197	1.39461	-10.62363	-0.24636
13014.160	-8.81857	1.24297	-10.66527	-0.19949
13018.159	-8.83810	1.34809	-10.52557	-0.30221
13022.150	-8.74872	1.33614	-10.42507	-0.29089
13026.157	-8.48231	1.29260	-10.49774	-0.31245
13030.186	-8.63745	1.51994	-10.43832	-0.27270
13034.155	-8.63098	1.56922	-10.39069	-0.22569
13038.147	-8.74173	1.62520	-10.57303	-0.15059
13042.157	-8.80265	1.71559	-10.54668	-0.16390
13046.159	-8.97634	1.82613	-10.72759	-0.10244
13050.156	-8.88714	1.87058	-10.29827	-0.04890
13054.151	-8.51809	1.84961	-10.38819	0.06145
13058.156	-8.70236	2.02608	-10.34261	0.17239
13062.153	-8.74539	2.02202	-10.48284	0.17835
13066.156	-8.62144	2.07122	-10.46071	0.26699
13070.146	-8.69552	2.02788	-10.46119	0.21870
13074.157	-8.80110	1.86373	-10.60488	0.23369
13078.152	-8.67784	1.73020	-10.68712	0.26235
13082.147	-8.87239	1.73720	-10.64734	0.13705
13086.170	-8.59796	1.65936	-10.69343	0.17385
13090.159	-8.56119	1.76214	-10.34835	-0.25677
13094.153	-8.46794	1.74756	-10.32313	-0.15162
13098.030	-8.46255	1.73175	-10.28890	-0.34146
13102.031	-8.45223	1.70230	-10.61694	-0.17258
13106.023	-8.49612	1.77449	-10.63746	-0.31145
13110.032	-8.54935	1.75323	-10.74084	-0.36342
13114.025	-8.71812	1.86750	-10.83601	-0.34893
13118.025	-8.66906	1.86360	-10.65875	-0.43292
13122.028	-8.77417	1.88555	-10.31729	-0.43237
13126.028	-8.54768	1.95151	-10.27552	-0.50365
13130.030	-8.65979	2.01011	-10.35277	-0.48932
13134.034	-8.59536	2.09725	-10.37964	-0.42209
13138.033	-8.58194	2.08005	-10.50222	-0.39568
13142.025	-8.66067	2.15422	-10.57915	-0.40809
13146.026	-8.70214	2.25010	-10.48667	-0.42263
13150.026	-8.77846	2.24574	-10.59107	-0.43604
13154.028	-8.73485	2.26003	-10.64854	-0.43801
13158.026	-8.75058	2.19245	-10.55910	-0.49593
13162.025	-8.79652	2.18254	-10.46388	-0.52287
13166.062	-8.72028	2.20126	-10.44725	-0.61201
13170.034	-8.74188	2.12510	-10.47573	-0.44021
13174.037	-8.38818	2.01770	-10.02519	-0.47842
13178.034	-5.41733	1.79333	-7.62882	-0.47991
13182.026	-4.68188	1.35139	-5.70079	-0.56846
13186.023	-3.35311	0.27064	-3.51463	-0.80439
13190.065	-1.98393	-0.77347	-3.87425	-1.48270
13194.023	-1.46100	-1.21720	-3.67845	-2.14905
13198.029	-1.58879	-1.41145	-3.67200	-2.32452
13202.029	-1.85341	-0.11638	-3.89987	-2.26658
13206.025	-2.61001	0.78762	-4.09525	-2.06512
13210.023	-2.64572	0.97000	-3.97783	-2.27407
13214.022	-2.30737	-0.86247	-3.89081	-2.30096
13218.028	-1.71608	-1.48267	-3.50417	-2.33901
13222.045	-1.71221	-1.52450	-3.21433	-2.35754
13226.027	-1.60342	-1.23902	-3.16728	-2.37468
13230.022	-1.72369	-0.77162	-3.07726	-2.44709
13234.024	-1.50914	0.07017	-3.10898	-2.48756
13238.027	-1.57049	0.06662	-3.08461	-2.53982
13242.022	-1.57545	-0.02854	-3.05489	-2.61064
13246.028	-1.67824	0.00825	-3.06927	-2.63970
13250.024	-1.73671	0.08050	-3.10963	-2.73475
13254.026	-1.60107	0.00887	-3.09557	-2.83858
13258.024	-1.53290	0.02380	-3.09344	-2.80408
13262.027	-1.53557	0.22796	-3.12905	-2.68818
13266.023	-1.52627	0.36376	-3.22119	-2.68537
13270.023	-1.59993	0.40756	-3.25006	-2.45225
13274.023	-1.58946	0.36876	-3.32958	-2.42059
13278.026	-1.50006	0.30752	-3.34630	-2.39734
13282.024	-1.56419	0.32960	-3.41810	-2.34038
13286.028	-1.67955	0.34071	-3.47673	-2.28626
13290.024	-1.57654	0.33970	-3.61382	-2.22661
13294.024	-1.44604	0.25522	-3.54549	-2.29468
13298.022	-1.45557	0.34700	-3.47695	-2.33467
13302.027	-1.51221	0.33959	-3.41993	-2.35447
13306.028	-1.44379	0.36459	-3.38199	-2.45478
13310.026	-1.44996	0.33620	-3.39473	-2.62834
13314.019	-1.42853	0.34189	-3.38239	-2.65451
13318.027	-1.37689	0.33832	-3.35063	-2.43207
13322.024	-1.48620	0.23986	-3.26940	-2.58552
13326.026	-1.53490	0.23685	-3.27032	-2.65172
13330.028	-1.57230	0.18200	-3.15651	-2.53541
13334.024	-1.43944	0.25159	-3.13071	-2.42668
13338.027	-1.49480	0.21959	-3.14484	-2.41803
13342.030	-1.29861	0.16448	-3.23588	-2.43708
13346.027	-1.37531	0.18793	-3.29963	-2.37361
13350.022	-1.23556	0.19338	-3.38038	-2.29149
13354.027	-1.28566	0.19241	-3.41681	-2.21183
13358.018	-1.27075	0.14541	-3.36166	-2.18156
13362.026	-1.21988	0.15227	-3.27343	-2.50670
13366.022	-1.23630	0.16749	-3.28956	-2.76536
13370.026	-1.37084	0.19098	-3.27873	-2.67724
13374.024	-1.38215	0.20177	-3.29636	-2.40180
13378.029	-1.30938	0.16014	-3.27957	-2.37742
13382.028	-1.62068	0.17601	-3.27249	-2.62448
13386.058	-1.53069	0.14445	-3.28382	-2.58833
13390.024	-1.25381	0.17668	-3.23472	-2.43290
13394.021	-1.36342	0.10563	-3.14563	-2.43992
13398.055	-1.31669	0.07768	-3.10950	-2.49053
13402.024	-1.29072	0.04678	-3.15674	-2.55567
13406.022	-1.19502	0.03255	-3.21090	-2.51304
13410.023	-1.24151	0.03525	-3.27037	-2.51339
13414.018	-1.14347	0.01642	-3.31071	-2.44616
13418.025	-1.27197	0.03451	-3.41948	-2.46159
13422.020	-1.22261	0.01284	-3.40420	-2.48691
13426.028	-1.21779	0.02323	-3.43504	-2.43099
13430.016	-1.26753	-0.00740	-3.40363	-2.37249
13434.024	-1.32547	-0.01759	-3.40727	-2.32256
13438.020	-1.35623	-0.00753	-3.41372	-1.82853
13442.023	-1.49178	0.00633	-3.45974	-2.37148
13446.022	-1.53761	0.11667	-3.52890	-2.17338
13450.018	-1.83243	0.42681	-3.67764	-1.98812
13454.021	-1.71511	0.59035	-3.87359	-1.89823
13458.022	-1.86670	0.58852	-3.99131	-1.83469
13462.018	-1.69872	0.61569	-3.95291	-1.77163
13466.029	-1.85291	0.69905	-4.11913	-1.80996
13470.021	-1.89878	0.85296	-4.27286	-1.75762
13474.021	-1.93420	0.94129	-4.34598	-1.68237
13478.025	-2.00584	0.93591	-4.18534	-1.63399
13482.019	-2.14064	1.01045	-4.25183	-1.40268
13486.039	-2.27181	1.05812	-4.26339	-1.39496
13490.020	-2.36933	1.07021	-4.21116	-1.39622
13494.024	-2.32246	1.00635	-4.20081	-1.49461
13498.019	-2.22822	0.99562	-4.18526	-1.57005
13502.021	-2.22783	1.03221	-4.21180	-1.59179
13506.023	-2.29500	0.99491	-4.25356	-1.60790
13510.026	-1.92242	1.01868	-4.31190	-1.55063
13514.047	-1.72061	0.93906	-4.39303	-1.42802
13518.028	-1.59184	0.84545	-4.27805	-1.47037
13522.019	-1.73951	0.77869	-4.20711	-1.46290
13526.024	-1.64308	0.68796	-4.20866	-1.47280
13530.014	-1.78176	0.62336	-4.17006	-1.54839
13534.025	-1.81560	0.56156	-4.21674	-1.61614
13538.019	-1.84887	0.58376	-4.25356	-1.64249
13542.023	-1.96630	0.55707	-4.12308	-1.61899
13546.016	-2.00871	0.49557	-4.09216	-1.64248
13550.028	-2.02356	0.39358	-4.10520	-1.65389
13554.021	-2.16471	0.35491	-4.04557	-1.72972
13558.019	-2.18401	0.31841	-3.95458	-1.78398
13562.019	-2.28162	0.32015	-3.91324	-1.90071
13566.020	-2.26948	0.26582	-3.92551	-1.78256
13570.022	-1.90477	0.28434	-3.72131	-1.97894
13574.024	0.10215	-1.73766	-3.04667	-3.73423
13578.021	-0.18258	-5.73164	-1.07780	-5.90849
13582.020	0.12014	-5.76474	0.05909	-7.31553
13586.037	0.14124	-9.31069	-0.79627	-8.57875
13590.025	0.39134	-10.08504	-0.20316	-10.46968
13594.028	0.19844	-11.98158	0.26073	-11.18053
13598.020	0.06378	-13.72080	-0.18340	-11.39485
13602.022	0.42435	-13.80334	-0.03668	-11.53298
13606.015	0.48200	-13.09028	0.20030	-11.53763
13610.024	0.70072	-12.63040	-0.05078	-11.08622
13614.018	0.85602	-12.45815	0.07788	-11.19395
13618.020	0.75374	-12.03173	0.30650	-11.40146
13622.018	0.61970	-12.46101	0.27858	-11.44587
13626.056	0.77699	-12.54667	0.21983	-11.59603
13630.019	0.87731	-13.01660	0.16764	-11.56351
13634.026	0.71868	-13.05395	0.28098	-11.69046
13638.026	0.96822	-13.25631	0.32359	-11.67798
13642.048	0.89217	-12.50789	0.20318	-11.67656
13646.033	0.98703	-12.54364	0.27185	-11.66338
13650.013	1.05667	-12.44586	0.27026	-11.56749
13654.025	0.99809	-12.59697	0.32052	-11.63937
13658.024	1.09415	-12.67951	0.23194	-11.57253
13662.021	1.14933	-12.84799	0.23539	-11.56895
13666.012	1.05473	-12.79322	0.27820	-11.49651
13670.019	1.18582	-12.44599	0.24748	-11.52572
13674.020	1.17731	-12.38546	0.31166	-11.26079
13678.018	1.23521	-12.62031	0.39239	-11.21461
13682.021	1.22030	-12.38766	0.29505	-11.27185
13686.027	1.32716	-12.39852	0.27217	-11.28212
13690.018	1.35254	-12.75686	0.25676	-11.16559
13694.016	1.21301	-13.77287	0.30937	-11.14037
13698.018	1.11502	-13.52720	0.20127	-11.05801
13702.014	0.94378	-13.33852	0.24115	-11.14962
13706.021	0.90704	-12.74128	0.23492	-11.09520
13710.031	1.20276	-12.87972	0.17822	-11.11689
13714.021	1.37459	-13.42354	0.29307	-11.06650
13718.020	1.31843	-13.50511	0.19971	-11.21362
13722.022	0.87203	-13.80967	0.21075	-11.24147
13726.015	0.82605	-14.02818	0.23271	-11.32507
13730.015	0.73335	-13.64502	0.26133	-11.25434
13734.018	0.86768	-13.31103	0.25830	-11.26364
13738.016	1.28909	-13.07652	0.25376	-11.25226
13742.014	1.13273	-13.10426	0.34221	-11.33798
13746.016	0.83684	-13.37058	0.37871	-11.28471
13750.018	1.03474	-12.89774	0.34992	-11.37562
13754.015	0.92607	-13.08889	0.40219	-11.34873
13758.019	0.95457	-12.88026	0.38603	-11.34615
13762.029	0.91200	-13.80716	0.39191	-11.29112
13766.043	0.90123	-13.56488	0.33714	-11.33123
13770.025	0.88098	-13.36740	0.22988	-11.28679
13774.017	1.02712	-13.17345	0.22753	-11.23868
13778.477	1.06922	-12.84490	0.00819	-11.20578
13782.030	1.08024	-12.67824	-0.03224	-11.27450
13786.015	1.06406	-12.53651	0.17293	-11.17904
13790.020	1.16811	-12.93303	0.17973	-11.26202
13794.022	1.13194	-12.80470	0.29592	-11.25046
13798.025	1.03411	-12.76675	0.09726	-11.29521
13802.023	1.05133	-13.18125	0.20040	-11.28837
13806.012	1.24652	-13.19967	0.12888	-11.31794
13810.015	1.31602	-12.93762	0.15578	-11.24752
13814.018	1.30255	-12.99530	0.10513	-11.21723
13818.016	1.21760	-12.77242	0.09389	-11.21009
13822.015	1.18554	-12.76037	0.04723	-11.16495
13826.017	1.14518	-13.00078	0.22321	-11.17760
13830.017	1.22484	-13.04218	0.12081	-11.20479
13834.012	1.26277	-12.85486	0.22554	-11.16418
13838.013	1.13581	-12.78112	0.29818	-11.14280
13842.020	0.85255	-12.96806	0.29555	-11.14910
13846.044	0.97065	-13.15193	0.33288	-11.16372
13850.013	0.77270	-13.10606	0.36231	-11.15397
13854.013	0.69030	-13.20051	0.31374	-11.14295
13858.016	0.90850	-12.80022	0.40604	-11.14574
13862.012	0.59764	-13.19254	0.49158	-11.09403
13866.012	0.52327	-13.38499	0.62997	-11.14645
13870.012	0.73151	-13.19519	0.57357	-11.32771
13874.015	0.73042	-12.91158	0.53349	-11.28521
13878.013	0.81359	-13.45341	0.51840	-11.30471
13882.020	0.63317	-13.29433	0.51845	-11.25517
13886.058	0.69565	-13.22475	0.52972	-11.11906
13890.022	0.70598	-12.98372	0.67866	-11.17211
13894.013	0.83947	-12.77429	0.42547	-11.03181
13898.015	0.61913	-13.35817	-0.24889	-11.07827
13902.024	0.33203	-12.50359	-1.01097	-10.88071
13906.015	-0.24202	-11.90175	-2.40144	-10.27251
13910.017	-0.80158	-11.57715	-2.21415	-10.87716
13914.012	-0.66625	-10.96139	-1.96724	-10.91530
13918.013	-0.61528	-12.55935	-1.62413	-10.82258
13922.012	-0.82471	-12.67660	-1.66309	-10.77144
13926.019	-0.48785	-12.13070	-1.39723	-10.61528
13930.015	-0.57538	-11.91749	-1.58525	-10.48492
13934.010	-0.39976	-11.74671	-1.70033	-10.29913
13938.012	-0.45887	-11.59451	-1.88162	-10.36207
13942.015	-0.54026	-11.45314	-1.98970	-10.33083
13946.015	-0.67635	-11.37651	-1.97701	-10.60420
13950.009	-0.68526	-11.22797	-1.67236	-10.61977
13953.888	-0.59258	-11.89217	-1.61463	-10.58679
13957.887	-0.63384	-11.32802	-1.56060	-10.67641
13961.885	-0.70727	-11.31512	-1.67053	-10.65627
13965.886	-0.79248	-11.98277	-1.54676	-10.49741
13969.894	-0.61146	-11.46407	-1.76956	-10.49685
13973.893	-0.55046	-11.39852	-1.97872	-10.52820
13977.913	-0.58831	-11.33621	-1.97676	-10.59930
13981.888	-0.42919	-11.66640	-2.00329	-10.61173
13985.887	-0.51247	-11.50431	-1.89523	-10.60030
13989.889	-0.66717	-11.55690	-1.98732	-10.34714
13993.888	-0.76221	-11.61187	-2.01241	-10.42601
13997.887	-0.95227	-11.37035	-2.02770	-10.32831
14001.886	-1.08949	-11.36936	-2.08733	-10.10154
14005.887	-0.91756	-11.22276	-2.19767	-10.29474
14009.890	-0.96437	-12.10607	-2.21415	-10.18955
14013.894	-1.14099	-12.49405	-2.15061	-10.00442
14017.897	-0.92678	-12.33555	-1.91866	-10.12771
14021.886	-0.87989	-12.52263	-2.00656	-9.92541
14025.891	-0.61297	-12.23513	-2.00509	-10.53970
14029.884	-0.53021	-11.55528	-1.90775	-10.33077
14033.887	-0.93735	-11.69830	-1.94503	-10.06538
14037.905	-1.19763	-11.80971	-1.96018	-10.06931
14041.888	-1.24612	-11.62138	-1.89694	-9.92351
14045.880	-1.16215	-11.72123	-1.98859	-10.02590
14049.885	-1.08860	-11.73871	-2.01471	-10.07479
14053.888	-1.14570	-11.36879	-2.25736	-10.05250
14057.892	-1.16994	-11.60079	-2.15108	-10.08527
14061.884	-1.13963	-12.05621	-1.93271	-10.01310
14065.888	-1.28293	-12.12243	-1.95839	-10.13229
14069.883	-1.36365	-11.83538	-1.95416	-10.11474
14073.884	-1.25299	-12.39365	-1.99106	-10.07274
14077.903	-1.45428	-12.38941	-1.82695	-10.05993
14081.886	-1.42273	-12.76592	-1.94352	-10.04834
14085.885	-1.35531	-12.58074	-2.11375	-10.17226
14089.891	-1.19361	-12.55476	-2.02847	-10.24007
14093.884	-1.06421	-12.40995	-1.95215	-10.25033
14097.893	-1.24481	-12.24978	-1.79562	-10.27816
14101.885	-1.02268	-11.96829	-1.72463	-10.32240
14105.888	-0.89304	-11.63038	-1.68709	-10.36884
14109.879	-1.21849	-11.78658	-2.01694	-10.44777
14113.888	-1.31803	-11.45555	-1.79594	-10.47581
14117.884	-1.44126	-11.17495	-1.80323	-10.49722
14121.883	-1.31121	-11.09820	-1.74127	-10.50311
14125.883	-1.40041	-11.41238	-1.69500	-10.49248
14129.887	-1.31922	-11.37212	-1.72798	-10.41632
14133.884	-1.54882	-11.48711	-1.57783	-10.42007
14137.927	-1.36509	-11.14931	-1.50772	-10.44794
14141.896	-1.44475	-11.10250	-1.50648	-10.41667
14145.881	-1.52414	-11.15687	-1.43952	-10.37331
14149.889	-1.55107	-11.46959	-1.53662	-10.34356
14153.883	-1.52794	-11.89781	-1.50710	-10.28801
14157.888	-1.56876	-11.77202	-1.59911	-10.24957
14161.879	-1.54026	-11.90345	-1.48719	-10.22924
14165.888	-1.56079	-12.03579	-1.52037	-10.25406
14169.883	-1.46608	-12.15026	-1.55928	-10.26186
14173.887	-1.33172	-12.96949	-1.64675	-10.25131
14177.885	-1.07835	-12.60350	-1.70160	-10.22880
14181.893	-1.05334	-12.74119	-1.76145	-10.21759
14185.900	-1.11668	-12.85998	-1.78396	-10.21191
14189.882	-1.08564	-12.50181	-2.00026	-10.15398
14193.882	-0.95132	-11.67564	-2.05120	-10.07776
14197.885	-0.72275	-9.00114	-1.98170	-9.82666
14201.903	-1.52156	-7.29898	-3.01235	-7.18947
14205.892	-1.64900	-6.03899	-3.70808	-6.33519
14209.881	-1.37020	-2.49750	-3.65974	-4.29827
14213.887	-1.36218	-0.66467	-3.55604	-3.03549
14217.889	-1.46690	1.03750	-3.56910	-1.52354
14221.890	-1.69669	1.60669	-3.88386	-0.13420
14225.883	-2.87891	2.36996	-4.10372	0.84297
14229.888	-2.40649	3.74889	-4.18183	1.89773
14233.885	-2.80674	4.75210	-4.51687	2.44826
14237.887	-2.64844	5.24777	-4.57495	2.76221
14241.882	-1.98988	5.12631	-4.29932	2.86674
14245.888	-2.08344	4.40744	-4.51132	3.04258
14249.884	-2.23610	4.91941	-4.46788	2.57599
14253.905	-2.68811	5.16966	-4.41364	2.69087
14257.915	-2.95841	4.94780	-4.54074	3.00259
14261.906	-2.72412	4.80134	-4.59931	2.74974
14265.884	-2.77753	5.10911	-4.63136	2.89309
14269.885	-2.76762	5.07834	-4.59630	2.91569
14273.883	-2.45708	4.94697	-4.52762	3.02890
14277.885	-2.55319	5.01006	-4.55761	3.10203
14281.881	-2.38415	4.90803	-4.55485	3.20895
14285.882	-2.58576	5.18013	-4.47156	3.24448
14289.884	-2.63197	5.08795	-4.36972	2.71859
14293.880	-2.72942	4.73494	-4.33355	3.15451
14297.885	-2.68524	5.05906	-4.38038	2.74846
14301.882	-2.57055	4.99311	-4.42587	2.99265
14305.891	-2.64284	4.99054	-4.39136	3.06316
14309.879	-2.71315	5.03082	-4.29576	3.21079
14313.885	-2.71478	4.85949	-4.50125	2.88035
14317.881	-2.87272	5.21915	-4.22459	3.22447
14321.926	-2.71530	5.01709	-4.20121	2.82362
14325.885	-2.59740	4.96773	-4.25396	3.11748
14329.886	-2.79000	5.13754	-4.26334	2.52893
14333.881	-2.76425	4.88474	-4.31891	2.86983
14337.885	-2.71117	4.89348	-4.49358	2.82325
14341.880	-2.64861	5.00140	-4.46751	2.96746
14345.889	-2.68943	4.87499	-4.52397	2.91873
14349.881	-2.79434	5.12009	-4.39382	2.91433
14353.884	-2.74427	5.16039	-4.51045	3.01435
14357.880	-2.73947	4.92331	-4.43885	2.80561
14361.883	-2.74833	5.09490	-4.52654	2.96376
14365.881	-2.74861	5.24572	-4.51845	3.04171
14369.881	-2.82432	5.07251	-4.63040	2.86787
14373.879	-2.81843	4.78178	-4.56656	3.21725
14377.881	-2.87977	5.63402	-4.60991	3.16875
14381.884	-3.20869	6.02604	-4.51773	3.13187
14385.885	-3.62919	6.82216	-4.71173	3.76776
14389.897	-5.70654	8.65019	-6.19010	6.77083
14393.886	-7.39527	9.51600	-8.75097	10.43802
14397.880	-9.11331	10.73760	-8.87673	13.32474
14401.884	-9.00489	11.18886	-9.00995	14.78873
14405.876	-8.91650	11.27970	NaN	NaN
14409.879	-8.58551	11.29078	NaN	NaN
14413.882	-8.55360	11.36945	-8.70553	14.42760
14417.878	-8.46296	11.38815	NaN	NaN
14421.879	-8.44375	11.40252	-7.62202	13.74114
14425.880	-8.39112	11.34716	-7.44933	13.37325
14429.883	-8.34633	11.28267	-8.47243	13.79901
14433.884	-8.58876	11.32612	NaN	NaN
14437.875	-8.76302	11.37008	-8.58199	14.67678
14441.886	-8.60448	11.40159	-8.65766	14.77197
14445.879	-8.61880	11.45166	NaN	NaN
14449.882	-8.78093	11.48311	NaN	NaN
14453.884	-8.93685	11.48122	NaN	NaN
14457.880	-8.75097	11.42911	NaN	NaN
14461.882	-8.89773	11.45132	NaN	NaN
14465.876	-9.00850	11.44540	-8.58037	14.90488
14469.890	-8.78311	11.48476	NaN	NaN
14473.881	-9.00477	11.53510	NaN	NaN
14477.926	-9.04585	11.54480	NaN	NaN
14481.878	-9.05860	11.52970	NaN	NaN
14485.893	-8.87358	11.51173	-8.57602	14.96817
14489.882	-8.98213	11.48742	NaN	NaN
14493.877	-8.83103	11.46513	NaN	NaN
14497.877	-8.77252	11.39189	-8.57944	14.92586
14501.879	-8.88721	11.39793	-8.60490	14.76726
14505.878	-8.76343	11.37980	-8.45657	14.70280
14509.876	-8.78190	11.36843	NaN	NaN
14513.882	-8.75834	11.34768	-8.52246	14.69548
14517.880	-8.70199	11.28608	-8.54241	14.75231
14521.873	-8.71579	11.25279	-8.50287	14.74207
14525.878	-8.68029	11.24638	-8.29786	14.66645
14529.880	-8.62326	11.23897	NaN	NaN
14533.873	-8.68101	11.22266	NaN	NaN
14537.884	-8.66113	11.22716	-8.47250	14.61719
14541.877	-8.61152	11.25921	-8.43533	14.64765
14545.881	-8.70619	11.26965	-8.32915	14.67587
14549.872	-8.77473	11.27448	-8.52336	14.76940
14553.887	-8.72391	11.28666	-8.68645	14.78233
14557.877	-8.81232	11.31165	-8.60089	14.81459
14561.880	-8.87963	11.34285	-8.44217	14.82302
14565.872	-9.05199	11.35886	-8.40368	14.86433
14569.882	-9.06995	11.37359	-8.59446	14.88643
14573.877	-8.99980	11.38607	NaN	NaN
14577.877	-8.83793	11.39868	NaN	NaN
14581.881	-9.08050	11.40073	NaN	NaN
14585.877	-8.98518	11.41815	NaN	NaN
14589.880	-9.19053	11.42731	NaN	NaN
14593.885	-9.03549	11.43693	NaN	NaN
14597.883	-8.92718	11.44275	NaN	NaN
14601.876	-8.97322	11.44851	NaN	NaN
14605.877	-8.95896	11.44937	-8.61074	14.98356
14609.879	-8.96736	11.44164	NaN	NaN
14613.876	-8.82514	11.42233	NaN	NaN
14617.876	-8.64563	11.40954	-8.36256	12.85122
14621.876	-6.43317	10.25606	-5.88992	11.10696
14625.876	-8.77623	10.60393	-6.47902	7.69157
14629.875	NaN	NaN	NaN	NaN
14633.874	NaN	NaN	NaN	NaN
14637.899	NaN	NaN	NaN	NaN
14641.877	NaN	NaN	NaN	NaN
14645.881	NaN	NaN	NaN	NaN
14649.905	NaN	NaN	NaN	NaN
14653.890	NaN	NaN	NaN	NaN
14657.875	NaN	NaN	NaN	NaN
14662.556	NaN	NaN	NaN	NaN
14666.659	NaN	NaN	NaN	NaN
14670.364	NaN	NaN	NaN	NaN
14674.044	NaN	NaN	NaN	NaN
14677.888	NaN	NaN	NaN	NaN
14681.874	NaN	NaN	NaN	NaN
14686.007	NaN	NaN	NaN	NaN
14690.144	NaN	NaN	NaN	NaN
14694.149	NaN	NaN	NaN	NaN
14698.265	NaN	NaN	NaN	NaN
14702.253	NaN	NaN	NaN	NaN
14705.878	NaN	NaN	NaN	NaN
14709.873	NaN	NaN	NaN	NaN
14713.876	NaN	NaN	-4.95196	-2.19910
14717.867	NaN	NaN	-4.51115	-4.06578
14721.883	NaN	NaN	-4.85053	-3.72540
14725.873	-14.09016	5.95547	-5.97288	-4.06833
14729.878	-5.08815	-6.23457	-7.54479	-4.27460
14733.876	-2.72763	-3.91744	-7.16754	-4.06469
14737.875	-1.44421	-2.74881	-5.02169	-4.13121
14741.868	-1.71070	-4.25040	-4.92947	-4.18971
14745.877	-2.00480	-3.74773	-4.73066	-4.19433
14749.873	-8.56119	-1.73496	-4.73744	-4.15459
14753.878	-1.73323	-3.36000	-4.68881	-4.28291
14757.868	-5.07540	-2.76917	-4.69181	-4.31481
14761.893	-4.87212	-3.01578	-4.77426	-4.49961
14765.877	-4.63743	-3.16675	-4.80241	-4.54156
14769.878	-4.37959	-3.36530	-4.70626	-4.66600
14773.875	-3.78178	-3.26803	-4.69433	-4.67895
14777.874	-3.97047	-3.09372	-4.67764	-4.64878
14781.873	-4.21718	-3.21433	-4.58755	-4.65813
14785.877	-4.08824	-3.13027	-4.51504	-4.65626
14789.880	-3.94801	-3.08619	-4.55317	-4.84121
14793.874	-3.95370	-2.91465	-4.63731	-4.91286
14797.878	-3.96669	-2.81411	-4.83237	-4.98137
14801.878	-3.85041	-2.93306	-5.00714	-4.99130
14805.748	-3.81303	-3.15091	-4.97704	-4.88688
14809.754	-3.77006	-2.96696	-4.89870	-4.84289
14813.749	-3.76428	-3.22203	-5.13092	-4.78720
14817.747	-3.73665	-4.36583	-5.25498	-4.81045
14821.747	-3.72195	-4.12968	-5.34887	-4.91436
14825.752	-3.67447	-3.68561	-5.50532	-4.80759
14829.748	-3.63540	-3.70515	-5.30210	-4.91453
14833.747	-3.60942	-3.43191	-5.25451	-4.93918
14837.750	-3.60959	-3.26219	-5.26046	-4.85917
14841.747	-3.62808	-3.15777	-5.11972	-4.89969
14845.747	-3.61147	-3.26115	-5.08746	-4.88654
14849.751	-3.60151	-3.04553	-4.94327	-4.86749
14853.751	-3.61288	-2.79910	-4.93792	-4.91882
14857.751	-3.64741	-2.55313	-4.92437	-4.93403
14861.747	-3.68802	-2.99526	-4.93787	-4.94428
14865.747	-3.64788	-3.12833	-4.89134	-4.87664
14869.746	-3.61782	-3.15415	-4.86483	-4.88305
14873.747	-3.66595	-3.20157	-4.85748	-4.88069
14877.749	-3.68688	-3.19663	-4.86436	-4.88667
14881.747	-3.63062	-3.42311	-4.84134	-4.87791
14885.765	-3.67091	-3.55647	-4.87094	-4.84899
14889.760	-3.71953	-3.63252	-4.80544	-4.79234
14893.749	-3.66164	-3.10114	-4.75356	-4.82607
14897.748	-3.58499	-3.58823	-4.69393	-4.80582
14901.746	-3.56430	-3.64601	-4.71765	-4.80603
14905.749	-3.45932	-3.64405	-4.65165	-4.83439
14909.743	-3.51619	-3.29849	-4.64125	-4.91116
14913.748	-3.68690	-3.60297	-4.70527	-5.06821
14917.745	-3.62118	-3.69600	-4.65599	-5.22260
14921.759	-3.46066	-3.61910	-4.60202	-5.12033
14925.748	-3.46501	-3.67392	-4.55199	-4.95952
14929.745	-3.45554	-3.67168	-4.56311	-5.00182
14933.751	-3.42050	-3.59422	-4.62932	-5.13416
14937.749	-3.52388	-3.62779	-4.69988	-5.16551
14941.744	-3.59718	-3.56101	-4.88983	-5.21953
14945.750	-3.55419	-3.50551	-4.77318	-4.98903
14949.753	-3.80211	-3.51029	-4.74587	-4.85582
14953.749	-3.72877	-3.66753	-4.83876	-4.95815
14957.745	-3.54969	-3.76536	-4.94856	-4.91505
14961.747	-3.73154	-3.80739	-4.90124	-4.84678
14965.745	-3.84938	-3.79552	-4.86603	-4.89088
14969.745	-3.82546	-3.68961	-4.84938	-4.96577
14973.749	-3.86578	-3.83918	-4.89104	-5.16867
14977.762	-3.64101	-3.90534	-4.73155	-5.33600
14981.744	-3.79823	-3.91015	-4.76505	-5.47485
14985.759	-3.89609	-3.98972	-4.47861	-4.98942
14989.745	-3.87744	-3.93059	-4.53966	-5.04077
14993.750	-3.81817	-3.93506	-4.67066	-5.17673
14997.745	-3.64914	-3.86465	-4.86037	-5.22371
15001.750	-3.72573	-2.89512	-4.70764	-4.50625
15005.747	-3.98971	-0.66325	-5.66462	-2.09319
15009.747	-5.96647	2.21653	-7.02225	-0.11217
15013.753	-6.56931	5.36987	-7.31679	1.65763
15017.754	-5.80258	5.77631	-7.02489	4.60017
15021.747	-5.70846	8.11390	-7.34370	7.24254
15025.741	-7.22165	8.79867	-7.27006	8.06481
15029.748	-8.90182	9.44496	-7.89237	9.30233
15033.743	-10.31203	9.82382	-10.06253	10.40208
15037.749	-10.81446	10.08678	-11.25378	11.96415
15041.739	-10.64825	10.26450	-11.28534	12.77760
15045.748	-10.72985	10.25255	-10.80239	12.41753
15049.743	-10.28806	10.10482	-10.45063	11.87790
15053.748	-10.39794	10.22210	-9.81985	11.90586
15057.746	-10.45773	10.27564	-9.69656	12.08043
15061.750	-10.62679	10.39169	-9.65669	12.29831
15065.745	-10.19777	10.49207	-10.02271	12.27179
15069.751	-10.31816	10.56974	-10.02266	12.03698
15073.748	-10.59220	10.56660	-10.32755	12.29054
15077.744	-10.49217	10.55940	-9.84797	12.55477
15081.747	-10.31768	10.48520	-9.99770	12.69099
15085.762	-10.56164	10.60641	-9.91016	12.18783
15089.747	-10.57893	10.70283	-10.00593	11.77076
15093.739	-10.73603	10.71780	-10.13208	12.12693
15097.748	-10.39532	10.79849	-10.11399	12.63683
15101.749	-10.37318	10.79263	-9.84599	12.47781
15105.748	-10.12633	10.71328	-9.94183	12.43111
15109.737	-10.50729	10.66721	-10.10740	12.06807
15113.749	-10.29380	10.64853	-10.14723	11.91608
15117.776	-10.48106	10.74524	-10.23002	12.97406
15121.746	-10.40737	10.82190	-10.24651	12.44966
15125.737	-10.57505	10.81016	-9.94744	12.67168
15129.747	-10.76602	10.76695	-9.96992	12.33762
15133.742	-10.38548	10.71817	-10.02283	12.12710
15137.748	-10.16367	10.64963	-10.10175	11.97701
15141.746	-10.31275	10.61794	-10.23466	12.44780
15145.743	-10.59435	10.77019	-10.15579	12.20894
15149.744	-10.60661	10.78299	-9.83816	12.82322
15153.741	-10.69208	10.77700	-9.95796	12.42576
15157.740	-10.49169	10.79367	-9.83098	12.21310
15161.741	-10.51134	10.76779	-9.86353	11.88150
15165.744	-10.15841	10.68798	-9.75109	11.77231
15169.736	-10.28909	10.66644	-9.83057	12.11845
15173.741	-10.48751	10.61133	-10.03096	12.25551
15177.740	-10.56102	10.71865	-9.91180	12.17441
15181.750	-10.33822	10.75807	-9.87863	12.34925
15185.772	-10.07196	10.81094	-9.67215	12.16600
15189.745	-10.19553	10.76349	-9.71201	12.18935
15193.741	-10.08281	10.73749	-9.79527	11.93400
15197.743	-10.11336	10.73729	-9.79840	11.78781
15201.745	-10.22286	10.67318	-9.86869	12.04752
15205.745	-10.41700	10.65974	-9.95760	12.18850
15209.742	-10.37573	10.64152	-9.98268	12.13607
15213.747	-10.42456	10.64299	-9.97250	12.16649
15217.741	-10.31547	10.57415	-9.86608	12.10787
15221.745	-10.13018	10.57120	-9.80778	12.25668
15225.740	-10.24781	10.53168	-9.79431	12.71721
15229.744	-10.35630	10.55405	-9.89889	12.52424
15233.743	-10.52578	10.53393	-9.86577	12.48124
15237.742	-10.45881	10.63077	-9.85946	12.51489
15241.740	-10.56404	10.64196	-9.96388	12.60642
15245.740	-10.60864	10.68354	-9.93817	12.49300
15249.742	-10.37698	10.68355	-10.00841	12.48794
15253.740	-10.48569	10.72715	-10.06645	12.44112
15257.738	-10.34095	10.73889	-10.11916	12.41202
15261.745	-10.39287	10.78614	-10.28044	12.39753
15265.750	-10.55015	10.83878	-10.43210	12.63637
15269.740	-10.69508	10.88364	-10.24742	12.47618
15273.738	-10.75481	10.88522	-10.22964	12.11304
15277.738	-10.62209	10.87915	-10.24860	12.24225
15281.746	-10.56289	10.81970	-10.33934	12.31698
15285.755	-10.45262	10.79426	-10.33204	13.23721
15289.743	-9.66443	10.82611	-9.54609	12.11470
15293.740	-6.77626	10.95579	-6.05211	14.10575
15297.742	-5.35483	11.21310	-3.55063	14.75974
15301.740	-1.47117	11.22756	NaN	NaN
15305.739	0.60233	11.27296	NaN	NaN
15309.744	1.99823	11.28736	2.11760	14.39350
15313.742	3.93507	11.38084	4.62434	14.53061
15317.739	3.64459	11.90017	NaN	NaN
15321.739	7.14394	11.03486	NaN	NaN
15325.741	6.01549	11.84650	NaN	NaN
15329.774	4.51364	12.04411	NaN	NaN
15333.737	3.38533	12.22413	NaN	NaN
15337.743	2.55978	12.33167	NaN	NaN
15341.743	3.58183	12.09421	NaN	NaN
15345.740	5.11398	11.90402	NaN	NaN
15349.742	3.38894	12.38974	NaN	NaN
15353.747	3.58279	12.43117	NaN	NaN
15357.742	4.86189	12.26414	NaN	NaN
15361.733	5.80710	11.49272	NaN	NaN
15365.743	3.03967	12.55202	NaN	NaN
15369.738	5.03290	12.02748	NaN	NaN
15373.737	5.21336	12.08966	NaN	NaN
15377.743	5.25411	11.81320	NaN	NaN
15381.737	3.78761	12.12618	NaN	NaN
15385.753	5.35428	11.77305	5.40211	15.00110
15389.752	3.66703	12.31766	NaN	NaN
15393.737	4.81175	12.14157	NaN	NaN
15397.741	4.63496	12.29700	5.39669	14.75781
15401.737	4.80845	12.22649	NaN	NaN
15405.742	0.04318	12.94976	NaN	NaN
15409.741	4.62702	12.36994	NaN	NaN
15413.739	4.88261	12.35593	NaN	NaN
15417.740	5.00787	12.32942	NaN	NaN
15421.737	NaN	NaN	NaN	NaN
15425.735	1.80382	12.66167	NaN	NaN
15429.736	4.31173	12.51169	NaN	NaN
15433.744	3.35145	12.59594	NaN	NaN
15437.739	3.46424	12.64433	NaN	NaN
15441.733	6.06323	12.09480	5.33608	15.05688
15445.741	5.16817	12.15372	5.32451	14.76600
15449.737	5.12602	11.90141	5.39925	14.80526
15453.733	4.01342	12.17362	5.43730	14.87427
15457.742	4.70530	11.88173	5.44815	14.81186
15461.736	4.86719	11.35534	NaN	NaN
15465.740	4.97164	10.93561	NaN	NaN
15469.732	5.43890	10.77481	NaN	NaN
15473.746	3.79776	12.04650	NaN	NaN
