time (ms)	lx (deg)	ly (deg)	rx (deg)	ry (deg)
0.000	NaN	NaN	NaN	NaN
50.016	NaN	NaN	NaN	NaN
99.996	NaN	NaN	NaN	NaN
150.114	NaN	NaN	NaN	NaN
200.113	NaN	NaN	NaN	NaN
250.127	NaN	NaN	NaN	NaN
300.106	NaN	NaN	NaN	NaN
350.108	NaN	NaN	NaN	NaN
400.228	NaN	NaN	NaN	NaN
450.222	NaN	NaN	NaN	NaN
500.227	NaN	NaN	NaN	NaN
550.253	NaN	NaN	NaN	NaN
600.245	NaN	NaN	NaN	NaN
650.229	NaN	NaN	NaN	NaN
700.353	NaN	NaN	NaN	NaN
750.357	NaN	NaN	NaN	NaN
818.062	NaN	NaN	NaN	NaN
821.796	NaN	NaN	NaN	NaN
825.782	NaN	NaN	NaN	NaN
829.766	NaN	NaN	NaN	NaN
833.768	NaN	NaN	NaN	NaN
837.777	NaN	NaN	NaN	NaN
841.771	NaN	NaN	NaN	NaN
845.764	NaN	NaN	NaN	NaN
849.764	NaN	NaN	NaN	NaN
853.772	NaN	NaN	NaN	NaN
857.770	NaN	NaN	NaN	NaN
861.764	NaN	NaN	NaN	NaN
865.763	NaN	NaN	NaN	NaN
869.772	NaN	NaN	NaN	NaN
873.767	NaN	NaN	NaN	NaN
877.763	NaN	NaN	NaN	NaN
881.769	NaN	NaN	NaN	NaN
885.765	NaN	NaN	NaN	NaN
889.771	NaN	NaN	NaN	NaN
893.766	NaN	NaN	NaN	NaN
897.773	NaN	NaN	NaN	NaN
901.763	NaN	NaN	NaN	NaN
905.767	NaN	NaN	NaN	NaN
909.760	NaN	NaN	NaN	NaN
913.761	NaN	NaN	NaN	NaN
917.766	NaN	NaN	NaN	NaN
921.765	NaN	NaN	NaN	NaN
925.760	NaN	NaN	NaN	NaN
929.764	NaN	NaN	NaN	NaN
933.763	NaN	NaN	NaN	NaN
937.771	NaN	NaN	NaN	NaN
941.771	NaN	NaN	NaN	NaN
945.770	NaN	NaN	NaN	NaN
949.769	NaN	NaN	NaN	NaN
953.787	NaN	NaN	NaN	NaN
957.771	NaN	NaN	NaN	NaN
961.765	NaN	NaN	NaN	NaN
965.758	NaN	NaN	NaN	NaN
969.769	NaN	NaN	NaN	NaN
973.763	NaN	NaN	NaN	NaN
977.782	NaN	NaN	NaN	NaN
981.772	NaN	NaN	NaN	NaN
985.766	NaN	NaN	NaN	NaN
989.764	NaN	NaN	NaN	NaN
993.764	NaN	NaN	NaN	NaN
997.760	NaN	NaN	NaN	NaN
1001.766	NaN	NaN	NaN	NaN
1005.781	NaN	NaN	NaN	NaN
1009.775	NaN	NaN	NaN	NaN
1013.768	NaN	NaN	NaN	NaN
1017.760	NaN	NaN	NaN	NaN
1021.768	NaN	NaN	NaN	NaN
1025.773	NaN	NaN	NaN	NaN
1029.765	NaN	NaN	NaN	NaN
1033.766	NaN	NaN	NaN	NaN
1037.764	NaN	NaN	NaN	NaN
1041.762	NaN	NaN	NaN	NaN
1045.763	NaN	NaN	NaN	NaN
1049.763	NaN	NaN	NaN	NaN
1053.763	NaN	NaN	NaN	NaN
1057.766	NaN	NaN	NaN	NaN
1061.770	NaN	NaN	NaN	NaN
1065.766	NaN	NaN	NaN	NaN
1069.764	NaN	NaN	NaN	NaN
1073.764	NaN	NaN	NaN	NaN
1077.763	NaN	NaN	NaN	NaN
1081.762	NaN	NaN	NaN	NaN
1085.765	NaN	NaN	NaN	NaN
1089.757	NaN	NaN	NaN	NaN
1093.766	NaN	NaN	NaN	NaN
1097.766	NaN	NaN	NaN	NaN
1101.762	NaN	NaN	NaN	NaN
1105.769	NaN	NaN	NaN	NaN
1109.760	NaN	NaN	NaN	NaN
1113.767	NaN	NaN	NaN	NaN
1117.768	NaN	NaN	NaN	NaN
1121.760	NaN	NaN	NaN	NaN
1125.760	NaN	NaN	NaN	NaN
1129.765	NaN	NaN	NaN	NaN
1133.764	NaN	NaN	NaN	NaN
1137.763	NaN	NaN	NaN	NaN
1141.783	NaN	NaN	NaN	NaN
1145.763	NaN	NaN	NaN	NaN
1149.767	NaN	NaN	NaN	NaN
1153.759	NaN	NaN	NaN	NaN
1278.691	NaN	NaN	NaN	NaN
1346.170	5.10891	-3.45532	3.56262	-1.08755
1350.437	5.16986	-3.28758	3.50880	-0.91826
1353.912	5.58931	-3.08582	3.80747	0.33301
1357.890	6.20440	-0.56347	4.58503	0.64411
1361.887	6.12401	1.40865	4.62564	3.61460
1365.891	5.96755	3.18452	4.58449	4.76015
1369.889	5.62072	2.63435	4.49117	4.74556
1373.896	5.37200	3.28038	4.58792	5.08155
1377.893	5.28839	3.03979	4.63723	5.06788
1381.889	5.21503	3.00338	4.66191	5.19947
1385.921	5.31263	3.07831	4.49255	4.88020
1389.902	5.47033	2.94132	4.45488	4.97395
1393.895	5.65454	3.01949	4.42785	5.07001
1397.894	5.74116	2.91103	4.37818	5.18007
1401.898	5.69259	3.14745	4.20160	5.40554
1405.889	5.72807	3.23907	4.31743	5.29811
1409.887	5.65717	3.19763	4.26901	5.38693
1413.885	5.88137	3.30616	4.22937	5.41309
1417.888	5.98793	3.30649	4.21839	5.37038
1421.937	6.07577	3.36074	4.12658	5.44310
1425.894	6.03140	3.39281	4.19319	5.44942
1429.893	5.98348	3.33792	4.10303	5.49056
1433.894	5.97035	3.32989	4.11211	5.58427
1437.890	5.77431	3.36437	4.10419	5.65728
1441.895	5.79897	3.38904	4.13895	5.68946
1445.891	5.95493	3.21282	4.24801	5.61011
1449.885	5.82872	3.09811	4.29090	5.60318
1453.892	5.67224	3.16718	4.28081	5.59689
1457.887	5.65732	3.17069	4.26435	5.59053
1461.886	5.70792	3.12633	4.33288	5.56586
1465.891	6.41685	3.05024	4.38842	5.52195
1469.886	6.22280	3.01852	4.39977	5.48826
1473.894	6.12188	2.99862	4.42755	5.46756
1477.885	6.17141	3.01689	4.43907	5.32068
1481.886	6.03952	3.03627	4.57337	5.12218
1485.885	5.96947	2.97689	4.60533	5.08352
1489.887	5.81454	2.99320	4.67402	5.11315
1493.888	5.76301	3.02308	4.69527	5.12106
1497.892	5.92373	3.00186	4.72795	5.03045
1501.887	5.86430	2.96493	4.66393	5.09720
1505.909	5.83552	3.00608	4.62458	5.28780
1509.884	5.83672	3.04110	4.58444	5.29352
1513.922	5.75367	3.05183	4.45049	5.47464
1517.888	5.61276	3.02634	4.28061	5.27394
1521.891	5.72755	3.03629	4.27131	5.29725
1525.878	5.66002	3.02686	4.18726	5.30534
1529.896	5.61497	3.08371	4.22155	5.31181
1533.883	5.63771	3.03681	4.21948	5.33600
1537.887	5.66221	2.94793	4.22268	5.39206
1541.886	5.74134	2.95613	4.20659	5.38178
1545.890	5.74008	3.03053	4.22029	5.32848
1549.879	5.92550	2.98713	4.23967	5.33785
1553.886	6.11699	2.96667	4.16517	5.27961
1557.890	6.10041	2.92375	4.19768	5.30647
1561.891	6.08347	2.93585	4.23248	5.31761
1565.908	5.96213	2.92179	4.20748	5.29557
1569.887	5.79020	2.91973	4.20694	5.34044
1573.888	5.63149	2.86881	4.11893	5.40807
1577.891	5.86688	2.81032	4.01900	5.49152
1581.889	6.21151	2.47099	4.12053	5.46112
1585.888	6.13888	2.45422	4.13515	5.38438
1589.884	6.01537	2.59830	4.11868	5.42893
1593.882	5.91798	2.59474	4.06021	5.34373
1597.888	5.85254	2.52034	4.09582	5.46988
1601.886	5.60040	2.53382	4.09974	5.31646
1605.893	5.81489	2.51282	4.15882	4.98446
1609.893	5.76089	2.35698	4.18647	4.63450
1613.758	5.63641	1.86766	4.13216	3.57736
1617.759	5.52303	-0.60150	4.03055	1.06349
1621.904	5.64226	-1.60307	4.28905	-0.14109
1625.763	5.49507	-3.45088	4.36589	-0.36385
1629.779	5.25941	-3.76660	3.65522	-1.89776
1633.763	5.44023	-4.30750	2.95158	-2.99014
1637.761	5.46202	-4.70447	2.51314	-3.15181
1641.754	5.48221	-4.57436	3.17957	-2.82182
1645.767	5.52042	-4.37708	3.21456	-2.43889
1649.757	5.43740	-4.24959	3.15612	-2.24528
1653.755	5.34188	-4.33097	3.01113	-2.33275
1657.758	5.30116	-4.41615	2.95210	-2.55296
1661.763	5.34191	-4.57633	2.84974	-2.69295
1665.757	5.19697	-4.68849	2.77054	-2.77398
1669.755	5.05159	-4.81982	2.78775	-2.84627
1673.758	4.98901	-5.01767	2.75856	-2.97255
1677.775	4.91920	-5.15236	2.77817	-3.01653
1681.757	4.76253	-5.23770	2.79345	-3.03053
1685.766	4.70542	-5.36954	5.47257	-1.58658
1689.811	4.63718	-5.33640	5.49846	-1.49229
1693.762	4.59009	-5.42049	6.63063	-1.40465
1697.761	4.54059	-5.44043	6.67973	-1.50356
1701.761	4.69038	-5.51448	6.61741	-1.45163
1705.755	4.73779	-5.57527	5.68475	-1.36810
1709.757	4.87939	-5.66352	5.51423	-1.40590
1713.762	5.13835	-5.73020	5.48403	-1.42936
1717.752	5.13035	-5.65818	5.46295	-1.43193
1721.774	5.26585	-5.44368	5.48115	-1.44657
1725.753	5.36786	-5.34090	5.43566	-1.46206
1729.776	5.33699	-5.18006	5.45504	-1.46404
1733.756	5.37896	-5.16415	5.34838	-1.52205
1737.759	5.31824	-5.04094	5.34658	-1.52295
1741.756	5.34353	-4.96700	5.26231	-1.52118
1745.762	5.36149	-4.86874	5.19665	-1.52566
1749.755	5.35797	-4.76876	5.06149	-1.55715
1753.769	5.33059	-4.68309	3.41229	-1.65441
1757.756	5.36513	-4.52138	5.02011	-1.80428
1761.771	5.28985	-4.44038	4.94107	-2.10734
1765.757	5.27333	-4.46913	4.77981	-2.26607
1769.760	5.19438	-4.42128	4.43574	-2.41989
1773.754	5.14037	-4.41723	4.53714	-2.18092
1777.759	5.06215	-4.44611	3.67119	-2.17660
1781.762	4.94433	-4.50222	3.53295	-2.29605
1785.758	4.81820	-4.54367	4.01956	-2.38823
1789.750	4.80056	-4.69754	3.11636	-2.23419
1793.773	5.08274	-4.77127	2.91666	-2.26890
1797.765	5.12587	-4.83313	2.85467	-2.29095
1801.759	5.12115	-4.92889	2.87203	-2.08079
1805.753	5.11277	-5.03025	2.76398	-2.03245
1809.764	5.01445	-5.13488	2.74992	-2.03044
1813.765	5.12307	-5.09589	3.10438	-1.79858
1817.767	5.04304	-5.07326	3.00618	-1.73304
1821.754	5.00585	-5.05685	4.28572	-1.59584
1825.765	5.06843	-4.99068	4.79378	-1.47080
1829.753	5.17267	-4.88174	4.95768	-1.29003
1833.775	5.16413	-4.81880	4.91477	-1.08958
1837.753	5.16452	-4.68020	4.92979	-1.01831
1841.759	5.12814	-4.55415	3.61253	-1.15846
1845.754	5.15588	-4.20386	3.42074	-1.24665
1849.758	5.14392	-4.19316	3.53876	-1.24872
1853.754	5.13794	-4.13323	3.67170	-1.20955
1857.765	5.15889	-4.03706	3.63718	-1.19472
1861.766	5.21648	-3.98976	3.57110	-1.21824
1865.766	5.22195	-3.89473	3.46558	-1.26855
1869.753	5.28084	-3.98036	3.40781	-1.27317
1873.758	5.28160	-4.12699	3.37761	-1.33008
1877.752	5.31366	-3.98525	3.35323	-1.42056
1881.752	5.32998	-4.12529	3.39666	-1.50314
1885.768	5.34661	-4.16727	3.40069	-1.52916
1889.754	5.32902	-4.22630	3.42492	-1.53366
1893.770	5.30535	-4.30478	3.41553	-1.53910
1897.763	5.28999	-4.29237	3.40746	-1.55042
1901.755	5.25119	-4.37966	3.38187	-1.53802
1905.753	5.29105	-4.50205	3.34002	-1.49639
1909.753	5.35227	-4.57079	3.37037	-1.46493
1913.763	5.34708	-4.61424	3.33327	-1.51003
1917.764	5.37246	-4.59510	3.31066	-1.53069
1921.753	5.36125	-4.64491	3.21975	-1.48415
1925.755	5.37143	-4.62045	3.16525	-1.47344
1929.756	5.31851	-4.63319	3.13395	-1.45241
1933.755	5.29191	-4.64671	3.04920	-1.48101
1937.763	5.24087	-4.61334	3.00603	-1.47180
1941.749	5.26241	-4.64386	2.90866	-1.47349
1945.761	5.40752	-4.67624	2.90146	-1.49862
1949.749	5.37155	-4.65358	2.89210	-1.56557
1953.766	5.31777	-4.63644	2.85316	-1.60243
1957.756	5.25793	-4.62051	2.83266	-1.60955
1961.765	5.24740	-4.62300	2.83207	-1.63727
1965.809	5.23280	-4.61755	2.90562	-1.59950
1969.751	5.19473	-4.64070	2.88495	-1.53309
1973.754	5.20772	-4.66211	2.88614	-1.50053
1977.752	5.23413	-4.63935	2.86485	-1.45284
1981.775	5.21858	-4.64364	2.85034	-1.41087
1985.753	5.23317	-4.64066	2.80276	-1.30939
1989.763	5.16162	-4.52723	2.74932	-1.31146
1993.749	5.11731	-4.50893	2.75502	-1.25455
1997.758	5.10150	-4.48198	2.77337	-1.17484
2001.758	5.05535	-4.44451	2.84863	-1.20905
2005.796	5.00810	-4.43575	2.89012	-1.17569
2009.776	5.00396	-4.41248	2.95629	-1.16297
2013.754	4.94435	-4.33817	3.12875	-1.15502
2017.764	5.01610	-4.29623	3.04969	-1.13105
2021.757	5.03487	-4.22592	3.06602	-1.10605
2025.757	5.00871	-4.18387	3.03214	-1.39271
2029.776	5.16516	-4.19110	3.12101	-1.46757
2033.754	5.28082	-4.23731	3.20540	-1.36825
2037.749	5.26229	-4.29209	3.27561	-1.32427
2041.757	5.39345	-4.23092	3.28286	-1.32257
2045.753	5.31507	-4.19591	3.28622	-1.30955
2049.756	5.39342	-4.23995	3.26018	-1.53503
2053.755	5.34056	-4.29802	3.31620	-1.41883
2057.755	5.40452	-4.23705	3.28548	-1.38009
2061.754	5.33910	-4.21169	3.33233	-1.43819
2065.782	5.18857	-4.17302	3.34428	-1.53478
2069.752	4.96386	-4.12948	3.39930	-1.46397
2073.760	4.90060	-4.20949	3.46390	-1.37181
2077.750	4.91097	-4.27943	3.48036	-1.33849
2081.752	5.03940	-4.28660	3.51396	-1.42190
2085.757	5.12710	-4.33440	3.51350	-1.50601
2089.751	5.02566	-4.38009	3.59565	-1.54245
2093.752	5.04479	-4.37519	3.58198	-1.47120
2097.881	4.88774	-4.42644	3.56218	-1.49599
2101.770	4.84317	-4.43338	3.55419	-1.47595
2105.768	4.88611	-4.43607	3.53997	-1.46579
2109.753	4.91366	-4.51832	3.52489	-1.48395
2113.746	4.92477	-4.55427	3.54531	-1.48176
2117.753	4.85632	-4.49632	3.50296	-1.50332
2121.762	4.85694	-4.32705	3.51404	-1.55151
2125.765	4.69849	-4.27337	3.51891	-1.54431
2129.748	4.73549	-4.23684	3.45163	-1.51185
2133.755	4.63753	-4.25460	3.40541	-1.48124
2137.752	4.63277	-4.26840	3.31830	-1.51876
2141.750	4.58688	-4.29010	3.27653	-1.56944
2145.751	4.55978	-4.24807	3.21297	-1.63923
2149.750	4.60762	-4.23537	3.12663	-1.66183
2153.753	4.55615	-4.24885	3.09320	-1.67908
2157.745	4.55569	-4.23881	3.03024	-1.70745
2161.754	4.59322	-4.27273	2.99074	-1.78062
2165.796	4.61731	-4.35607	2.92438	-1.83331
2169.747	4.67596	-4.40599	2.89903	-1.83521
2173.748	4.67601	-4.44467	2.86165	-1.88451
2177.749	4.75230	-4.44972	2.83194	-1.88661
2181.752	4.72408	-4.46373	2.83175	-1.89353
2185.749	5.00125	-4.47364	2.94304	-1.89620
2189.769	7.04262	-4.52391	4.73318	-1.93047
2193.752	7.48758	-5.16079	6.49134	-2.32148
2197.747	8.51277	-6.45146	10.15040	-2.98850
2201.750	9.08058	-7.59391	8.68955	-4.15938
2205.754	8.94673	-8.27881	8.67832	-5.68652
2209.744	8.32512	-9.13738	8.53586	-6.07534
2213.753	8.49515	-9.58608	5.04866	-8.18381
2217.748	8.78193	-9.27563	5.53195	-7.83691
2221.767	9.18395	-8.95091	5.89797	-6.90264
2225.759	9.02576	-8.59869	8.72680	-6.72745
2229.751	9.34198	-8.80697	8.83180	-6.35868
2233.780	9.33959	-9.04606	8.88012	-6.33843
2237.753	9.57112	-8.86322	8.98336	-6.16010
2241.752	9.69156	-8.89848	8.94058	-5.99568
2245.756	9.72870	-9.00470	8.79729	-7.27215
2249.748	9.88475	-8.95556	8.86546	-7.01773
2253.763	10.04367	-8.84283	8.80066	-6.80189
2257.749	9.94009	-8.83449	8.78406	-6.69011
2261.758	9.94431	-8.92737	8.75298	-6.49986
2265.752	9.91705	-8.92113	8.74927	-6.24124
2269.752	9.98372	-8.89750	8.66501	-6.00891
2273.762	10.00182	-8.90550	7.98335	-7.15275
2277.755	9.94055	-8.89713	7.89471	-7.08537
2281.743	10.00668	-8.88186	9.30602	-7.15539
2285.753	9.92061	-8.98256	9.60770	-7.08311
2289.756	9.90814	-8.98259	9.49434	-6.95548
2293.752	9.85361	-9.07537	9.60659	-6.70568
2297.765	9.78182	-9.08442	9.93547	-6.44442
2301.752	9.76377	-9.08046	9.94224	-6.21802
2305.749	9.73250	-9.06114	10.80302	-6.20523
2309.748	9.73188	-8.95919	10.87850	-6.19702
2313.749	9.72257	-8.99741	11.14290	-6.09765
2317.771	9.73152	-9.08357	10.33308	-7.21248
2321.742	9.76524	-9.07443	10.04078	-6.98570
2325.743	9.74167	-9.09044	10.03467	-6.86768
2329.761	9.78433	-9.06439	10.12606	-6.67772
2333.742	9.80043	-9.03826	10.06799	-6.51469
2337.750	9.80638	-9.01792	10.05086	-6.36577
2341.747	9.74082	-9.10796	10.08900	-6.25628
2345.744	9.70996	-9.08577	10.07769	-6.25962
2349.741	9.73089	-9.06259	9.96961	-6.22554
2353.756	9.71980	-9.08171	9.92500	-6.08399
2357.746	9.72276	-9.02760	10.57999	-6.11612
2361.750	9.62941	-9.03485	10.69139	-6.08443
2365.739	9.60483	-8.98513	11.15152	-6.03214
2369.746	9.65551	-8.86594	11.12565	-5.95642
2373.744	9.66390	-8.94291	11.29801	-5.88512
2377.753	9.62401	-9.03332	11.10711	-7.25934
2381.763	9.72166	-9.05395	11.12264	-7.75661
2385.744	9.80192	-9.02611	10.32594	-7.37091
2389.741	9.86818	-9.02641	10.19346	-7.38970
2393.768	9.88959	-9.07150	10.48420	-7.38995
2397.744	9.89790	-9.12631	10.33569	-7.34090
2401.746	9.90756	-9.20070	10.29241	-7.13162
2405.754	9.86315	-9.30364	7.39083	-6.80523
2409.754	9.86567	-9.34562	7.41368	-6.81557
2413.743	9.80371	-9.39854	7.42517	-6.80636
2417.745	9.81910	-9.43686	7.39640	-6.76131
2421.756	9.85004	-9.40433	7.41900	-6.58327
2425.752	9.87851	-9.32288	7.42036	-6.45692
2429.744	9.87408	-9.26859	7.41187	-6.38112
2433.751	9.79749	-9.26403	7.44423	-6.24629
2437.753	9.83067	-9.15192	7.47529	-6.16308
2441.744	9.87757	-8.98630	7.50044	-6.07132
2445.749	9.95228	-8.85001	7.58208	-5.97379
2449.748	10.06463	-8.74619	7.60441	-5.88393
2453.743	10.04516	-8.78480	7.52876	-6.91673
2457.746	10.07949	-8.75815	7.49200	-7.32875
2461.768	9.98401	-8.81920	7.53676	-7.34041
2465.743	10.05077	-8.76948	7.55632	-7.33691
2469.619	10.04591	-8.83128	7.62948	-7.30875
2473.633	9.97755	-8.84356	7.76401	-7.25605
2477.629	10.00706	-8.86522	7.84856	-7.31900
2481.619	10.01551	-8.98713	8.11678	-7.34200
2485.622	10.04011	-8.86615	6.98487	-7.21080
2489.620	9.87353	-9.05356	7.15164	-7.12196
2493.624	9.90823	-9.08415	7.12627	-7.08394
2497.616	9.93082	-9.07160	7.24554	-6.90190
2501.619	10.07180	-8.99103	7.26261	-6.76906
2505.649	10.02750	-8.95142	7.48893	-6.30822
2509.624	10.25937	-7.85600	6.88443	-6.70093
2513.625	10.57100	-6.05505	6.96599	-5.31846
2517.618	10.59164	-6.11017	8.58529	-5.27529
2521.644	10.60164	-5.76235	8.26230	-4.94389
2525.615	10.83649	-5.74648	8.60031	-5.00608
2529.630	10.67941	-6.13976	8.85931	-5.35068
2533.615	10.78903	-6.27853	8.92207	-5.45648
2537.622	10.73945	-6.57288	9.19498	-5.39920
2541.618	10.82100	-6.49790	9.03357	-5.46286
2545.623	10.91274	-6.30527	8.96121	-5.33401
2549.612	11.00565	-6.21184	8.93731	-5.26164
2553.623	11.07556	-6.20348	8.98148	-5.16548
2557.618	10.99810	-6.12956	9.01709	-5.04007
2561.623	11.01103	-5.98976	9.06615	-4.99931
2565.621	10.92928	-6.05310	9.06659	-4.97785
2569.618	10.89896	-6.22696	9.04931	-5.00373
2573.630	10.90083	-6.17584	9.01677	-4.99889
2577.623	10.92287	-6.24081	9.05018	-5.06360
2581.615	10.90971	-6.17416	8.98007	-5.01092
2585.617	10.86378	-6.15159	9.03362	-4.99174
2589.620	10.83208	-6.19055	9.04214	-4.96228
2593.617	10.85612	-6.07533	9.10862	-4.97164
2597.619	10.82873	-6.02952	9.07165	-4.90512
2601.618	10.87074	-5.90678	8.97087	-4.97378
2605.624	10.88374	-5.72369	8.93006	-5.02342
2609.634	10.95648	-5.76771	8.87944	-5.07159
2613.624	10.99642	-5.69074	8.90417	-5.13112
2617.622	11.06523	-5.63046	8.93784	-5.15071
2621.628	11.08935	-5.48151	8.90732	-5.13348
2625.608	11.17570	-5.42851	8.99874	-5.11112
2629.624	11.13530	-5.44463	8.93750	-5.10352
2633.631	11.15360	-5.43545	8.92040	-5.12173
2637.614	11.17548	-5.41107	8.89761	-5.08949
2641.628	11.17455	-5.44960	8.93355	-5.09459
2645.616	11.07042	-5.42648	8.83297	-5.09749
2649.621	10.97868	-5.51774	8.85795	-5.02979
2653.620	10.87094	-5.50774	8.82141	-4.99841
2657.617	10.81382	-5.53904	8.78762	-4.97859
2661.642	10.86096	-5.46476	8.87912	-4.98535
2665.625	10.83584	-5.47709	8.78609	-4.97278
2669.616	10.89470	-5.45010	8.79344	-4.97863
2673.619	10.90257	-5.41175	8.76869	-5.02162
2677.614	10.97308	-5.41963	8.78006	-5.02392
2681.620	11.04589	-5.40220	8.80129	-5.04925
2685.615	11.10383	-5.32843	8.84004	-5.07184
2689.624	10.98370	-5.37531	8.88482	-5.09259
2693.636	11.02175	-5.42135	8.95603	-5.09063
2697.615	11.14753	-5.41261	8.92006	-5.11234
2701.625	11.05844	-5.46711	8.88017	-5.11884
2705.615	10.98970	-5.55144	8.84523	-5.11542
2709.618	10.77869	-5.56783	8.70274	-5.18411
2713.623	10.87431	-5.62784	8.67924	-5.18877
2717.613	10.90308	-5.64318	8.66574	-5.16737
2721.629	10.86665	-5.67151	8.65147	-5.15511
2725.622	10.87357	-5.72766	8.73953	-5.17252
2729.612	10.89418	-5.77265	8.75870	-5.18212
2733.625	11.16077	-5.75746	8.76648	-5.17034
2737.615	11.33600	-5.74685	9.15239	-5.09935
2741.615	12.20605	-5.73516	10.70577	-5.14369
2745.616	13.87812	-5.63612	12.19700	-5.12269
2749.619	13.67297	-5.67470	12.56323	-5.21969
2753.620	13.78689	-5.59063	12.80379	-5.42316
2757.619	13.56763	-5.60909	12.63976	-5.70994
2761.618	13.33386	-5.64724	12.31758	-5.38608
2765.618	13.24884	-5.70568	11.82801	-5.46435
2769.609	13.43946	-5.60873	11.79363	-5.56753
2773.617	13.58929	-5.56709	11.91657	-5.51769
2777.638	13.78431	-5.53774	11.90291	-5.58483
2781.668	13.97975	-5.43734	11.98222	-5.67218
2785.614	14.12716	-5.10338	11.98227	-5.70684
2789.615	14.31631	-4.97069	12.04946	-5.76100
2793.609	14.35989	-4.97670	11.96320	-5.84067
2797.614	14.46126	-4.86802	11.99263	-5.83135
2801.618	14.45530	-4.94726	11.95684	-5.83210
2805.616	14.41641	-4.94158	12.01604	-5.72447
2809.608	14.37860	-5.02987	12.04647	-5.57434
2813.633	14.42484	-4.95188	12.16188	-5.53167
2817.620	14.41245	-5.02851	12.21070	-5.39343
2821.613	14.34790	-5.12691	12.22919	-5.16044
2825.627	14.29340	-5.14336	12.21850	-5.15771
2829.617	14.24196	-5.22957	12.24730	-5.03298
2833.620	14.17126	-5.32556	12.24348	-5.02084
2837.614	14.06936	-5.45639	12.22642	-5.04916
2841.615	13.95666	-5.56839	12.23606	-4.98685
2845.649	13.93408	-5.58183	12.22495	-4.98282
2849.619	13.81369	-5.67390	12.16593	-4.96743
2853.611	13.79372	-5.63036	12.11235	-5.03220
2857.622	13.70254	-5.82083	12.06309	-5.05545
2861.617	13.72545	-5.84751	12.09384	-5.04431
2865.619	13.74608	-5.83801	12.03263	-5.12498
2869.617	13.71767	-5.87515	12.04801	-5.13775
2873.644	13.73947	-5.91193	12.06301	-5.17661
2877.612	13.83528	-5.83723	12.08335	-5.20377
2881.611	13.92173	-5.77002	12.11185	-5.21290
2885.614	13.89844	-5.77921	12.10677	-5.23601
2889.612	13.90036	-5.80304	12.20712	-5.23944
2893.614	13.99141	-5.52530	12.22864	-5.26770
2897.617	13.99066	-5.54144	12.35415	-5.23350
2901.611	14.02910	-5.21735	12.36982	-5.22303
2905.617	14.00802	-5.18088	12.38524	-5.24732
2909.611	13.95257	-5.18997	12.41836	-5.23571
2913.641	13.82543	-5.34600	12.43398	-5.25703
2917.612	13.73414	-5.34590	12.37681	-5.30749
2921.631	13.83451	-5.23402	12.29365	-5.36440
2925.619	13.78892	-5.17791	12.34259	-5.33549
2929.611	13.83907	-5.13645	12.20401	-5.39197
2933.616	13.94567	-5.04782	12.18452	-5.41355
2937.623	13.94359	-5.07933	12.12058	-5.41952
2941.615	14.09829	-5.05586	12.11973	-5.45868
2945.614	14.11173	-5.10578	12.14793	-5.47130
2949.616	14.09458	-5.17186	12.11164	-5.51176
2953.613	14.15050	-5.20472	12.01476	-5.53438
2957.610	14.20059	-5.18248	12.03529	-5.45541
2961.610	14.39930	-5.04409	12.32755	-5.34538
2965.613	14.64250	-4.94068	14.72469	-5.26555
2969.617	16.74148	-4.32190	15.26136	-5.34606
2973.613	17.20176	-3.83808	16.03685	-5.47866
2977.609	17.40807	-3.24638	16.26127	-5.84772
2981.638	17.11483	-3.41612	15.74424	-6.05218
2985.614	16.55103	-3.64125	15.33816	-5.98696
2989.609	15.81148	-4.17941	15.29185	-6.02706
2993.610	15.87311	-4.15843	15.29630	-6.10053
2997.612	16.17006	-3.91747	15.24773	-5.93505
3001.607	16.39719	-3.76620	15.31884	-5.85435
3005.630	16.50453	-3.69748	15.51566	-5.84996
3009.616	16.42197	-3.77338	15.55499	-5.89729
3013.615	16.53895	-3.76910	15.63516	-5.94231
3017.611	16.47701	-3.87587	15.57277	-5.86749
3021.633	16.42366	-3.97970	15.51340	-5.70926
3025.614	16.40777	-3.93243	15.51009	-5.62390
3029.613	16.44626	-3.96178	15.66710	-5.51880
3033.606	16.52693	-3.83282	15.70473	-5.50398
3037.616	16.55619	-3.68001	15.77405	-5.38883
3041.609	16.59171	-3.59548	15.82568	-5.35827
3045.614	16.61021	-3.59454	15.87938	-5.32804
3049.642	16.60012	-3.60961	15.91303	-5.31676
3053.612	16.63154	-3.47351	15.93263	-5.29253
3057.639	16.63731	-3.36266	15.94793	-5.28369
3061.608	16.66633	-3.22209	15.96755	-5.29794
3065.617	16.67626	-3.28046	16.01154	-5.34785
3069.611	16.70408	-3.20106	16.00493	-5.41733
3073.614	16.70411	-3.20469	15.93827	-5.45687
3077.612	16.70133	-3.24198	15.90991	-5.39283
3081.626	16.69969	-3.28115	15.78276	-5.40406
3085.616	16.66555	-3.33004	15.69312	-5.41325
3089.611	16.62375	-3.40893	15.56724	-5.46460
3093.607	16.60670	-3.47911	15.56662	-5.40801
3097.613	16.51830	-3.71162	15.49416	-5.39766
3101.608	16.51422	-3.59083	15.40306	-5.40018
3105.614	16.50781	-3.56681	15.34111	-5.36130
3109.604	16.47872	-3.62682	15.31729	-5.29496
3113.614	16.55797	-3.39628	15.21797	-5.17425
3117.660	16.28697	-3.71063	15.22005	-5.08248
3121.609	14.08475	-4.31612	13.34695	-5.22381
3125.611	13.05613	-4.15638	10.79497	-5.17503
3129.604	10.27309	-5.84260	9.40030	-4.91060
3133.610	8.14801	-6.33151	7.52186	-4.35221
3137.610	7.79763	-6.68950	6.16277	-4.67967
3141.615	4.68491	-7.21312	4.43125	-4.33470
3145.606	4.46569	-7.49001	2.96359	-4.39685
3149.610	1.70556	-7.66434	1.29799	-4.44532
3153.611	0.65950	-7.86147	-1.04138	-4.54669
3157.615	-1.25540	-7.74890	-1.57910	-4.54592
3161.611	-2.09140	-7.43908	-4.27540	-4.40159
3165.606	-3.98259	-6.99453	-4.25166	-4.32185
3169.625	-4.34655	-6.77490	-4.33685	-4.23858
3173.618	-4.22330	-7.22604	-4.31760	-4.27454
3177.611	-3.64993	-7.37138	-4.00141	-4.36725
3181.606	-3.09322	-7.43314	-3.84320	-4.44096
3185.611	-2.68839	-7.19653	-3.98368	-4.52987
3189.615	-3.04816	-7.26516	-4.07463	-4.67265
3193.614	-3.28907	-7.20648	-4.32256	-4.69061
3197.610	-3.38540	-7.16246	-4.33105	-4.65815
3201.606	-3.50365	-7.24466	-4.29152	-4.41569
3205.605	-3.47908	-7.49204	-4.41869	-4.49375
3209.612	-3.57392	-7.62487	-4.35561	-4.46088
3213.609	-3.47952	-7.33662	-4.37678	-4.53495
3217.604	-3.35926	-7.08593	-4.57926	-4.73482
3221.659	-3.41585	-7.22450	-4.50708	-4.76494
3225.619	-3.57592	-7.23104	-4.59830	-4.71452
3229.614	-3.58067	-7.29006	-4.63040	-4.45305
3233.608	-3.59646	-7.45890	-4.71920	-4.40325
3237.606	-3.53609	-7.70033	-4.79997	-4.53749
3241.608	-3.49841	-7.44861	-4.84541	-4.66194
3245.613	-3.48056	-7.27024	-4.66546	-4.69230
3249.607	-3.26740	-7.20324	-4.56008	-4.55984
3253.638	-3.25775	-7.15788	-4.82506	-4.52148
3257.612	-3.00589	-7.28929	-4.87564	-4.59856
3261.611	-3.33134	-7.41594	-4.94792	-4.67384
3265.609	-3.03682	-7.55739	-4.79824	-4.73258
3269.603	-2.97577	-7.26266	-4.80229	-4.54343
3273.623	-2.74014	-7.23299	-4.96026	-4.51845
3277.615	-2.78508	-7.29158	-4.95849	-4.56530
3281.617	-2.85484	-7.31427	-4.95435	-4.77790
3285.601	-3.03328	-7.50213	-4.62160	-4.60761
3289.609	-2.81251	-7.36026	-4.74661	-4.69260
3293.608	-2.74997	-7.14515	-4.80263	-4.62204
3297.615	-2.81281	-7.28281	-4.85837	-4.69808
3301.601	-3.01739	-7.49887	-4.79543	-4.72365
3305.610	-3.09010	-7.64539	-4.77493	-4.65255
3309.608	-3.43219	-7.63666	-4.73589	-4.73665
3313.619	-3.17386	-7.17007	-4.60101	-4.61891
3317.611	-3.20503	-7.03885	-4.83592	-4.70637
3321.653	-3.37314	-7.13388	-4.72391	-4.69678
3325.494	-3.52071	-7.20052	-4.57596	-4.65771
3329.482	-3.45052	-7.45428	-4.57019	-4.66872
3333.479	-3.62111	-7.64628	-4.58375	-4.63736
3337.482	-3.71886	-7.79087	-4.60676	-4.63317
3341.483	-3.77777	-7.45445	-4.47134	-4.62001
3345.486	-3.68045	-7.08789	-4.46953	-4.64060
3349.479	-3.16985	-7.16521	-4.46241	-4.69060
3353.482	-3.14756	-7.23291	-4.45005	-4.71159
3357.478	-2.50917	-7.24457	-4.63252	-4.71525
3361.490	-2.85385	-7.23525	-4.47247	-4.57752
3365.484	-3.14140	-7.26694	-4.42032	-4.56701
3369.498	-3.21527	-7.35369	-4.55255	-4.51304
3373.476	-3.17500	-7.58938	-4.60814	-4.50541
3377.479	-3.32718	-7.60655	-4.68839	-4.56465
3381.493	-3.30341	-7.72021	-4.82557	-4.65155
3385.479	-3.32154	-7.67093	-4.88003	-4.70230
3389.485	-3.48308	-7.80952	-4.88702	-4.71199
3393.487	-3.67010	-7.82664	-4.92942	-4.73043
3397.477	-3.69392	-7.90374	-4.97236	-4.77210
3401.484	-3.75385	-7.97705	-4.96911	-4.83773
3405.483	-3.71352	-8.02762	-4.97558	-4.90918
3409.492	-3.64901	-8.06549	-5.02216	-5.03150
3413.484	-3.61646	-8.12208	-5.00497	-5.06056
3417.483	-3.65495	-8.07290	-4.96014	-5.12980
3421.478	-3.46377	-7.97234	-4.87695	-5.18019
3425.481	-3.37581	-7.91060	-4.76349	-5.19024
3429.481	-3.25085	-7.80724	-4.66672	-5.18126
3433.478	-2.93725	-7.72359	-4.83730	-5.14034
3437.475	-2.98406	-7.62739	-4.85157	-5.13606
3441.479	-3.11022	-7.53544	-4.93543	-5.12378
3445.503	-3.06103	-7.42187	-4.85411	-5.08269
3449.486	-3.30972	-7.32960	-4.87281	-5.03027
3453.480	-3.95179	-7.22156	-4.95457	-4.94759
3457.495	-3.94777	-7.18556	-4.99955	-4.89796
3461.514	-3.84028	-7.16423	-4.99925	-4.85557
3465.477	-3.89009	-7.08836	-5.02780	-4.81886
3469.477	-3.75741	-7.06061	-4.99512	-4.76989
3473.477	-3.80720	-7.03913	-5.02179	-4.74939
3477.487	-3.73122	-7.01133	-4.97903	-4.78365
3481.481	-3.76300	-6.96132	-4.82890	-4.80653
3485.480	-3.74629	-6.93685	-4.77816	-4.81080
3489.477	-3.89345	-6.96726	-4.72514	-4.81923
3493.481	-3.81785	-6.97571	-4.64108	-4.80864
3497.480	-3.77673	-6.99656	-4.49329	-4.85936
3501.480	-3.84093	-7.12563	-4.42720	-4.87758
3505.481	-3.78365	-8.36141	-4.40177	-4.91924
3509.483	-3.83030	-8.06285	-4.45848	-4.98248
3513.494	-3.80997	-8.05004	-4.56646	-5.02316
3517.475	-3.81738	-8.17652	-4.50680	-5.04771
3521.487	-3.90167	-8.28444	-4.49356	-5.05832
3525.498	-3.92699	-8.28844	-4.48577	-5.06556
3529.485	-3.96995	-8.35321	-4.46371	-5.08943
3533.478	-3.99294	-8.27573	-4.43890	-5.07610
3537.473	-4.01346	-8.44826	-4.43715	-5.07516
3541.480	-4.04757	-8.40755	-4.47669	-5.04890
3545.483	-4.01324	-8.45432	-4.54101	-5.01997
3549.487	-4.02764	-8.44197	-4.62934	-5.00153
3553.472	-4.02685	-8.45564	-4.60190	-4.95298
3557.481	-3.99670	-8.33865	-4.62574	-4.96685
3561.478	-3.96140	-7.95519	-4.58952	-4.94389
3565.495	-3.86321	-7.83217	-4.57329	-4.92419
3569.488	-3.88984	-7.56202	-4.55847	-4.91192
3573.477	-3.83018	-7.66996	-4.62845	-4.86662
3577.477	-3.86573	-7.56267	-4.65996	-4.88135
3581.485	-3.82227	-7.85199	-4.70500	-4.92212
3585.474	-3.84184	-7.92851	-4.58081	-4.90594
3589.480	-3.98368	-8.04869	-4.55527	-4.92886
3593.504	-3.99820	-7.76126	-4.71762	-4.93592
3597.484	-5.03418	-7.42669	-5.05479	-4.87426
3601.476	-6.14658	-6.49499	-6.21676	-4.53046
3605.478	-6.85410	-5.64101	-6.94658	-4.27386
3609.476	-7.11027	-5.35864	-7.01502	-4.28908
3613.496	-6.31931	-5.46738	-6.25409	-4.05121
3617.487	-6.40589	-6.11238	-6.06230	-4.13021
3621.485	-5.95469	-6.65655	-5.89348	-3.92175
3625.478	-5.68057	-6.21698	-5.92896	-3.94302
3629.481	-6.14653	-6.22454	-6.14984	-3.99804
3633.478	-6.16785	-6.43017	-6.29918	-3.93770
3637.478	-6.18640	-6.11795	-6.45267	-3.91367
3641.516	-6.33608	-6.16325	-6.48992	-4.00454
3645.475	-6.36486	-5.95922	-6.26907	-3.94471
3649.498	-6.50261	-6.06266	-6.42993	-3.96297
3653.487	-6.24082	-6.13874	-6.42650	-3.93702
3657.481	-6.36768	-5.83853	-6.42474	-3.93047
3661.474	-6.29982	-5.96519	-6.51150	-3.94788
3665.475	-6.46228	-5.95699	-6.57916	-4.02188
3669.493	-6.52218	-5.99685	-6.59432	-4.02321
3673.473	-6.54896	-5.92202	-6.54670	-4.02320
3677.472	-6.49852	-5.87241	-6.62062	-4.02526
3681.483	-6.34939	-5.86378	-6.69282	-3.92903
3685.478	-6.44077	-5.71729	-6.70739	-3.90557
3689.476	-6.59172	-5.54741	-6.72837	-3.96119
3693.480	-6.61457	-5.61044	-6.76784	-4.03588
3697.474	-6.64442	-5.60044	-6.75886	-4.01781
3701.475	-6.68318	-5.63924	-6.62508	-4.00041
3705.475	-6.70193	-5.54170	-6.59731	-4.02633
3709.470	-6.64680	-5.58839	-6.63595	-3.92516
3713.484	-6.25993	-5.61289	-6.67899	-3.88625
3717.480	-6.13098	-5.59847	-6.66433	-3.83764
3721.485	-6.41001	-5.54356	-6.58455	-3.86482
3725.477	-6.60186	-5.44551	-6.59892	-3.90287
3729.509	-6.67099	-5.45245	-6.55334	-3.96947
3733.479	-6.59356	-5.49797	-6.55026	-4.00499
3737.471	-6.53176	-5.51511	-6.61095	-3.85135
3741.478	-6.47524	-5.60304	-6.69101	-3.88544
3745.472	-6.24896	-5.63928	-6.69872	-3.93173
3749.486	-6.19353	-5.60978	-6.71285	-4.02030
3753.477	-6.22858	-5.67864	-6.80803	-3.98745
3757.486	-6.41430	-5.61102	-6.73150	-4.01367
3761.475	-6.46282	-5.62829	-6.71904	-4.09117
3765.473	-6.39256	-5.54749	-6.70159	-4.11589
3769.475	-6.29286	-5.58046	-6.73637	-4.01444
3773.472	-6.15973	-5.65178	-6.75394	-3.99241
3777.474	-6.11415	-5.67538	-6.83883	-3.98771
3781.488	-5.92707	-5.65414	-6.76924	-4.01620
3785.486	-6.00138	-5.62379	-6.72225	-4.03656
3789.473	-6.10355	-5.56929	-6.67020	-4.00638
3793.470	-6.17612	-5.57776	-6.63551	-3.95879
3797.515	-6.36523	-5.53981	-6.54634	-3.94714
3801.480	-6.23187	-5.52740	-6.48693	-3.90871
3805.472	-6.25237	-5.50746	-6.56618	-3.85637
3809.476	-6.51576	-5.51051	-6.55471	-3.83080
3813.467	-6.70680	-5.51561	-6.60779	-3.83707
3817.502	-6.71424	-5.51914	-6.59971	-3.83871
3821.478	-6.73441	-5.52107	-6.87959	-3.97909
3825.475	-6.72788	-5.54070	-6.84774	-4.07523
3829.469	-6.81833	-5.54035	-6.83988	-4.14454
3833.476	-6.85324	-5.58104	-6.96316	-4.24945
3837.471	-6.84262	-5.58700	-6.98700	-4.24928
3841.480	-6.79124	-5.62242	-7.05528	-4.37298
3845.471	-6.83455	-5.62372	-7.05787	-4.45646
3849.475	-6.78199	-5.62886	-7.10560	-4.52940
3853.468	-6.76261	-5.65095	-7.11882	-4.54037
3857.479	-6.70944	-5.67464	-7.07852	-4.50447
3861.479	-6.54060	-5.67755	-7.14736	-4.57194
3865.483	-6.45628	-5.70859	-7.01617	-4.53703
3869.478	-6.48269	-5.74623	-6.95939	-4.49314
3873.478	-6.37415	-5.74928	-6.91752	-4.48022
3877.472	-6.36751	-5.74361	-6.97377	-4.39557
3881.474	-6.37337	-5.69892	-6.90278	-4.40768
3885.481	-6.37494	-5.72605	-6.80587	-4.32942
3889.475	-6.38231	-5.66139	-6.76851	-4.25376
3893.472	-6.45037	-5.70846	-6.72075	-4.19404
3897.470	-6.23700	-5.68109	-6.72041	-4.24186
3901.477	-4.35686	-5.55542	-5.35834	-3.60964
3905.474	-1.68843	-4.27061	-2.82514	-2.01667
3909.469	0.32091	-1.42146	-1.14779	1.09636
3913.469	1.85063	0.29644	0.38995	2.40634
3917.471	3.14756	0.49357	1.56070	3.26904
3921.493	4.12466	1.05376	2.14290	4.66531
3925.470	4.29515	2.90492	2.32149	4.96989
3929.479	4.77148	3.36378	3.26891	5.52070
3933.494	5.07200	3.35558	3.63075	4.79956
3937.531	5.15864	2.33450	3.55580	4.60770
3941.489	4.76039	2.12304	3.25966	4.69394
3945.475	3.81602	2.35468	3.49384	4.61799
3949.470	4.77054	2.08507	3.66832	4.60533
3953.469	5.05585	2.07006	3.76154	4.70867
3957.476	5.32934	2.29557	3.74750	4.85388
3961.468	5.74089	2.26179	3.77436	4.90114
3965.471	5.79403	2.20100	3.67586	5.03218
3969.472	5.71013	2.17606	3.63552	5.02104
3973.473	5.41135	2.15704	3.64555	4.96716
3977.468	5.59489	2.10332	3.58611	5.01959
3981.470	5.41406	2.08921	3.55061	5.04872
3985.474	5.27998	2.05391	3.70556	5.20109
3989.471	5.38826	2.03094	3.70762	5.27185
3993.468	5.68411	2.01728	3.98901	5.21397
3997.471	5.72281	2.00110	3.92870	5.20850
4001.473	5.71301	2.00985	3.83146	5.18091
4005.477	5.52008	1.98640	3.75005	5.13983
4009.473	5.58071	2.00396	3.72519	5.09476
4013.471	5.53894	2.00447	3.63772	5.07304
4017.463	5.47318	1.99407	3.64761	5.03207
4021.481	5.47429	1.99540	3.53955	5.21215
4025.483	5.37163	1.99277	4.01067	5.19547
4029.467	5.55516	2.00464	3.82264	5.27612
4033.472	5.63815	2.03229	3.76757	5.24339
4037.469	5.66319	2.09737	3.78884	5.26964
4041.469	5.73330	2.15546	3.75566	5.22812
4045.465	5.75615	2.19695	3.73791	5.31612
4049.474	5.82343	2.25896	3.96353	5.10112
4053.467	5.79644	2.26885	4.02737	5.09807
4057.468	5.73242	2.32728	3.98477	5.01357
4061.473	5.73455	2.38447	3.96414	4.95588
4065.500	5.65764	2.46229	3.98635	4.94556
4072.008	5.61205	2.50233	3.91403	4.98398
4074.623	5.58233	2.58408	3.89320	4.92785
4077.488	5.39121	2.63339	3.81659	5.00141
4081.469	5.62938	2.63291	3.59533	4.89725
4085.469	5.72677	2.63044	3.54284	4.89228
4089.463	5.69155	2.63862	3.70391	4.91709
4093.472	5.78728	2.64037	3.67287	5.02912
4097.465	5.79295	2.68352	3.74819	5.04011
4101.464	5.74084	2.68485	3.65816	5.15903
4105.467	5.77497	2.73279	3.80475	5.10144
4109.480	5.92307	2.74279	3.81911	5.16825
4113.466	5.93325	2.80362	3.92435	5.18050
4117.464	5.92184	2.78687	3.97168	5.18391
4121.520	5.90016	2.80818	4.04038	5.10185
4125.473	5.88110	2.85017	4.05300	5.09953
4129.467	5.76062	2.87929	4.11426	5.05483
4133.470	5.57621	2.94430	4.11253	5.01394
4137.539	5.45405	2.97821	4.06868	4.94849
4141.505	5.28101	3.00007	4.04394	4.90811
4145.479	5.28527	2.97942	3.98104	5.00779
4149.469	5.22968	2.98075	3.89056	4.94608
4153.471	5.16337	3.00202	3.80181	4.96658
4157.466	5.19135	2.99535	3.60440	4.96874
4161.472	5.20925	2.97492	3.42055	5.02881
4165.465	5.24698	2.96344	3.52826	5.03100
4169.471	5.49898	2.98181	3.53834	5.08464
4173.464	5.58466	3.02111	3.51238	5.19365
4177.343	5.29861	2.96315	3.60017	5.19100
4181.338	5.30249	2.97951	3.66609	5.22918
4185.341	5.26797	2.95369	3.73018	5.28743
4189.353	5.19113	3.00129	3.93838	5.27243
4193.343	5.33096	2.97212	4.27131	5.32368
4197.357	5.59504	2.97035	4.46445	5.36535
4201.341	5.78796	2.96891	4.52365	5.44964
4205.363	5.72126	3.03398	4.54343	5.51130
4209.345	5.64793	3.01639	4.45353	5.58133
4213.341	5.54656	2.96682	4.58049	5.61682
4217.347	5.62122	2.75550	4.52972	5.65823
4221.368	5.71979	2.66077	4.59342	5.74788
4225.339	5.97003	2.61529	4.56992	5.81587
4229.349	6.26716	2.40613	4.46818	5.88319
4233.341	6.34177	2.41821	4.41623	5.92799
4237.335	6.44638	2.49176	4.46413	5.93425
4241.345	6.46333	2.41441	4.28666	5.95065
4245.350	6.47679	2.40858	4.33621	5.97794
4249.339	6.50004	2.41041	4.22663	6.00301
4253.353	6.44991	2.44523	4.25968	5.76574
4257.360	6.38398	2.51210	4.24789	5.72049
4261.346	6.50040	2.55967	4.20190	5.65578
4265.342	6.51251	2.67287	4.18929	5.52086
4269.339	6.41491	2.79672	4.20299	5.50040
4273.373	6.27449	2.88692	4.24115	5.51578
4277.338	6.00091	2.89114	4.30620	5.37895
4281.353	5.95810	2.94843	4.36461	5.33359
4285.337	5.66150	3.05188	4.42286	5.33706
4289.342	5.61340	3.06199	4.48125	5.31564
4293.335	5.52177	3.11433	4.49205	5.28169
4297.356	5.47616	3.16883	4.51105	5.33981
4301.341	5.46664	3.18476	4.54557	5.35454
4305.338	5.52532	3.18018	4.52404	5.39803
4309.341	5.48376	3.20400	4.51549	5.45594
4313.344	5.49136	3.14678	4.54597	5.50384
4317.340	5.54051	3.10151	4.56405	5.54802
4321.349	5.72222	3.07522	4.56678	5.57016
4325.329	5.79084	3.07387	4.51322	5.59643
4329.349	5.78573	3.05356	4.42629	5.60841
4333.334	5.89441	3.05728	4.40939	5.51949
4337.342	5.98795	3.03002	4.42163	5.38911
4341.361	6.24256	2.90033	4.41798	5.36630
4345.351	6.15745	2.80202	4.42903	5.39993
4349.340	6.18492	2.70605	4.44726	5.30144
4353.339	6.20121	2.59252	4.45878	5.16022
4357.339	6.25681	2.56555	4.45560	5.08054
4361.339	6.29470	2.52873	4.42725	5.05548
4365.348	6.23665	2.53922	4.36562	5.01371
4369.343	6.19307	2.51783	4.35797	5.00275
4373.335	6.17030	2.41681	4.38094	5.01361
4377.337	6.11927	2.38589	4.39017	5.06825
4381.356	6.06303	2.38831	4.35435	5.12355
4385.343	6.05997	2.39612	4.33742	5.23500
4389.342	5.92392	2.49945	4.29717	5.28776
4393.336	5.99460	2.45699	4.30092	5.36057
4397.337	5.95263	2.53839	4.32350	5.44727
4401.341	5.91059	2.57300	4.34719	5.61766
4405.341	5.82066	2.58550	4.36821	5.64109
4409.422	5.80614	2.59368	4.39765	5.72859
4413.358	5.74094	2.63469	4.39377	5.78947
4417.341	5.79145	2.65964	4.31783	5.86286
4421.341	5.76109	2.67858	4.23197	5.88009
4425.342	5.76890	2.64559	4.27614	5.95525
4429.336	5.81454	2.63911	4.19008	5.93384
4433.354	5.92520	2.60854	4.12954	5.92794
4437.338	5.92854	2.60473	4.22634	5.95808
4441.335	6.02676	2.53679	4.17615	5.86624
4445.386	6.18228	2.46122	4.18020	5.64818
4449.339	6.23263	2.46209	4.13495	5.48963
4453.344	6.36062	2.44048	4.15028	5.36841
4457.337	6.37430	2.40450	4.11730	5.68677
4461.335	6.38320	2.21970	4.16006	5.46193
4465.338	6.22839	1.99150	4.07295	5.18637
4469.353	5.80091	1.81569	4.00344	4.78079
4473.366	5.72556	1.78824	3.98390	4.75412
4477.370	5.78873	1.91293	3.82455	4.71895
4481.335	5.76706	1.92044	3.81864	4.87133
4485.341	5.79708	1.93490	4.00005	5.04949
4489.342	5.80698	2.00566	3.90565	5.31826
4493.340	5.72406	2.00835	3.93648	5.46289
4497.338	5.78118	1.80594	3.80920	5.48139
4501.342	5.68644	1.92004	3.78553	5.40935
4505.336	5.76428	1.94413	3.77041	5.31813
4509.334	5.84105	1.96865	3.76270	5.36245
4513.337	5.88297	1.98584	3.78168	5.60173
4517.355	6.07486	2.01212	3.73873	5.66757
4521.333	6.15873	2.00632	3.77258	5.67256
4525.341	6.20896	1.97613	3.77090	5.71222
4529.339	6.27098	1.98586	3.72741	5.75088
4533.350	6.45410	1.94214	3.73638	5.70854
4537.335	6.28732	1.98662	3.70467	5.66296
4541.338	6.44236	2.14579	3.75314	5.64592
4545.363	6.53546	2.17111	3.81629	5.61131
4549.338	6.44395	2.21827	3.85711	5.63496
4553.329	6.33429	2.27433	3.87798	5.64565
4557.333	6.00077	2.34854	3.95710	5.53396
4561.334	5.74446	2.45353	3.98400	5.49750
4565.349	5.67344	2.55120	4.01090	5.44447
4569.337	5.46015	2.53642	4.05266	5.38277
4573.348	5.69364	2.60182	4.07226	5.31667
4577.334	5.95987	2.48986	4.06029	5.29023
4581.334	5.89917	2.48823	4.05349	5.29932
4585.338	5.81349	2.41286	4.02290	5.22524
4589.332	5.81123	2.25408	3.99311	5.22058
4593.332	5.72205	2.23754	4.01492	5.14563
4597.335	5.74404	2.19628	4.03144	5.09534
4601.353	5.75497	2.13007	3.98494	5.13256
4605.338	5.82609	1.93169	3.98296	5.11905
4609.328	5.85394	1.94673	3.98855	5.04819
4613.359	5.84124	1.93048	3.97452	5.03720
4617.342	5.87479	1.85372	3.98388	5.06066
4621.347	5.84031	1.75579	4.02327	5.03181
4625.339	5.78462	1.78161	4.05505	5.01209
4629.335	5.73964	1.78466	4.06382	5.02748
4633.342	5.73298	1.74318	4.08288	4.98803
4637.335	5.71804	1.73868	4.07913	4.96326
4641.331	5.72372	1.74168	4.03673	5.13445
4645.333	5.75043	1.74076	4.04379	5.10367
4649.331	5.72490	1.77668	4.06438	5.10974
4653.335	5.76173	1.77997	4.03747	5.10907
4657.336	5.77789	1.79506	4.02673	5.15106
4661.334	5.77900	1.80600	4.04856	5.22102
4665.333	5.78659	1.83986	4.01349	5.23044
4669.338	5.78575	1.87269	3.97153	5.26236
4673.331	5.80113	1.88207	3.97713	5.21892
4677.336	5.79472	1.90027	3.98647	5.30292
4681.385	5.81656	1.93654	3.98435	5.31677
4685.328	5.79401	1.95348	4.01141	5.30959
4689.336	5.77433	1.96170	4.03564	5.31951
4693.334	5.81304	1.95446	4.02297	5.27872
4697.331	5.81862	1.95261	4.05811	5.32072
4701.355	5.83255	1.95992	4.02729	5.32522
4705.335	5.83726	1.92694	3.99556	5.33638
4709.338	5.86280	1.92764	3.98556	5.36839
4713.332	5.85040	1.91986	3.94594	5.36460
4717.332	5.84311	1.89627	3.90568	5.41257
4721.333	5.86779	1.80186	3.86674	5.43268
4725.340	5.86715	1.75492	3.99289	5.39039
4729.330	5.90300	1.63600	3.97266	5.34501
4733.330	5.93051	1.70173	4.03851	5.28381
4737.341	5.87356	1.70822	4.06182	5.28194
4741.333	5.77900	1.68052	4.02594	5.22229
4745.334	5.82422	1.60182	4.16739	5.15326
4749.340	5.85030	1.55061	4.19262	5.07936
4753.339	5.77101	1.57106	4.24028	4.99026
4757.341	5.82012	1.54081	4.30472	4.96036
4761.333	5.82668	1.44183	4.32289	4.95342
4765.329	5.81953	1.44202	4.41026	4.85401
4769.331	5.87140	1.40777	4.44247	4.81153
4773.350	5.87766	1.42866	4.47222	4.80507
4777.337	5.87710	1.37965	4.52412	4.78438
4781.340	5.88992	1.33171	4.54476	4.78887
4785.329	5.96306	1.31239	4.61864	4.79138
4789.339	5.93021	1.29172	4.66332	4.83446
4793.326	5.87621	1.29049	4.66063	4.87707
4797.335	5.92265	1.27039	4.67500	4.89440
4801.330	5.91747	1.26428	4.67936	4.90489
4805.345	5.97661	1.31772	4.68042	4.91816
4809.328	5.99974	1.33688	4.65848	4.91780
4813.334	6.05258	1.39558	4.68314	4.95202
4817.338	6.06718	1.42029	4.37566	5.00686
4821.340	6.16893	1.46972	4.25941	5.07531
4825.341	6.32319	1.40123	3.98546	5.05536
4829.333	6.02278	1.47150	3.63861	5.13039
4833.325	6.19569	1.53568	3.50398	5.16804
4837.329	6.29072	1.52012	3.44389	5.19659
4841.335	6.26299	1.57431	3.42525	5.17647
4845.329	6.24016	1.52913	3.40289	5.17897
4849.328	6.25495	1.52304	3.40247	5.18249
4853.330	6.25073	1.51873	3.33770	5.19851
4857.334	6.22618	1.48454	3.32726	5.20924
4861.333	6.17668	1.44772	3.32063	5.16794
4865.329	6.13905	1.41461	3.19870	5.21884
4869.362	6.09920	1.44134	3.16928	5.22437
4873.339	6.17227	1.41240	3.08998	5.21620
4877.334	6.20043	1.35878	3.16584	5.21880
4881.334	6.13998	1.34587	3.16683	5.29162
4885.335	6.15188	1.32208	3.16149	5.33504
4889.338	6.12087	1.34416	3.16020	5.29805
4893.323	6.07903	1.37652	3.14258	5.33408
4897.333	6.00079	1.39067	3.15651	5.32297
4901.329	5.93907	1.41304	3.22156	5.36993
4905.349	5.92830	1.47007	3.31254	5.41090
4909.327	5.87761	1.49903	3.36804	5.40969
4913.348	5.85480	1.48410	3.45450	5.39671
4917.332	5.80855	1.48968	3.52581	5.39980
4921.340	5.73895	1.51178	3.58806	5.41143
4925.326	5.67959	1.51097	3.62825	5.41498
4929.336	5.59403	1.43550	3.68676	5.39823
4933.331	5.51386	1.44377	3.76174	5.45363
4937.326	5.47845	1.39294	3.81963	5.48391
4941.332	5.57783	1.33583	3.88708	5.53287
4945.329	5.51290	1.34347	3.92213	5.54893
4949.338	5.69291	1.30116	3.94140	5.46654
4953.332	5.57365	1.25723	3.98847	5.41476
4957.330	5.85082	1.26552	4.01287	5.42173
4961.328	6.22351	1.26561	4.01033	5.38941
4965.331	6.03869	1.31243	4.00843	5.37291
4969.329	6.28749	1.27410	4.00818	5.38928
4973.327	6.10944	1.35782	3.88754	5.35182
4977.333	5.57975	1.38939	3.56887	5.80494
4981.329	4.86352	1.65275	2.91220	6.04416
4985.325	4.87148	1.73582	2.77980	6.23883
4989.331	4.97359	1.75076	2.98029	6.39513
4993.332	5.20654	1.68847	2.84284	6.67708
4997.330	5.57195	1.67050	3.31056	6.58978
5001.328	5.67091	1.73527	3.25154	6.12926
5005.373	5.53805	1.80394	3.18321	6.07943
5009.331	5.44869	1.82810	3.15231	6.09312
5013.330	5.27757	1.87961	2.95220	6.05668
5017.325	5.19916	1.88731	2.95978	6.16538
5021.376	5.18286	1.96831	3.04363	6.16547
5025.329	5.25603	1.91351	3.03558	6.10535
5029.208	5.28817	1.88922	2.99492	6.00474
5033.203	5.28244	1.89052	3.06803	5.99634
5037.205	5.36693	1.86233	3.07966	5.95430
5041.203	5.27292	1.88331	3.04563	5.94241
5045.207	5.23101	1.86655	3.02452	5.92254
5049.202	5.18434	1.80280	3.04529	5.92314
5053.213	5.16738	1.79519	3.00745	5.95342
5057.216	5.18491	1.76871	3.01950	5.98316
5061.201	5.24447	1.77771	3.04115	5.98070
5065.214	5.27789	1.73792	3.05424	5.94570
5069.200	5.26750	1.66175	3.03843	5.96457
5073.203	5.23465	1.73366	3.07746	5.94808
5077.207	5.25448	1.76520	3.08661	5.95119
5081.217	5.21764	1.81757	3.09765	5.93864
5085.200	5.20413	1.90223	3.15562	5.88374
5089.224	5.17247	1.91621	3.18368	5.97698
5093.206	5.10071	2.03022	3.17376	5.97206
5097.205	4.98923	2.08926	3.24147	5.99976
5101.198	5.02152	2.12906	3.34588	5.96994
5105.203	5.18572	2.12928	3.21899	5.91522
5109.202	6.31713	1.64922	5.66167	5.15098
5113.206	8.27856	-1.22537	8.10107	2.49173
5117.204	9.94621	-2.48175	9.67738	-0.42658
5121.215	10.78613	-4.49642	10.22909	-2.09777
5125.197	10.72889	-6.44634	10.05308	-3.96924
5129.208	12.28126	-6.10379	10.41839	-5.59405
5133.200	12.37669	-7.15934	10.94595	-6.76401
5137.201	12.14027	-9.10396	11.42368	-8.45282
5141.200	12.45404	-9.05533	12.01706	-8.84897
5145.202	12.70999	-8.95861	12.79147	-9.36448
5149.202	13.71704	-8.26355	12.87690	-9.62579
5153.195	14.08519	-7.80845	12.62904	-9.42545
5157.225	14.01003	-8.08030	12.50818	-9.39231
5161.204	13.43946	-8.48629	12.81436	-9.24392
5165.210	13.25900	-8.63157	12.92698	-9.26883
5169.198	13.39414	-8.85005	13.17567	-9.38518
5173.204	13.59527	-8.68661	13.09984	-9.38334
5177.201	13.62856	-8.76876	13.08470	-9.45156
5181.204	13.59438	-8.81117	13.16614	-9.42063
5185.197	13.76638	-8.69320	13.19506	-9.43755
5189.196	13.72648	-8.74534	13.21566	-9.36966
5193.199	13.68452	-8.82736	13.17548	-9.30809
5197.204	13.61534	-8.89635	13.18995	-9.33789
5201.205	13.61923	-8.93427	13.13748	-9.29501
5205.206	13.65526	-8.96495	13.01875	-9.30320
5209.197	13.67325	-8.99610	12.99583	-9.27377
5213.199	13.69551	-8.98151	12.87973	-9.24991
5217.203	13.70940	-8.98789	12.63773	-9.23876
5221.213	13.70659	-8.98277	12.77931	-9.17973
5225.212	13.72655	-8.95712	12.62757	-9.18644
5229.242	13.74151	-8.93861	12.52419	-9.18653
5233.201	13.73877	-8.92250	12.50212	-9.19042
5237.194	13.76223	-8.86775	12.46204	-9.21359
5241.197	13.81092	-8.78572	12.46521	-9.17017
5245.217	13.79910	-8.79403	12.45305	-9.16040
5249.199	13.83208	-8.71250	12.41000	-9.15134
5253.197	13.87075	-8.63162	12.43017	-9.15402
5257.206	13.89585	-8.56701	12.37574	-9.11346
5261.222	13.93677	-8.47736	12.43696	-9.05293
5265.205	13.95427	-8.45519	12.40290	-9.04716
5269.195	14.00957	-8.36096	12.43566	-8.98933
5273.199	14.02211	-8.30889	12.48345	-8.95094
5277.193	14.03386	-8.29027	12.46808	-8.89536
5281.216	14.03891	-8.25428	12.48989	-8.84532
5285.204	14.03054	-8.24626	12.48440	-8.80404
5289.197	14.06116	-8.18817	12.50673	-8.75631
5293.284	14.06749	-8.14286	12.55947	-8.71294
5297.222	14.06751	-8.11199	12.59072	-8.64240
5301.201	14.08458	-8.07499	12.67934	-8.58260
5305.196	14.09063	-8.05072	12.68026	-8.58456
5309.199	14.09546	-8.01617	12.72525	-8.56820
5313.192	14.04117	-8.04032	12.82012	-8.54298
5317.214	13.93917	-8.13289	12.77974	-8.57148
5321.195	13.83774	-8.22162	12.80938	-8.56845
5325.208	13.59701	-8.49123	12.81384	-8.60362
5329.200	13.52599	-8.56708	12.74452	-8.59311
5333.201	13.40154	-8.61665	12.76310	-8.61701
5337.198	13.54760	-8.38945	12.74050	-8.63551
5341.202	13.54739	-8.41865	12.61148	-8.64003
5345.195	13.55534	-8.41012	12.44273	-8.67098
5349.198	13.61337	-8.36255	12.31369	-8.69684
5353.191	13.50783	-8.46651	12.35374	-8.71967
5357.201	13.59253	-8.22163	12.28517	-8.64680
5361.220	13.63571	-8.17711	12.19906	-8.60228
5365.216	13.82871	-7.91856	12.05919	-8.63839
5369.203	13.72172	-8.08529	11.96608	-8.60486
5373.199	13.85693	-7.99308	12.15993	-8.52139
5377.197	13.88892	-7.96786	12.07524	-8.58622
5381.199	13.87880	-7.96917	12.05972	-8.49326
5385.200	13.94820	-7.91413	12.10139	-8.53949
5389.193	13.92311	-7.95077	12.04407	-8.50186
5393.195	13.93541	-7.98785	12.10703	-8.51332
5397.200	13.90347	-8.07133	12.10219	-8.53863
5401.196	13.87606	-8.19067	12.10281	-8.54315
5405.214	13.94661	-8.13547	12.10962	-8.57332
5409.198	13.77471	-8.27092	12.19462	-8.56174
5413.195	13.69099	-8.36732	12.18045	-8.54984
5417.194	13.49223	-8.47360	12.14342	-8.58308
5421.190	13.51966	-8.46061	12.26100	-8.57834
5425.205	13.39656	-8.55571	12.40699	-8.59759
5429.233	13.45186	-8.58924	12.32291	-8.59583
5433.203	13.35983	-8.64726	12.31613	-8.62104
5437.205	13.33206	-8.61468	12.36113	-8.64960
5441.206	13.43362	-8.49794	12.17203	-8.43670
5445.199	13.41145	-8.01361	12.08886	-7.57137
5449.195	13.51485	-6.27699	11.71872	-6.10435
5453.209	13.50743	-5.79808	11.67620	-5.48199
5457.197	13.73734	-5.54592	12.07699	-5.37885
5461.195	13.75636	-5.59174	12.05445	-5.51963
5465.193	13.88944	-5.75630	12.04775	-5.46426
5469.206	13.89468	-6.21330	12.10540	-5.53452
5473.197	13.87667	-6.49814	12.04441	-5.64932
5477.218	13.87763	-6.50838	11.99868	-5.62348
5481.194	13.85014	-6.43211	11.99614	-5.51636
5485.196	13.91596	-6.14481	11.97904	-5.52646
5489.191	13.93370	-6.06801	12.01981	-5.46384
5493.199	13.90742	-6.13812	11.98068	-5.44471
5497.253	13.94420	-6.21996	12.00576	-5.43084
5501.197	13.93013	-6.21991	12.00656	-5.40859
5505.216	13.90083	-6.39584	12.04460	-5.32409
5509.200	13.88546	-6.38816	11.96788	-5.42326
5513.189	13.81069	-6.46950	11.95764	-5.48205
5517.198	13.88345	-6.35567	11.94610	-5.44311
5521.212	13.89921	-6.42935	11.90868	-5.39258
5525.195	13.95110	-6.41073	11.91752	-5.35926
5529.193	14.07487	-6.34114	11.79101	-5.39086
5533.203	14.08879	-6.40889	11.78952	-5.51122
5537.199	14.14352	-6.44384	11.81066	-5.50177
5541.191	14.23948	-6.39723	11.78818	-5.50154
5545.192	14.13248	-6.55025	11.87788	-5.56561
5549.192	14.17971	-6.57448	11.79732	-5.65021
5553.193	14.18298	-6.56661	11.82865	-5.65371
5557.191	14.27571	-6.52879	11.81077	-5.68872
5561.195	14.27110	-6.57933	11.87848	-5.71888
5565.240	14.29345	-6.58273	11.84824	-5.73694
5569.213	14.33353	-6.55773	11.82152	-5.77975
5573.198	14.34000	-6.53259	11.92051	-5.80183
5577.196	14.33989	-6.57717	11.92543	-5.79124
5581.193	14.30363	-6.61403	11.97460	-5.75212
5585.192	14.25389	-6.66479	11.99719	-5.75528
5589.194	14.26424	-6.63079	11.99082	-5.71525
5593.192	14.26068	-6.61621	11.98676	-5.68224
5597.193	14.25284	-6.61979	11.98310	-5.64393
5601.192	14.24142	-6.62295	12.01013	-5.46748
5605.191	14.24818	-6.55171	11.99301	-5.48702
5609.189	14.28639	-6.47438	11.92847	-5.49904
5613.196	14.25438	-6.49697	11.89782	-5.47291
5617.215	14.23440	-6.48641	11.94703	-5.42553
5621.255	14.26194	-6.35119	11.85595	-5.45997
5625.202	14.24550	-6.46788	11.79922	-5.59766
5629.193	14.26795	-6.39326	11.82057	-5.63890
5633.202	14.34902	-6.26705	11.81819	-5.64164
5637.194	14.44264	-6.17862	11.89461	-5.64135
5641.197	14.47738	-6.15592	11.88556	-5.67595
5645.191	14.52563	-6.00387	11.80186	-5.71679
5649.194	14.47238	-6.17663	11.78190	-5.78273
5653.186	14.53784	-6.10651	11.78005	-5.78122
5657.204	14.53519	-6.05758	11.86270	-5.81018
5661.195	14.56732	-6.01466	11.86393	-5.80342
5665.195	14.49362	-6.19271	11.82271	-5.77672
5669.187	14.49839	-6.14745	11.79441	-5.70415
5673.198	14.61787	-6.05861	11.75962	-5.66896
5677.192	14.51691	-6.07445	11.77789	-5.60724
5681.192	14.51705	-6.14415	11.72693	-5.61495
5685.218	14.52421	-6.09542	11.72760	-5.63983
5689.194	14.53886	-6.10201	11.75272	-5.68165
5693.191	14.67681	-5.97288	11.81548	-5.63777
5697.195	14.50309	-6.06595	11.89775	-5.63450
5701.218	14.49846	-6.05556	12.00977	-5.63008
5705.216	14.42844	-6.02330	11.99282	-5.60764
5709.186	14.40381	-6.00506	11.99956	-5.54230
5713.190	14.31957	-5.98407	12.00872	-5.48229
5717.191	14.19877	-6.03817	12.01345	-5.46994
5721.246	14.15727	-6.09356	12.04308	-5.50915
5725.197	14.16427	-6.11884	12.16067	-5.49502
5729.192	14.06691	-6.18141	12.24870	-5.48278
5733.185	13.95935	-6.21536	12.21314	-5.37542
5737.194	13.05969	-6.31697	11.39010	-5.09214
5741.193	12.29753	-6.32489	9.43016	-4.32904
5745.198	10.87323	-6.34607	8.62185	-3.18578
5749.185	10.37397	-6.29617	7.94801	-2.89583
5753.205	8.54493	-6.28867	7.50598	-2.45050
5757.200	7.46165	-5.05246	7.43151	-2.09417
5761.189	6.93577	-5.94808	5.57085	-1.74066
5765.201	3.62215	-4.52235	1.15585	-1.64619
5769.225	3.60759	-4.52156	-2.84158	-1.27343
5773.191	7.05142	-4.42026	-2.78944	-1.44259
5777.193	6.41008	-2.06383	-1.01568	0.05136
5781.195	5.01132	-1.71394	-1.03352	2.86030
5785.199	1.63122	0.50921	0.90331	2.00031
5789.185	-8.11430	4.08149	NaN	NaN
5793.195	-2.02212	0.74619	-13.13705	3.99258
5797.189	-1.85177	-0.85646	-20.35804	5.10617
5801.197	4.18516	7.65681	-20.14349	-12.06623
5805.182	NaN	NaN	-9.04393	14.81838
5809.193	NaN	NaN	-20.10205	-12.06934
5813.193	NaN	NaN	-20.07795	-12.07114
5817.193	NaN	NaN	-20.06214	-12.07232
5821.190	NaN	NaN	-7.39642	12.52804
5825.190	NaN	NaN	-20.05022	-12.07321
5829.196	NaN	NaN	-5.97988	12.54878
5833.188	NaN	NaN	-2.02145	9.19759
5837.191	7.03147	6.42620	-2.12877	9.81714
5841.191	NaN	NaN	-5.81727	14.83003
5845.192	-0.97566	8.47456	-6.03699	14.29083
5849.191	-0.87562	8.56119	-5.64931	12.99651
5853.184	0.64384	6.52186	-5.16718	12.68756
5857.199	-3.35306	8.23996	-5.17171	12.16037
5861.192	-2.92641	8.05954	-2.01868	11.11340
5865.189	-3.17901	8.07880	-2.36237	10.86988
5869.196	-3.29829	7.96872	-4.18603	10.87274
5873.188	-3.43516	8.08309	-3.16589	10.98008
5877.202	-3.32951	8.01542	-3.67610	11.00941
5881.188	-3.42065	8.22919	-3.94898	10.97929
5885.092	-3.40494	8.11624	-3.65507	10.88072
5889.060	-3.49740	8.08222	-3.69657	10.94038
5893.065	-3.37727	7.79157	-3.58096	10.83361
5897.192	-3.32956	7.77622	-3.57065	10.78764
5901.064	-3.25874	7.73146	-3.64254	10.90285
5905.074	-3.33149	7.84000	-3.64560	10.70591
5909.067	-3.29557	7.73108	-3.72956	10.76934
5913.064	-3.13749	7.60791	-3.72459	10.70053
5917.063	-3.12093	7.51279	-3.76260	10.63928
5921.065	-3.03202	7.44476	-3.87070	10.73519
5925.064	-3.01252	7.46675	-4.01351	10.77404
5929.065	-2.97334	7.50937	-4.05332	10.80206
5933.059	-2.94893	7.49175	-4.15885	10.84884
5937.063	-2.92582	7.57292	-4.29391	10.90100
5941.061	-2.90292	7.56378	-4.34973	10.91613
5945.067	-2.96535	7.61579	-4.30156	10.73202
5949.066	-2.91747	7.54954	-4.30532	10.68300
5953.061	-2.93218	7.57276	-4.14986	10.65685
5957.083	-3.01106	7.62642	-4.19180	10.62027
5961.063	-3.08805	7.69391	-4.27121	10.70808
5965.070	-3.04892	7.70145	-4.09552	10.58202
5969.063	-3.08664	7.75551	-3.99642	10.70298
5973.080	-3.61673	7.96717	-3.79193	10.81239
5977.087	-3.19199	8.18600	-3.48934	10.63991
5981.059	NaN	NaN	-11.92341	14.15246
5985.058	NaN	NaN	NaN	NaN
5989.058	NaN	NaN	NaN	NaN
5993.070	NaN	NaN	NaN	NaN
5997.067	NaN	NaN	NaN	NaN
6001.148	NaN	NaN	NaN	NaN
6005.093	NaN	NaN	NaN	NaN
6009.058	NaN	NaN	NaN	NaN
6013.065	NaN	NaN	NaN	NaN
6017.090	NaN	NaN	NaN	NaN
6021.060	NaN	NaN	NaN	NaN
6025.061	NaN	NaN	NaN	NaN
6029.072	NaN	NaN	NaN	NaN
6033.061	NaN	NaN	NaN	NaN
6037.068	NaN	NaN	NaN	NaN
6041.649	NaN	NaN	NaN	NaN
6045.533	NaN	NaN	NaN	NaN
6049.333	NaN	NaN	NaN	NaN
6053.058	NaN	NaN	NaN	NaN
6057.092	NaN	NaN	NaN	NaN
6061.071	NaN	NaN	NaN	NaN
6065.072	NaN	NaN	NaN	NaN
6069.212	NaN	NaN	-1.31590	15.25482
6073.086	NaN	NaN	NaN	NaN
6077.062	NaN	NaN	NaN	NaN
6081.061	-4.14268	11.96016	NaN	NaN
6085.073	-3.71394	11.86196	NaN	NaN
6089.057	-3.94340	11.86996	NaN	NaN
6093.061	-4.48034	12.02173	NaN	NaN
6097.064	-4.05088	12.16220	NaN	NaN
6101.063	-4.08056	12.14824	-3.98499	12.92898
6105.060	-2.20196	11.69594	-4.57682	14.89474
6109.067	-3.24227	11.94372	-4.37673	14.82590
6113.059	-3.55983	11.95362	NaN	NaN
6117.055	-3.61147	11.91771	-3.29575	14.86222
6121.091	-3.51416	11.96444	-2.96980	14.00176
6125.065	-3.44735	11.84681	-2.89391	14.36360
6129.057	-3.24573	11.40075	-2.71468	14.41310
6133.066	-2.38779	10.83286	-2.59059	14.54486
6137.063	-2.28539	10.00127	-2.22349	14.65178
6141.060	-2.64369	9.88778	-2.26063	14.75700
6145.055	-3.21335	10.31133	-2.50566	14.54729
6149.077	-2.99166	9.83459	-2.29022	14.46265
6153.060	-3.34195	10.12979	-2.69681	14.33861
6157.057	-2.60337	9.88390	-2.82226	14.26897
6161.060	-2.49449	9.93143	-4.45222	14.22799
6165.067	-2.70879	9.91253	-3.21921	14.05009
6169.063	-2.54531	9.94996	-3.36973	14.18013
6173.057	-2.41264	9.94325	-3.29862	14.20720
6177.059	-2.68955	10.03042	-3.30938	14.19416
6181.113	-2.91119	10.46800	-3.39572	14.34203
6185.080	-2.83083	10.45367	-3.02653	14.15149
6189.056	-2.90101	10.84675	-2.93869	14.05178
6193.060	-3.03930	10.91592	-2.85150	14.12386
6197.071	-2.79805	10.92988	-2.79686	13.77487
6201.060	-2.86336	10.86567	-2.97970	13.94666
6205.080	-2.68992	10.52065	-3.08943	14.03632
6209.059	-2.55700	10.73329	-2.99156	13.95535
6213.054	-2.61075	10.80666	-2.94916	14.03677
6217.060	-2.39200	10.79929	-3.09715	14.09174
6221.065	-2.66682	10.95208	-3.27954	14.30304
6225.062	-2.61503	10.90696	-3.35132	14.43638
6229.056	-2.75128	11.06833	-3.04496	14.34830
6233.055	-2.88039	11.09290	-2.93205	14.27443
6237.051	-3.63975	11.40836	-2.95591	14.21320
6241.061	-3.69724	11.56675	-3.13100	14.01836
6245.111	-2.43801	10.95889	-3.25693	14.13524
6249.064	-2.33001	10.73720	-3.36421	14.19086
6253.061	-2.63262	10.88034	-3.44854	14.24253
6257.073	-2.71223	10.91053	-3.31788	14.17451
6261.061	-2.68093	10.93842	-3.09780	14.05536
6265.057	-2.49553	10.90884	-3.07191	13.96178
6269.064	-2.35382	10.75892	-3.02395	13.95126
6273.078	-0.42842	8.72661	-1.77784	13.49099
6277.060	2.26230	6.40951	1.38818	9.34077
6281.055	3.76117	3.47004	2.80360	6.25916
6285.058	5.46795	1.27214	3.19014	3.89287
6289.053	5.19281	-0.35442	3.61026	1.75580
6293.060	5.68295	-1.14703	4.48700	0.55861
6297.065	5.85345	-2.40689	4.07234	-0.10881
6301.061	5.43302	-3.77615	4.09646	-1.18501
6305.060	5.47818	-4.16026	4.13431	-1.79723
6309.053	5.71812	-5.59031	3.99583	-2.85508
6313.080	5.64793	-5.59946	4.02952	-2.85739
6317.061	5.70291	-5.37650	4.14191	-2.57021
6321.064	5.77521	-5.01483	3.92255	-2.41521
6325.059	5.82491	-5.01020	3.98408	-2.74824
6329.058	5.84736	-5.55194	4.01700	-2.83461
6333.060	5.83309	-5.83103	3.98025	-3.00910
6337.052	5.76399	-6.08692	3.93008	-3.08638
6341.054	5.79686	-6.18196	3.84068	-3.24189
6345.054	5.90033	-6.05852	3.78746	-3.31586
6349.058	6.06760	-5.72999	3.72914	-3.34250
6353.051	6.13890	-5.62743	3.76779	-2.92167
6357.053	6.26986	-5.59646	3.77572	-3.05129
6361.066	6.30705	-5.58555	3.68260	-3.13088
6365.054	6.31796	-5.70401	3.71108	-3.07451
6369.062	6.18507	-5.79259	3.75593	-3.15443
6373.063	6.33167	-5.80901	3.78887	-3.46400
6377.062	6.25316	-5.70401	3.78207	-3.48068
6381.094	6.32576	-5.60942	3.82390	-3.42624
6385.061	6.35381	-5.68838	3.77851	-3.39222
6389.052	6.34952	-5.67957	3.81886	-3.42287
6393.061	6.24396	-5.69616	3.78652	-3.41650
6397.058	6.16034	-5.76050	3.76613	-3.25119
6401.058	6.16810	-5.74406	3.68443	-3.39572
6405.054	6.09216	-5.74976	3.68026	-3.41289
6409.054	6.11977	-5.73516	3.62978	-3.46383
6413.059	6.13375	-5.73603	3.67714	-3.51044
6417.056	6.19618	-5.69148	3.60662	-3.50051
6421.053	6.29085	-5.72093	3.52062	-3.51757
6425.058	6.31210	-5.72662	3.52625	-3.56723
6429.056	6.23913	-5.71621	3.56158	-3.37757
6433.056	6.25993	-5.69747	3.53713	-3.26361
6437.050	6.28425	-5.70880	3.52217	-3.19765
6441.069	6.25661	-5.70974	3.59940	-3.20562
6445.054	6.23265	-5.76243	3.62056	-3.18846
6449.052	6.23521	-5.82018	3.59382	-3.17384
6453.071	6.32247	-5.78985	3.68609	-3.18200
6457.058	6.39918	-5.74558	3.63658	-3.12728
6461.058	6.39155	-5.72775	3.59555	-3.18014
6465.058	6.38763	-5.73353	3.65930	-3.08408
6469.053	6.53159	-5.67242	3.62936	-3.08275
6473.067	6.57406	-5.62752	3.65673	-3.08936
6477.052	6.58810	-5.68596	3.67346	-3.11086
6481.061	6.60771	-5.66532	3.69981	-3.10177
6485.072	6.67148	-5.69661	3.70949	-3.07142
6489.052	6.69082	-5.68656	3.71963	-3.03044
6493.048	6.70778	-5.63514	3.70114	-3.06806
6497.055	6.71307	-5.63359	3.66122	-3.04150
6501.053	6.68166	-5.63026	3.64316	-3.03421
6505.049	6.66878	-5.64307	3.66834	-3.03042
6509.067	6.53850	-5.58341	3.61809	-3.04419
6513.054	6.43640	-5.60435	3.64901	-3.03224
6517.055	6.48090	-5.57236	3.64313	-3.03468
6521.056	6.43817	-5.55737	3.64565	-2.96951
6525.055	6.42444	-5.52821	3.68933	-2.98331
6529.052	6.42442	-5.45809	3.70645	-3.02542
6533.051	6.32434	-5.42476	3.67237	-3.08686
6537.054	6.28386	-5.42922	3.70420	-3.08462
6541.052	6.27432	-5.37191	3.68653	-3.09475
6545.069	6.33049	-5.38379	3.73502	-3.07900
6549.055	6.23763	-5.35676	3.66958	-3.03039
6553.048	6.31441	-5.34422	3.68557	-3.11228
6557.051	6.44368	-5.37931	3.62368	-3.18279
6561.055	6.44456	-5.38980	3.60951	-3.18605
6565.053	6.59011	-5.43702	3.48162	-3.21559
6569.062	6.60480	-5.47155	3.45203	-3.20583
6573.042	6.52792	-5.47697	3.49287	-3.17344
6577.051	6.54908	-5.48346	3.57644	-3.15963
6581.070	6.38386	-5.53313	3.54321	-3.12980
6585.053	6.51581	-5.52169	3.50746	-3.20376
6589.050	6.61646	-5.62154	3.50956	-3.19851
6593.053	6.61291	-5.72177	3.67783	-3.15629
6597.049	6.50768	-5.78781	3.65742	-3.13834
6601.067	6.58308	-5.80813	3.69874	-3.11792
6605.061	6.43547	-5.90317	3.67030	-3.17988
6609.047	6.36572	-5.91382	3.67531	-3.12601
6613.063	6.34348	-6.00134	3.68031	-3.12622
6617.048	6.24904	-6.01661	3.66708	-3.12916
6621.059	6.31566	-6.00982	3.70067	-3.06554
6625.060	6.50227	-6.01222	3.65905	-3.03238
6629.050	6.50281	-6.01761	3.70114	-2.99030
6633.055	6.52191	-5.93077	3.69988	-2.96216
6637.048	6.45064	-5.87497	3.60390	-3.00133
6641.050	6.31465	-5.86266	3.34989	-3.07301
6645.054	6.30671	-5.80577	3.55918	-2.97934
6649.048	6.29097	-5.77690	3.55417	-2.93114
6653.078	6.37359	-5.78244	3.54902	-2.91387
6657.106	6.34809	-5.68289	3.60667	-2.83289
6661.055	6.34331	-5.65492	3.55617	-2.88060
6665.053	6.41096	-5.60451	3.62753	-2.83075
6669.044	6.31068	-5.58529	3.76987	-2.89710
6673.066	6.27486	-5.65079	3.74352	-2.91000
6677.058	6.43569	-5.64085	3.70596	-2.91794
6681.052	6.37065	-5.63806	3.71426	-2.93275
6685.044	6.39067	-5.58976	3.66827	-2.91735
6689.086	6.42349	-5.52879	3.61940	-2.92710
6693.049	6.36540	-5.54727	3.59644	-3.01251
6697.057	6.41721	-5.53499	3.49686	-3.00608
6701.052	6.36408	-5.57522	3.57763	-3.04393
6705.063	6.41136	-5.53476	3.58882	-3.11063
6709.050	6.37729	-5.53877	3.50368	-3.18174
6713.052	6.35912	-5.48387	3.61236	-3.16438
6717.050	6.31434	-5.45840	3.57184	-3.20586
6721.079	6.26142	-5.41741	3.60143	-3.21582
6725.053	6.32946	-5.46813	3.55812	-3.29780
6729.053	6.34537	-5.49686	3.51231	-3.33324
6733.047	6.31419	-5.46187	3.58213	-3.31168
6737.051	6.34743	-5.49131	3.57360	-3.32080
6740.918	6.28930	-5.52454	3.61829	-3.30828
6744.949	6.36648	-5.48739	3.66481	-3.24105
6748.927	6.34917	-5.56594	3.68228	-3.10843
6752.934	6.37038	-5.63626	3.67620	-3.10959
6756.932	6.29450	-5.72515	3.64291	-3.12645
6760.936	6.40597	-5.85496	3.56539	-3.17134
6764.921	6.44613	-5.95190	3.55622	-3.15649
6768.927	6.36574	-5.67830	3.49980	-3.19095
6772.921	6.39761	-5.61727	3.51597	-3.19077
6776.928	6.38307	-5.61051	3.43093	-3.31308
6780.921	6.33412	-5.58362	3.44644	-3.26128
6784.934	6.35699	-5.40932	3.47611	-3.21363
6788.921	6.30941	-5.30887	3.34709	-3.28740
6792.930	6.09734	-5.78363	3.12813	-3.25057
6796.927	5.22234	-5.41647	2.05484	-3.36702
6800.923	1.95649	-5.14917	-0.11064	-3.17681
6804.925	0.54136	-4.98736	-0.88999	-2.67810
6808.916	1.01084	-4.98289	-1.57704	-2.28655
6812.934	1.44503	-4.84471	-0.94552	-2.08997
6816.930	1.97708	-4.86076	-0.19358	-1.99003
6820.930	2.28286	-4.82524	0.72025	-1.97963
6824.926	2.20617	-4.80645	0.29617	-2.12752
6828.924	2.25590	-5.04978	-0.09644	-2.19067
6832.930	1.87406	-4.81972	-0.17206	-2.05818
6836.923	1.89050	-4.75412	-0.39948	-1.99962
6840.921	2.01345	-4.67971	-0.47922	-1.97158
6844.921	1.99240	-4.58367	-0.55754	-1.95153
6848.923	2.09239	-4.64810	-0.47966	-1.91251
6852.926	2.05541	-4.62240	-0.41609	-1.91372
6856.919	2.10087	-4.69176	-0.42199	-1.86715
6860.927	2.08813	-4.65475	-0.44773	-1.85833
6864.924	2.18580	-4.61989	-0.51639	-1.84171
6868.918	2.23556	-4.61653	-0.53627	-1.77855
6872.925	2.21172	-4.55761	-0.54960	-1.73634
6876.930	2.30065	-4.52686	-0.56518	-1.63607
6880.941	2.34681	-4.51613	-0.58138	-1.62797
6884.924	2.42230	-4.52509	-0.52706	-1.60802
6888.955	2.43493	-4.55808	-0.46443	-1.57293
6892.921	2.48195	-4.55905	-0.50349	-1.58908
6896.916	2.53357	-4.55604	-0.49510	-1.59698
6900.930	2.61488	-4.52447	-0.50920	-1.65358
6904.922	2.62714	-4.47723	-0.54213	-1.69121
6908.921	2.61729	-4.41543	-0.52766	-1.75291
6912.928	2.57496	-4.39004	-0.53150	-1.82855
6916.923	2.51334	-4.34034	-0.54267	-1.92991
6920.940	2.44356	-4.39391	-0.56300	-2.07442
6924.925	2.35397	-4.38351	-0.53148	-2.21753
6928.976	2.22181	-4.42617	-0.56689	-2.31030
6932.917	2.12555	-4.43904	-0.58689	-2.37806
6936.920	2.02054	-4.47194	-0.58019	-2.50917
6940.934	2.08030	-4.41545	-0.55706	-2.62264
6944.919	2.10748	-4.35708	-0.52843	-2.72512
6948.930	2.01322	-4.41101	-0.43430	-2.83577
6952.922	1.95916	-4.38951	-0.40576	-2.85643
6956.914	1.93313	-4.41587	-0.38310	-2.89530
6960.925	1.92956	-4.44822	-0.37444	-2.91030
6964.925	1.96662	-4.43210	-0.29369	-2.96785
6968.924	1.96454	-4.40650	-0.24885	-2.97083
6972.917	2.00408	-4.37806	-0.22140	-2.99718
6976.918	1.99989	-4.35059	-0.19586	-3.02043
6980.927	2.05982	-4.32129	-0.16144	-3.01645
6984.914	2.07279	-4.43280	-0.16720	-2.98021
6988.923	2.12573	-4.46296	-0.18546	-2.93231
6992.942	2.17539	-4.50630	-0.14320	-2.89060
6996.921	2.19643	-4.55776	-0.17278	-2.86355
7000.925	2.31314	-4.59536	-0.18911	-2.81301
7004.975	2.36802	-4.57473	-0.18415	-2.72138
7008.921	2.39111	-4.57175	-0.20273	-2.63006
7012.923	2.44950	-4.61393	-0.25862	-2.57351
7016.940	2.49736	-4.61736	-0.28920	-2.56614
7020.921	2.50125	-4.60502	-0.29386	-2.47316
7024.924	2.49964	-4.54767	-0.32029	-2.46708
7028.925	2.49089	-4.44669	-0.35228	-2.46600
7032.920	2.52168	-4.39928	-0.34255	-2.45201
7036.917	2.53223	-4.35938	-0.37300	-2.43400
7040.922	2.55307	-4.29047	-0.39703	-2.41703
7044.923	2.52510	-4.23482	-0.39402	-2.41117
7048.923	2.53835	-4.17125	-0.40914	-2.40214
7052.917	2.52096	-4.15829	-0.46058	-2.42881
7056.922	2.53204	-4.13761	-0.43832	-2.44467
7060.919	2.55894	-4.11097	-0.39226	-2.42829
7064.932	2.59678	-4.11868	-0.39596	-2.42831
7068.912	2.63943	-4.15049	-0.36692	-2.42983
7072.924	2.68410	-4.18219	-0.34191	-2.36435
7076.935	2.70302	-4.24990	-0.31714	-2.34017
7080.933	2.68093	-4.36936	-0.31560	-2.28507
7084.919	2.71146	-4.60462	-0.28813	-2.25881
7088.927	2.72303	-4.49368	-0.30463	-2.25052
7092.920	2.69559	-4.74725	-0.27552	-2.24387
7096.914	2.70820	-4.52156	-0.25939	-2.22624
7100.947	2.64250	-4.53439	-0.29535	-2.24072
7104.944	2.55230	-4.54134	-0.31831	-2.30150
