time (ms)	lx (deg)	ly (deg)	rx (deg)	ry (deg)
0.000	1.78830	-1.79523	0.76024	-2.86713
3.998	1.53004	-1.66440	0.76791	-2.79770
7.995	1.56037	-1.70434	0.79421	-2.73980
11.998	1.63512	-1.58470	0.81516	-2.67273
16.000	1.75329	-1.61575	0.81843	-2.66700
19.996	1.90039	-1.36053	0.81434	-2.64583
23.997	1.95093	-1.45195	0.77392	-2.63844
27.996	1.93432	-1.43472	0.75846	-2.59297
31.999	1.99751	-1.49872	0.68293	-2.57134
36.001	1.95681	-1.42187	0.46314	-2.56217
40.007	1.95041	-1.55162	0.63488	-2.59726
44.003	1.70631	-1.43646	0.72575	-2.53127
48.000	1.85078	-1.30981	0.43063	-2.52520
51.996	1.62681	0.03212	-0.10389	-1.45905
55.996	0.20857	2.72606	-1.19609	-0.56411
60.000	-0.26773	2.81113	-1.37208	0.39819
63.996	-0.42162	2.66452	-1.24491	0.70534
67.996	0.85880	1.98106	-0.74635	0.61146
71.995	0.89297	1.66904	-0.38732	0.19643
75.999	0.53476	1.74583	-0.40745	-0.21457
80.001	-0.24614	1.39815	-0.57305	-0.47215
83.996	0.05678	1.33721	-0.74764	-0.25478
87.995	0.21207	1.58007	-0.61270	-0.19843
92.004	-0.00623	1.70028	-0.89882	-0.11305
95.996	0.21487	1.71923	-0.96301	0.15769
99.996	0.05869	1.65007	-0.87582	0.08266
104.011	0.33682	1.51083	-0.83047	-0.06157
107.998	0.19881	1.43962	-0.85366	-0.01424
112.001	0.18976	1.32283	-0.91103	-0.09600
115.996	0.11371	1.24271	-0.99382	-0.01990
120.002	0.06750	1.18658	-1.08140	-0.01461
123.999	0.08354	1.06046	-1.16940	0.06601
127.996	0.05584	1.10456	-1.21244	0.04050
132.000	-0.00521	1.09696	-1.21335	0.05913
135.996	-0.03323	1.02194	-1.25475	0.06012
140.000	-0.11853	1.03686	-1.20070	0.04092
143.997	-0.03477	0.98746	-1.20633	0.01831
147.994	-0.02767	0.99084	-1.18463	0.05086
151.996	-0.02273	0.93770	-1.17637	0.03108
156.000	-0.01678	0.98962	-1.21335	0.03495
160.004	-0.00702	1.05291	-1.18071	0.04626
163.999	-0.02626	1.11449	-1.10544	0.03118
168.039	-0.02581	1.19974	-1.04709	0.00783
172.007	-0.06023	1.24512	-1.02116	0.03776
175.996	-0.03246	1.29258	-1.01293	0.03781
180.001	0.01139	1.29099	-0.99601	0.01486
184.002	0.02090	1.25019	-1.02655	0.00012
187.998	-0.02541	1.25155	-1.07743	-0.00624
192.025	-0.03268	1.23471	-1.08346	0.00201
195.994	-0.06458	1.26524	-1.04565	0.03858
199.994	-0.07408	1.29512	-1.02952	0.10095
204.003	-0.04341	1.18655	-0.97206	0.10736
207.994	0.00998	1.14793	-0.97340	0.12984
212.016	0.17591	1.09064	-1.01191	0.14216
215.995	0.10332	1.13138	-0.96080	0.17004
219.996	0.17891	1.11235	-0.95800	0.21335
223.991	0.20465	1.12440	-0.95790	0.26140
227.999	0.23348	1.18093	-1.00027	0.31121
231.998	0.25123	1.10355	-0.95244	0.33569
235.993	0.25232	1.10139	-0.96408	0.38726
239.997	0.20777	1.09697	-0.99134	0.37633
244.001	0.18348	1.07343	-0.99082	0.35929
248.000	0.26388	1.13132	-0.99747	0.40989
251.996	0.48525	1.09503	-0.94204	0.40247
255.991	0.67387	1.12236	-0.80739	0.41776
259.999	0.78880	1.09569	-0.72945	0.43810
263.993	0.48902	0.98869	-0.62364	0.40412
267.995	0.35462	0.93823	-0.52796	0.37421
271.990	0.42519	0.89271	-0.40442	0.36475
275.998	0.58975	0.83374	-0.26403	0.34194
279.994	0.42648	0.84968	-0.28421	0.30233
283.996	0.64283	0.89268	-0.21584	0.32688
287.995	0.56769	0.87180	-0.12203	0.34778
291.998	0.61302	0.88277	-0.11692	0.31623
295.995	0.62357	0.99455	-0.12523	0.31257
299.994	0.52677	0.97688	-0.16553	0.29940
303.992	0.53503	1.18059	-0.24870	0.31352
307.996	0.53026	1.18841	-0.30257	0.34773
311.992	0.53610	1.29561	-0.44438	0.38067
315.998	0.52071	1.32035	-0.53687	0.43207
319.998	0.54615	1.36954	-0.63191	0.55620
323.995	0.60302	1.38760	-0.63618	0.60432
327.996	0.57190	1.37951	-0.61228	0.58922
331.991	0.62342	1.36068	-0.68099	0.66643
335.994	0.71876	1.27102	-0.63091	0.67334
339.991	0.75903	1.31157	-0.59521	0.64664
343.996	0.81521	1.27266	-0.55255	0.60801
347.994	0.79511	1.28538	-0.37348	0.54347
351.991	0.79866	1.24974	-0.40467	0.48605
355.998	0.92016	1.26279	-0.43936	0.42219
359.993	0.81027	1.28086	-0.44301	0.48416
363.995	0.81935	1.27820	-0.40296	0.36569
368.000	0.55729	1.24938	-0.40529	0.38858
372.001	0.63714	1.27552	-0.38802	0.41027
375.994	0.50359	1.20593	-0.38727	0.50054
379.996	0.54622	1.20478	-0.46688	0.51129
384.015	0.52441	1.14989	-0.57679	0.39893
387.994	0.60282	0.98678	-0.49843	0.31338
391.990	0.53555	1.02343	-0.52282	0.43071
395.997	0.47974	0.97679	-0.59220	0.39465
399.992	0.48140	0.94502	-0.54974	0.36240
403.995	0.46820	0.92100	-0.50096	0.26225
407.989	0.49428	0.89116	-0.47222	0.28150
412.003	0.55277	0.89438	-0.45884	0.25201
416.013	0.58669	0.93412	-0.45244	0.25862
419.992	0.62019	1.02821	-0.45475	0.14889
423.990	0.63970	1.16991	-0.43053	0.13458
427.993	0.67853	1.22998	-0.40661	0.08523
431.990	0.68178	1.30022	-0.43147	0.09969
435.993	0.66342	1.43643	-0.44011	0.07663
439.992	0.68074	1.56117	-0.45172	0.07770
443.991	0.65454	1.68817	-0.50269	0.09258
447.991	0.64945	1.82387	-0.57421	0.12240
451.993	0.64747	1.77176	-0.62424	0.18293
456.017	0.66330	1.87971	-0.64915	0.16355
459.997	0.69826	1.93887	-0.69923	0.17264
463.988	0.73260	1.94066	-0.73305	0.15515
467.991	0.75387	1.94415	-0.73995	0.17942
471.992	0.77407	1.96112	-0.74541	0.16966
475.993	0.86007	1.97756	-0.75888	0.14138
479.990	0.85878	1.95539	-0.74613	0.00400
483.996	0.85610	1.91259	-0.72298	0.01424
487.990	0.88190	1.88393	-0.69749	0.03156
491.993	0.90624	1.79941	-0.67034	-0.04386
495.994	0.91956	1.79438	-0.64724	-0.05653
499.874	0.89882	1.77632	-0.56041	-0.07919
503.865	0.93249	1.71586	-0.50150	-0.08754
507.864	0.94423	1.67366	-0.48512	-0.04903
511.864	0.94366	1.65315	-0.45755	-0.05231
515.863	0.93500	1.59606	-0.44527	0.02351
519.887	0.89016	1.56489	-0.39311	0.04070
523.865	0.91133	1.52526	-0.39879	0.11125
527.866	0.90939	1.51645	-0.38368	0.10628
531.863	0.90912	1.43704	-0.39971	0.14926
535.868	0.94289	1.44155	-0.41246	0.17414
539.876	0.94103	1.35062	-0.39735	0.18780
543.872	0.96120	1.33464	-0.43495	0.19496
547.867	0.94998	1.31878	-0.45492	0.24890
551.866	0.97100	1.22746	-0.46736	0.25979
555.862	0.96502	1.21179	-0.49999	0.24460
559.862	0.96604	1.12208	-0.53488	0.24654
563.867	0.98164	1.15106	-0.59210	0.22651
567.864	0.96209	1.18576	-0.63722	0.23424
571.866	0.96212	1.12670	-0.67484	0.26649
575.868	0.94125	1.12612	-0.75005	0.27185
579.866	0.91435	1.12155	-0.81597	0.29219
583.871	0.89597	1.12722	-0.88855	0.27947
587.873	0.87476	1.12527	-0.89322	0.30126
591.867	0.81091	1.09317	-0.98209	0.28035
595.864	0.77737	1.06735	-1.04645	0.26562
599.870	0.75811	1.04291	-1.10705	0.29530
603.867	0.73836	1.06082	-1.14992	0.28489
607.865	0.71146	1.06128	-1.18177	0.33303
611.862	0.72188	1.03731	-1.23665	0.31899
615.866	0.68508	1.00259	-1.21392	0.27477
619.889	0.65335	0.96844	-1.13387	0.28774
623.867	0.66441	0.94814	-1.08386	0.26087
627.864	0.66059	0.94862	-1.06195	0.27195
631.864	0.70052	0.93010	-1.07480	0.18378
635.861	0.68987	0.92136	-1.02250	0.15198
639.865	0.72340	0.93139	-1.01968	0.13816
643.865	0.70436	0.94043	-0.94559	0.07680
647.861	0.67933	0.93773	-0.90287	0.04929
651.861	0.62935	0.90209	-0.88093	0.01523
655.861	0.62104	0.88575	-0.81042	-0.02142
659.865	0.62732	0.88272	-0.81694	0.01257
663.864	0.65833	0.90681	-0.81761	0.00847
667.866	0.66166	0.88999	-0.80764	-0.02982
671.866	0.62511	0.88284	-0.81076	-0.05123
675.864	0.59327	0.85627	-0.78603	-0.01138
679.860	0.58898	0.84144	-0.76526	0.01826
683.866	0.59280	0.84208	-0.72804	0.02999
687.862	0.56555	0.81461	-0.72762	0.02922
691.865	0.57863	0.81344	-0.71335	0.05422
695.860	0.60416	0.81272	-0.69397	0.10463
699.866	0.57384	0.83950	-0.68558	0.16479
703.861	0.59719	0.82037	-0.65263	0.14523
707.865	0.60282	0.82578	-0.59732	0.18825
711.862	0.64176	0.85462	-0.57086	0.25218
715.902	0.67759	0.85638	-0.51044	0.31480
719.868	0.70600	0.89227	-0.48207	0.37496
723.864	0.71774	0.94550	-0.48624	0.31495
727.867	0.79402	1.00500	-0.48818	0.27258
731.867	0.81731	1.06684	-0.51170	0.31624
735.863	0.88691	1.15998	-0.55205	0.37237
739.859	0.89098	1.25840	-0.65843	0.24733
743.860	0.94929	1.39849	-0.72632	0.23115
747.866	0.91669	1.41859	-0.72630	0.13229
751.864	0.87756	1.50866	-0.80553	0.12155
755.859	0.92182	1.54576	-0.81104	-0.02420
759.863	0.78153	1.58515	-0.86275	-0.11211
763.862	0.76431	1.60435	-0.90138	-0.17094
767.859	0.71491	1.65506	-0.97075	-0.20411
771.864	0.71139	1.74354	-0.99836	-0.22296
775.860	0.74119	1.78362	-1.06086	-0.21963
779.860	0.71811	1.84898	-1.03873	-0.22162
783.858	0.70551	1.89049	-1.03248	-0.09521
787.860	0.69245	1.93137	-1.01841	-0.11098
791.886	0.69608	1.97411	-1.03771	-0.00276
795.869	0.71766	1.95134	-1.06215	0.17953
799.861	0.75161	1.95396	-1.13980	0.21597
803.857	0.77273	1.96196	-1.15493	0.20747
807.859	0.79456	1.98047	-1.12635	0.26124
811.862	0.82054	1.98182	-1.12047	0.21349
815.859	0.77305	1.91719	-1.11241	0.22206
819.860	0.73412	1.85727	-1.11197	0.26790
823.859	0.72444	1.85581	-1.17371	0.22792
827.863	0.66119	1.80601	-1.16300	0.14082
831.864	0.65183	1.76685	-1.16932	0.00174
835.860	0.59501	1.71004	-1.15379	-0.09113
839.862	0.65322	1.56322	-1.17044	-0.05923
843.862	0.65211	1.49933	-1.17676	-0.08146
847.925	0.60933	1.40166	-1.20008	-0.05314
851.868	0.57513	1.39128	-1.26133	-0.06054
855.862	0.63320	1.27139	-1.29231	-0.07694
859.869	0.67546	1.22767	-1.32813	0.03803
863.862	0.79558	1.15720	-1.36211	-0.00527
867.861	0.80379	1.20253	-1.36829	0.09999
871.856	0.86054	1.20373	-1.37739	0.10439
875.865	0.87146	1.17131	-1.36144	0.07781
879.863	0.88287	1.19900	-1.36194	0.03972
883.867	0.91639	1.23470	-1.33423	0.09316
887.858	0.90706	1.25147	-1.29566	0.11398
891.856	0.92311	1.18009	-1.16652	0.05965
895.861	0.94728	1.17263	-1.13089	0.01416
899.859	0.90718	1.20046	-1.11695	0.03737
903.861	0.88490	1.22677	-1.08530	0.00576
907.855	0.81828	1.20925	-1.09614	-0.02812
911.863	0.78826	1.19685	-1.03258	-0.01861
915.865	0.64029	1.18993	-1.00834	-0.02815
919.858	0.60238	1.21053	-1.03436	0.00733
923.862	0.46981	1.20688	-1.04520	0.00609
927.875	0.40852	1.15798	-1.02878	-0.02937
931.862	0.39966	1.08873	-1.05706	-0.05538
935.858	0.40728	1.14283	-1.09259	-0.04827
939.860	0.36591	1.11390	-1.08646	-0.03928
943.859	0.37345	1.12123	-1.08411	-0.01938
947.855	0.39440	1.14316	-1.09906	0.03930
951.863	0.54170	1.09634	-1.10718	0.18616
955.865	0.75575	1.08834	-1.10085	0.20616
959.865	0.88709	1.11491	-1.06788	0.33423
963.854	0.91297	1.09426	-0.99645	0.33397
967.861	0.83173	1.09162	-0.95125	0.26766
971.858	1.05265	1.11234	-1.03464	0.16572
975.860	1.04997	1.15660	-1.06141	0.26512
979.862	1.06714	1.23246	-1.00831	0.25176
983.860	1.07989	1.23020	-1.01896	0.17384
987.856	1.10432	1.25860	-1.03707	0.14865
991.856	1.06607	1.29780	-1.06158	0.13995
995.858	0.99812	1.32176	-1.06609	0.10229
999.864	0.76923	1.37889	-1.12941	0.02974
1003.862	0.82297	1.43688	-1.22062	0.09053
1007.858	0.74838	1.56304	-1.38547	0.09052
1011.856	0.68002	1.57945	-1.36429	0.16942
1015.860	0.93269	1.64988	-1.41492	0.21605
1019.857	0.78578	1.76238	-1.42171	0.21103
1023.859	0.84570	1.77484	-1.31962	0.30049
1027.853	0.75665	1.82176	-1.30890	0.33073
1031.860	0.76235	1.88232	-1.29234	0.34362
1035.856	0.84180	1.91979	-1.13176	0.32869
1039.871	0.89026	1.92671	-1.09636	0.38600
1043.862	0.94180	1.94212	-1.15330	0.40282
1047.858	0.92058	1.95067	-1.17711	0.38532
1051.855	0.96296	1.87825	-1.06327	0.37557
1055.892	0.97363	1.83246	-0.99224	0.24788
1059.856	0.99085	1.74582	-0.94621	0.20682
1063.857	1.00821	1.66675	-0.95311	0.18314
1067.856	1.01650	1.56211	-0.98797	0.19511
1071.854	1.05530	1.32455	-1.04895	0.20487
1075.858	1.06587	1.37614	-1.05935	0.16743
1079.853	1.07450	1.36447	-1.10338	0.18527
1083.859	1.08200	1.35783	-1.12392	0.20228
1087.858	1.15198	1.22945	-1.14444	0.29497
1091.855	1.11432	1.31844	-1.15233	0.58988
1095.857	1.11589	1.63472	-1.45549	0.75436
1099.851	1.09921	3.37010	-1.75441	1.15645
1103.890	1.29695	2.88519	-5.75517	1.06362
1107.865	4.19800	3.55975	-5.07333	1.11394
1111.855	1.55591	2.88875	1.88918	2.37390
1115.856	-2.30140	1.57270	-1.26108	2.00425
1119.857	NaN	NaN	NaN	NaN
1123.854	NaN	NaN	NaN	NaN
1127.856	NaN	NaN	NaN	NaN
1131.853	NaN	NaN	NaN	NaN
1135.859	NaN	NaN	NaN	NaN
1139.857	NaN	NaN	NaN	NaN
1143.853	NaN	NaN	NaN	NaN
1147.968	NaN	NaN	NaN	NaN
1151.865	NaN	NaN	NaN	NaN
1155.856	NaN	NaN	NaN	NaN
1159.853	NaN	NaN	NaN	NaN
1163.855	NaN	NaN	-22.51382	8.70615
1167.855	NaN	NaN	-20.02190	9.19317
1171.855	-2.32865	12.63108	0.05006	-1.57345
1175.850	NaN	NaN	-1.78322	2.91763
1179.858	NaN	NaN	-2.30070	2.91337
1183.853	-9.23744	-6.45106	-2.64921	3.14397
1187.852	2.45171	1.85716	-4.16798	2.89662
1191.852	2.98784	1.82688	1.32044	2.52708
1195.858	3.06642	1.79125	-2.52480	0.27948
1199.881	1.18329	0.92453	0.02124	1.47194
1203.857	1.20943	0.84281	-5.24590	1.04534
1207.854	3.16955	0.45453	-5.62505	0.74362
1211.862	1.84565	0.32401	-6.78659	-0.36205
1215.853	-2.27605	1.79362	2.03563	1.23984
1219.856	0.44847	1.61479	-4.72793	0.92847
1223.850	-0.86739	1.74553	-5.74495	0.72186
1227.859	-0.08386	1.63076	-4.80906	1.07958
1231.857	1.19222	2.31168	-4.78060	0.97407
1235.852	1.56697	1.77881	-1.48565	0.98328
1239.857	0.75975	2.26015	-0.50364	1.09316
1243.852	1.47642	1.83512	0.09093	0.94922
1247.856	1.19415	1.69447	-0.25959	0.95361
1251.857	0.78282	1.98975	-1.64340	0.60200
1255.856	0.71833	1.80490	-1.72027	0.71967
1259.884	0.35556	1.91217	-1.67333	0.77007
1263.856	0.71382	1.87701	-1.47992	0.78460
1267.851	0.43313	1.84443	-1.06649	0.44511
1271.856	0.74221	1.87109	-1.48997	0.56883
1275.853	1.29712	1.85878	-1.74233	0.46202
1279.854	0.86868	1.79960	-1.59817	0.50068
1283.850	0.96390	1.85011	-1.64042	0.52578
1287.855	0.61679	1.79414	-1.45834	0.27072
1291.859	0.94326	1.87156	-1.58455	0.33205
1295.851	1.03617	1.87315	-1.26249	0.34551
1299.850	0.89250	1.90363	-1.60947	0.30145
1303.855	1.01062	1.79771	-1.51142	0.18702
1307.850	0.95524	1.85118	-1.57190	0.15719
1311.851	1.02546	1.80145	-1.53374	0.13612
1315.850	1.09135	1.78918	-1.69510	0.19908
1319.853	1.01072	1.64354	-1.48218	0.11471
1323.849	0.94038	1.73726	-1.35502	0.10078
1327.855	0.93190	1.58648	-1.32265	0.10784
1331.855	0.90939	1.89625	-1.41563	0.18713
1336.466	0.97988	1.76576	-1.42471	0.09999
1339.851	0.92440	1.76134	-1.38215	0.09187
1343.849	0.92904	1.84663	-1.33669	0.09067
1347.851	0.88180	1.56246	-1.24905	0.16662
1351.728	0.82674	1.81156	-1.26170	0.23911
1355.729	0.86277	1.83988	-1.21988	0.31029
1359.730	0.88647	1.73964	-1.27128	0.26890
1363.726	0.90173	1.89707	-1.22873	0.19003
1367.727	0.94713	1.74731	-1.31119	0.25861
1371.723	0.98107	1.77886	-1.34430	0.18681
1375.728	0.95899	1.81102	-1.34596	0.15854
1379.732	0.93071	1.81151	-1.30117	0.13902
1383.727	0.94956	1.54285	-1.36010	0.18900
1387.725	0.85731	1.69224	-1.40482	0.10046
1391.724	0.83724	1.84695	-1.46192	0.04069
1395.725	0.93641	1.72227	-1.50601	0.03411
1399.729	0.88738	1.94101	-1.54901	-0.07117
1404.084	0.77883	1.85370	-1.36618	0.01515
1407.728	0.80714	1.88687	-1.30841	-0.02151
1411.723	0.88240	1.71120	-1.32399	-0.04154
1415.724	1.03769	1.64690	-1.17118	-0.00248
1419.738	0.98544	1.61426	-1.19356	-0.07239
1423.726	1.00159	1.58088	-1.22005	0.06653
1427.722	0.91899	1.59750	-1.27567	0.05823
1431.728	1.00454	1.55394	-1.10083	0.06045
1435.726	0.95088	1.67219	-1.00392	0.12378
1439.724	0.97594	1.58804	-0.99159	0.13248
1443.729	0.98802	1.44168	-1.00687	0.02480
1447.723	1.01052	1.53892	-1.10867	-0.00723
1451.727	0.95023	1.53865	-1.26686	0.09570
1455.722	0.81523	1.71798	-1.32128	0.06780
1459.735	0.92741	1.68799	-1.60900	-0.04831
1463.728	0.79372	1.79228	-1.55626	-0.26278
1467.727	0.73672	1.86020	-1.13705	-0.09478
1471.727	0.77193	2.02629	-1.44416	-0.19319
1475.759	1.04744	1.80280	-1.50175	-0.16581
1479.726	0.83451	2.09308	-1.48597	-0.17341
1483.729	0.80464	1.92204	-1.42094	-0.12821
1487.723	0.84498	1.79598	-1.28363	0.07301
1491.721	0.73268	1.71915	-1.37188	-0.01595
1495.723	0.87714	1.87827	-1.40162	-0.32925
1499.726	0.92736	1.80657	-1.24004	-0.16168
1503.729	0.90991	1.57658	-1.04238	-0.35277
1507.724	1.10971	1.58197	-0.97412	-0.02415
1511.719	1.00536	1.39951	-1.01189	-0.19951
1515.726	1.04176	1.36994	-1.05796	-0.17026
1519.723	0.92860	1.51698	-1.25190	-0.07659
1523.725	0.87004	1.51356	-1.35564	-0.25918
1527.722	1.06250	1.53912	-1.16329	-0.33097
1531.726	1.08522	1.49179	-1.24483	-0.23017
1535.724	1.29953	1.45135	-1.22541	-0.25931
1539.744	1.18669	1.39744	-1.14714	-0.20546
1543.732	1.02074	1.56749	-1.21005	-0.23462
1547.727	1.03865	1.66231	-1.29474	-0.05053
1551.721	0.97410	1.75824	-1.30290	-0.01533
1555.724	1.24952	1.61883	-1.38877	-0.04462
1559.737	1.18770	1.80994	-1.28889	-0.17648
1563.730	1.20073	1.76640	-1.19219	-0.30190
1567.722	1.23779	1.79102	-1.22861	-0.38214
1571.721	0.97405	1.56553	-1.11095	-0.33912
1575.725	0.88800	1.74811	-1.16118	-0.13043
1579.721	0.96001	1.81886	-1.19812	-0.26121
1583.722	0.94609	2.01386	-1.23221	-0.33980
1587.729	1.03206	1.83999	-1.25366	-0.19112
1591.725	1.19132	1.89645	-1.13092	-0.13463
1595.724	1.26113	1.65757	-1.12908	-0.20047
1599.719	1.19800	1.74565	-1.05749	-0.18827
1603.726	1.22908	1.49196	-1.01248	-0.22125
1607.724	1.04756	1.55931	-0.98856	-0.17215
1611.722	1.05808	1.48420	-0.95366	-0.13996
1615.726	0.94696	1.79735	-0.92014	-0.10858
1619.722	0.98065	1.88983	-0.89865	-0.15951
1623.725	1.02776	1.92798	-0.89567	-0.15405
1627.722	1.38240	1.98346	-0.89942	-0.14160
1631.725	1.56880	2.16210	-0.82250	-0.10177
1635.722	1.50313	1.78271	-1.06560	-0.16184
1639.721	1.33691	2.10234	-1.64114	-0.16972
1643.725	1.32421	1.93874	-1.89521	-0.18912
1647.723	1.38118	2.01472	-1.65847	-0.23962
1651.720	1.47945	1.78724	-1.54572	-0.22960
1655.721	1.33274	1.41881	-1.52084	-0.32056
1659.721	1.37781	1.88569	-1.20889	-0.37762
1663.720	1.45904	1.78351	-0.95477	-0.31298
1667.722	1.48845	1.87992	-0.92036	-0.34200
1671.729	1.31960	1.74746	-0.68464	-0.39159
1675.733	1.18279	1.62830	-1.21851	-0.41257
1679.752	1.26058	1.48879	-1.24498	-0.43492
1683.719	1.22563	1.77842	-0.90766	-0.40794
1687.722	1.27083	1.46492	-1.01608	-0.41640
1691.716	1.24260	1.80846	-0.91038	-0.32396
1695.723	1.28881	1.64390	-0.84419	-0.35736
1699.721	1.61756	1.70838	-0.81682	-0.25043
1703.723	1.20737	1.60791	-0.81593	-0.33913
1707.718	1.07108	2.01359	-0.81029	-0.43928
1711.722	0.99315	2.05121	-0.80965	-0.55193
1715.759	1.08331	2.02398	-0.91234	-0.37154
1719.726	1.13528	1.61088	-0.98296	-0.23290
1723.716	1.07845	1.91358	-1.11464	-0.42923
1727.724	1.07830	2.01517	-1.35933	-0.35261
1731.725	1.11105	1.96681	-1.27973	-0.35972
1735.722	1.02878	2.37237	-1.46018	-0.30659
1739.721	1.05371	1.77279	-1.45343	-0.45513
1743.729	0.89455	1.76930	-1.47531	-0.42544
1747.723	0.93919	1.76580	-1.59556	-0.53384
1751.720	0.96556	2.02743	-1.69356	-0.56967
1755.724	1.01466	1.78632	-1.60342	-0.64701
1759.718	1.07944	1.76049	-1.57337	-0.44644
1763.721	1.30037	1.78956	-1.67283	-0.46864
1767.718	1.04052	2.02889	-1.78989	-0.46467
1771.720	0.94192	1.66835	-1.77256	-0.36714
1775.716	0.92264	1.62012	-1.75039	-0.45161
1779.718	0.89972	1.49085	-1.63655	-0.59008
1783.718	1.04836	1.44470	-1.46635	-0.64383
1787.721	1.16937	1.38595	-1.39292	-0.58091
1791.718	0.97566	1.79934	-1.49587	-0.44424
1795.726	1.07428	1.45522	-1.56761	-0.46676
1799.721	1.11420	1.58092	-1.72947	-0.43053
1803.721	1.06245	1.40847	-1.81215	-0.65737
1807.714	1.05036	1.43182	-1.79465	-0.78482
1811.734	1.15240	1.06097	-1.81238	-0.84312
1815.719	1.14523	1.38020	-1.76571	-0.69218
1819.718	1.20509	1.37379	-1.75210	-0.23044
1823.719	1.20303	1.72671	-1.64226	-0.23947
1827.720	1.25381	1.60624	-1.65401	-0.23475
1831.717	1.20636	1.75863	-1.53183	-0.30240
1835.726	1.25798	1.49132	-1.37521	-0.21975
1839.724	1.31783	1.38396	-1.09596	-0.25617
1843.717	1.37270	1.25728	-1.11901	-0.33316
1847.722	1.31493	1.23526	-1.10641	-0.20904
1851.720	1.33641	0.65616	-1.31689	-0.11939
1855.724	1.31005	1.43002	-1.47972	-0.00442
1859.723	1.30833	1.56011	-1.58934	-0.03137
1863.718	1.27224	1.52905	-1.77216	-0.13271
1867.717	1.29685	1.93690	-1.54242	-0.12733
1871.716	1.17897	1.69808	-1.48332	-0.13650
1875.720	1.24560	1.57236	-1.40485	-0.06869
1879.725	1.18904	1.60057	-1.64563	-0.07243
1883.720	1.03545	1.90782	-1.58919	0.00981
1887.715	0.90604	1.93415	-1.64340	-0.03112
1891.716	1.02181	1.98349	-1.75285	0.00325
1895.719	0.92530	1.93024	-1.79482	-0.04351
1899.716	0.92411	2.13050	-1.78037	-0.13370
1903.752	1.01310	1.90987	-1.75912	-0.21199
1907.714	0.93336	2.11129	-1.59018	-0.17773
1911.717	0.95122	2.10855	-1.77809	-0.28913
1915.714	1.00769	2.18233	-1.62924	-0.26399
1919.724	0.97402	1.85402	-1.71062	-0.32711
1923.717	0.92497	2.21619	-1.68158	-0.49330
1927.713	0.94204	2.32154	-1.78042	-0.43052
1931.714	0.94748	2.45867	-1.70829	-0.42194
1935.714	1.00501	2.19749	-1.61624	-0.35497
1939.718	1.01861	2.56408	-1.44842	-0.25745
1943.718	1.10641	2.28171	-1.40145	-0.38328
1947.716	1.09487	2.23553	-1.35263	-0.26367
1951.717	1.07354	2.20054	-1.37144	-0.22261
1955.716	1.25200	1.95421	-1.31476	-0.59638
1959.722	1.29013	2.10744	-1.38089	-0.07641
1963.723	0.91557	2.12497	-2.05888	1.29252
1967.716	-0.55716	2.71375	-2.72281	0.00506
1971.718	-1.60786	4.62377	-3.74975	2.05951
1975.714	-1.91362	5.36501	-4.40668	4.22954
1979.718	-1.97371	5.51859	-4.37974	4.12618
1983.718	-1.61064	5.47247	-4.12382	3.91523
1987.715	-1.27869	4.84154	-3.39960	3.36854
1991.713	-1.47890	4.53097	-3.75660	3.12644
1995.718	-1.42109	4.21341	-3.52141	2.83266
1999.714	-1.47811	4.05048	-3.46127	3.06911
2003.719	-1.53986	4.45950	-3.41298	3.22735
2007.723	-1.64022	4.85293	-3.34957	3.59503
2011.715	-1.55405	5.01564	-3.72704	3.27130
2015.722	-1.51864	5.28942	-3.90133	3.19764
2019.717	-1.46571	5.22016	-3.70074	3.17445
2023.717	-1.39262	4.96990	-3.55530	3.20555
2027.711	-1.57476	5.08817	-3.41793	3.29100
2031.719	-1.54748	5.00303	-3.51503	3.33093
2035.715	-1.44059	5.15690	-3.77945	3.25388
2039.713	-1.40584	5.05736	-3.73206	3.43107
2043.723	-1.37340	5.10938	-3.56101	3.52898
2047.714	-1.46655	5.19128	-3.54049	3.38899
2051.714	-1.35623	5.08362	-3.62464	3.26362
2055.713	-1.37590	5.22911	-3.48924	3.53103
2059.715	-1.39301	5.08226	-3.47663	3.55850
2063.717	-1.36573	4.96892	-3.40111	3.33016
2067.710	-1.31654	5.12244	-3.36626	3.56652
2071.717	-1.32079	5.00473	-3.57666	3.44921
2075.714	-1.29916	5.01540	-3.41743	3.44955
2079.716	-1.47843	5.15321	-3.34522	3.54990
2083.715	-1.45589	5.02868	-3.36547	3.31993
2087.721	-1.39237	4.99083	-3.68248	3.50279
2091.715	-1.30908	5.17157	-3.53300	3.55738
2095.716	-1.57004	5.22740	-3.45309	3.50767
2099.711	-1.45033	5.04610	-3.63601	3.34996
2103.750	-1.31689	5.03886	-3.77266	3.40297
2107.713	-1.30355	5.01347	-3.88784	3.49354
2111.712	-1.36437	5.02193	-4.03317	3.54111
2115.716	-1.34653	4.93010	-3.86566	3.65230
2119.711	-1.40380	4.90530	-3.86437	3.61211
2123.712	-1.40512	5.19610	-3.73208	3.63239
2127.717	-1.43721	5.16282	-3.66731	3.50124
2131.714	-1.42900	5.02339	-3.75079	3.46262
2135.710	-1.48726	5.09523	-3.80379	3.36863
2139.712	-1.36843	5.09559	-3.87336	3.55011
2143.710	-1.37806	5.11248	-3.91474	3.54680
2147.716	-1.41685	5.20088	-3.78224	3.82452
2151.719	-1.47992	5.18386	-3.63816	3.50190
2155.710	-1.43213	5.15250	-3.61142	3.45306
2159.716	-1.42365	5.06260	-3.57204	3.40208
2163.714	-1.39619	5.06157	-3.59498	3.46777
2167.718	-1.33515	4.93993	-3.78504	3.55885
2171.718	-1.29779	4.92607	-4.00808	3.65768
2175.711	-1.34490	4.83752	-3.79588	3.61519
2179.714	-1.28685	4.98540	-3.70233	3.42750
2183.708	-1.23583	5.14022	-3.80426	3.45248
2187.717	-1.22968	5.02323	-3.82679	3.22548
2191.713	-1.24568	4.79755	-3.68112	3.17447
2195.714	-1.15950	4.57648	-3.73305	3.25403
2199.709	-1.19844	4.65034	-3.92114	3.40302
2203.715	-1.28078	4.79363	-3.73463	3.19739
2207.587	-1.21601	4.73942	-3.86756	3.30124
2211.589	-1.21650	4.68444	-3.81172	3.42621
2215.588	-1.37270	4.82404	-3.70055	3.27719
2219.603	-1.34331	4.83592	-3.61891	3.18950
2223.588	-1.26706	4.87982	-3.72145	3.48132
2227.586	-1.42608	4.83733	-3.82534	3.31962
2231.594	-2.97945	4.73645	-4.62890	3.54274
2235.586	-4.60609	4.75176	-6.88012	3.64852
2239.588	-6.61070	4.89294	-8.40594	3.35108
2243.587	-7.29755	4.81672	-8.93040	3.59185
2247.585	-8.09842	4.73765	-11.19471	3.64686
2251.591	-9.38412	4.66347	-10.97954	3.73012
2255.593	-9.74205	4.42605	-11.42065	3.88914
2259.592	-8.92733	4.49109	-11.27023	3.49944
2263.610	-9.07825	4.58279	-10.92799	3.82612
2267.594	-8.68887	4.59132	-10.70486	4.03810
2271.584	-9.05945	4.44099	-10.78508	4.09403
2275.584	-9.22006	4.40682	-10.90813	4.11221
2279.588	-9.55109	4.49039	-10.58920	3.57617
2283.587	-9.17744	4.35820	-10.86002	3.64148
2287.606	-9.28504	4.37034	-11.08196	4.07668
2291.596	-9.27919	4.38974	-11.14818	4.04553
2295.587	-9.29759	4.42584	-11.44726	3.91263
2299.589	-9.16310	4.48594	-11.07396	3.11095
2303.593	-9.19800	4.51105	-10.99951	2.77255
2307.587	-9.19292	4.49829	-11.26104	3.09816
2311.584	-9.34097	4.52399	-11.12285	4.05362
2315.584	-9.31235	4.65690	-11.31247	4.08925
2319.583	-9.41417	4.63589	-11.21907	3.28014
2323.583	-9.28410	4.64134	-11.22759	3.12481
2327.583	-9.21781	4.70230	-11.20273	2.99198
2331.585	-9.21437	4.70295	-11.22819	2.96957
2335.582	-9.17326	4.74548	-11.28696	3.50256
2339.592	-9.29911	4.77178	-11.22363	4.10191
2343.585	-9.23331	4.75118	-11.17209	3.21224
2347.581	-9.34493	4.81106	-11.17902	3.21348
2351.582	-9.27141	4.76896	-11.16359	3.22097
2355.624	-9.22221	4.74115	-11.21200	3.26057
2359.596	-9.37112	4.69416	-11.19903	3.23583
2363.586	-9.43564	4.71971	-11.21489	3.32829
2367.585	-9.32441	4.69023	-11.25622	3.09374
2371.582	-9.25777	4.62342	-11.30670	3.34056
2375.588	-9.20966	4.58644	-11.31168	3.45953
2379.582	-9.23391	4.56217	-11.25390	3.63391
2383.587	-9.29701	4.54549	-11.27581	3.54397
2387.585	-9.43409	4.60245	-11.23879	3.22088
2391.582	-9.34275	4.55304	-11.15914	3.31253
2395.584	-9.26159	4.55016	-11.12376	3.44883
2399.584	-9.12682	4.60757	-11.20089	3.50916
2403.598	-9.19111	4.72327	-11.30154	3.63972
2407.594	-9.23715	4.86294	-11.37419	3.41006
2411.583	-9.15047	4.64975	-11.06036	3.31438
2415.586	-9.15933	4.73938	-11.04977	3.44430
2419.587	-9.11670	4.73327	-11.14956	3.45882
2423.584	-9.17749	4.75502	-11.21276	3.49260
2427.584	-9.16230	4.64757	-11.14600	3.29530
2431.581	-9.22762	4.70412	-11.02796	3.34654
2435.584	-9.35297	4.79980	-11.34542	3.43555
2439.580	-10.26903	4.76487	-11.69500	3.17050
2443.586	-13.14557	4.67429	-14.25923	3.33311
2447.582	-13.39236	4.58762	-14.54342	3.16793
2451.585	-14.53953	4.48901	-15.26055	2.72444
2455.579	-14.66443	4.46776	-16.02185	2.94116
2459.587	-14.51698	4.27741	-16.28802	2.71252
2463.586	-14.21372	4.25444	-15.96218	2.74065
2467.593	-14.14663	4.10796	-15.85575	2.55848
2471.581	-13.78382	4.41346	-15.87965	2.80143
2475.580	-14.04309	4.54647	-15.77458	2.67038
2479.586	-14.41918	4.40259	-15.71264	2.51440
2483.581	-14.39646	4.26234	-15.95828	2.64497
2487.580	-14.56218	4.23284	-16.11691	2.56270
2491.583	-14.47252	4.05279	-15.99906	2.53151
2495.587	-14.37019	4.33240	-16.01695	2.61380
2499.582	-14.23293	4.59759	-15.76338	2.36656
2503.584	-14.31722	4.45112	-15.84121	2.56675
2507.585	-14.38065	4.15683	-15.90947	2.72146
2511.590	-14.42577	4.35219	-15.86078	2.49229
2515.582	-14.27429	4.39042	-15.88640	2.65314
2519.585	-14.33930	4.52538	-15.96679	2.87338
2523.578	-14.36248	4.29076	-15.80539	2.50304
2527.586	-14.30382	4.28249	-15.82552	2.65310
2531.582	-14.28520	4.27777	-15.87490	2.80007
2535.585	-14.34909	4.26988	-15.61971	2.69335
2539.586	-14.33558	4.34073	-15.67487	2.83555
2543.615	-14.36404	4.21510	-15.72685	2.64718
2547.587	-14.40975	4.26001	-15.67023	2.70617
2551.583	-14.44888	4.24601	-15.70015	2.76286
2555.578	-14.46347	4.40808	-15.70547	2.81422
2559.590	-14.47201	4.36849	-15.62514	2.70581
2563.583	-14.50918	4.43358	-15.62526	2.78520
2567.579	-14.36337	4.39833	-15.69539	2.87679
2571.583	-14.44243	4.40142	-15.63594	2.67121
2575.580	-14.45619	4.47637	-15.58946	2.64564
2579.579	-14.55032	4.61879	-15.66843	2.65599
2583.579	-14.30536	4.44929	-15.79685	2.69523
2587.579	-14.26933	4.52415	-15.77506	2.66591
2591.587	-14.42877	4.65966	-15.80661	2.59237
2595.585	-14.28839	4.47493	-15.76541	2.60595
2599.578	-14.41992	4.64067	-15.79788	2.76590
2603.588	-14.52667	4.66079	-15.82152	3.11197
2607.584	-14.38218	4.68702	-15.81438	2.58632
2611.579	-14.36083	4.62950	-15.70096	2.72390
2615.582	-14.53437	4.65905	-15.79409	2.90075
2619.579	-14.34913	4.70132	-15.78467	2.90906
2623.579	-14.32230	4.71711	-15.73398	2.65237
2627.611	-14.35603	4.62613	-15.71924	2.62458
2631.585	-14.33870	4.64823	-15.70678	2.70113
2635.578	-14.36271	4.61430	-15.79910	2.76589
2639.582	-14.32675	4.71625	-15.75444	2.81672
2643.582	-14.41022	4.66930	-15.70363	2.65816
2647.579	-14.36057	4.63386	-15.74732	2.61372
2651.581	-14.38523	4.66114	-15.82099	2.68778
2655.579	-14.35030	4.61307	-15.74978	2.43820
2659.581	-14.36362	4.66830	-15.69594	2.49505
2663.577	-14.44166	4.66857	-15.76617	2.53150
2667.581	-14.48564	4.69191	-15.91867	2.72372
2671.585	-14.42705	4.69362	-15.88952	2.83968
2675.583	-14.36670	4.69194	-15.63136	2.98452
2679.583	-13.09885	4.69058	-14.93242	2.84585
2683.580	-10.05216	4.65744	-12.00374	3.02360
2687.581	-8.75638	4.63854	-9.52215	2.13502
2691.577	-6.20886	4.42939	-7.06139	2.24209
2695.612	-5.15487	4.24977	-5.45577	-0.36140
2699.579	-2.92260	2.72469	-4.75928	-0.40629
2703.578	-2.39805	2.58796	-2.95681	-0.73278
2707.584	-0.65627	2.03895	-2.96287	-0.71903
2711.580	0.98179	1.86278	-0.88334	-0.37473
2715.585	1.80551	1.93969	-0.72173	-0.60516
2719.577	2.48901	2.36633	-0.52572	0.08853
2723.578	2.69856	2.43091	-0.51917	-0.17036
2727.579	2.49389	2.07266	-0.43961	-0.02174
2731.576	1.62185	2.03787	-0.55419	-0.61727
2735.582	1.57803	2.20205	-0.41571	-0.36164
2739.581	1.94555	1.40217	-0.15863	-0.03360
2743.575	2.34329	1.79034	0.06023	-0.18527
2747.581	2.43516	2.39394	0.07669	-0.34836
2751.577	2.57201	1.77131	-0.32965	-0.09644
2755.585	2.68202	2.22687	-0.14796	-0.09602
2759.606	2.66783	1.55929	-0.23530	-0.08961
2763.595	2.67687	2.10114	0.00655	-0.21857
2767.579	2.32741	1.46087	-0.19303	-0.03814
2771.580	2.57850	1.99217	-0.00747	-0.12536
2775.576	2.57603	1.61857	-0.01797	-0.05487
2779.577	2.50533	1.97973	0.03576	-0.15329
2783.579	2.84160	1.70196	0.10577	-0.03124
2787.577	2.53407	1.71362	0.02628	-0.23082
2791.580	2.80407	1.75949	0.11203	0.13028
2795.581	2.57479	1.65831	0.18385	-0.23912
2799.583	2.72038	1.83381	0.17886	0.20292
2803.584	2.67328	1.58915	0.26510	-0.10655
2807.580	2.63475	1.80254	0.30972	0.08374
2811.575	2.63918	1.79938	0.36112	-0.10578
2815.578	2.72746	1.79107	0.16112	-0.06535
2819.574	2.77998	1.66120	0.23716	-0.03389
2823.576	2.49924	1.75109	-0.14404	0.08101
2827.578	2.71560	1.74506	0.20586	-0.05246
2831.579	2.71077	1.77029	0.21673	0.00380
2835.575	2.54900	1.90910	0.09413	-0.15352
2839.581	2.47405	2.03691	0.09071	-0.06091
2843.573	2.49052	2.22121	0.16965	-0.07962
2847.577	2.46612	1.58172	0.16027	-0.00152
2851.573	2.53811	1.61118	0.10758	-0.02381
2855.586	2.49216	1.56283	0.20904	-0.01501
2859.570	2.30747	1.31568	0.20336	0.02035
2863.577	2.34463	1.65502	0.25882	-0.00494
2867.576	2.45834	1.82399	0.12689	-0.04277
2871.577	2.46258	1.90573	0.14017	-0.08374
2875.575	2.30343	2.00961	0.22773	-0.13299
2879.574	2.28819	1.59564	0.22202	0.10852
2883.581	2.38982	1.29071	0.26877	0.01106
2887.574	2.39051	2.06999	0.22222	-0.08864
2891.574	2.61154	2.09840	0.03869	-0.05653
2895.574	2.90262	1.76829	0.21073	-0.03735
2899.575	2.56597	1.33113	0.13238	-0.12815
2903.575	2.73137	1.81899	0.16164	-0.05136
2907.572	2.38955	2.13498	0.21787	-0.12154
2911.577	2.44031	1.84019	0.35459	-0.23822
2915.574	2.64252	1.42113	0.33092	0.10742
2919.575	2.45646	1.85435	0.25857	0.04853
2923.583	2.52428	2.04955	0.31198	-0.05288
2927.572	2.74078	1.76700	0.12449	-0.02559
2931.573	2.61127	1.77765	0.15903	-0.17459
2935.572	2.62932	1.56619	0.34442	-0.30074
2939.578	2.58977	1.34518	0.45949	-0.09982
2943.572	2.57548	1.76510	0.32243	0.27169
2947.578	2.48520	1.99087	0.42026	0.29023
2951.574	2.56998	1.83113	0.35568	0.08824
2955.578	2.68373	1.74556	0.41686	0.08913
2959.571	2.66870	1.79237	0.33441	0.01116
2963.585	2.70750	1.56056	0.42614	-0.14464
2967.620	2.57974	1.38335	0.05495	-0.04935
2971.587	2.61394	1.00695	0.23455	-0.09010
2975.574	2.65716	1.46324	0.26609	0.05646
2979.627	2.68695	1.63710	0.30999	0.04910
2983.581	2.75591	1.72008	0.31853	0.00768
2987.571	2.63809	1.63444	0.32841	0.01973
2991.577	2.27724	1.69901	0.34397	-0.06095
2995.573	2.33152	1.62452	0.38578	0.02303
2999.575	2.38680	1.56926	0.40775	-0.06635
3003.570	2.35662	1.48059	0.53458	-0.10163
3007.580	2.45802	1.46319	0.40400	0.14531
3011.575	2.57342	1.29108	0.51421	0.27855
3015.573	2.49741	1.35547	0.49302	0.30829
3019.572	2.41016	1.25804	0.57441	0.39237
3023.572	2.33269	1.17353	0.61975	0.28734
3027.575	2.31671	1.42771	0.61273	0.30326
3031.569	2.35023	1.37098	0.58987	0.28786
3035.574	2.44635	1.38634	0.56518	0.22452
3039.574	2.47350	1.26992	0.22773	0.33469
3043.574	2.44556	1.32180	0.05939	0.31424
3047.580	2.37808	1.42742	0.14161	0.28025
3051.573	2.24158	1.50518	0.05939	0.17278
3055.571	2.23737	1.53503	0.12265	0.05360
3059.450	2.25102	1.56311	0.10299	-0.07487
3063.447	2.25295	1.56484	0.17655	-0.04428
3067.449	2.34907	1.50435	0.11932	-0.14738
3071.443	2.37652	1.42246	0.16861	-0.24986
3075.452	2.45319	1.20691	0.21815	-0.12005
3079.446	2.43186	1.17025	0.16533	0.07268
3083.448	2.46087	1.16191	0.29662	0.15466
3087.443	2.43615	0.97284	0.39844	0.24160
3091.451	2.33165	0.86283	0.45095	0.18256
3095.451	2.36943	1.00128	0.52498	0.19995
3099.449	2.41752	1.05324	0.45830	0.21536
3103.446	2.41294	1.27124	0.50706	0.12837
3107.461	2.44388	1.24193	0.56136	0.19217
3111.451	2.61895	1.34966	0.59483	0.22308
3115.453	2.65240	1.41075	0.59982	0.25123
3119.448	2.67118	1.42318	0.61201	0.20517
3123.445	2.79161	1.51729	0.70069	0.11738
3127.445	2.72810	1.46695	0.47483	-0.07027
3131.453	2.92428	1.57125	0.38246	-0.06560
3135.449	2.85774	1.54000	0.16074	-0.05054
3139.453	2.87472	1.60912	0.28083	-0.18634
3143.445	3.03554	1.65160	0.49043	-0.05362
3147.447	2.90718	2.05505	0.56863	0.58018
3151.443	2.69651	2.79005	0.07425	2.50094
3155.452	2.34929	3.87415	-0.57528	3.54621
3159.446	1.67767	4.85232	-1.11584	4.18297
3163.448	0.92100	4.67549	-1.33979	4.22786
3167.444	1.29772	4.51512	-1.39071	4.14126
3171.442	1.44510	4.27174	-0.81250	3.83647
3175.447	1.56776	4.19660	-0.49994	3.50800
3179.448	1.50008	4.33408	-0.57399	3.19045
3183.444	1.11368	4.45940	-0.31220	3.18155
3187.445	0.99876	4.72610	-0.92641	3.30546
3191.443	1.09378	4.73770	-1.55271	3.36743
3195.444	1.11775	4.73776	-1.83717	3.33224
3199.443	1.19135	4.73774	-2.03367	3.22361
3203.446	1.32778	4.65735	-1.70343	3.11576
3207.443	1.49388	4.55777	-1.44686	3.02806
3211.443	0.78995	4.61367	-1.23642	2.99301
3215.447	0.75384	4.62277	-1.05178	2.89813
3219.450	0.74384	4.69293	-0.84818	2.82191
3223.448	0.75327	4.76599	-1.01389	2.86438
3227.446	1.00261	4.74569	-0.74729	2.85331
3231.445	0.82173	4.67961	-0.84096	2.83805
3235.442	0.72330	4.64610	-0.93160	2.82351
3239.467	0.71407	4.58992	-1.12350	2.76988
3243.446	0.69598	4.59913	-1.18602	2.80533
3247.446	0.83719	4.56271	-1.04907	2.79022
3251.443	0.80640	4.58938	-0.84074	2.81926
3255.440	0.99102	4.61216	-0.83635	2.83511
3259.452	1.25304	4.62485	-0.77109	3.01661
3263.448	1.29065	4.57322	-0.79895	3.23389
3267.446	1.36598	4.55603	-0.90934	3.06689
3271.441	1.17552	4.52995	-0.95787	3.07589
3275.447	1.02302	4.60249	-1.12286	3.06642
3279.443	1.11135	4.59806	-1.19988	3.12066
3283.446	1.11092	4.55975	-1.37543	3.16054
3287.443	1.17054	4.47645	-1.25190	3.15773
3291.448	0.99219	4.24362	-1.18155	3.10802
3295.443	1.00953	3.87103	-1.08805	3.07218
3299.441	0.89989	4.05693	-1.29700	3.15470
3303.450	0.99159	4.55081	-1.45708	3.36104
3307.472	0.97780	4.64686	-1.39750	3.30008
3311.448	0.96244	4.57529	-1.36367	3.22614
3315.442	1.00362	4.62044	-1.28832	3.26774
3319.445	1.11264	4.52469	-1.21851	3.21931
3323.442	0.98214	4.61353	-1.09589	3.18909
3327.444	0.96822	4.47689	-0.91366	3.12600
3331.441	1.00467	4.37963	-0.92458	3.04709
3335.442	1.03769	4.18816	-1.08150	3.24148
3339.442	0.99479	4.05010	-1.07681	3.33683
3343.449	1.08105	4.08981	-1.01821	3.28325
3347.441	1.00908	4.64948	-1.07083	3.15934
3351.441	1.01149	4.73985	-1.03384	3.06022
3355.448	1.06709	4.74159	-1.03349	3.00695
3359.443	1.26924	4.78408	-1.08822	3.03633
3363.448	1.25823	4.53576	-1.22161	3.17116
3367.441	1.59517	4.37451	-1.30265	3.11811
3371.446	1.55110	4.38120	-1.35643	3.12485
3375.467	1.10212	4.55458	-1.38101	3.13584
3379.448	1.15079	4.42919	-1.31439	3.02302
3383.466	1.18882	4.27838	-1.32843	2.80407
3387.447	1.30677	4.19750	-1.25456	2.79394
3391.438	1.32056	3.94252	-1.23419	2.60621
3395.445	1.37513	4.43933	-1.21206	2.60289
3399.441	1.42687	4.44237	-1.15116	2.35516
3403.442	1.46608	4.33017	-1.10291	2.33300
3407.438	1.37273	4.20576	-1.14662	2.82215
3411.446	1.33478	4.36178	-0.88426	2.72990
3415.442	4.09787	4.28634	1.57870	2.43771
3419.441	5.51784	4.26156	3.63891	2.52922
3423.445	6.06195	3.92514	4.58880	0.99764
3427.444	8.83430	3.45950	5.04137	0.93011
3431.442	8.89611	2.44272	7.04934	0.00111
3435.437	10.15230	1.36904	7.70494	-0.66336
3439.445	9.91649	0.88104	7.47768	-1.11135
3443.441	10.41316	1.13767	7.67843	-0.99485
3447.442	10.67399	1.71542	7.65690	-1.06135
3451.441	10.81513	1.98034	7.60722	-1.20489
3455.437	10.92256	1.92129	7.74337	-1.17012
3459.445	10.76276	1.74841	7.88144	-1.05333
3463.440	11.00238	1.74939	8.14210	-1.16341
3467.447	10.94638	1.77680	8.59126	-1.17887
3471.443	11.02878	1.85323	8.34895	-1.19696
3475.444	11.06499	1.80861	8.08411	-1.20631
3479.439	11.13348	1.87195	7.91665	-1.22952
3483.440	11.19170	1.88909	8.02959	-1.15601
3487.438	11.21045	1.93423	8.08319	-1.18487
3491.443	11.08588	1.85652	8.12016	-1.19047
3495.439	11.17894	1.80206	8.23265	-1.16481
3499.439	11.14763	1.78703	8.35546	-1.17674
3503.439	11.08610	1.85530	8.65096	-1.19248
3507.442	11.06430	1.90667	8.07854	-1.14507
3511.455	11.08875	2.11499	8.00391	-1.10674
3515.449	11.13203	2.04480	7.89415	-1.07709
3519.438	11.00242	1.96319	7.88368	-1.08160
3523.442	10.91109	1.94503	8.03329	-1.01007
3527.459	10.91909	1.86038	8.15149	-0.99838
3531.450	10.91626	1.86015	8.34480	-0.89363
3535.439	11.07785	1.92539	8.19034	-0.89956
3539.440	10.93291	1.71816	8.36453	-0.83256
3543.441	10.92890	1.40214	8.16882	-0.88764
3547.440	10.94507	1.41611	8.09912	-0.79885
3551.443	10.97298	1.34796	8.17157	-0.72060
3555.438	10.98980	1.48864	7.97636	-0.78079
3559.441	11.03026	1.54099	8.02277	-0.84333
3563.439	11.29147	1.67586	8.03628	-0.86766
3567.438	11.28770	1.62499	8.07141	-0.83182
3571.437	11.20627	1.62511	8.12943	-0.79429
3575.441	11.28553	1.72936	8.08898	-0.78559
3579.440	11.21216	1.63241	8.17858	-0.68306
3583.443	11.17424	1.58751	8.11600	-0.75865
3587.440	11.35809	1.73026	8.12410	-0.77256
3591.437	11.37796	1.70295	8.12152	-0.72416
3595.454	11.26285	1.77089	8.12220	-0.72681
3599.464	11.39680	1.80459	8.17768	-0.79823
3603.440	11.45608	1.85380	8.20992	-0.85263
3607.442	11.25643	1.84122	8.24572	-0.83795
3611.437	11.15769	1.87772	8.28711	-0.82751
3615.439	11.20734	1.90218	8.29613	-0.84399
3619.434	11.20846	1.88450	8.30860	-0.92692
3623.441	11.20194	1.96759	8.27273	-0.86486
3627.436	11.30841	2.14510	8.26565	-0.88420
3631.439	11.34757	2.18164	8.25802	-0.88134
3635.441	11.31147	2.23150	8.27214	-0.93869
3639.440	11.37693	2.19958	8.28935	-0.95261
3643.435	11.40660	2.19189	8.19445	-0.92793
3647.441	11.42754	2.19657	8.17595	-0.89239
3651.434	11.36775	2.07342	8.14302	-0.78639
3655.441	11.25665	2.05991	8.13444	-0.75399
3659.437	11.30173	1.92283	8.11807	-0.76231
3663.439	11.19655	1.74268	8.12880	-0.72980
3667.433	11.21933	1.51056	8.16323	-0.76026
3671.440	11.23776	1.40412	8.25263	-0.71694
3675.438	11.20801	1.38025	8.29234	-0.76075
3679.442	11.07276	1.34560	8.33890	-0.75358
3683.435	11.11033	1.29905	8.37023	-0.74782
3687.438	11.08956	1.23882	8.36049	-0.71010
3691.435	11.06485	1.21006	8.42984	-0.70860
3695.435	11.09494	1.14910	8.46971	-0.75989
3699.434	11.13444	1.11660	8.48692	-0.80875
3703.439	11.13387	1.06932	8.49384	-0.84016
3707.435	11.21634	1.18058	8.50018	-0.83076
3711.435	11.30932	1.26165	8.47121	-0.87489
3715.460	11.33707	1.33171	8.40939	-0.94480
3719.445	11.44389	1.45829	8.36042	-0.97930
3723.437	11.43309	1.48466	8.31632	-1.05681
3727.435	11.48663	1.52222	8.28483	-0.99075
3731.441	11.48914	1.56226	8.21040	-1.08788
3735.435	11.48968	1.50366	8.17255	-1.13167
3739.438	11.47500	1.54832	8.11744	-1.12699
3743.437	11.36646	1.64674	8.11695	-1.00769
3747.432	11.46308	1.71359	8.19445	-0.90971
3751.441	11.44943	1.73601	8.24434	-0.93843
3755.435	11.38304	1.70606	8.27642	-0.82918
3759.442	11.30345	1.70040	8.31117	-0.86323
3763.433	11.24297	1.67319	8.33243	-0.80123
3767.440	11.26402	1.68284	8.24874	-0.77436
3771.435	11.13014	1.66992	7.92804	-0.75986
3775.438	8.08562	1.57237	6.84182	-0.72463
3779.432	6.78529	1.19871	3.65448	-0.82670
3783.698	5.44557	-0.19866	3.61293	-1.12604
3787.439	4.17601	-0.77596	0.99122	-1.26378
3791.436	1.72614	-0.77738	1.15439	-1.68067
3795.439	1.46836	-0.85308	-0.71332	-2.06992
3799.438	1.44317	-1.08325	-0.66302	-1.65617
3803.442	1.51273	-1.01480	-0.70265	-1.68436
3807.442	1.59717	-0.75307	-0.62072	-1.62028
3811.472	1.75515	-0.78564	-0.56771	-1.71802
3815.437	1.74241	-0.81529	-0.50815	-1.72814
3819.432	1.67767	-0.83501	-0.56826	-1.81575
3823.436	1.72644	-0.86077	-0.71831	-1.90443
3827.434	1.70732	-0.88598	-0.71826	-1.93144
3831.435	1.64553	-0.90528	-0.76692	-1.93499
3835.432	1.70117	-1.02742	-0.95122	-1.93820
3839.433	1.73162	-1.10671	-1.05223	-1.87746
3843.441	1.74918	-1.20457	-1.16786	-1.88664
3847.431	1.74263	-1.19824	-1.14446	-1.91058
3851.441	1.75305	-1.31608	-1.22201	-1.95150
3855.476	1.73328	-1.26305	-1.21988	-1.98376
3859.436	1.72842	-1.36610	-1.26259	-2.01779
3863.433	1.76554	-1.44289	-1.26540	-2.03791
3867.438	1.78860	-1.44030	-1.28214	-2.02165
3871.434	1.81885	-1.48870	-1.30290	-1.98178
3875.432	1.88779	-1.52713	-1.28886	-1.99916
3879.433	1.91578	-1.47372	-1.24979	-1.96679
3883.443	1.95259	-1.40474	-1.25609	-2.00668
3887.438	1.99243	-1.25090	-1.22950	-2.13180
3891.434	2.07147	-1.04403	-1.24074	-2.20490
3895.430	2.01860	-0.92292	-1.16074	-2.47700
3899.433	2.03149	-0.54940	-1.08681	-2.52725
3903.432	2.01238	-0.62633	-1.02474	-2.50476
3907.435	1.88720	-0.54031	-0.98219	-2.52059
3911.429	1.74216	-0.51579	-0.89443	-2.59797
3915.312	1.64258	-0.57222	-0.86290	-2.51849
3919.454	1.54356	-0.52158	-0.82193	-2.50877
3923.313	1.39820	-0.49533	-0.76975	-2.52247
3927.307	1.29886	-0.50390	-0.71600	-2.45554
3931.314	1.28990	-0.64529	-0.68191	-2.35398
3935.307	1.21638	-0.61302	-0.65367	-2.26797
3939.308	1.35072	-0.79652	-0.68677	-2.36745
3943.309	1.35415	-0.84440	-0.80491	-2.36761
3947.305	1.34395	-0.90240	-0.92274	-2.25976
3951.310	1.36648	-1.00342	-1.05111	-2.29740
3955.312	1.46514	-1.00919	-1.09758	-2.32175
3959.310	1.73490	-1.05802	-1.19537	-2.28327
3963.304	1.81305	-1.07235	-1.24183	-2.21966
3967.310	1.97649	-1.02545	-1.23374	-2.23418
3971.308	1.93118	-0.99219	-1.17857	-2.32339
3975.315	1.92396	-0.81350	-1.13610	-2.40557
3979.305	1.84146	-0.84373	-0.82642	-2.45952
3983.307	1.76579	-0.79008	-0.96777	-2.42760
3987.308	1.72406	-0.76829	-0.88403	-2.39311
3991.309	1.65128	-0.85978	-0.91234	-2.59280
3995.308	1.64352	-0.74048	-0.81027	-2.57623
3999.305	1.55650	-0.78224	-0.86724	-2.50787
4003.310	1.53032	-0.74604	-0.76814	-2.46106
4007.307	1.63286	-0.68341	-0.56175	-2.44026
4011.309	2.22205	-0.66587	-0.14526	-2.65506
4015.313	4.44260	-0.79722	2.83806	-2.63131
4019.308	6.41425	-0.84177	4.35427	-2.56644
4023.305	8.38852	-0.93440	6.07248	-2.73260
4027.305	9.37530	-1.54081	7.86598	-4.08169
4031.305	10.49366	-2.47909	9.16765	-4.16127
4035.343	10.99300	-3.22143	9.15062	-5.15939
4039.302	11.06523	-3.03957	9.69615	-5.26143
4043.308	11.81030	-2.79200	11.06184	-5.49674
4047.304	12.34621	-2.91290	11.11953	-5.84805
4051.304	11.75864	-2.93015	10.84975	-5.66113
4055.306	12.23727	-2.39908	10.93918	-5.50030
4059.310	11.73305	-2.53173	11.03317	-5.48925
4063.310	11.79303	-2.65297	11.14400	-5.29316
4067.304	12.00569	-2.67949	11.28464	-5.32991
4071.307	12.15080	-2.69319	11.15699	-5.40765
4075.302	12.15165	-2.71107	11.10488	-5.38190
4079.309	12.29846	-2.66536	11.06760	-5.36269
4083.304	12.34659	-2.60286	11.02603	-5.44890
4087.306	12.48187	-2.55603	11.00109	-5.43491
4091.301	12.53060	-2.52340	10.94526	-5.40326
4095.308	12.70846	-2.42429	10.98260	-5.33364
4099.310	13.01930	-2.34864	11.07659	-5.26069
4103.327	12.90390	-2.28632	11.13188	-5.18542
4107.313	13.02938	-2.20939	11.00986	-5.11685
4111.305	12.75533	-2.38312	10.84097	-5.09653
4115.306	12.94047	-2.53403	10.66371	-5.02141
4119.307	13.09492	-2.37742	10.70375	-4.92268
4123.344	13.13103	-2.39106	10.59220	-5.00230
4127.309	13.11224	-3.10585	10.74788	-4.85486
4131.352	13.15534	-3.25081	10.66184	-5.02014
4135.305	13.13275	-3.13778	10.59021	-4.91510
4139.310	13.00196	-2.62868	10.66558	-4.87256
4143.307	12.97387	-2.87090	10.73828	-4.89459
4147.303	12.89355	-2.53300	10.75193	-4.87452
4151.306	12.98028	-2.53350	10.75706	-4.87878
4155.304	12.96724	-2.93373	10.76377	-4.90581
4159.303	12.89801	-2.91688	10.81947	-4.90387
4163.302	12.88659	-2.19145	10.82382	-4.93570
4167.303	13.00261	-1.66479	10.75866	-4.86722
4171.305	13.07632	-1.65174	10.75737	-4.91493
4175.308	13.00139	-1.99744	10.81635	-4.82531
4179.303	13.01607	-2.24285	10.90377	-4.78904
4183.310	13.08470	-2.30919	11.03949	-4.80201
4187.301	12.79215	-2.25973	10.99102	-4.83666
4191.305	12.83149	-2.50896	10.96193	-4.75164
4195.302	13.04655	-2.66379	10.92823	-4.67601
4199.309	12.90612	-2.85544	10.89439	-4.67320
4203.303	12.74742	-3.16205	10.94359	-4.67403
4207.306	12.99130	-3.38587	11.02576	-4.69124
4211.301	12.91274	-2.78503	10.92653	-4.71237
4215.305	12.96713	-2.51452	11.00319	-4.74262
4219.302	12.64933	-2.80250	10.95122	-4.71135
4223.307	12.61575	-2.83726	10.88178	-4.73375
4227.333	12.60696	-2.83020	10.77835	-4.77525
4231.305	12.80457	-2.87192	10.64995	-4.62566
4235.303	12.86416	-2.76380	10.58598	-4.80070
4239.304	12.65897	-2.51106	10.56761	-4.95954
4243.303	12.70411	-2.19957	10.48802	-4.97612
4247.301	12.78099	-2.29366	10.50337	-5.00039
4251.300	12.87173	-2.27844	10.49766	-5.00014
4255.304	12.86426	-2.31111	10.55500	-5.08796
4259.331	12.86055	-2.34743	10.52019	-5.02067
4263.308	12.71682	-2.27379	10.42355	-4.99960
4267.303	12.83597	-2.26045	10.38992	-4.71897
4271.301	12.76664	-2.41183	10.39551	-4.77831
4275.300	12.81712	-2.38610	10.43788	-5.05379
4279.303	12.83246	-2.56626	10.49359	-5.06058
4283.300	12.65370	-2.54196	10.47031	-5.04636
4287.300	12.66679	-2.61040	10.44549	-4.92470
4291.302	12.81207	-2.81958	10.49251	-4.84640
4295.298	12.55685	-2.85415	10.46815	-4.82441
4299.301	12.64955	-2.95846	10.40509	-4.65962
4303.304	12.72525	-3.07656	10.38898	-4.52620
4307.305	13.07290	-2.98590	10.37177	-4.74255
4311.301	12.64454	-2.91090	10.37198	-4.74099
4315.300	12.67537	-2.77486	10.43047	-4.70705
4319.303	12.31561	-2.81291	10.47921	-4.64723
4323.299	12.52099	-2.56497	10.42886	-4.59274
4327.302	12.84083	-2.04640	10.38178	-4.70253
4331.306	13.03376	-1.85079	10.37669	-4.64045
4335.300	13.02288	-1.87147	10.38276	-4.59806
4339.302	12.66516	-2.54245	10.34840	-4.52773
4343.299	12.57058	-2.40945	10.34672	-4.59242
4347.305	12.86600	-2.16374	10.33603	-4.74442
4351.302	12.77771	-2.44225	10.30473	-4.65747
4355.301	12.83703	-2.84112	10.34405	-4.58048
4359.301	12.59588	-2.87142	10.33171	-4.54162
4363.303	12.77856	-2.67576	10.32649	-4.46704
4367.297	12.86971	-2.85373	10.37650	-4.35334
4371.306	12.86904	-2.78583	10.35332	-4.43434
4375.304	13.02156	-2.76090	10.27251	-4.47210
4379.301	13.24275	-2.73713	10.25694	-4.43725
4383.298	12.97816	-2.72787	10.33682	-4.38966
4387.305	12.75457	-2.65615	10.28988	-4.31063
4391.304	12.71616	-2.67523	10.38132	-4.27380
4395.302	12.60673	-2.70461	10.36026	-4.34486
4399.300	12.78068	-2.63269	10.34448	-4.51953
4403.300	12.83739	-2.62165	10.31035	-4.57307
4407.297	12.90178	-2.60290	10.24262	-4.55483
4411.304	12.92029	-2.54968	10.23034	-4.51355
4415.299	13.11968	-2.51558	10.20875	-4.47917
4419.303	12.88294	-2.43669	10.25718	-4.40669
4423.298	12.51965	-2.34156	10.24173	-4.41748
4427.303	12.63931	-2.06325	10.24009	-4.53635
4431.304	12.83986	-1.97780	10.27561	-4.55521
4435.324	12.95541	-2.02986	10.30862	-4.55811
4439.301	12.99979	-1.96609	10.25418	-4.59762
4443.299	12.71148	-2.24746	10.24790	-4.54460
4447.297	12.84822	-2.19917	10.19654	-4.55804
4451.297	12.79916	-2.22914	10.26691	-4.54280
4455.301	12.85713	-2.50624	10.33029	-4.52257
4459.296	12.63152	-2.88145	10.28085	-4.50464
4463.301	12.72943	-2.68399	10.24538	-4.58587
4467.298	12.83850	-2.74244	10.29099	-4.58283
4471.302	12.84397	-2.47559	10.32212	-4.55843
4475.301	12.94799	-2.37990	10.43083	-4.51039
4479.300	13.25098	-0.83756	10.40428	-2.94901
4483.299	15.45140	2.39094	11.27467	-1.34771
4487.303	15.41098	3.42195	11.32104	-0.19139
4491.297	14.84093	4.09031	10.92744	0.82074
4495.301	15.43722	5.50357	11.21274	1.48090
4499.294	15.54711	5.86132	11.27951	2.07413
4503.302	15.37289	6.12922	11.17801	1.74335
4507.297	15.23782	5.31252	11.21966	1.58877
4511.300	15.31032	4.54135	11.27324	1.59546
4515.302	15.38885	4.54217	11.36138	1.61754
4519.306	15.51792	4.95565	11.49433	1.55712
4523.299	15.50541	5.46115	11.59996	1.61877
4527.295	15.58546	5.83735	11.64975	1.70328
4531.297	15.70158	5.84517	11.69633	1.80023
4535.299	15.70114	5.86582	11.84301	1.92988
4539.299	15.57643	5.85440	11.95434	2.00092
4543.300	15.60077	5.82640	11.92904	1.99144
4547.294	15.63279	5.69502	11.89630	1.87318
4551.300	15.59096	5.28162	11.93876	1.97493
4555.302	15.62567	5.47204	11.91134	2.03217
4559.300	15.63617	5.61440	11.87147	2.09894
4563.295	15.45184	5.61802	11.82987	2.19447
4567.295	15.40237	5.49694	11.81206	2.21401
4571.298	15.34130	5.47884	11.79242	2.27618
4575.295	15.38652	5.55231	11.79567	2.29723
4579.295	15.34813	5.57960	11.72208	2.21598
4583.295	15.44059	5.55225	11.71611	2.20516
4587.298	15.38632	5.56933	11.66322	2.20486
4591.295	15.61126	5.62862	11.54425	2.29375
4595.295	15.43233	5.58718	11.53355	2.36661
4599.299	15.41916	5.71872	11.55564	2.38681
4603.297	15.63893	5.69684	11.44523	2.41469
4607.299	15.58267	5.55872	11.41652	2.37824
4611.294	15.42850	5.57803	11.35456	2.35456
4615.301	15.50396	5.58828	11.39039	2.30659
4619.293	15.57173	5.61587	11.49867	2.37210
4623.295	15.61027	5.67583	11.46616	2.24269
4627.295	15.55508	5.79106	11.56564	2.28263
4631.298	15.56072	5.79422	11.58398	2.18798
4635.294	15.55149	5.89817	11.74099	2.27561
4639.304	15.50912	5.47467	11.96733	2.23273
4643.296	15.50211	5.39710	11.69559	2.12643
4647.325	15.44854	5.40076	11.82930	2.02052
4651.292	15.47130	5.65267	11.88649	1.99513
4655.299	15.50714	5.65497	11.95434	2.03853
4659.296	15.37988	5.64214	11.97954	2.08740
4663.295	15.40198	5.75994	12.00319	2.02922
4667.328	15.38143	5.86719	12.01753	2.06550
4671.302	15.39225	5.86899	11.92056	1.99747
4675.295	15.54080	5.92906	11.90887	1.88300
4679.298	15.49421	5.77443	11.90217	1.86043
4683.301	15.58193	5.88911	11.90369	1.78821
4687.292	15.86950	5.88504	11.98106	1.74027
4691.294	16.30707	5.96015	11.98146	2.04939
4695.292	16.20663	5.98954	11.90341	2.26134
4699.296	15.23764	5.88298	11.88523	2.39531
4703.292	15.35671	5.94886	11.91412	2.28781
4707.293	15.56291	5.93626	11.77432	2.10967
4711.292	15.69088	5.81803	11.72674	1.82855
4715.296	16.08225	5.71044	11.78409	1.70940
4719.298	16.02199	5.67919	11.86317	1.65076
4723.295	15.83253	5.68045	11.90017	1.71098
4727.303	15.59598	5.68769	12.06363	1.68171
4731.297	15.55722	5.59421	12.02774	2.33555
4735.328	15.63380	5.50414	11.91994	2.29043
4739.305	15.50817	5.41815	11.67712	2.21787
4743.298	15.61550	5.50278	11.61349	1.90408
4747.291	15.74893	5.53494	11.62323	1.93701
4751.294	15.89074	5.53459	11.79087	1.93401
4755.292	15.95543	5.55989	11.97455	2.02106
4759.296	16.06428	5.65766	12.21013	2.07750
4763.297	16.24041	5.72681	12.21376	2.04145
4767.167	15.57042	5.62878	12.12148	2.19911
4771.171	15.56931	5.63256	12.27564	2.26678
4775.169	15.73189	5.72964	12.20209	2.15486
4779.168	15.78023	5.80401	12.17679	2.12387
4783.168	15.51979	5.90554	12.13816	2.02905
4787.168	15.26533	5.79934	12.00652	1.78209
4791.169	15.11551	5.53989	11.96455	1.15629
4795.172	15.20335	5.34115	11.81615	0.76420
4799.170	14.98250	5.22146	11.35964	0.69583
4803.169	15.22454	5.22539	11.42039	1.05905
4807.171	15.21929	5.18112	11.52593	1.17224
4811.172	15.25196	5.20400	11.60828	0.86610
4815.167	15.11311	5.11648	11.72370	1.04932
4819.171	15.16877	5.16965	11.44716	0.97880
4823.170	15.11963	5.04609	11.35792	1.00193
4827.167	15.15593	4.98613	11.35499	0.98097
4831.169	15.17193	4.85696	11.34354	1.05222
4835.166	15.21744	4.92909	11.34213	1.06543
4839.170	15.19660	4.93705	11.34614	1.07119
4843.167	15.24464	4.93748	11.39747	1.11940
4847.172	15.25316	4.90605	11.42596	1.12720
4851.172	15.20540	4.87503	11.47295	1.11329
4855.173	15.16347	4.87001	11.44606	1.10173
4859.169	15.19297	4.85791	11.42191	1.07022
4863.166	15.17785	4.88266	11.44645	1.00680
4867.168	15.13096	4.87550	11.54730	0.82954
4871.166	15.13498	4.87667	11.66080	0.90538
4875.169	15.06878	4.95033	11.66546	0.87276
4879.167	15.04716	4.92546	11.80611	0.79533
4883.170	15.04617	4.90997	11.80687	0.80474
4887.166	15.02212	4.99335	11.84988	0.74810
4891.168	14.99329	5.00243	11.91170	0.71324
4895.167	14.98806	5.04178	11.92638	0.64178
4899.168	14.95962	4.99928	11.92942	0.61956
4903.167	14.92289	5.01812	11.94845	0.58752
4907.165	14.90605	4.96692	12.04488	0.60026
4911.166	14.91597	4.97432	12.04782	0.59654
4915.164	14.88797	4.99684	12.07341	0.58059
4919.170	14.89515	4.94991	12.13939	0.60309
4923.166	14.88169	4.93971	12.09731	0.63171
4927.165	15.02140	4.83227	12.05720	0.59132
4931.167	14.94113	4.78747	12.01352	0.58388
4935.170	14.92352	4.70981	11.98505	0.61369
4939.229	14.88813	4.52185	11.93318	0.67794
4943.168	14.90171	4.45154	11.80231	0.78950
4947.165	14.87040	4.54988	11.77919	0.78436
4951.164	14.86078	4.58677	11.56364	0.78855
4955.167	14.73690	4.60726	11.79658	0.78901
4959.165	14.63153	4.62297	11.70556	0.85417
4963.161	14.46461	4.66792	11.68900	0.82184
4967.169	14.47689	4.73322	11.77013	0.79966
4971.166	14.81291	4.75325	11.75764	0.79474
4975.168	14.81530	4.82880	11.79936	0.77582
4979.173	14.86905	4.72557	11.97802	0.74712
4983.166	15.04670	4.78287	12.02553	0.71275
4987.168	14.99109	4.85381	12.01492	0.66592
4991.161	14.83940	4.83506	12.06793	0.66931
4995.168	15.07665	4.81325	12.09396	0.66573
4999.165	15.12474	4.78013	12.10751	0.64706
5003.167	15.16456	4.76868	12.13889	0.60044
5007.165	15.26023	4.73034	12.18768	0.57857
5011.168	15.32602	4.69777	12.17421	0.56150
5015.165	15.34370	4.67862	12.20219	0.52149
5019.170	15.45110	4.61590	12.16494	0.44085
5023.168	15.54854	4.60441	12.16131	0.28190
5027.165	15.49723	4.58658	12.12729	0.12529
5031.165	15.57696	4.51417	12.15948	0.26084
5035.164	15.59006	4.41554	12.17663	0.32461
5039.166	15.67142	4.37200	12.13683	0.38456
5043.167	15.66857	4.27029	12.11114	0.35948
5047.172	15.68819	4.20352	12.03408	0.50257
5051.167	15.68978	4.19580	11.93227	0.42881
5055.163	15.69889	4.16580	11.88627	0.37490
5059.222	15.69116	4.12519	11.79808	0.47188
5063.174	15.63642	4.13256	11.81368	0.58752
5067.163	15.59922	4.02879	11.75586	0.65413
5071.166	15.56846	3.97374	11.68576	0.66290
5075.163	15.51059	3.96802	11.69176	0.70160
5079.162	15.49117	3.99148	11.65784	0.71938
5083.167	15.44073	4.03478	11.61716	0.77652
5087.162	15.36650	4.07758	11.66482	0.72758
5091.165	15.27164	4.09064	11.73374	0.65148
5095.159	15.19787	4.08846	11.75001	0.68418
5099.167	15.12675	4.16935	11.82630	0.69841
5103.181	15.14359	4.21867	11.80476	0.67816
5107.176	15.10124	4.30645	11.76240	0.58303
5111.164	15.03527	4.44628	11.71920	0.49817
5115.161	15.02723	4.52978	11.72803	0.53384
5119.161	14.98069	4.66359	11.68572	0.50443
5123.161	14.95188	4.77760	11.62294	0.56756
5127.164	14.92018	4.84546	11.62854	0.54119
5131.161	14.92106	4.83805	11.48392	0.50341
5135.166	14.92806	4.96015	11.44449	0.52791
5139.163	14.93369	5.03198	11.40982	0.54799
5143.172	14.92037	5.05661	11.38070	0.57221
5147.164	14.88672	5.11947	11.31476	0.68210
5151.163	14.82655	5.14174	11.29987	0.71239
5155.164	14.82374	5.16256	11.23542	0.80428
5159.161	14.77691	5.20392	11.20128	0.88877
5163.161	14.76201	5.22031	11.15499	0.90690
5167.160	14.73998	5.22062	11.12414	0.84910
5171.163	14.73058	5.18888	11.08610	0.83217
5175.162	14.71370	5.19174	11.14476	0.86861
5179.162	14.66234	5.13391	11.17254	0.89929
5183.163	14.63769	5.16945	11.19791	0.76522
5187.165	14.64684	5.13203	11.21045	0.81210
5191.160	14.65267	5.13366	11.31145	0.67509
5195.160	14.66389	5.08777	11.37612	0.58856
5199.162	14.65286	5.06556	11.42725	0.45558
5203.159	14.65186	5.01680	11.52267	0.37399
5207.160	14.61913	4.94170	11.64613	0.44496
5211.159	14.61222	4.87894	11.73809	0.38440
5215.164	14.61318	4.83313	11.73702	0.20775
5219.164	14.59847	4.77263	11.84030	0.22219
5223.158	14.58796	4.68470	11.85901	0.18334
5227.171	14.53953	4.66171	11.84986	0.32257
5231.165	14.01132	4.83735	11.27118	0.49328
5235.159	11.95482	4.84849	9.29882	0.58798
5239.165	9.20862	5.69923	6.50271	2.73941
5243.161	7.47819	5.34670	5.21055	4.04836
5247.162	6.02416	5.88617	4.20279	3.85950
5251.160	5.36152	5.93514	3.32476	3.73713
5255.193	3.67415	6.65630	2.70854	4.65282
5259.158	3.54096	6.94653	1.96248	5.91855
5263.159	4.51845	6.75749	2.25159	5.87982
5267.162	4.73678	6.83634	2.21090	5.58941
5271.161	4.95282	6.93005	1.95800	5.36302
5275.161	4.82286	6.86681	1.98712	5.44964
5279.159	4.66960	6.70836	1.93361	5.54659
5283.157	4.63708	6.77492	1.83206	5.45535
5287.164	4.61489	6.84057	1.74288	5.49265
5291.159	4.59894	6.95631	1.75133	5.57789
5295.160	4.46248	6.99511	1.75052	5.51251
5299.163	4.49551	6.96939	1.71779	5.57230
5303.160	4.51226	6.81292	1.65647	5.67573
5307.161	4.46971	6.95779	1.60040	5.61276
5311.163	4.41573	7.02678	1.58482	5.67738
5315.167	4.39432	6.93786	1.60551	5.65110
5319.158	4.29552	6.91710	1.63472	5.70491
5323.163	4.32153	6.97703	1.64094	5.68863
5327.156	4.32266	6.97175	1.63963	5.80736
5331.157	4.29626	7.03856	1.63978	5.77112
5335.158	4.32224	7.01018	1.68880	5.74093
5339.158	4.43636	6.99723	1.69435	5.71069
5343.163	4.43317	7.02394	1.71699	5.65865
5347.155	4.43781	7.06989	1.77563	5.41143
5351.165	4.51415	7.03059	1.82195	5.23438
5355.168	4.59739	6.97500	1.81265	5.47441
5359.161	4.63970	6.96588	1.81793	5.36222
5363.156	4.54165	6.92823	1.75793	5.30451
5367.163	4.45269	6.87443	1.72718	5.26772
5371.158	4.53818	6.80870	1.77147	5.25681
5375.161	4.29860	6.69712	1.80834	5.23270
5379.155	4.29510	6.67371	1.75862	5.23924
5383.162	3.87944	6.66604	1.69480	5.23609
5387.157	3.84772	6.62700	1.69889	5.19095
5391.160	3.67870	6.56468	1.64270	5.21509
5395.159	3.67521	6.52559	1.63410	5.23578
5399.173	3.62370	6.52224	1.66609	5.22333
5403.157	3.74483	6.52528	1.66078	5.25458
5407.159	3.53691	6.54577	1.65659	5.26205
5411.153	3.63453	6.53465	1.74000	5.29306
5415.154	3.52858	6.58445	1.78607	5.35227
5419.163	3.60825	6.71549	1.87141	5.45946
5423.162	3.54084	6.86230	1.86682	5.56991
5427.156	3.54247	6.91655	1.94131	5.67202
5431.155	3.57323	6.83661	2.06081	5.65230
5435.165	3.53367	6.86533	2.04807	5.50699
5439.156	3.56438	6.98716	1.85631	5.52044
5443.161	3.63881	6.97321	1.84709	5.52160
5447.157	3.67976	6.56158	1.83204	5.60156
5451.160	3.72459	6.44442	1.87222	5.68707
5455.154	3.76930	6.43214	1.87629	5.47283
5459.161	3.90481	6.53589	1.86618	5.46396
5463.157	3.95283	6.45226	1.83152	5.50135
5467.190	4.02389	6.40880	1.84292	5.44168
5471.154	4.03342	6.36603	1.77167	5.40652
5475.165	4.12547	6.32476	1.91273	5.36324
5479.159	4.17411	6.29037	1.76532	5.39342
5483.158	4.18489	6.24427	1.88085	5.30917
5487.159	4.18358	6.13160	2.02572	5.30244
5491.158	4.12103	6.20110	1.92785	5.29632
5495.152	3.98435	6.18016	1.91915	5.23616
5499.161	3.93416	6.21532	2.02567	5.24472
5503.156	3.84315	6.19423	1.92629	5.09477
5507.154	3.90165	6.23869	1.93636	4.97701
5511.155	3.73092	6.26298	1.96796	4.88406
5515.154	3.60259	6.56919	2.02284	5.16158
5519.161	3.66071	6.71489	2.04022	5.41149
5523.158	3.56858	6.82689	2.05856	5.34450
5527.155	3.57523	7.03284	2.06337	5.44892
5531.154	3.55518	7.11557	2.01176	5.64374
5535.158	3.56156	7.12512	2.04116	5.50530
5539.153	3.58047	7.18494	2.07891	5.75263
5543.158	3.59622	7.19034	2.08468	5.79037
5547.155	3.58445	7.27856	2.11024	5.83360
5551.157	3.55755	7.30259	2.10203	5.87828
5555.158	3.55723	7.35537	2.08364	5.89051
5559.160	3.55560	7.37728	2.05811	5.97743
5563.155	3.33315	7.34454	1.72245	6.03690
5567.159	2.98544	7.25358	1.41836	5.01373
5571.155	3.11613	6.94925	0.64069	4.40397
5575.158	2.81915	5.96882	0.41043	3.71904
5579.151	3.03541	5.52710	0.37261	3.26651
5583.159	3.11339	5.58933	0.36489	3.15542
5587.154	3.06991	5.64075	0.73484	3.24516
5591.158	3.03009	5.72678	0.64533	3.34297
5595.151	2.84942	5.69001	0.50518	3.46918
5599.158	2.78651	5.56419	0.50768	3.54268
5603.158	2.63509	5.63188	0.45458	3.48649
5607.157	2.61308	5.62003	0.33980	3.60528
5611.153	2.52411	5.49377	0.34367	3.68636
5615.155	2.27087	5.42923	0.34566	3.71006
5619.155	2.25902	5.36290	0.37174	3.80187
5623.031	2.06969	5.37176	0.41576	3.85061
5627.027	2.14270	5.33582	0.40790	3.90344
5631.033	2.08344	5.30429	0.35596	3.95835
5635.031	2.09846	5.28789	0.31689	4.00982
5639.029	2.08183	5.44179	0.25043	3.96343
5643.035	1.98147	5.69197	0.22033	3.96722
5647.032	2.01808	5.73787	0.19862	3.97492
5651.032	1.98693	5.62892	0.17094	3.93803
5655.026	2.00780	5.76871	0.13367	3.82885
5659.034	2.01731	5.75644	0.11074	3.78383
5663.028	2.03454	5.83449	0.06309	3.72841
5667.030	2.02039	5.86330	0.02638	3.65598
5671.031	2.02440	5.79466	-0.04249	3.59408
5675.027	1.98997	5.78938	-0.10317	3.50219
5679.030	1.94736	5.81922	-0.16154	3.46047
5683.025	1.90282	5.76462	-0.19787	3.42889
5687.025	1.84966	5.73987	-0.30885	3.38238
5691.036	1.75148	5.72623	-0.34950	3.36283
5695.031	1.67841	5.70316	-0.42951	3.35153
5699.023	1.68699	5.66504	-0.42090	3.37912
5703.027	1.75185	5.63257	-0.47346	3.40361
5707.026	1.98179	5.64111	-0.50433	3.39394
5711.030	2.23281	5.59435	-0.48053	3.40740
5715.026	2.26864	5.61396	-0.25076	3.42138
5719.026	2.39854	5.63370	-0.22075	3.42658
5723.026	2.51353	5.67093	-0.15548	3.45698
5727.030	2.55713	5.65029	-0.14146	3.51739
5731.033	2.43560	5.58769	-0.35352	3.49027
5735.031	2.51108	5.32525	-0.33275	3.33337
5739.029	2.57276	5.35478	-0.23604	3.35019
5743.025	2.60731	5.18046	-0.04338	3.29645
5747.031	1.81067	5.22981	-0.17650	3.30577
5751.029	-0.17640	5.33759	-2.75678	3.10440
5755.172	-2.09001	5.25539	-3.39043	2.78457
5759.029	-4.55889	5.07672	-5.07175	2.82823
5763.025	-6.01105	4.91033	-6.52032	2.42417
5767.029	-6.20023	4.85313	-7.00582	2.62735
5771.032	-8.41942	4.73677	-8.94600	1.83727
5775.033	-9.02873	4.75809	-9.68201	2.36005
5779.027	-8.94501	4.73373	-10.44842	2.31523
5783.030	-9.28028	4.79823	-11.68398	2.56550
5787.026	-9.27194	4.81888	-11.71668	2.62634
5791.026	-9.20983	4.87788	-11.51997	2.75210
5795.031	-9.29135	4.86677	-11.01687	2.59175
5799.029	-9.39842	4.90203	-10.94143	2.60483
5803.021	-9.52637	4.94571	-11.33056	2.21955
5807.029	-9.71006	5.07995	-11.28973	1.96848
5811.026	-9.72322	5.10857	-11.43498	2.10985
5815.033	-9.73419	5.11652	-11.33254	1.86521
5819.025	-9.92803	5.16450	-11.42084	2.04447
5823.024	-10.00495	5.21737	-11.46609	2.15403
5827.029	-10.03715	5.24330	-11.40799	1.97241
5831.027	-9.94231	5.19246	-11.36732	1.98235
5835.024	-9.96429	5.10302	-11.36467	1.98079
5839.029	-10.09881	5.10312	-11.36484	1.89586
5843.025	-10.09693	5.01812	-11.41721	1.89510
5847.027	-10.12017	5.00445	-11.38786	1.91313
5851.023	-10.03693	4.97325	-11.39811	1.95109
5855.037	-10.01017	4.90616	-11.37524	1.97261
5859.030	-9.93424	4.83335	-11.40992	2.00864
5863.026	-9.95047	4.80912	-11.38235	1.99088
5867.030	-9.95882	4.82130	-11.42213	2.00671
5871.026	-9.84380	4.78722	-11.43872	2.07735
5875.028	-9.85204	4.70316	-11.35849	2.13392
5879.025	-9.82862	4.67465	-11.38833	2.20042
5883.029	-9.78684	4.64376	-11.38235	2.26809
5887.028	-9.75746	4.68416	-11.35334	2.37135
5891.022	-9.74249	4.42925	-11.10916	2.39197
5895.024	-9.76028	4.33718	-11.03294	2.42193
5899.032	-9.62282	4.30799	-10.76578	2.55641
5903.027	-9.56245	4.43127	-10.88357	2.63429
5907.022	-9.55333	4.34391	-10.70121	2.76493
5911.027	-9.46747	4.35954	-10.78388	2.73822
5915.022	-9.47340	4.41751	-10.78381	2.75712
5919.024	-9.51010	4.46106	-10.77090	2.78159
5923.066	-9.55789	4.51336	-10.75912	2.82924
5927.035	-9.58581	4.54172	-10.75121	2.78428
5931.025	-9.62975	4.58478	-10.71291	2.69857
5935.022	-9.65225	4.62727	-10.68988	2.63462
5939.028	-9.77262	4.75830	-10.82253	2.69162
5943.024	-9.55533	4.65785	-10.77972	2.33264
5947.023	-9.76943	4.76494	-10.89544	2.36148
5951.026	-9.68021	4.66694	-11.00776	2.33085
5955.024	-9.79925	4.63826	-11.05003	2.38411
5959.026	-9.75825	4.68563	-11.05959	2.19628
5963.024	-9.80877	4.68432	-11.08615	2.21975
5967.021	-9.72735	4.69356	-11.20104	2.14967
5971.024	-9.53772	4.69648	-11.10988	3.03677
5975.028	-9.26623	4.67384	-11.21326	2.77456
5979.030	-9.17940	4.61752	-11.21527	2.95157
5983.027	-9.37713	4.66454	-11.12715	2.68508
5987.027	-9.11581	4.65931	-11.21231	2.69998
5991.022	-9.18930	4.59199	-11.18776	2.64648
5995.026	-9.33215	4.64288	-11.07467	2.72902
5999.021	-9.40670	4.66923	-11.08756	2.59147
6003.026	-9.46404	4.65629	-11.11141	2.70332
6007.022	-9.39339	4.63848	-11.14476	2.66222
6011.023	-9.46884	4.60747	-11.16230	2.65894
6015.026	-9.51635	4.63028	-11.17300	2.59574
6019.021	-9.46652	4.66370	-11.16612	2.53690
6023.027	-9.27501	4.64597	-11.20450	2.51985
6027.024	-9.02917	4.63849	-11.25591	2.49143
6031.021	-8.94246	4.65776	-11.26280	2.42513
6035.022	-9.07155	4.71083	-11.36484	2.42938
6039.025	-9.10257	4.69933	-11.30555	2.41222
6043.024	-9.02716	4.71796	-11.33967	2.45739
6047.022	-9.15064	4.77965	-11.26063	2.45612
6051.024	-9.09541	4.84258	-11.25961	2.46136
6055.020	-9.23335	4.89143	-11.14567	2.49576
6059.025	-9.21578	4.90965	-11.11435	2.50856
6063.030	-9.42004	4.94954	-11.06982	2.53066
6067.024	-9.50554	5.01297	-11.09296	2.53328
6071.020	-9.70823	5.05721	-11.03035	2.55259
6075.025	-9.62967	4.98774	-10.93981	2.56742
6079.022	-9.78358	4.84391	-11.20292	2.58840
6083.023	-9.97816	5.08879	-11.40934	2.50959
6087.019	-13.15339	5.04758	-14.51486	2.44386
6091.026	-14.20600	4.96484	-14.70804	2.39016
6095.020	-15.01473	4.82703	-16.21645	2.35571
6099.025	-15.91418	4.98364	-16.86071	2.20975
6103.021	-15.78108	4.98102	-16.46108	2.23785
6107.037	-15.75511	5.01621	-16.26232	2.44572
6111.023	-15.47187	4.88128	-15.90038	2.43479
6115.020	-15.13697	4.76430	-15.61518	2.42201
6119.021	-14.98949	4.62171	-15.80431	2.42208
6123.019	-15.26383	4.86073	-15.97046	2.37303
6127.020	-15.47653	4.83730	-15.96606	2.25919
6131.024	-15.46779	4.86984	-15.96266	2.14128
6135.020	-15.46980	5.01867	-16.30810	2.17931
6139.027	-15.54600	5.05355	-16.26998	2.09023
6143.019	-15.51045	5.02330	-16.20590	2.07664
6147.020	-15.48872	5.01978	-16.22098	2.33014
6151.023	-15.50578	5.01875	-16.27284	2.28154
6155.021	-15.57367	4.98694	-16.25024	2.27363
6159.022	-15.61656	5.02696	-16.31809	2.34911
6163.020	-15.60777	5.01003	-16.38328	2.48119
6167.020	-15.58405	5.01327	-16.47785	2.65361
6171.026	-15.52112	4.96005	-16.47860	2.65728
6175.019	-15.40023	4.90552	-16.52122	2.51486
6179.020	-15.40537	4.94944	-16.35781	2.36710
6183.018	-15.43953	4.92662	-16.25228	2.37178
6187.028	-15.41111	4.91045	-16.26330	2.39949
6191.026	-15.31106	4.97686	-16.27728	2.37579
6195.021	-15.32315	5.05113	-16.18908	2.27200
6199.017	-15.28483	5.05774	-16.23910	2.32778
6203.061	-15.23875	5.11645	-16.23389	2.30233
6207.029	-15.19646	4.82218	-16.27257	2.29095
6211.022	-15.26887	4.80054	-16.32876	2.27465
6215.018	-15.32433	4.76120	-16.44880	2.33911
6219.022	-15.30064	4.82235	-16.41290	2.29421
6223.019	-15.31953	4.88122	-16.54800	2.45947
6227.021	-15.28815	4.78465	-16.49816	2.39608
6231.024	-15.31477	4.84801	-16.54586	2.44140
6235.019	-15.43528	4.91770	-16.58820	2.36308
6239.023	-15.42917	5.04549	-16.54029	2.40916
6243.021	-15.37344	5.07633	-16.55635	2.41650
6247.018	-15.20462	4.81905	-16.43439	2.36855
6251.021	-15.29600	4.92376	-16.28116	2.77744
6255.019	-15.18287	5.04921	-16.30842	2.73527
6259.017	-15.17390	5.06907	-16.21730	2.79127
6263.017	-15.18560	5.09352	-16.21304	2.89563
6267.017	-15.15730	5.05450	-16.21773	2.80502
6271.025	-15.28185	5.10701	-16.23393	2.91155
6275.020	-15.35175	5.11404	-16.23659	2.89164
6279.017	-15.20519	5.11025	-16.25731	2.92484
6283.021	-15.09495	5.00601	-16.46156	2.94380
6287.018	-15.15258	4.91446	-16.68341	3.00354
6291.019	-15.23385	4.88332	-16.29200	3.02176
6295.024	-15.23701	4.85904	-16.35975	2.93126
6299.059	-15.35221	4.88935	-16.31907	2.86545
6303.019	-15.32059	4.86356	-16.27666	2.69116
6307.015	-15.28720	4.76523	-16.29081	2.81193
6311.019	-15.23611	4.76757	-16.18075	2.60741
6315.023	-15.19177	4.73406	-16.12360	2.53526
6319.021	-15.16007	4.89321	-16.04019	2.44057
6323.020	-14.83260	4.83165	-15.66459	2.35858
6327.017	-11.72431	4.32166	-12.89228	2.02420
6331.014	-11.07427	3.37321	-11.37328	1.21841
6335.016	-7.97318	0.94999	-8.77242	-1.76711
6339.017	-7.48575	0.56686	-8.73698	-2.39915
6343.019	-6.99441	0.42205	-7.42317	-4.43910
6347.015	-5.69686	-0.78417	-7.23010	-4.77445
6351.020	-5.09832	-1.57289	-7.44945	-4.65183
6355.036	-5.19689	-1.35378	-7.31196	-4.41757
6359.026	-4.76162	-0.58816	-7.36291	-4.04221
6363.016	-5.13166	-0.02017	-7.43500	-3.41616
6367.037	-5.08163	0.07896	-7.21750	-3.92058
6371.022	-5.12553	-0.18263	-7.07622	-3.98869
6375.014	-4.94467	-0.71023	-6.88333	-4.18203
6379.018	-4.93196	-1.06030	-6.50641	-4.18807
6383.015	-4.84006	-1.27186	-6.42810	-4.13912
6387.016	-4.75085	-1.70664	-6.46299	-4.11543
6391.019	-4.65047	-1.85792	-6.50712	-4.06899
6395.017	-4.65794	-1.86111	-6.25831	-4.14581
6399.028	-4.72248	-1.79120	-6.43439	-4.15325
6403.014	-4.65271	-1.85882	-6.40528	-4.20988
6407.018	-4.63928	-1.83766	-6.48938	-4.25989
6411.016	-4.67892	-1.99979	-6.36437	-4.31452
6415.018	-4.54521	-1.98487	-6.32699	-4.35884
6419.045	-4.53497	-2.03253	-6.33961	-4.38785
6423.016	-4.57297	-2.13679	-6.33819	-4.33571
6427.016	-4.65239	-2.16850	-6.33182	-4.38062
6431.014	-4.64670	-2.33621	-6.32831	-4.41009
6435.014	-4.69652	-2.32793	-6.34621	-4.40707
6439.024	-4.67710	-2.00702	-6.37918	-4.37322
6443.014	-4.66659	-2.11526	-6.42841	-4.26693
6447.015	-4.72916	-1.99292	-6.35405	-4.23847
6451.018	-4.72953	-2.12242	-6.33665	-4.22835
6455.015	-4.67715	-2.13363	-6.33277	-4.18261
6459.018	-4.71587	-2.03082	-6.35596	-4.14381
6463.014	-4.68826	-1.71728	-6.34194	-4.10368
6467.013	-4.69534	-1.35414	-6.32520	-4.13730
6471.017	-4.66847	-0.84186	-6.34260	-4.05202
6475.014	-4.68804	-1.02201	-6.40859	-4.01280
6478.891	-4.69815	-1.30181	-6.44981	-4.13499
6482.892	-4.79519	-1.15104	-6.45201	-4.25711
6486.896	-4.74476	-1.29793	-6.43302	-4.17102
6490.887	-4.75245	-1.30084	-6.41871	-3.97392
6494.894	-4.67143	-1.53407	-6.46880	-3.94234
6498.891	-4.69840	-1.50766	-6.47162	-4.03034
6502.892	-4.77269	-1.48629	-6.50751	-4.23538
6506.891	-4.67241	-1.59453	-6.54296	-4.28386
6510.888	-4.43021	-1.31972	-6.51273	-4.25552
6514.887	-4.46418	-1.22366	-6.51047	-4.41242
6518.889	-4.50086	-1.17948	-6.49396	-4.40722
6522.946	-4.54947	-1.06621	-6.45579	-4.42056
6526.899	-4.48742	-1.29469	-6.42442	-4.39692
6530.885	-4.61169	-1.26560	-6.47240	-4.29527
6534.892	-4.56227	-1.41608	-6.42631	-4.36722
6538.889	-4.64517	-2.05950	-6.45816	-4.37594
6542.894	-4.57117	-2.77767	-6.47064	-4.43864
6546.889	-4.56900	-2.80578	-6.48063	-4.42078
6550.884	-4.65668	-2.61859	-6.52280	-4.40996
6554.892	-4.64717	-2.92104	-6.55719	-4.45353
6558.886	-4.71467	-2.99424	-6.52184	-4.45674
6562.890	-4.77370	-2.84676	-6.44951	-4.48992
6566.890	-4.79950	-2.85082	-6.41991	-4.55855
6570.899	-4.86660	-2.74176	-6.50824	-4.61989
6574.889	-4.89079	-2.77130	-6.47184	-4.67721
6578.888	-4.93501	-2.84778	-6.48776	-4.72915
6582.892	-4.91356	-2.83711	-6.39305	-4.79634
6586.888	-4.89535	-2.76845	-6.40937	-4.85359
6590.889	-4.94573	-2.73195	-6.39045	-4.68453
6594.887	-4.94881	-2.75990	-6.31080	-4.50193
6598.890	-4.94080	-2.77769	-6.28592	-4.48577
6602.886	-4.90501	-2.75178	-6.30617	-4.39511
6606.887	-4.89042	-2.30609	-6.25779	-4.41867
6610.895	-4.91329	-1.61074	-6.20732	-4.35067
6614.888	-4.87702	-0.92091	-6.17761	-4.40662
6618.890	-4.86894	-0.91847	-6.14658	-4.33884
6622.884	-4.82912	-0.92232	-6.14207	-4.34639
6626.893	-4.82010	-0.93941	-6.16039	-4.33135
6630.890	-4.91272	-0.93047	-6.15544	-4.33122
6634.887	-4.92605	-1.29449	-6.15554	-4.41186
6638.898	-4.89503	-1.15166	-6.16255	-4.51675
6642.886	-4.93947	-1.25064	-6.16007	-4.41472
6646.886	-5.00782	-1.26276	-6.11712	-4.42890
6650.893	-5.07010	-1.34225	-6.17256	-4.42505
6654.886	-5.01844	-1.53123	-6.20894	-4.45169
6658.885	-5.13326	-1.43050	-6.22915	-4.47246
6662.889	-4.97189	-1.40755	-6.00541	-4.54344
6666.889	-2.39686	-1.31416	-4.83390	-4.49491
6670.886	-0.24140	-1.45072	-2.68579	-2.77007
6674.892	0.79032	-0.49558	-0.97266	-3.23025
6678.887	3.08971	-1.05513	0.53384	-3.33487
6682.888	3.72425	-1.13415	1.63030	-3.88187
6686.882	3.75860	-0.76922	1.99002	-3.02271
6690.891	3.85069	-0.64794	1.99322	-3.60483
6694.892	3.65309	-0.32821	1.38733	-3.75337
6698.886	3.17366	-0.34331	1.21879	-3.55652
6702.885	3.00210	-0.31210	1.12489	-3.41444
6706.888	3.56887	-0.19675	1.68739	-3.80263
6710.891	3.83057	-0.18560	1.71161	-3.34051
6714.888	4.05177	-0.16942	1.85142	-3.28718
6718.885	4.13189	-0.18422	1.80563	-3.33846
6722.891	4.21219	-0.15779	1.87406	-3.33340
6726.886	4.26968	-0.09129	1.86268	-3.43223
6730.888	4.31321	-0.12035	1.87750	-3.32300
6734.892	4.32627	-0.05169	1.87555	-3.28011
6738.887	4.30559	-0.04936	1.91915	-3.19563
6742.883	4.29325	0.02902	1.95820	-3.13691
6746.882	4.19422	0.00615	1.97607	-3.13454
6750.886	4.38951	-0.16456	1.97237	-3.12091
6754.887	4.38299	-0.31379	1.98898	-3.09352
6758.881	4.42291	-0.13624	1.96429	-3.09163
6762.891	4.42249	-0.28784	1.96635	-3.09319
6766.886	4.48937	-0.36413	1.96164	-3.11239
6770.886	4.49741	-0.36106	1.92956	-3.06604
6775.247	4.51817	-0.39189	1.90822	-3.07536
6778.889	4.51517	-0.52012	1.88921	-3.09533
6782.881	4.55699	-0.51450	1.89387	-3.12672
6786.889	4.60730	-0.58715	1.90515	-3.16956
6790.890	4.61933	-0.63994	1.89245	-3.20249
6794.884	4.61509	-0.62506	1.92304	-3.19647
6798.882	4.60372	-0.64350	1.89585	-3.26787
6802.886	4.60510	-0.70687	1.91457	-3.29320
6806.882	4.62074	-0.69207	1.90292	-3.34181
6810.887	4.59978	-0.69098	1.90182	-3.37092
6814.883	4.61748	-0.64442	1.95279	-3.38708
6818.890	4.63684	-0.62876	1.94387	-3.39069
6822.881	4.64273	-0.72313	1.89275	-3.43692
6826.888	4.65553	-0.74877	1.84887	-3.45532
6830.890	4.63883	-0.78038	1.88296	-3.46203
6834.886	4.70377	-0.65940	1.90420	-3.47322
6838.884	4.65843	-0.70684	1.89689	-3.48754
6842.882	4.31395	-0.52111	1.87131	-3.49199
6846.887	4.33774	-0.40335	1.84723	-3.47809
6850.885	4.23920	-0.30106	1.91444	-3.47874
6854.897	4.20583	-0.16284	1.95973	-3.45064
6858.894	4.16186	-0.19814	1.91628	-3.51474
6862.883	4.26778	-0.13339	1.96412	-3.57214
6866.883	4.25751	0.04815	1.97468	-3.59898
6870.882	4.46159	0.03198	2.02549	-3.66278
6874.885	4.57810	0.05596	2.01402	-3.57992
6878.885	4.39545	0.07242	1.96586	-3.52231
6882.879	4.63060	0.07339	1.94751	-3.49337
6886.887	4.92100	0.01302	1.98474	-3.42565
6890.883	4.82427	-0.09288	1.95619	-3.55353
6894.885	4.20168	-0.07849	1.91747	-3.44429
6898.880	4.33002	-0.11054	1.90725	-3.61810
6902.892	4.26775	-0.08963	1.90631	-3.64830
6906.883	4.24500	-0.10634	1.94949	-3.63522
6910.885	4.34004	-0.17731	1.92508	-3.62471
6914.887	4.60488	-0.16486	1.94417	-3.56837
6918.886	4.49134	-0.16110	1.95180	-3.64971
6922.880	4.55687	-0.18679	2.01952	-3.69010
6926.886	4.59512	-0.24038	2.06865	-3.64413
6930.880	4.68666	-0.33696	2.05199	-3.57964
6934.883	4.62513	-0.21823	2.00321	-3.64982
6938.884	4.76152	-0.27160	1.95936	-3.63941
6942.889	4.89028	-0.29331	1.87225	-3.59234
6946.880	4.58141	-0.39864	1.93073	-3.67521
6950.936	4.21999	-0.53748	1.99867	-3.73100
6954.888	4.18349	-0.62681	1.90601	-3.73165
6958.881	4.24954	-0.64452	1.99265	-3.73947
6962.879	4.27160	-0.75057	1.96365	-3.79035
6966.879	4.25914	-0.85957	1.98018	-3.68744
6970.883	4.21967	-0.90283	1.97309	-3.77848
6974.880	4.21447	-0.90449	1.91080	-3.79054
6978.905	4.36266	-0.97677	1.96801	-3.75886
6982.890	4.31069	-1.03091	2.00668	-3.84445
6986.890	4.16981	-1.06640	2.00291	-3.78722
6990.884	4.13611	-1.03484	2.01798	-3.73021
6994.878	4.24737	-1.03893	1.95130	-3.66811
6998.884	4.37596	-1.02062	1.91665	-3.60845
7002.881	4.44943	-1.06569	1.88896	-3.57393
7006.883	4.37566	-1.08796	1.80548	-3.51476
7010.876	4.39429	-1.06389	1.87458	-3.58833
7014.879	5.39401	-1.09074	3.09555	-3.54854
7018.881	8.41988	-0.95893	5.69010	-3.45042
7022.877	10.02468	-0.77232	7.13585	-3.42996
7026.889	10.85083	-0.31272	7.73382	-3.39274
7030.880	10.81125	-0.38191	7.89452	-3.43463
7034.883	11.11325	-0.34933	8.19202	-3.57419
7038.880	11.15014	-0.33688	8.26045	-3.97549
7042.881	10.60912	-0.35105	7.90674	-3.72454
7046.882	10.67167	-0.35207	7.89179	-3.66489
7050.884	10.53123	-0.20270	7.91222	-3.68356
7054.879	10.90887	-0.12212	7.92471	-3.62275
7058.882	10.95076	-0.08839	8.05825	-3.69604
7062.877	11.25665	-0.06227	7.99637	-3.62948
7066.889	11.25218	-0.03570	8.08659	-3.60333
7070.881	11.33671	-0.04152	7.99927	-3.57518
7074.881	11.45648	-0.01072	7.92977	-3.51300
7078.876	11.57339	-0.01341	7.79590	-3.47170
7082.882	11.66620	0.02516	7.69217	-3.47130
7086.878	11.53360	0.02822	7.68486	-3.43396
7090.881	11.62499	0.06199	7.63725	-3.42019
7094.876	11.63506	0.04230	7.66958	-3.37828
7098.878	11.57412	0.04080	7.63584	-3.39762
7102.881	11.47782	0.06965	7.59037	-3.39388
7106.887	11.31958	0.09398	7.61263	-3.41805
7110.884	10.94772	0.06565	7.63525	-3.43272
7115.252	10.61116	0.02184	7.70709	-3.46320
7118.883	10.66606	-0.00850	7.83432	-3.48384
7122.874	10.73109	-0.00339	7.74525	-3.51345
7126.883	10.66361	-0.02366	7.81522	-3.55110
7130.878	10.60464	-0.03483	7.92408	-3.57741
7134.879	10.57150	-0.06820	8.06713	-3.59064
7138.880	10.53706	-0.08189	8.08552	-3.65203
7142.878	10.50604	-0.11747	8.10009	-3.69115
7146.876	10.53238	-0.15811	8.16175	-3.82259
7150.885	10.53833	-0.21704	8.18439	-3.91459
7154.881	10.58380	-0.22753	8.19222	-4.10622
7158.874	10.51844	-0.24412	8.23342	-4.07250
7162.882	10.52612	-0.26073	8.26570	-4.12095
7166.877	10.60442	-0.28210	8.31620	-4.08397
7170.875	10.50810	-0.32429	8.32961	-3.95673
7174.877	10.48161	-0.35175	8.32449	-3.99160
7178.878	10.52785	-0.34288	8.35160	-3.88792
7182.911	10.50397	-0.32688	8.19759	-3.82725
7186.880	10.53826	-0.31387	8.18410	-3.87025
7190.881	10.59622	-0.29625	8.08511	-3.96727
7194.888	10.73397	-0.24805	8.08144	-3.82625
7198.877	10.68238	-0.19706	8.13205	-3.94279
7202.878	10.93930	-0.18276	7.82484	-3.76050
7206.876	11.10579	-0.13196	7.79003	-3.70232
7210.879	11.20746	-0.06825	7.71452	-3.67196
7214.876	11.17840	-0.06168	7.72956	-3.71751
7218.876	11.11616	-0.00098	7.69958	-3.67081
7222.877	11.25385	0.00080	7.61789	-3.66312
7226.878	11.26066	-0.02150	7.61031	-3.69358
7230.879	11.33958	-0.03331	7.64176	-3.65090
7234.888	11.37381	-0.01557	7.58902	-3.62189
7238.878	11.46547	-0.03923	7.60726	-3.56621
7242.877	11.46206	-0.03324	7.59995	-3.41774
7246.877	11.43863	0.02769	7.63755	-3.36391
7250.875	11.41652	0.01798	7.67387	-3.31800
7254.879	11.24982	0.03675	7.73121	-3.25374
7258.878	11.10519	0.06984	7.78818	-3.16063
7262.874	10.58752	-0.00967	7.85100	-3.05464
7266.875	10.62281	-0.00242	7.92804	-2.99281
7270.878	10.37916	0.05407	8.07501	-3.09036
7274.881	10.43491	0.06955	8.04696	-3.11849
7278.910	10.40473	0.07212	8.09421	-3.01205
7282.874	10.43270	0.09685	8.12483	-3.02701
7286.878	10.33029	0.11123	8.09270	-3.09562
7290.878	10.25341	0.09844	8.09389	-3.12291
7294.880	10.24440	0.10212	8.09949	-3.19922
7298.875	10.26840	0.09624	8.08715	-3.26612
7302.878	10.27386	0.08189	8.04436	-3.37828
7306.872	10.29044	0.11797	8.00951	-3.43725
7310.879	10.24327	0.12676	8.01567	-3.49518
7314.875	10.26405	0.14311	7.95636	-3.54575
7318.883	10.24418	0.14814	7.93318	-3.62935
7322.883	10.22969	0.12310	7.94000	-3.65051
7326.874	10.20272	0.09624	7.97534	-3.70941
7330.749	10.14588	0.05411	8.09533	-3.74590
7334.753	10.20034	0.02805	8.11982	-3.81040
7338.748	10.18274	0.00699	8.16433	-3.92651
7342.752	10.17493	-0.04300	8.22482	-4.00475
7346.748	10.16076	-0.10290	8.33236	-4.09604
7350.753	10.14162	-0.13275	8.46492	-4.04493
7354.751	10.21647	-0.17004	8.35170	-4.03478
7358.750	10.23781	-0.25855	8.36744	-3.96225
7362.752	10.26374	-0.30131	8.28250	-3.87610
7366.752	10.28883	-0.27652	8.28741	-3.75328
7370.748	10.35404	-0.39301	8.26048	-3.74362
7374.749	10.45613	-0.41407	8.23741	-3.68883
7378.753	10.50045	-0.49129	8.26806	-3.63885
7382.749	10.59104	-0.50804	8.26736	-3.62238
7386.748	10.69637	-0.55809	8.18174	-3.51307
7390.752	10.73207	-0.60143	8.07134	-3.51534
7394.747	10.81657	-0.66818	8.03000	-3.49130
7398.753	10.89855	-0.70369	8.01053	-3.47122
7402.748	10.97750	-0.72233	8.00226	-3.48706
7406.756	11.00312	-0.75512	8.00241	-3.48727
7410.746	10.95681	-0.79036	7.97488	-3.50884
7414.752	10.89659	-0.59678	7.98907	-3.53223
7418.748	10.87735	-0.28480	8.00878	-3.56091
7422.747	10.77193	-0.35130	8.02304	-3.59086
7426.752	10.72580	-0.05623	8.08980	-3.59713
7430.749	10.55610	-0.23974	8.12926	-3.67425
7434.752	10.49097	-0.14704	8.16107	-3.71219
7438.752	10.48967	0.06580	8.21765	-3.76743
7442.748	11.21037	0.03252	8.45417	-3.70972
7446.751	12.02095	0.54437	9.78096	-2.38434
7450.745	13.92134	3.09489	10.52696	-1.02706
7454.754	14.39019	3.73585	10.68863	-0.75833
7458.777	14.38025	3.86015	11.00706	-0.47154
7462.752	14.19979	4.08179	11.36443	-0.33078
7466.749	14.01001	4.13785	11.38154	-0.25785
7470.751	13.09143	3.96622	10.58143	-0.35252
7474.744	13.56523	3.93239	10.51194	-0.39174
7478.756	13.34148	3.73112	10.79332	-0.37502
7482.745	13.70327	3.65160	10.90334	-0.19476
7486.748	13.89302	3.73216	10.98925	-0.09170
7490.750	14.02767	3.80241	11.10366	-0.00961
7494.751	14.17292	3.92679	11.09802	0.14267
7498.746	14.06214	3.91063	11.18735	0.24533
7502.746	14.08570	3.89329	11.09164	0.34936
7506.745	14.07162	3.82980	11.10261	0.37904
7510.749	14.00069	3.82880	11.03640	0.47366
7514.746	13.75566	3.90040	11.10973	0.49224
7518.746	13.71830	3.88631	11.08557	0.30569
7522.744	13.64586	3.90851	11.07957	0.21906
7526.750	13.71062	3.94315	11.08213	0.35713
7530.753	13.59553	3.97456	10.97306	0.39809
7534.747	13.42873	3.99922	10.91466	0.29682
7538.751	13.39353	4.05746	10.85993	0.33204
7542.747	13.37049	4.09352	10.87024	0.37400
7546.747	13.34465	4.14834	10.76350	0.37301
7550.748	13.28641	4.17443	10.72259	0.34171
7554.748	13.24717	4.26260	10.63377	0.38240
7558.745	13.22512	4.29007	10.60924	0.39682
7562.751	13.20204	4.31941	10.60210	0.46555
7566.745	13.18821	4.35225	10.56925	0.53092
7570.756	13.17405	4.36337	10.53612	0.50017
7574.748	13.17296	4.39582	10.56860	0.57620
7578.751	13.17953	4.34574	10.56303	0.58696
7582.745	13.39778	4.20939	10.54315	0.61162
7586.748	13.35663	4.14494	10.55176	0.55076
7590.747	13.44256	4.07729	10.59179	0.58830
7594.745	13.47324	4.08127	10.59977	0.51892
7598.747	13.53059	4.02440	10.65633	0.25253
7602.749	13.63866	3.95951	10.66877	0.12378
7606.748	13.61881	3.97189	10.69788	0.03877
7610.750	13.63187	3.98066	10.74249	0.02710
7614.750	13.65198	3.97835	10.76503	0.07602
7618.749	13.62584	3.96973	10.75885	-0.04111
7622.742	13.64232	4.03020	10.75735	-0.07404
7626.750	13.61567	4.14294	10.77236	-0.11017
7630.745	13.55639	4.19208	10.76587	-0.10119
7634.748	13.58064	4.24875	10.75052	-0.12831
7638.746	13.52548	4.26862	10.74645	-0.13286
7642.746	13.49497	4.33916	10.72999	-0.09256
7646.743	13.46655	4.37878	10.70728	-0.07130
7650.745	13.44672	4.35296	10.68633	-0.04786
7654.753	13.43575	4.39400	10.66122	-0.06303
7658.765	13.39778	4.39962	10.66565	-0.09580
7662.749	13.43763	4.38609	10.67663	-0.08613
7666.746	13.46752	4.37629	10.69525	-0.11166
7670.783	13.45796	4.34316	10.75241	-0.11589
7674.742	13.48341	4.29878	10.79107	-0.13809
7678.745	13.48671	4.24677	10.77148	-0.08168
7682.742	13.48087	4.20407	10.77423	0.19324
7686.743	13.51956	4.21529	10.77188	0.02566
7690.743	13.56137	4.19031	10.74396	0.10383
7694.746	13.57956	4.15087	10.72088	0.08558
7698.747	13.58116	4.11913	10.65592	0.36528
7702.743	13.63857	4.11147	10.63602	0.43402
7706.742	13.69495	4.09202	10.65611	0.33981
7710.745	13.74898	4.08441	10.63228	0.38489
7714.742	13.76699	4.05103	10.61941	0.45295
7718.743	13.88722	4.07487	10.53859	0.47706
7722.741	13.98237	4.08241	10.53317	0.48486
7726.757	14.04243	4.12446	10.54212	0.47564
7730.746	14.00480	4.10218	10.51328	0.46207
7734.744	13.94511	4.01503	10.54385	0.46623
7738.749	14.02935	4.01827	10.55385	0.43272
7742.746	14.05549	4.01419	10.57730	0.40614
7746.744	14.00732	3.95282	10.60164	0.39856
7750.743	13.92505	3.84297	10.62797	0.41391
7754.742	13.86418	3.86185	10.60661	0.42449
7758.745	13.89297	3.92963	10.60459	0.42965
7762.741	13.90504	3.93646	10.62624	0.45448
7766.742	13.84303	3.94171	10.66143	0.48903
7770.741	13.81851	3.90214	10.69465	0.49989
7774.742	13.66130	4.17661	10.68897	0.53987
7778.749	13.68152	4.20977	10.68451	0.55863
7782.743	13.69900	4.30742	10.67715	0.53090
7786.747	13.67921	4.34252	10.67627	0.34206
7790.742	13.68291	4.26644	10.65645	0.15741
7794.761	13.66053	4.47049	10.66467	0.08222
7798.744	13.67103	4.44708	10.66524	0.14393
7802.741	13.65329	4.47631	10.69244	0.16765
7806.745	13.69310	4.43868	10.74546	0.06953
7810.742	13.73481	4.42388	10.69335	-0.03221
7814.741	13.69600	4.39787	10.56555	0.15443
7818.747	13.84906	4.39364	10.55905	0.07644
7822.746	14.23687	4.28568	10.55622	0.02990
7826.744	13.89669	4.25154	10.69148	0.03042
7830.738	13.75861	4.04522	10.64904	0.02188
7834.745	13.83128	3.82761	10.33344	0.13074
7838.743	13.94104	3.79603	10.63981	0.34581
7842.741	13.86212	4.09775	10.62866	0.34282
7846.740	13.76771	3.70004	10.52110	0.35061
7850.743	13.87924	3.88455	10.54759	0.28145
7854.748	13.94883	3.89124	10.55152	0.58410
7858.744	13.98669	3.76136	10.61423	0.15443
7862.748	14.10994	3.86536	10.74930	0.30128
7866.742	13.96888	4.01688	10.60339	0.39848
7870.740	14.15575	3.77284	10.66138	0.14825
7874.744	14.01573	3.77848	10.71434	0.20988
7878.740	13.64631	4.15962	10.38939	0.40622
7882.741	10.68343	4.18052	8.32269	0.27870
7886.766	8.74551	3.95080	7.57508	0.25566
7890.784	6.89189	3.59897	5.18385	0.25591
7894.740	6.66119	2.49140	4.79497	0.11344
7898.740	5.92437	-0.03759	4.52059	-0.12029
7902.744	5.30397	1.96959	4.00771	-0.57904
7906.744	5.01667	0.98600	3.01274	-1.07731
7910.742	4.77628	0.09930	2.03571	-0.84706
7914.736	4.55105	1.94181	2.06860	-0.83733
7918.744	4.41921	0.96149	2.04860	-1.18100
7922.741	4.64702	1.25170	1.85224	-1.04104
7926.738	4.60158	1.65466	1.77667	-1.12913
7930.739	4.50658	0.94216	1.80734	-1.25550
7934.739	4.45419	0.68106	1.90344	-1.20327
7938.742	4.17191	0.68515	1.72443	-1.28507
7942.741	4.11564	0.83265	1.65587	-1.36143
7946.741	4.26358	0.87671	1.64089	-1.39083
7950.744	4.27721	0.65753	1.55112	-1.38044
7954.738	4.38780	0.72440	1.64781	-1.46011
7958.736	4.16751	0.85625	1.61771	-1.51201
7962.737	3.96933	0.96511	1.51095	-1.48406
7966.740	4.10271	0.86049	1.67958	-1.42807
7970.740	4.08142	0.79573	1.60151	-1.47010
7974.738	3.84634	1.02814	1.68538	-1.54713
7978.739	3.74701	0.73105	1.75800	-1.49612
7982.740	3.83697	1.07452	1.83739	-1.61419
7986.740	3.90244	0.77427	1.80568	-1.54934
7990.747	3.91114	0.96602	1.81907	-1.56293
7994.740	3.85345	1.38182	1.80967	-1.55524
7998.742	3.97200	1.09177	1.84882	-1.46189
8002.741	3.86417	0.78689	1.88368	-1.43960
8006.739	4.03438	0.71702	1.88105	-1.47172
8010.736	4.00544	1.12773	1.85943	-1.55599
8014.742	4.03735	1.07746	1.84696	-1.57799
8018.736	3.92312	1.25915	1.83605	-1.56282
8022.735	3.90476	1.21951	1.77908	-1.67057
8026.743	3.92734	1.15574	1.76021	-1.61430
8030.748	3.81775	1.44320	1.75629	-1.62888
8034.740	3.87818	1.62430	1.77630	-1.65963
8038.740	3.80006	1.44958	1.72951	-1.64205
8042.740	3.74548	1.45648	1.71055	-1.75558
8046.734	3.82193	1.04336	1.56451	-1.76228
8050.743	3.95592	1.41291	1.45301	-1.81680
8054.738	4.05359	1.45733	1.51819	-1.75219
8058.740	3.81219	1.16041	1.50623	-1.83417
8062.735	3.84735	0.63041	1.39944	-1.82885
8066.737	3.74973	0.85009	1.34147	-1.75809
8070.752	3.85286	1.33035	1.36258	-1.78232
8074.741	3.85498	0.72382	1.35921	-1.75204
8078.735	3.96874	0.69321	1.35432	-1.66875
8082.742	3.92529	0.86769	1.34805	-1.74850
8086.738	4.22545	1.05055	1.48220	-1.54043
8090.741	4.09172	0.61444	1.44887	-1.68710
8094.736	4.07448	0.89918	1.55526	-1.60377
8098.742	3.95723	1.05752	1.52484	-1.55323
8102.739	3.97652	0.53546	1.58473	-1.62328
8106.745	4.08226	0.87830	1.58416	-1.53492
8110.739	4.02268	1.00031	1.61389	-1.65463
8114.742	4.04100	0.47231	1.62376	-1.49443
8118.733	4.11120	0.71358	1.63755	-1.69082
8122.739	4.07720	0.69031	1.67990	-1.71329
8126.736	4.07883	0.51222	1.65619	-1.61000
8130.739	3.92709	0.80205	1.64003	-1.85738
8134.734	3.97311	0.31162	1.66879	-1.43949
8138.739	3.89463	0.63866	1.66410	-1.90847
8142.738	3.93776	0.80455	1.65096	-1.81380
8146.735	3.93277	0.59015	1.59529	-1.96724
8150.736	3.90427	0.80810	1.61044	-1.88252
8154.747	3.94942	0.58671	1.55633	-1.94137
8158.737	3.97793	0.67746	1.53575	-1.82606
8162.734	3.98721	0.82574	1.57495	-1.93307
8166.735	4.00941	0.76886	1.54517	-1.88645
8170.736	4.15781	0.84658	1.56114	-1.81512
8174.738	4.17403	0.76246	1.59484	-1.94369
8178.732	4.08006	0.92774	1.55003	-1.83081
8182.740	4.08046	0.59527	1.47213	-1.90113
8186.610	3.95725	0.97385	1.53927	-1.81990
8190.613	4.01006	0.37457	1.55700	-1.88931
8194.607	3.92364	0.91131	1.56181	-1.76127
8198.614	3.85363	0.36326	1.64684	-1.84261
8202.612	3.86640	1.02886	1.53724	-1.81583
8206.621	3.84135	0.26137	1.58864	-1.95464
8210.611	3.76161	0.94609	1.58247	-1.82512
8214.610	3.75190	0.11709	1.56568	-1.85040
8218.610	3.73895	0.66992	1.59011	-1.71516
8222.609	3.76618	1.13700	1.58076	-1.99028
8226.612	3.77992	0.61789	1.61168	-1.83487
8230.609	3.83722	1.00864	1.58158	-1.95973
8234.614	3.82356	0.61219	1.57870	-1.76349
8238.612	3.91563	0.81337	1.54820	-1.84545
8242.613	3.94787	0.93480	1.48359	-1.90878
8246.615	4.01626	0.74358	1.50100	-1.79005
8250.610	4.06577	0.93093	1.52032	-1.96093
8254.612	4.00566	0.72720	1.53557	-1.81703
8258.607	4.12940	0.92540	1.60558	-1.41908
8262.613	4.00378	0.92830	1.67586	-1.85335
8266.611	4.02228	0.67351	1.65830	-1.70592
8270.608	4.07611	0.75321	1.74015	-1.81384
8274.613	4.15670	0.77469	1.71476	-1.78610
8278.610	4.33611	0.71233	1.79346	-1.64299
8282.609	4.10063	0.84726	1.78327	-1.79429
8286.614	4.26605	0.45810	1.77742	-1.49831
8290.608	4.11253	0.65978	1.69185	-2.08527
8294.615	4.29725	0.60286	1.79467	-1.74361
8298.608	4.28345	0.61268	1.76728	-1.72915
8302.609	4.31783	0.71582	1.65743	-2.02744
8306.611	4.41117	0.52505	1.55512	-1.84661
8310.647	4.37475	0.56923	1.60536	-2.14535
8314.607	4.46586	0.63260	1.42198	-2.10792
8318.612	4.27042	0.72652	1.50782	-1.93437
8322.614	4.33002	1.23963	1.32222	-1.27848
8326.612	4.12599	4.12359	1.27899	1.12688
8330.611	3.92845	4.17653	1.31307	2.82272
8334.607	3.93035	5.23563	1.16126	2.50755
8338.609	4.10621	4.51535	1.32629	2.94799
8342.608	3.71980	5.17545	1.20519	2.83305
8346.608	3.40160	5.46997	1.26480	2.29363
8350.606	3.70477	4.62392	1.40512	2.29511
8354.610	3.83006	4.41249	1.29355	2.52049
8358.608	3.93305	4.93611	1.42179	2.42108
8362.603	3.91704	5.35945	1.41665	2.34669
8366.617	3.97481	5.47703	1.27634	2.50992
8370.610	4.11073	4.99460	1.37754	2.68269
8374.610	4.19928	5.04185	1.37407	2.80951
8378.604	4.24914	5.06852	1.45983	2.92560
8382.605	4.16045	4.99035	1.39899	2.96604
8386.609	4.25366	4.99430	1.40735	2.94658
8390.606	4.25953	4.86550	1.43173	2.89144
8394.606	4.30304	4.87799	1.38565	3.02930
8398.606	4.31642	4.80275	1.45423	2.91664
8402.607	4.32261	5.19558	1.43868	3.11367
8406.605	4.31573	5.21740	1.40819	3.13056
8410.615	4.32868	5.12203	1.46834	3.17300
8414.611	4.30788	4.95815	1.43354	3.10191
8418.649	4.31644	4.78552	1.51883	2.80386
8422.607	4.32587	5.13473	1.46015	3.12962
8426.608	4.29986	5.13683	1.57203	3.18909
8430.603	4.32034	4.98620	1.56087	3.08004
8434.611	4.35627	4.76298	1.57984	2.93007
8438.608	4.36708	4.58432	1.67174	2.71523
8442.607	4.43557	5.12828	1.68466	3.10276
8446.605	4.41761	5.08298	1.72027	3.00108
8450.611	4.50693	5.07588	1.80873	3.17194
8454.612	4.44817	4.87776	1.72118	3.10855
8458.603	4.43443	5.02817	1.70663	3.01047
8462.609	4.40502	4.82794	1.64260	3.04953
8466.606	4.50047	4.52077	1.67581	2.89490
8470.610	4.55179	4.45930	1.61468	2.79372
8474.881	4.59457	4.45618	1.68486	2.67965
8478.612	4.55648	4.32974	1.71268	2.52459
8482.605	4.60064	4.67430	1.69393	2.87262
8486.604	4.63573	4.49044	1.67578	2.62645
8490.608	4.59290	4.58889	1.64846	2.63610
8494.610	4.50360	4.54148	1.67794	3.22072
8498.607	4.42918	4.66787	1.68937	3.23184
8502.606	4.49899	4.54858	1.72475	2.92631
8506.607	4.43488	4.63604	1.75671	2.97573
8510.605	4.51914	4.81015	1.74868	2.87346
8514.605	4.51975	4.83528	1.75587	2.92106
8518.604	4.46073	4.86282	1.72860	2.97278
8522.608	4.45076	4.86648	1.69926	3.00223
8526.606	4.47738	4.90219	1.64699	2.94115
8530.602	4.43159	5.01233	1.61109	3.02461
8534.665	4.37226	5.04649	1.57858	3.22419
8538.613	4.27975	5.05394	1.49064	3.30155
8542.606	4.23280	5.00895	1.54502	2.96877
8546.609	4.24028	4.93794	1.46670	2.85641
8550.604	4.24717	4.89382	1.44113	2.96536
8554.603	4.16882	4.90417	1.41576	2.95829
8558.606	4.17603	4.90374	1.37506	3.01012
8562.603	4.09927	4.99683	1.33125	3.20639
8566.603	4.03149	4.73644	1.36484	3.08806
8570.603	4.03586	4.81755	1.34323	3.00089
8574.611	3.97140	4.89358	1.32711	3.27011
8578.608	3.87374	5.17581	1.29906	3.08931
8582.603	3.88769	4.80312	1.24597	2.96248
8586.602	3.78328	4.93909	1.25175	3.21112
8590.603	3.72897	5.32908	1.18401	3.24788
8594.607	3.78776	4.87773	1.17292	3.08031
8598.603	3.75684	4.20489	1.28336	2.21995
8602.603	3.75215	2.25586	1.34720	0.39059
8606.604	3.70131	1.16445	1.63717	-1.71221
8610.628	3.87727	0.26649	3.03994	-3.42748
8614.604	4.06187	-2.56381	3.03360	-6.06090
8618.604	4.29330	-4.38806	2.74403	-7.50014
8622.611	4.39891	-6.65765	3.12979	-8.31581
8626.603	4.39757	-8.27810	3.52269	-9.16706
8630.606	4.35627	-9.00353	3.76853	-9.76178
8634.600	4.71284	-8.74618	3.66481	-10.00453
8638.604	4.77976	-8.01078	3.68073	-9.67105
8642.607	4.69009	-6.71987	3.71854	-8.87750
8646.600	5.04403	-8.13092	3.75959	-8.85027
8650.607	4.88355	-8.51186	3.80592	-8.89412
8654.603	4.96329	-8.64919	3.73917	-9.15397
8658.610	4.97152	-8.60889	3.80903	-9.20755
8662.605	4.90299	-8.93982	3.74202	-9.40000
8666.605	4.92152	-8.73534	3.79196	-9.58503
8670.605	4.96122	-8.70619	3.73193	-9.70551
8674.603	5.15406	-8.62670	3.73445	-9.72297
8678.601	5.08505	-8.91997	3.71755	-9.53146
8682.603	4.95992	-9.48142	3.68082	-9.14181
8686.604	4.89678	-9.49825	3.62289	-9.40638
8690.607	4.93878	-8.57017	3.60509	-9.39855
8694.605	4.78688	-9.18453	3.57107	-9.25762
8698.599	4.96615	-9.07198	3.49045	-9.40930
8702.611	4.71730	-8.58748	3.54917	-9.45064
8706.603	4.94534	-9.28486	3.53127	-9.20712
8710.606	4.81293	-9.59174	3.47292	-9.22359
8714.599	4.67732	-8.76965	3.51926	-9.35776
8718.606	4.73414	-9.61605	3.38773	-9.21838
8722.603	4.77081	-9.22897	3.36582	-9.19847
8726.605	4.76657	-9.26755	3.36851	-9.25181
8730.601	4.70865	-9.35080	3.33512	-9.17560
8734.605	4.81337	-9.38734	3.26841	-9.19907
8738.601	4.78858	-9.42139	3.31920	-9.25746
8742.626	4.81227	-9.43702	3.29951	-9.19333
8746.631	4.78622	-9.47352	3.27727	-9.14503
8750.637	4.75366	-9.44799	3.35924	-9.22345
8754.600	4.79378	-9.41012	3.26708	-9.28931
8758.603	4.72884	-9.35087	3.29107	-9.26082
8762.599	4.88155	-9.18795	3.26505	-9.22886
8766.599	4.90631	-9.21131	3.23467	-9.26324
8770.598	4.94987	-9.25912	3.18007	-9.28305
8774.602	4.96726	-9.22844	3.24172	-9.32887
8778.599	5.00817	-9.10093	3.27536	-9.43994
8782.604	5.01024	-9.10447	3.40477	-9.41165
8786.602	4.99285	-8.92010	3.27952	-9.45462
8790.603	4.97078	-8.99110	3.27613	-9.39775
8794.597	4.96760	-8.87453	3.37054	-9.32195
8798.604	4.93479	-8.94571	3.48056	-9.03059
8802.600	4.91513	-9.32658	3.62842	-9.27854
8806.603	4.94041	-9.23576	3.57335	-9.40592
8810.597	4.98184	-9.19778	3.55857	-9.49552
8814.600	5.05824	-9.13885	3.65648	-9.42834
8818.597	5.02974	-8.91154	3.63569	-9.34730
8822.605	5.00218	-8.82249	3.58507	-9.21459
8826.609	5.01807	-8.49653	3.59053	-9.09566
8830.597	4.99332	-8.60115	3.66721	-9.22532
8834.604	5.01489	-8.44191	3.73438	-9.09374
8838.600	5.06333	-9.71397	3.71918	-9.17999
8842.601	4.90486	-9.88422	3.62660	-9.46496
8846.598	5.02240	-9.96358	3.58845	-9.48282
8850.602	5.10733	-9.41696	3.55592	-9.38985
8854.603	4.93368	-8.62031	3.51550	-9.32708
8858.604	4.93065	-8.39086	3.53651	-9.21389
8862.601	4.92910	-8.41586	3.58351	-9.08538
8866.601	4.97376	-8.40728	3.68451	-9.33934
8870.601	4.89087	-10.09195	3.62585	-9.54617
8874.605	4.89668	-10.08051	3.61068	-9.81428
8878.602	4.95923	-9.69625	3.51765	-9.63061
8882.602	4.98233	-8.81775	3.55708	-9.52063
8886.598	5.03918	-8.56445	3.48286	-9.34916
8890.603	5.01541	-8.50830	3.37504	-9.30587
8894.599	5.17105	-8.61972	3.63989	-9.33436
8898.596	5.49018	-10.27350	5.28037	-9.38290
8902.604	8.77448	-9.55717	6.31814	-9.21148
8906.599	9.27801	-8.91094	8.70798	-9.33466
8910.606	12.05763	-8.60892	10.54380	-9.74562
8914.624	12.19723	-8.84384	11.50968	-10.11003
8918.604	12.16178	-9.03798	11.76518	-10.50466
8922.598	12.11973	-9.53742	11.40186	-10.36201
8926.598	11.96470	-9.30142	11.09465	-10.21082
8930.597	10.85602	-9.28820	10.68341	-10.42634
8934.597	11.05734	-9.40592	10.49476	-10.33783
8938.597	11.37743	-9.43858	10.66409	-10.23752
8942.601	11.75460	-9.29970	10.80977	-10.25211
8946.600	12.16408	-9.24274	11.01510	-10.27938
8950.607	12.16543	-9.22189	11.03425	-10.23385
8954.598	11.96532	-9.23624	11.15386	-10.19360
8958.601	11.90502	-9.20265	11.11454	-10.12689
8962.599	11.86709	-9.22043	10.93909	-10.12262
8966.598	12.72348	-9.16031	10.93021	-10.07406
8970.598	12.61845	-9.08422	10.92342	-10.05912
8974.596	12.64870	-8.99042	11.02519	-10.02179
8978.603	12.69164	-8.96769	11.01883	-9.99653
8982.603	12.59822	-8.96268	11.09014	-9.98953
8986.597	12.75290	-8.95671	11.07056	-10.01741
8990.604	12.36445	-9.09650	11.09427	-10.05442
8994.598	12.23858	-9.03261	11.14500	-10.13121
8998.600	12.04593	-9.25220	11.11633	-10.22757
9002.598	11.77991	-9.02303	11.09492	-10.05700
9006.597	12.04476	-8.99342	11.11891	-10.02780
9010.597	12.54975	-8.87723	11.14010	-9.71673
9014.599	12.38649	-9.00809	11.16595	-9.68978
9018.626	12.43715	-8.97647	11.19089	-9.75475
9022.605	12.16441	-9.23173	11.21224	-9.83700
9026.594	12.04593	-9.15493	11.21742	-9.81932
9030.600	11.93313	-9.41026	11.21061	-10.14406
9034.603	11.95845	-8.97932	11.14003	-9.51478
9038.476	12.23305	-8.82784	11.02490	-9.30061
9042.474	12.03562	-8.83167	11.06755	-9.39375
9046.468	11.99942	-9.07343	11.13523	-9.44292
9050.596	12.05644	-9.47579	11.12228	-9.55929
9054.469	12.02273	-9.28679	11.19788	-9.68350
9058.474	12.00117	-9.08809	11.05218	-9.59692
9062.469	11.92802	-9.12371	10.99896	-9.57400
9066.470	11.95342	-8.89970	11.01055	-9.16403
9070.469	11.99735	-8.73066	11.00300	-9.26990
9074.473	12.00792	-8.94421	11.06267	-9.33370
9078.469	12.06128	-9.06362	11.16182	-9.20116
9082.474	12.08407	-9.19040	11.17066	-9.37516
9086.492	12.02242	-9.38903	11.17926	-9.46803
9090.477	12.03306	-9.18508	11.11533	-9.58490
9094.471	11.92864	-9.33972	11.18883	-9.53872
9098.469	11.84194	-9.29390	11.14569	-9.55353
9102.481	11.78718	-9.38291	11.17634	-9.72743
9106.478	11.69883	-9.56774	11.20089	-9.69368
9110.470	11.81914	-9.37523	11.22009	-9.83480
9114.474	12.01549	-9.35717	11.24922	-9.85067
9118.467	12.16631	-9.25497	11.25915	-9.85457
9122.479	12.16562	-9.13643	11.25963	-9.90049
9126.469	12.08274	-9.11482	11.23960	-9.91446
9130.472	12.17964	-8.74177	11.27877	-9.85900
9134.469	12.19674	-9.13343	11.28476	-9.67272
9138.472	12.36153	-9.29427	11.22539	-9.67425
9142.473	12.33494	-9.18187	11.18207	-9.53325
9146.472	12.43701	-9.00496	11.13363	-9.55508
9150.477	12.36992	-9.01815	11.03133	-9.42767
9154.980	12.37413	-8.96651	10.90801	-9.30964
9158.480	12.29732	-9.33041	10.80352	-9.28117
9162.476	12.17822	-9.30581	10.73842	-9.25829
9166.476	12.08781	-9.31485	10.47943	-9.19344
9170.470	12.07808	-9.28371	10.34199	-9.12137
9174.469	11.89970	-9.32452	10.52521	-9.09834
9178.466	11.98963	-9.23594	10.47019	-9.11656
9182.469	12.23848	-9.33948	10.53895	-9.11174
9186.471	12.04353	-9.14987	10.26160	-9.11832
9190.465	8.95278	-8.94401	7.40718	-8.76499
9194.465	7.62404	-8.98568	6.43665	-8.61905
9198.469	5.06732	-8.29446	3.89152	-7.88561
9202.467	3.33925	-8.21342	2.67972	-7.41065
9206.476	2.48019	-8.35644	1.02876	-7.64327
9210.471	0.82640	-8.60755	0.17707	-7.30709
9214.470	0.12652	-7.57669	-2.17978	-6.72031
9218.467	-1.23141	-5.12295	-2.74254	-5.81584
9222.471	-1.62931	-3.86772	-4.00406	-4.52481
9226.470	-4.12757	-3.18680	-4.57795	-4.58918
9230.466	-3.97721	-3.47254	-5.55546	-4.24314
9234.471	-3.84456	-3.49122	-5.79300	-3.98467
9238.471	-3.87490	-3.49060	-5.41920	-3.87546
9242.467	-3.85165	-3.70792	-4.81471	-4.06810
9246.471	-3.92615	-3.64792	-4.66827	-4.21629
9250.470	-4.04423	-4.32902	-4.63496	-4.34914
9254.469	-4.06715	-3.92446	-4.85815	-4.12454
9258.465	-4.09567	-3.93720	-5.02767	-4.04306
9262.471	-4.22888	-3.98179	-5.24870	-3.98192
9266.468	-4.08214	-3.80482	-5.26858	-3.97766
9270.470	-4.03063	-3.87566	-5.37837	-3.91527
9274.466	-4.12826	-3.87196	-5.30577	-3.90642
9278.470	-4.11063	-4.27021	-5.24585	-3.89027
9282.467	-4.04228	-4.23643	-5.24580	-3.89584
9286.465	-4.04036	-4.27881	-5.38885	-3.84758
9290.475	-4.08979	-4.24900	-5.46795	-3.77347
9294.468	-4.11592	-4.17488	-5.49099	-3.75485
9298.470	-3.96488	-4.05910	-5.56035	-3.70828
9302.467	-3.95394	-4.04546	-5.65393	-3.68994
9306.465	-3.90474	-4.10628	-5.68585	-3.66762
9310.469	-3.82998	-4.10642	-5.77681	-3.63852
9314.468	-3.80285	-4.15346	-5.86985	-3.60570
9318.467	-3.83258	-4.29393	-5.81744	-3.59995
9322.470	-3.86232	-4.25184	-5.84402	-3.60611
9326.466	-3.94053	-4.23927	-5.90873	-3.63627
9330.469	-3.91622	-4.29373	-5.63375	-3.63019
9334.466	-3.86951	-4.11780	-5.51145	-3.62521
9338.469	-3.81654	-3.75414	-5.69716	-3.62231
9342.465	-3.79705	-3.50295	-5.65813	-3.67504
9346.468	-3.85049	-3.38191	-5.57245	-3.75992
9350.465	-3.91753	-3.67079	-5.56517	-3.81727
9354.468	-3.88700	-3.73739	-5.51415	-3.99178
9358.491	-4.01944	-3.00196	-5.45809	-4.03506
9362.469	-3.95829	-2.31162	-5.44781	-3.91558
9366.464	-3.95560	-2.47681	-5.43979	-4.04971
9370.475	-4.02626	-2.54050	-5.42717	-4.13123
9374.466	-4.05574	-2.68593	-5.40909	-4.29402
9378.494	-4.13100	-2.74418	-5.44542	-4.34554
9382.462	-4.12858	-2.75831	-5.38474	-4.29985
9386.468	-3.68102	-2.79375	-5.34744	-4.29972
9390.465	-3.51206	-3.16047	-5.25995	-4.24712
9394.468	-3.37519	-2.94375	-5.25360	-4.27699
9398.461	-3.77943	-3.14206	-5.20849	-4.27439
9402.469	-3.82813	-3.29751	-5.29666	-4.26835
9406.465	-4.06219	-3.30719	-5.34036	-4.30882
9410.467	-4.18936	-3.43607	-5.31211	-4.26424
9414.467	-4.15561	-3.51807	-5.18439	-4.16498
9418.471	-4.03967	-3.48571	-5.20366	-4.08989
9422.466	-3.97259	-3.57335	-5.21459	-4.05584
9426.467	-3.67148	-3.65961	-5.30441	-4.04905
9430.467	-3.76376	-3.76020	-5.39037	-4.03765
9434.467	-3.64064	-3.76109	-5.53753	-3.91578
9438.470	-3.86032	-3.86431	-5.48661	-4.07331
9442.466	-3.85434	-4.09641	-5.54449	-3.83169
9446.466	-3.88616	-4.19908	-5.54813	-3.67353
9450.464	-3.86131	-4.30907	-5.56325	-3.65795
9454.471	-3.83695	-3.61924	-5.55883	-3.79298
9458.465	-3.76949	-3.53915	-5.70455	-3.66950
9462.466	-3.74001	-3.57556	-5.87634	-3.76175
9466.462	-3.80102	-3.86354	-5.72755	-3.69274
9470.468	-3.88201	-3.67532	-5.67315	-3.78335
9474.465	-3.76972	-3.27411	-5.54339	-3.79316
9478.466	-3.93191	-3.11653	-5.28047	-3.88062
9482.465	-3.83692	-2.81108	-5.13858	-3.83013
9486.466	-3.84893	-2.47524	-5.20184	-3.98773
9490.463	-3.92401	-2.60195	-5.25731	-4.03454
9494.472	-3.88636	-3.11035	-5.60556	-4.06428
9498.468	-4.01803	-2.59213	-5.46227	-3.84229
9502.468	-5.26145	-2.24807	-8.18361	-1.84442
9506.466	-7.12124	1.25183	-9.09773	-1.37030
9510.466	-8.58519	3.20544	-11.00419	0.43815
9514.461	-9.20978	3.41678	-11.64558	0.95538
9518.462	-9.53636	3.52282	-11.64092	1.86184
9522.465	-9.89347	3.27069	-11.82071	2.26980
9526.464	-10.04405	3.28479	-11.69790	2.42961
9530.460	-9.45918	3.50192	-11.69719	2.49121
9534.466	-9.29916	3.47014	-11.49212	2.52145
9538.470	-9.16177	3.32601	-11.27402	2.50310
9542.475	-9.31274	3.30990	-11.45562	2.55157
9546.467	-9.82414	3.41015	-11.53453	2.42610
9550.466	-9.91606	3.50868	-11.63625	2.49292
9554.462	-10.15213	3.65934	-11.74304	2.52741
9558.465	-10.27621	3.98015	-11.73645	2.52454
9562.459	-10.38533	4.09435	-11.67672	2.54356
9566.468	-10.43008	4.03154	-11.65630	2.38911
9570.462	-10.32140	4.16393	-11.69655	2.36321
9574.466	-9.96766	4.21828	-11.72082	2.36626
9578.468	-9.93099	3.96597	-11.77173	2.33061
9582.462	-9.72344	4.06916	-11.81482	2.30249
9586.464	-9.92408	4.07759	-11.84701	2.26676
9590.461	-9.89239	4.11566	-11.85666	2.35851
9594.462	-9.91462	4.05971	-11.84249	2.38917
9598.486	-9.74292	3.98721	-11.83087	2.32401
9602.460	-9.77310	3.95463	-11.81900	2.28453
9606.463	-9.85346	4.00029	-11.85609	2.25336
9610.466	-9.79840	3.91704	-11.92800	2.32512
9614.461	-9.74603	3.84425	-11.78576	2.32369
9618.461	-9.67946	3.81090	-11.77912	2.35464
9622.461	-9.67408	3.80226	-11.76421	2.25455
9626.469	-9.67196	3.84301	-11.74271	2.21382
9630.459	-9.64106	3.94685	-11.64199	2.25642
9634.464	-9.57942	3.88894	-11.63421	2.20997
9638.463	-9.60420	3.88690	-11.51254	2.14572
9642.461	-9.62919	3.87698	-11.48995	2.24787
9646.462	-9.76630	3.96446	-11.53606	2.32060
9650.458	-9.68951	3.93034	-11.57782	2.40038
9654.463	-9.76134	3.88245	-11.51290	2.50586
9658.460	-9.86112	3.91840	-11.57517	2.59801
9662.463	-9.91452	3.89774	-11.66896	2.45039
9666.464	-9.74135	3.89473	-11.69514	2.54716
9670.461	-9.71888	3.83452	-11.67632	2.81052
9674.460	-9.68983	3.78398	-11.66461	2.83832
9678.458	-9.82332	3.74590	-11.71632	2.83451
9682.458	-9.90313	3.75367	-11.73388	2.92361
9686.462	-9.84864	3.75988	-11.77689	2.90583
9690.459	-9.94216	3.74916	-11.80278	2.94552
9694.459	-10.05794	3.73058	-11.82563	2.91201
9698.458	-9.91705	3.71732	-11.81791	2.90977
9702.461	-9.78380	3.73581	-11.75343	2.95396
9706.467	-9.67312	3.68475	-11.73971	2.97638
9710.458	-9.77074	3.68331	-11.71289	2.94983
9714.483	-9.89191	3.69652	-11.72396	2.92112
9718.468	-9.95512	3.76992	-11.72420	2.93102
9722.464	-10.08407	3.78803	-11.79189	2.95252
9726.458	-9.83332	3.77809	-11.87444	2.91894
9730.460	-9.74769	3.85667	-11.67091	2.89986
9734.461	-9.61836	3.97306	-11.58872	2.91519
9738.465	-9.78537	4.00634	-11.71501	2.96325
9742.459	-9.81913	4.12880	-11.69398	2.90409
9746.462	-9.79505	4.04899	-11.79544	2.98681
9750.460	-9.91613	4.10011	-11.76366	2.90112
9754.462	-10.05866	4.17943	-11.81275	2.88365
9758.459	-9.85830	4.21622	-11.90108	2.85198
9762.460	-9.92206	4.18266	-11.53384	2.89970
9766.461	-9.94440	4.20156	-11.48833	2.81513
9770.460	-10.05320	4.20736	-11.53496	2.75141
9774.458	-10.04879	4.13328	-11.70575	2.82479
9778.456	-10.09116	4.01405	-11.82542	2.76683
9782.457	-10.02641	3.87777	-11.88967	2.72031
9786.465	-10.09068	3.92312	-11.88444	2.91857
9790.461	-10.11745	3.97122	-11.71180	2.88356
9794.461	-10.18014	3.95796	-11.80226	2.86762
9798.460	-10.14001	3.91376	-11.88026	2.85928
9802.459	-9.95868	3.89962	-11.82782	2.72665
9806.456	-10.29322	3.97926	-12.07232	2.67352
9810.457	-12.93597	4.42176	-13.43747	2.86231
9814.460	-13.51696	4.18731	-15.37464	2.80057
9818.460	-14.65934	4.96898	-15.26760	2.56752
9822.456	-14.23074	4.21268	-15.46765	2.79327
9826.461	-13.68698	4.08762	-15.49992	2.89670
9830.465	-13.50143	4.15882	-15.50412	2.88255
9834.461	-13.74453	4.28554	-15.55768	3.01022
9838.455	-13.23332	4.20363	-15.12976	2.70851
9842.461	-13.23264	4.20244	-14.70491	2.91284
9846.456	-13.52590	4.23880	-15.01494	2.76100
9850.459	-13.72240	4.30754	-15.18400	2.93561
9854.459	-14.17577	4.44037	-15.18492	2.77116
9858.463	-14.12506	4.43802	-15.25713	2.71329
9862.458	-13.67154	4.54635	-15.35496	2.66654
9866.457	-13.46029	4.75307	-15.30034	2.83004
9870.465	-13.61351	4.84330	-15.15469	2.74167
9874.459	-13.44416	4.93094	-15.20788	2.76277
9878.461	-13.66510	5.01383	-15.03068	2.72155
9882.454	-13.71905	5.10097	-14.94166	2.62261
9886.461	-13.89812	5.18011	-14.87058	2.67824
9890.457	-13.85852	5.09938	-14.94627	2.69189
9894.334	-13.93279	5.12948	-14.97351	2.68723
9898.330	-13.73118	5.01542	-14.85744	2.67095
9902.606	-13.86357	5.02609	-14.91977	2.67116
9906.338	-13.67396	4.90841	-14.90795	2.71915
9910.333	-13.82368	4.94335	-14.87742	2.66874
9914.334	-13.83533	4.87096	-14.98220	2.64078
9918.358	-13.90064	4.83087	-15.03615	2.59974
9922.338	-14.01910	4.87271	-15.08613	2.58344
9926.330	-13.89533	4.89207	-15.20753	2.63425
9930.330	-13.91434	4.85214	-15.39970	2.63643
9934.330	-13.88853	4.85347	-15.33229	2.79717
9938.335	-13.66505	4.73703	-15.38436	2.77238
9942.331	-13.72606	4.80950	-15.38373	2.85327
9946.330	-13.63916	4.77194	-15.45447	2.94045
9950.336	-13.59820	4.70173	-15.40703	2.92287
9954.334	-13.62005	4.62448	-15.44086	2.99926
9958.334	-13.61316	4.54322	-15.32181	2.90869
9962.330	-13.69368	4.53390	-15.18585	3.03855
9966.333	-13.60278	4.41751	-15.03091	3.01784
9970.334	-13.61522	4.34268	-15.07225	3.06166
9974.372	-13.61469	4.32339	-14.98972	3.00872
9978.333	-13.57487	4.31686	-14.96670	2.93408
9982.334	-13.59312	4.33536	-14.93946	2.91791
9986.330	-13.57804	4.33978	-14.89495	2.85264
9990.332	-13.59148	4.31684	-14.92016	2.82050
9994.327	-13.58167	4.31532	-14.84102	2.83066
9998.332	-13.57018	4.40290	-14.81458	2.78835
10002.336	-13.50122	4.46623	-14.79175	2.81898
10006.330	-13.46733	4.54314	-14.84118	2.82050
10010.332	-13.45672	4.56603	-14.84925	2.84306
10014.331	-13.37998	4.61134	-14.86082	2.86725
10018.328	-13.39485	4.68613	-14.87343	2.89511
10022.332	-13.37745	4.72510	-14.88753	2.92953
10026.330	-13.40605	4.77347	-14.89059	2.92439
10030.330	-13.42244	4.74554	-14.89300	2.90278
10034.326	-13.44780	4.75546	-14.88904	2.95105
10038.339	-13.46043	4.81021	-14.89562	2.96794
10042.340	-13.54406	4.80758	-14.91701	2.95773
10046.333	-13.66379	4.83187	-14.95241	2.94074
10050.331	-13.79903	4.84975	-14.98829	2.95727
10054.327	-13.86806	4.88240	-15.03892	2.94341
10058.330	-13.99765	4.91086	-15.09277	2.95279
10062.328	-13.96846	4.85043	-15.13478	2.93443
10066.328	-14.06614	4.87944	-15.13165	2.92509
10070.328	-13.84906	4.90766	-15.05323	2.98464
10074.332	-11.87059	4.94484	-13.09073	3.00927
10078.331	-9.83932	4.90489	-12.15310	3.07749
10082.331	-8.54367	4.88960	-10.23632	2.90839
10086.337	-7.88427	4.81749	-8.61501	2.42906
10090.329	-7.26979	4.68132	-8.41791	1.85677
10094.328	-7.15709	4.77096	-8.30169	1.38408
10098.328	-6.96274	4.69157	-8.51384	1.13398
10102.326	-7.07359	4.64933	-8.42573	1.22390
10106.352	-7.12503	4.73791	-8.39686	1.40492
10110.334	-7.38534	4.78235	-8.32558	1.42353
10114.327	-7.08148	4.57320	-8.33948	1.72377
10118.329	-6.92689	4.45670	-8.42901	1.40050
10122.330	-6.79457	4.21993	-8.45771	1.32290
10126.331	-6.77450	4.19426	-8.43207	1.41531
10130.327	-6.71698	3.96695	-8.33469	1.39237
10134.328	-6.65032	3.85107	-8.27912	1.41736
10138.375	-6.58146	3.61993	-8.17909	1.44397
10142.330	-6.71733	3.50280	-8.23340	1.51436
10146.326	-6.70058	3.49250	-8.20649	1.61068
10150.329	-6.59202	3.35107	-8.23350	1.74178
10154.333	-6.57088	3.30233	-8.34796	1.73862
10158.329	-6.52975	3.27090	-8.37002	1.64806
10162.330	-6.56331	3.28446	-8.35342	1.61111
10166.328	-6.55462	3.22195	-8.39377	1.56483
10170.329	-6.53372	3.20360	-8.42690	1.55217
10174.683	-6.54482	3.19587	-8.44164	1.51935
10178.329	-6.54323	3.29867	-8.47488	1.50927
10182.324	-6.58315	3.41504	-8.51770	1.61713
10186.328	-6.57735	3.59009	-8.53224	1.55523
10190.327	-6.56686	3.67919	-8.56146	1.48155
10194.329	-6.53357	3.78345	-8.57978	1.32439
10198.323	-6.51011	3.93782	-8.57420	1.33514
10202.331	-6.49411	4.05089	-8.55120	1.25781
10206.326	-6.43486	4.18741	-8.53018	1.34578
10210.333	-6.38942	4.32106	-8.60249	1.32834
10214.325	-6.41016	4.37014	-8.68519	1.36099
10218.330	-6.43976	4.49072	-8.75429	1.34761
10222.326	-6.45934	4.54328	-8.75107	1.39725
10226.324	-6.56123	4.41556	-8.77463	1.39199
10230.330	-6.57764	4.28479	-8.89894	1.43318
10234.326	-6.56096	4.33052	-8.92936	1.45281
10238.324	-6.57810	4.16115	-8.95937	1.53942
10242.325	-6.63607	3.65486	-9.05204	1.65707
10246.324	-6.68281	3.53904	-9.00714	1.67893
10250.343	-6.74366	3.64194	-9.04732	1.69429
10254.328	-6.76153	3.51659	-9.00174	1.74923
10258.328	-6.75049	3.52791	-8.97257	1.78365
10262.324	-6.72944	3.49308	-8.97554	1.93507
10266.329	-6.79633	3.52384	-8.95545	1.90612
10270.326	-6.76412	3.44427	-8.93854	1.96476
10274.328	-6.75167	3.52556	-8.87987	1.95875
10278.326	-6.74582	3.46953	-8.80781	1.82709
10282.330	-6.73436	3.47726	-8.41947	1.82104
10286.327	-6.24386	3.51027	-7.67416	2.02838
10290.332	-2.77906	3.52333	-4.32570	1.85327
10294.341	0.01926	3.27235	-1.99691	1.93101
10298.325	1.57714	3.42972	0.73283	1.75051
10302.324	2.66763	3.52299	1.06964	1.13906
10306.324	3.99015	3.24395	3.66407	0.16841
10310.322	6.12919	2.84846	3.79984	-0.26513
10314.329	6.99301	2.70556	6.12641	-1.04833
10318.325	9.32656	2.93755	7.37758	-0.03741
10322.325	9.62531	2.73303	7.85892	-0.93598
10326.324	11.92113	2.76916	8.67367	-0.48323
10330.326	12.65673	2.85234	9.40262	-0.40866
10334.326	12.55157	2.81794	8.85926	-0.42772
10338.331	12.27041	3.03109	8.76030	-0.29252
10342.322	12.16847	3.06399	8.89831	-0.50415
10346.325	12.25315	2.76246	9.01106	-0.56718
10350.323	12.11954	2.71600	9.09701	-0.52789
10354.326	12.14881	2.71939	9.23742	-0.48486
10358.322	12.25313	2.70737	9.34995	-0.55367
10362.329	12.32170	2.77286	9.49265	-0.61339
10366.324	12.38955	2.77481	9.39211	-0.53566
10370.323	12.36419	2.77457	9.35329	-0.55467
10374.328	12.33387	2.76220	9.38189	-0.46100
10378.339	12.29635	2.74922	9.46165	-0.40536
10382.326	12.39738	2.75927	9.48497	-0.52142
10386.321	12.50063	2.77798	9.51751	-0.59611
10390.326	12.58883	2.84172	9.54901	-0.63600
10394.322	12.76912	2.83074	9.55340	-0.77268
10398.321	12.66993	2.83149	9.58832	-0.90084
10402.325	12.76378	2.79957	9.57623	-0.64266
10406.321	12.71073	2.81369	9.52203	-0.76266
10410.319	12.84633	2.77393	9.53586	-0.64244
10414.326	12.81417	2.64126	9.54860	-0.63818
10418.349	12.79413	2.59599	9.55266	-0.51598
10422.330	12.91366	2.67181	9.58169	-0.65010
10426.326	12.95845	2.60084	9.65035	-0.50897
10430.323	12.89940	2.41769	9.72153	-0.61040
10434.321	12.82939	2.28676	9.74967	-0.67676
10438.327	12.83970	2.12702	9.82009	-0.68910
10442.323	12.79201	2.17807	9.71920	-0.54039
10446.323	12.79586	2.14956	9.73947	-0.58007
10450.320	12.77167	2.03640	9.74453	-0.62118
10454.326	12.75880	2.13337	9.74883	-0.41594
10458.325	12.72563	2.09451	9.72231	-0.42033
10462.318	12.72563	2.18349	9.68616	-0.42929
10466.326	12.75042	2.14607	9.66735	-0.49089
10470.323	12.69542	2.22819	9.60355	-0.56404
10474.325	12.66996	2.34285	9.53311	-0.63644
10478.319	12.67605	2.36506	9.54264	-0.58458
10482.324	12.74317	2.46252	9.54860	-0.61850
10486.321	12.91192	2.41583	9.61624	-0.67779
10490.321	12.87327	2.46478	9.66243	-0.64659
10494.321	12.88544	2.50456	9.84809	-0.63915
10498.328	12.85940	2.47423	10.01373	-0.71186
10502.327	12.87525	2.43713	9.84378	-0.68056
10506.321	12.87890	2.20052	9.90267	-0.77004
10510.320	12.78738	2.04792	10.01169	-0.74120
10514.682	12.76362	1.95819	10.08520	-0.67699
10518.325	12.67419	1.78245	10.12099	-0.62834
10522.323	12.67572	1.69464	10.16062	-0.66730
10526.319	12.65479	1.47172	10.13092	-0.46603
10530.325	12.55566	1.44761	10.15785	-0.48277
10534.322	12.64413	1.38818	10.14766	-0.26498
10538.320	12.69507	1.36581	10.04612	-0.10832
10542.326	12.81979	1.35622	10.02576	-0.14205
10546.319	12.87034	1.31462	10.00555	-0.07640
10550.320	13.01814	1.28764	9.97416	-0.10913
10554.321	12.93920	1.30470	9.94086	-0.04247
10558.322	12.90157	1.32947	9.81457	-0.07554
10562.325	13.02158	1.31421	9.52328	-0.18473
10566.320	13.06056	1.26988	9.56159	-0.18010
10570.327	13.10836	1.30294	9.47526	-0.16120
10574.321	13.13079	1.39214	9.45921	-0.26421
10578.320	13.16393	1.41248	9.38042	-0.28846
10582.329	13.18414	1.44428	9.42844	-0.28180
10586.321	13.22916	1.46908	9.41091	-0.32783
10590.326	13.37345	1.55136	9.42844	-0.33715
10594.358	13.31831	1.66917	9.44638	-0.32449
10598.354	13.43249	1.65840	9.46606	-0.36388
10602.316	13.53127	1.74662	9.58936	-0.38259
10606.321	13.48125	1.78827	9.62364	-0.35311
10610.318	13.49232	1.89097	9.54433	-0.38350
10614.318	13.47207	1.91502	9.61228	-0.43384
10618.318	13.23285	1.94855	9.62167	-0.42185
10622.321	13.16880	1.98405	9.68479	-0.41567
10626.322	13.21705	2.04046	9.63925	-0.48121
10630.320	13.04426	2.09376	9.64637	-0.52323
10634.317	12.94775	2.15614	9.66566	-0.53207
10638.322	12.80803	2.15009	9.69465	-0.53778
10642.317	12.98746	2.22123	9.78250	-0.55049
10646.323	13.02867	2.28967	9.73508	-0.57428
10650.333	12.96173	2.44697	9.78498	-0.57079
10654.323	13.02292	2.49520	9.82860	-0.53086
10658.316	13.13225	2.56655	9.73337	-0.48369
10662.324	13.34430	2.70209	9.77283	-0.54405
10666.323	13.33762	2.82029	9.68402	-0.57216
10670.317	13.32202	2.77479	9.77973	-0.57996
10674.322	13.52062	2.77549	9.79291	-0.54854
10678.319	13.16748	2.71641	9.83216	-0.41081
10682.322	13.36774	2.59875	9.83648	0.32054
10686.315	13.52325	3.02646	9.84134	-0.00294
10690.322	13.55707	4.76226	9.96525	0.78183
10694.318	13.55363	5.16338	9.97695	0.95176
10698.322	13.55351	5.13068	10.01185	0.99300
10702.317	13.64295	4.84488	10.08746	0.74277
10706.322	13.60791	4.69447	10.11483	0.81945
10710.326	13.62898	4.82147	10.16024	0.87492
10714.315	13.67243	4.78719	9.76150	1.00205
10718.317	13.65980	4.90068	9.62381	1.10672
10722.320	13.79924	4.96334	9.50035	1.34984
10726.317	13.76830	4.99384	9.43259	1.26394
10730.325	13.80837	4.95541	9.61933	1.42483
10734.317	13.78986	4.90504	9.62774	1.38254
10738.318	13.92503	4.90208	9.54720	1.68350
10742.316	13.91016	4.72866	9.65278	2.09163
10746.194	13.84214	4.54653	9.64357	1.77657
10750.191	13.88139	4.47784	9.65160	1.77361
10754.202	13.82920	4.12927	9.54380	1.80911
10758.192	13.72299	3.94520	9.65027	1.79812
10762.193	13.83432	4.11307	9.71136	1.87425
10766.193	13.63377	4.23531	9.75786	1.91783
10770.191	13.74605	4.20920	9.80759	1.96406
10774.191	13.69254	4.13506	9.82802	1.93887
10778.192	13.68466	4.25616	9.83079	1.97862
10782.195	13.70748	4.25306	9.81031	1.85254
10786.219	13.69753	4.34434	9.69725	1.83249
10790.191	13.72409	4.33708	9.61846	1.87335
10794.195	13.79627	4.57794	9.47275	1.84425
10798.199	13.87674	4.73964	9.38187	1.84004
10802.190	13.90836	4.93456	9.42298	1.85676
10806.191	13.85957	4.87333	9.39598	1.87670
10810.191	13.88935	4.76248	9.48029	1.91522
10814.195	13.91809	4.84311	9.50923	1.97748
10818.223	13.98375	4.89682	9.59891	2.11286
10822.192	14.05308	4.96811	9.71018	2.13132
10826.191	14.12798	4.95273	9.65247	2.07913
10830.193	14.08181	4.93557	9.72983	2.03020
10834.193	14.09030	4.93874	9.93826	2.04043
10838.196	14.04603	4.82750	10.00461	2.03254
10842.193	14.05210	4.56418	10.02403	2.10072
10846.189	13.94090	4.42861	10.07969	2.12347
10850.194	14.00847	4.49976	10.13977	1.95033
10854.223	14.02989	4.52512	10.16254	1.91501
10858.195	14.05290	4.47828	10.17368	1.86853
10862.190	14.00583	4.40414	10.17077	1.81604
10866.191	14.00557	4.15067	10.13181	1.77620
10870.189	13.89486	4.14243	10.16014	1.71085
10874.190	13.92877	4.15687	10.18211	1.72801
10878.195	13.90684	4.08407	10.15165	1.65982
10882.194	14.05838	4.06777	10.15456	1.64128
10886.194	14.19235	4.10522	10.50071	1.54257
10890.189	16.08229	4.01083	12.74898	1.38080
10894.189	16.62838	3.91978	13.24428	1.29632
10898.189	16.61119	3.87766	13.15760	1.29857
10902.191	16.42019	3.81122	12.91196	1.21060
10906.188	16.30906	3.76803	12.34060	1.18860
10910.190	15.86803	3.81458	12.05222	1.10485
10914.188	16.05349	3.79071	12.31421	1.12203
10918.195	15.99507	3.75543	12.57271	1.10778
10922.198	16.13974	3.73329	12.62622	1.05204
10926.199	16.13452	3.71862	12.60994	1.01235
10930.191	16.21348	3.71771	12.69837	0.95352
10934.188	16.27883	3.73767	12.72839	0.89300
10938.195	16.27785	3.74519	12.59807	0.85577
10942.189	16.23361	3.73689	12.50659	0.79901
10946.192	16.25921	3.76476	12.51378	0.70876
10950.187	16.35166	3.83385	12.57737	0.68181
10954.187	16.26081	3.92097	12.66771	0.68118
10958.190	16.40098	3.88723	12.74475	0.60905
10962.195	16.44610	3.94748	12.78538	0.52080
10966.186	16.42948	3.98731	12.62958	0.51795
10970.194	16.42537	4.01996	12.65378	0.49196
10974.188	16.45329	4.02598	12.68583	0.48697
10978.191	16.45450	4.00831	12.63095	0.48199
10982.193	16.35082	4.02681	12.66089	0.43640
10986.191	16.38317	4.05955	12.70525	0.50279
10990.189	16.33386	4.06396	12.67688	0.42937
10994.190	16.29390	4.02577	12.57030	0.50347
10998.188	16.34391	4.00000	12.56231	0.53613
11002.189	16.26584	3.99197	12.56831	0.50864
11006.193	16.21766	4.03051	12.55450	0.74362
11010.191	16.22910	3.99768	12.47745	0.75655
11014.186	16.25614	4.01278	12.54074	0.86360
11018.186	16.22297	3.99464	12.48987	0.87340
11022.190	16.23583	3.97921	12.44628	0.94264
11026.215	16.29605	4.02670	12.48376	1.03947
11030.192	16.32773	4.05756	12.47837	0.95538
11034.187	16.25132	3.99661	12.44664	0.95086
11038.190	16.36912	4.04546	12.43710	0.88549
11042.240	16.25802	3.99683	12.41672	0.88568
11046.198	16.35911	3.92881	12.44110	0.52427
11050.185	16.23892	3.91468	12.59165	0.55425
11054.192	17.04425	3.91017	13.10958	0.71507
11058.184	19.16245	4.01126	14.83281	0.95052
11062.190	19.36095	3.96060	15.53179	0.86662
11066.186	19.91358	4.15000	16.18741	0.46565
11070.192	19.80649	4.08065	16.30567	0.32774
11074.188	19.33777	4.10761	15.73978	0.23095
11078.189	18.96105	4.03169	15.39054	0.12417
11082.185	19.06012	4.14819	15.32255	0.12165
11086.194	18.98324	4.09763	15.32583	0.13912
11090.191	19.18167	4.14494	15.82531	0.26546
11094.186	19.22969	4.35507	16.09212	0.17546
11098.186	19.35556	4.40546	16.24727	0.23079
11102.185	19.41145	4.37747	16.15410	0.14249
11106.196	19.45349	4.45944	15.92193	0.07568
11110.194	19.27840	4.44351	15.93497	0.04841
11114.186	19.22319	4.49677	15.93540	0.07833
11118.190	19.33251	4.50045	15.45643	0.07911
11122.183	19.39635	4.49527	15.51483	0.10411
11126.187	19.29295	4.46373	15.28367	0.12687
11130.189	19.27521	4.46045	15.19463	0.15971
11134.188	19.24892	4.51887	15.39787	0.32946
11138.191	19.13879	4.34521	15.11930	0.25354
11142.186	19.18563	4.35327	15.16280	0.23751
11146.183	19.14657	4.32739	15.16084	0.29728
11150.185	19.01950	4.29131	15.04985	0.38087
11154.184	18.97228	4.28234	15.03413	0.39580
11158.188	18.90885	4.24941	15.00052	0.38886
11162.184	18.87557	4.22824	15.02501	0.43878
11166.181	18.85528	4.21937	15.02818	0.48744
11170.192	18.82113	4.25146	15.08201	0.51697
11174.187	18.78726	4.23827	15.10496	0.56254
11178.185	18.80981	4.26140	15.12687	0.54420
11182.184	18.81702	4.31574	15.14511	0.56898
11186.186	18.81597	4.33368	15.09626	0.54807
11190.184	18.81786	4.39055	15.09624	0.50489
11194.190	19.04347	4.45318	15.06059	0.42635
11198.186	18.98586	4.49368	15.06322	0.48880
11202.185	19.04520	4.50293	15.05489	0.48248
11206.183	18.96023	4.56602	15.02892	0.48597
11210.190	18.87399	4.59093	15.03987	0.49797
11214.190	18.88768	4.64596	15.00811	0.46932
11218.188	18.81700	4.65583	14.97854	0.44466
11222.182	18.78208	4.67121	14.98662	0.44524
11226.189	18.69628	4.67524	14.94919	0.43046
11230.189	18.65779	4.68055	14.97384	0.47088
11234.222	18.54682	4.63709	14.99558	0.60586
11238.185	18.52371	4.57514	14.97106	0.62434
11242.182	18.49945	4.53246	14.95274	0.59854
11246.184	18.43843	4.52254	14.98889	0.63149
11250.185	18.45357	4.43844	15.00047	0.68788
11254.188	18.45677	4.46659	15.00869	0.63165
11258.184	18.44533	4.38940	15.01170	0.64493
11262.180	18.51711	4.37632	15.03279	0.60979
11266.191	18.56467	4.35120	15.04369	0.57990
11270.183	18.63643	4.29262	15.07262	0.57412
11274.182	18.72845	4.28714	15.17824	0.55935
11278.183	18.71888	4.28300	15.15048	0.49821
11282.186	18.68882	4.27159	15.13424	0.44284
11286.180	18.70256	4.26654	15.06667	0.42221
11290.187	18.78150	4.24749	15.05767	0.39086
11294.187	18.84105	4.27130	15.09043	0.34700
11298.189	18.84901	4.24163	15.15076	0.30471
11302.190	18.90709	4.25092	15.21897	0.32247
11306.183	18.97776	4.24644	15.21104	0.26566
11310.186	18.98271	4.23818	15.29118	0.26172
11314.180	19.02191	4.28307	15.31727	0.25778
11318.187	18.99489	4.29687	15.34522	0.23910
11322.183	19.01029	4.31704	15.34342	0.27241
11326.187	19.05347	4.42317	15.41084	0.30955
11330.181	19.05316	4.45472	15.45620	0.32177
11334.185	19.07447	4.54046	15.54130	0.34069
11338.187	19.07855	4.62660	15.47505	0.35594
11342.192	19.09109	4.63665	15.44156	0.44406
11346.184	19.11491	4.71181	15.40609	0.42201
11350.181	19.12313	4.67641	15.29545	0.37971
11354.187	19.12597	4.76039	15.19805	0.44192
11358.182	19.18437	4.84534	15.15926	0.44881
11362.184	19.18007	4.76213	15.07794	0.37799
11366.179	19.21566	4.81402	15.01221	0.32936
11370.187	19.16940	4.76803	14.79048	0.32977
11374.183	19.24724	4.73333	14.69172	0.34324
11378.187	19.26444	4.72549	14.56976	0.31652
11382.182	18.77269	4.63340	14.51002	0.36306
11386.181	18.47657	4.52107	14.55342	0.41070
11390.184	18.82131	4.53335	14.45833	0.39745
11394.181	18.58393	4.58842	14.50923	0.40771
11398.185	18.64610	4.46737	14.41569	0.43276
11402.184	18.74011	4.43830	14.38398	0.44156
11406.184	18.34455	4.48634	14.35922	0.51139
11410.182	18.25211	4.50676	14.32311	0.51557
11414.181	18.29884	4.52326	14.45951	0.55533
11418.185	18.37996	4.48845	14.47275	0.59031
11422.186	18.25711	4.51315	14.48283	0.61715
11426.184	18.23622	4.57001	14.55081	0.62677
11430.179	18.29365	4.60664	14.57522	0.62305
11434.185	18.41766	4.62684	14.63980	0.65539
11438.183	18.39786	4.59532	14.62177	0.65172
11442.181	18.42208	4.59752	14.71097	0.63773
11446.181	18.40231	4.64175	14.71008	0.66157
11450.184	18.46990	4.57437	14.72682	0.66748
11454.208	18.46981	4.55257	14.74634	0.67811
11458.180	18.43615	4.44313	14.71784	0.68065
11462.188	18.47059	4.33071	14.71814	0.64956
11466.176	18.52503	4.29975	14.74031	0.64387
11470.183	18.58772	4.30356	14.71059	0.60452
11474.182	18.62787	4.48247	14.70309	0.56659
11478.185	18.62943	4.56228	14.66443	0.49170
11482.181	18.65198	4.56558	14.71296	0.46277
11486.177	18.64550	4.62915	14.65384	0.42186
11490.184	18.65628	4.82893	14.71364	0.46051
11494.180	18.57379	4.97847	14.76379	0.40079
11498.182	18.53315	5.10036	14.84450	0.29883
11502.182	18.45835	5.22583	14.90883	0.26808
11506.191	18.47854	5.21545	15.04807	0.33552
11510.181	18.44464	5.21566	15.09987	0.58074
11514.179	18.40367	5.14500	15.13152	0.39838
11518.179	18.49479	5.13675	14.91474	0.35439
11522.179	18.10778	5.28513	13.31335	0.44614
11526.181	14.10090	5.45550	11.50015	1.78948
11530.178	12.97497	5.42377	9.91611	2.64299
11534.184	10.17461	5.62763	7.72110	3.25166
11538.178	9.64357	5.64356	6.20430	3.57272
11542.184	8.93559	5.79569	5.24090	4.76443
11546.188	8.04803	5.91873	4.89730	5.04718
11550.178	7.74206	5.95271	5.49431	5.20963
11554.177	7.73165	6.01961	5.53847	5.15265
11558.185	7.60122	6.04636	5.54427	4.97701
11562.178	7.59322	6.05804	5.71401	5.03222
11566.178	7.57303	6.01365	5.57739	4.80445
11570.177	7.62492	6.08022	5.44889	4.94066
11574.180	7.66022	6.09431	5.26977	4.81908
11578.177	7.71920	6.12142	5.14872	4.82831
11582.179	7.58532	6.15715	5.20674	4.88106
11586.200	7.60463	6.07878	5.15522	4.86767
11590.181	7.61536	6.05464	5.17924	4.72928
11594.187	7.63182	6.02788	5.18235	4.63169
11598.177	7.62082	5.95997	5.10618	4.54927
11602.177	7.61046	5.91492	5.01137	4.57778
11606.058	7.67650	5.81261	4.96829	4.70358
11610.053	7.69644	5.87823	4.93809	4.89016
11614.059	7.68708	5.95136	4.87926	4.70150
11618.053	7.70904	5.97984	4.74646	4.93970
11622.056	7.73799	5.97352	4.70150	5.03737
11626.050	7.70065	5.91224	4.64320	4.97420
11630.058	7.64335	6.04645	4.41822	5.00303
11634.057	7.70921	6.14958	4.45362	5.08446
11638.050	7.72027	6.27285	4.35442	5.08073
11642.057	7.81313	6.35050	4.25285	5.04890
11646.052	7.80026	6.40926	4.19817	5.05147
11650.056	7.74961	6.45384	4.15561	5.02339
11654.049	7.72627	6.49288	4.07816	4.92889
11658.057	7.64944	6.51682	4.17334	4.87615
11662.053	7.54118	6.52638	4.19146	4.80891
11666.056	7.43330	6.53223	4.26395	4.68750
11670.092	7.37262	6.54186	4.32812	4.59655
11674.070	7.31877	6.52919	4.34134	4.52479
11678.055	7.50371	6.53061	4.24085	4.49083
11682.057	7.64888	6.46161	4.53943	4.42515
11686.051	7.60302	6.43805	4.80182	4.35204
11690.053	7.49410	6.39750	5.08269	4.40230
11694.051	7.36032	6.33790	5.02881	4.36484
11698.054	7.44135	6.29251	5.07912	4.33494
11702.050	7.37970	6.25820	5.17223	4.31741
11706.052	7.39703	6.22538	5.01460	4.32304
11710.049	7.47009	6.20475	5.15177	4.35786
11714.056	7.44174	6.23257	5.19581	4.37406
11718.057	7.50656	6.22344	5.26954	4.37643
11722.053	7.54444	6.18074	5.27656	4.30934
11726.047	7.66946	6.17036	5.30335	4.16143
11730.057	8.04935	6.12798	5.35340	3.69532
11734.053	8.52593	6.04879	5.34631	3.71951
11738.060	8.28172	6.04934	5.36993	3.65940
11742.051	8.32582	6.02943	5.28999	3.82448
11746.049	8.47510	6.05688	5.27875	3.75638
11750.049	8.44035	6.07857	5.29674	3.62427
11754.053	8.47901	6.08396	5.31699	3.56939
11758.056	8.64116	5.99454	5.25370	3.48338
11762.051	8.63675	6.00083	5.28515	3.46264
11766.049	8.67245	5.96206	5.29450	3.39232
11770.051	8.65683	5.63043	5.29526	3.36086
11774.049	8.61727	5.26272	5.33465	3.31764
11778.050	8.56382	5.11374	5.39205	3.37391
11782.049	8.60247	5.00647	5.41190	3.35238
11786.051	8.59475	4.86056	5.45024	3.28974
11790.048	8.52299	4.75000	5.42592	3.27624
11794.055	8.42432	4.76130	5.49982	3.32073
11798.051	8.27499	4.80340	5.49760	3.40100
11802.056	8.37973	4.83486	5.50518	3.46099
11806.050	8.29409	4.88120	5.47257	3.58836
11810.053	8.34924	4.85066	5.39807	3.62308
11814.051	8.39571	4.89890	5.34801	3.61880
11818.049	8.42814	4.98337	5.28903	3.76903
11822.054	8.57158	5.08161	5.17065	3.79741
11826.052	8.48860	5.20007	5.19596	3.81295
11830.050	8.69947	5.26990	5.12513	3.83070
11834.045	8.79065	5.36082	5.18867	3.85358
11838.052	8.72961	5.44020	5.13493	3.86637
11842.055	8.83907	5.52004	5.09488	3.86143
11846.049	8.80895	5.69859	5.08709	3.82878
11850.049	8.86422	5.87280	5.16253	3.81973
11854.058	8.78529	5.91193	5.20236	3.77349
11858.054	8.72352	6.04261	5.50196	3.80699
11862.048	4.59324	6.12261	5.36636	3.85292
11866.052	4.30744	6.02429	2.51004	4.19805
11870.046	-4.57588	1.38026	2.59891	-2.06502
11874.049	NaN	NaN	0.72255	11.90081
11878.052	NaN	NaN	NaN	NaN
11882.047	NaN	NaN	NaN	NaN
11886.094	NaN	NaN	NaN	NaN
11890.045	NaN	NaN	NaN	NaN
11894.045	NaN	NaN	NaN	NaN
11898.050	NaN	NaN	NaN	NaN
11902.049	NaN	NaN	NaN	NaN
11906.162	NaN	NaN	NaN	NaN
11910.218	NaN	NaN	NaN	NaN
11914.059	NaN	NaN	NaN	NaN
11918.052	NaN	NaN	NaN	NaN
11922.049	NaN	NaN	NaN	NaN
11926.050	NaN	NaN	-22.03000	10.51757
11930.054	NaN	NaN	-17.53261	6.53313
11934.046	NaN	NaN	-17.22246	5.98597
11938.047	NaN	NaN	-15.97821	5.07213
11942.044	-19.37877	8.93977	-15.83643	4.26920
11946.048	-18.67029	8.78114	-13.93230	2.60722
11950.046	-18.17515	7.33706	-14.25352	2.88100
11954.046	-13.38141	3.08261	-14.36306	2.64131
11958.049	-14.25597	3.85653	-14.65330	3.05451
11962.045	-14.13015	4.35650	-14.88866	3.03514
11966.051	-13.63191	4.85311	-14.77883	3.06215
11970.054	-13.79229	5.37742	-14.70892	2.98931
11974.047	-13.83964	5.44415	-14.31151	3.24369
11978.052	-13.77228	5.51249	-14.40549	3.13630
11982.051	-13.75727	5.43896	-14.46442	3.36642
11986.048	-13.62828	5.12394	-14.44874	3.20380
11990.045	-13.64403	5.23610	-14.43577	3.19159
11994.045	-13.34110	5.16259	-14.47964	3.18127
11998.049	-13.50884	5.28389	-14.49218	3.17320
12002.049	-13.34044	5.16867	-14.36865	3.20627
12006.048	-13.36443	5.28106	-14.25319	3.04352
12010.053	-13.32369	5.26027	-14.35191	3.20903
12014.049	-13.18859	5.26743	-14.26180	3.35367
12018.046	-13.25432	5.30527	-14.27522	3.13841
12022.045	-13.14207	5.25059	-14.27879	3.04431
12026.048	-13.15400	5.24525	-14.21570	2.83338
12030.046	-13.12985	5.28788	-14.22799	2.97394
12034.045	-13.19938	5.26864	-14.23139	2.88900
12038.046	-13.22987	5.30775	-14.17427	3.25423
12042.044	-13.16920	5.35223	-14.21132	3.04538
12046.051	-13.19755	5.37032	-14.27168	2.94707
12050.055	-13.19557	5.36857	-14.30925	2.98985
12054.044	-13.22688	5.41780	-14.20308	2.74976
12058.047	-13.28157	5.40135	-14.16742	2.82230
12062.050	-13.19146	5.28718	-14.20609	2.85909
12066.045	-13.16381	5.21059	-14.20779	2.88218
12070.046	-13.25310	5.22479	-14.33695	2.80669
12074.046	-13.22053	5.09322	-14.34990	2.68811
12078.046	-13.17555	5.11777	-14.37599	2.80898
12082.049	-13.16226	5.18170	-14.37638	3.00223
12086.048	-13.22676	5.16520	-14.33655	2.95200
12090.050	-13.17932	5.11890	-14.28867	3.18511
12094.050	-12.97464	5.17594	-14.15927	2.76726
12098.048	-13.01176	5.10103	-14.27595	2.78385
12102.044	-13.10104	5.18596	-14.20339	2.74673
12106.055	-13.03291	5.19370	-14.21915	2.84530
12110.048	-13.03458	5.26499	-14.26016	2.79258
12114.043	-13.02219	5.23628	-14.25967	2.66840
12118.045	-13.07314	5.24733	-14.34128	2.92008
12122.045	-13.22392	5.32658	-14.35612	2.94015
12126.044	-13.34263	5.37830	-14.38146	2.91266
12130.043	-13.46615	5.47775	-14.65332	2.88881
12134.048	-12.95157	5.38427	-14.34708	2.82760
12138.042	-12.94351	5.29916	-14.37929	2.70897
12142.046	-13.01166	5.22269	-14.49106	2.75679
12146.045	-13.08724	5.26997	-14.39145	2.98114
12150.045	-13.23984	5.28705	-14.41618	2.89149
12154.047	-13.44552	5.37264	-14.41794	3.08082
12158.045	-13.32942	5.36601	-14.29394	2.95196
12162.046	-13.40643	5.31195	-14.26098	2.99407
12166.046	-13.50861	5.32038	-14.25601	2.94770
12170.044	-13.35268	5.27075	-14.17957	2.90105
12174.046	-13.18369	5.29025	-14.18466	2.96434
12178.043	-13.23814	5.26708	-14.21451	2.99254
12182.041	-13.32917	5.32580	-14.21654	2.98240
12186.044	-13.35341	5.32349	-14.28187	2.99235
12190.041	-13.28164	5.32173	-14.34326	2.91453
12194.043	-13.22069	5.33943	-14.58682	2.89421
12198.047	-13.13548	5.35311	-14.37690	2.81802
12202.044	-13.12674	5.32533	-14.36970	3.22615
12206.043	-13.05842	5.36001	-14.41566	2.99407
12210.042	-13.02829	5.29953	-14.46452	3.42883
12214.041	-13.04678	5.30907	-14.48818	3.57115
12218.056	-12.85706	5.29911	-14.38544	3.46532
12222.044	-11.79993	5.30451	-11.62404	2.94152
12226.046	-8.63447	5.07309	-10.32167	2.85369
12230.088	-6.46341	3.73188	-7.09558	1.08264
12234.045	-4.43100	2.44365	-4.82562	-0.19905
12238.040	-2.57729	2.23598	-3.77493	-1.81924
12242.046	-1.90026	0.22526	-2.70451	-2.57092
12246.042	-1.04798	-1.01603	-1.68528	-3.85468
12250.047	0.29468	-1.17871	-1.62862	-3.58647
12254.041	0.73786	-1.04242	-1.47446	-3.08742
12258.053	0.79238	-0.42969	-1.70817	-2.81584
12262.045	0.47081	0.02557	-1.86560	-2.47196
12266.045	0.64526	0.51339	-1.91898	-2.52089
12270.042	0.66744	0.17681	-1.71070	-2.73597
12274.046	0.76213	0.09941	-1.41179	-2.77638
12278.042	0.85560	-0.14013	-1.17743	-3.00435
12282.047	0.96219	-0.54582	-0.79072	-3.38243
12286.044	1.07746	-0.78435	-0.82615	-3.44207
12290.040	1.25260	-0.61850	-1.01528	-3.01093
12294.046	1.23005	-0.75972	-1.35514	-3.10846
12298.088	1.10266	-0.88616	-1.37079	-3.22714
12302.047	1.13556	-0.65022	-1.18043	-3.33832
12306.043	1.28517	-0.29848	-0.96286	-3.37307
12310.040	1.32292	-0.75127	-0.93400	-3.30414
12314.043	1.42799	-0.83419	-0.98499	-3.20463
12318.038	1.47082	-0.86122	-0.91041	-3.15729
12322.043	1.50311	-0.91947	-0.88284	-3.13636
12326.042	1.51345	-0.97097	-0.92433	-3.12948
12330.039	1.41759	-0.94389	-0.91574	-3.21155
12334.045	1.38123	-1.00510	-0.82044	-3.35089
12338.041	1.32612	-0.98893	-0.78121	-3.23532
12342.045	1.42685	-0.93853	-0.88505	-3.18798
12346.044	1.42337	-1.03498	-1.07862	-3.21310
12350.040	1.41003	-1.09583	-1.10936	-3.22964
12354.041	1.38513	-1.05186	-0.98253	-3.27509
12358.043	1.34125	-0.93558	-0.67422	-3.34897
12362.038	1.25354	-0.96457	-0.58359	-3.44381
12366.039	1.26220	-1.04399	-0.61027	-3.46779
12370.039	1.25051	-0.98340	-0.66146	-3.48305
12374.043	1.25838	-1.02557	-0.67938	-3.39017
12378.039	1.29050	-1.05856	-0.80225	-3.24286
12382.044	1.30977	-1.23029	-0.69722	-3.19156
12386.041	1.23724	-1.40374	-0.54361	-3.15294
12390.041	1.21978	-1.51304	-0.52344	-3.26204
12394.042	1.17049	-1.43188	-0.44495	-3.24892
12398.038	1.14965	-1.06711	-0.38792	-3.29288
12402.042	1.25337	-1.16074	-0.40896	-3.48210
12406.040	1.24290	-1.23124	-0.47962	-3.23231
12410.041	1.25260	-1.47124	-0.68052	-3.10876
12414.038	1.14595	-1.59414	-0.66692	-3.07441
12418.082	1.13439	-1.81715	-0.69250	-3.05615
12422.055	1.16870	-1.89084	-0.49632	-2.96976
12426.044	1.20363	-1.68205	-0.42003	-3.02810
12430.041	1.22099	-1.63041	-0.46736	-3.16410
12434.037	1.20509	-1.23720	-0.40537	-3.43204
12438.044	1.17215	-1.52642	-0.48582	-3.11256
12442.039	1.17339	-1.41604	-0.47922	-2.95931
12446.040	1.16610	-1.34694	-0.58310	-2.84520
12450.037	2.16235	0.16366	-0.74136	-2.67989
12453.917	3.32946	2.16023	-3.87892	-2.49651
12457.914	NaN	NaN	-4.85588	-2.01829
12461.912	5.13651	10.42362	NaN	NaN
12465.912	NaN	NaN	NaN	NaN
12469.917	NaN	NaN	NaN	NaN
12473.917	NaN	NaN	NaN	NaN
12477.910	NaN	NaN	NaN	NaN
12481.916	NaN	NaN	NaN	NaN
12486.367	NaN	NaN	NaN	NaN
12489.924	NaN	NaN	NaN	NaN
12493.918	NaN	NaN	NaN	NaN
12497.959	NaN	NaN	NaN	NaN
12501.928	NaN	NaN	NaN	NaN
12505.917	NaN	NaN	NaN	NaN
12509.922	NaN	NaN	NaN	NaN
12513.921	NaN	NaN	NaN	NaN
12517.917	NaN	NaN	NaN	NaN
12521.949	NaN	NaN	NaN	NaN
12525.913	NaN	NaN	NaN	NaN
12529.911	NaN	NaN	NaN	NaN
12533.914	NaN	NaN	-11.89583	14.68623
12537.910	NaN	NaN	NaN	NaN
12541.907	NaN	NaN	NaN	NaN
12545.911	3.19024	8.68679	-2.93243	-0.93784
12549.909	NaN	NaN	-2.72593	-0.93912
12553.916	-1.74375	0.92790	-2.64468	-0.50441
12557.912	2.51019	1.54428	-4.66129	-0.49580
12561.912	3.07978	1.40455	-0.85394	-0.26178
12565.911	0.77689	2.26607	-1.62274	-0.07049
12569.915	1.31617	2.00428	-1.75354	-0.19756
12573.909	0.23482	1.59064	-1.29420	-0.13246
12577.916	0.64737	1.79184	-1.56258	-0.26973
12581.912	0.96703	1.98196	-1.35211	0.00927
12585.913	0.70064	1.44583	-1.53716	-0.01416
12589.908	0.45393	1.89740	-1.57438	-0.10617
12593.920	0.40519	2.11631	-1.48414	0.00698
12597.918	0.42053	2.02565	-1.50036	-0.05110
12601.913	0.62183	1.43043	-1.72520	-0.15096
12605.916	0.54339	1.79146	-1.66802	-0.18803
12609.912	0.86257	1.95249	-1.72996	-0.16346
12613.909	0.78392	1.62584	-1.69542	-0.22190
12617.910	0.69749	1.43374	-1.79631	-0.28403
12621.907	0.59560	2.04403	-1.78322	-0.31086
12625.913	0.48731	2.13226	-1.69284	-0.25720
12629.913	0.50448	2.04411	-1.72815	-0.32838
12633.907	0.60518	1.92609	-1.84733	-0.30901
12637.919	0.64737	1.82265	-1.73150	-0.26457
12641.909	0.72640	1.57958	-1.70675	-0.26142
12645.910	0.87845	1.73160	-1.71169	-0.26214
12649.913	0.72206	1.67407	-1.72542	-0.24371
12653.911	0.54739	1.74205	-1.72111	-0.24073
12657.910	0.64575	2.01895	-1.75446	-0.24137
12661.909	0.64238	1.91404	-1.79110	-0.29839
12665.910	0.55481	1.67775	-1.72376	-0.27009
12669.929	0.68670	1.65706	-1.80496	-0.29173
12673.917	0.50247	1.91215	-1.74395	-0.38883
12677.917	0.43728	1.85836	-1.72002	-0.30829
12681.913	0.57669	1.67579	-1.71270	-0.36392
12685.909	0.54942	1.77902	-1.76252	-0.38748
12689.912	0.63833	1.79599	-1.74464	-0.42375
12693.909	0.68588	1.82542	-1.70747	-0.36293
12697.914	0.50019	1.66960	-1.53905	-0.32987
12701.911	0.41723	1.62793	-1.54921	-0.31601
12705.912	0.57779	1.62462	-1.51070	-0.34260
12709.908	0.63077	1.55846	-1.49453	-0.36478
12713.914	0.67824	0.99469	-1.43694	-0.27603
12717.910	0.55960	1.60789	-1.45093	-0.34035
12721.915	0.57173	1.63135	-1.46120	-0.29109
12725.912	0.55597	1.55562	-1.50197	-0.41677
12729.912	0.51490	1.36105	-1.49183	-0.34657
12733.913	0.59238	1.57317	-1.53513	-0.25938
12737.943	0.48967	1.56423	-1.55420	-0.27900
12741.907	0.39767	1.72710	-1.57796	-0.34842
12745.910	0.46646	1.44279	-1.58234	-0.42771
12749.906	0.84009	0.53712	-1.51082	-0.37357
12753.913	0.78483	-0.07327	-1.17721	-2.01076
12758.323	1.07584	-3.51423	-0.94534	-5.34797
12761.916	0.91584	-4.03902	-0.63426	-5.66450
12765.913	0.87649	-6.25897	-1.06542	-6.28511
12769.905	0.80352	-6.68762	-0.83401	-7.83802
12773.912	0.83912	-8.31585	-0.54486	-8.24124
12777.908	0.74563	-8.80065	-0.79057	-8.62067
12781.910	0.65106	-8.70536	-0.81486	-8.45509
12785.904	0.79429	-8.67360	-0.89917	-8.33632
12789.912	0.77124	-8.60541	-0.78307	-8.19200
12793.911	0.70806	-7.56520	-0.74590	-8.11145
12797.909	0.75183	-7.51981	-0.74007	-8.19855
12801.918	0.63833	-8.12488	-0.74796	-8.29087
12805.912	0.66355	-8.14225	-0.81362	-8.35917
12809.911	0.61101	-8.57316	-0.77789	-8.45760
12813.908	0.56292	-8.88741	-0.75645	-8.47565
12817.910	0.51302	-9.58824	-0.79781	-8.62515
12821.911	0.49982	-9.89019	-0.83019	-8.55570
12825.908	0.53416	-9.48291	-0.82024	-8.48999
12829.910	0.43830	-9.58578	-0.81027	-8.62510
12833.907	0.44639	-9.25759	-0.73655	-8.71123
12837.908	0.72369	-8.96417	-0.73618	-8.71155
12841.905	0.60099	-8.42436	-0.67737	-8.75809
12845.912	0.62563	-8.75935	-0.68734	-8.75989
12849.905	0.55446	-8.84482	-0.62684	-8.73228
12853.919	0.53242	-9.14733	-0.74218	-8.70692
12857.911	0.41537	-8.94908	-0.72873	-8.68684
12861.906	0.83156	-8.80598	-0.64114	-8.66590
12865.911	0.66752	-8.77049	-0.60444	-8.61003
12869.909	0.79407	-8.80844	-0.59632	-8.58630
12873.905	0.52600	-8.81332	-0.55391	-8.52268
12877.907	0.48108	-8.77747	-0.54679	-8.48660
12881.905	0.41805	-8.92463	-0.54438	-8.45133
12885.914	0.44405	-8.93811	-0.60913	-8.44778
12889.906	0.55342	-8.88769	-0.62062	-8.41509
12893.912	0.70288	-8.91535	-0.64156	-8.39935
12897.906	0.69089	-8.84035	-0.62538	-8.37649
12901.907	0.81699	-8.91966	-0.68377	-8.35513
12905.908	0.62871	-8.95251	-0.73166	-8.33265
12909.905	0.66898	-8.98471	-0.64220	-8.30169
12913.906	0.64126	-9.04516	-0.55419	-8.30503
12917.907	0.72106	-8.91478	-0.67886	-8.28396
12921.909	0.77588	-8.78455	-0.41226	-8.35976
12925.905	0.97068	-8.78857	-0.42160	-8.41768
12929.916	0.89652	-8.72999	-0.38385	-8.37166
12933.908	0.93110	-8.83101	-0.59138	-8.35550
12937.905	0.98512	-8.83674	-0.35362	-8.29849
12941.910	0.90761	-8.76802	-0.38147	-8.25175
12945.905	1.02434	-8.69649	-0.36132	-8.25868
12949.909	1.00228	-8.75148	-0.25957	-8.30324
12953.907	1.02903	-8.67462	-0.30257	-8.33605
12957.910	1.03784	-8.59638	-0.37464	-8.24396
12961.904	1.08353	-8.56982	-0.29999	-8.29476
12965.975	1.05873	-8.64074	-0.34605	-8.24195
12969.918	1.12658	-8.64203	-0.42095	-8.21483
12973.907	1.09358	-8.69457	-0.37797	-8.22420
12977.907	1.03861	-8.64490	-0.38005	-8.30049
12981.906	0.77397	-8.72609	-0.48870	-8.35722
12985.903	0.34868	-8.86574	-0.84558	-8.38836
12989.904	-0.71779	-9.15500	-0.87877	-8.54014
12993.903	-1.08336	-9.57843	-1.23843	-8.58586
12997.906	-1.06324	-9.62286	-1.18723	-8.45186
13001.903	-0.58605	-9.48605	-1.13419	-8.44208
13005.903	-0.25428	-9.80468	-1.22608	-8.43470
13009.903	-0.00911	-9.17174	-1.30055	-8.45746
13013.912	-0.39211	-9.44260	-1.47161	-8.49511
13017.902	-0.17176	-9.83687	-1.42933	-8.60208
13021.908	-0.14412	-9.46535	-1.52223	-8.57479
13025.903	-0.39090	-9.58122	-1.60318	-8.51954
13029.909	-0.37688	-9.49552	-1.76567	-8.58680
13033.905	-0.30905	-9.45212	-1.71984	-8.55332
13037.899	-0.37958	-9.24014	-1.75126	-8.50198
13041.908	-0.36794	-9.31005	-1.72287	-8.63944
13045.902	-0.31491	-9.32905	-1.80251	-8.63276
13049.904	-0.37668	-9.40833	-1.79505	-8.63054
13053.907	-0.57952	-9.46498	-1.78808	-8.61047
13057.907	-0.48423	-9.76122	-1.80836	-8.53065
13061.901	-0.54639	-9.39370	-1.75327	-8.59468
13065.903	-0.54156	-9.56556	-1.60613	-8.58222
13069.902	-0.61585	-9.55688	-1.57376	-8.57376
13073.905	-0.61424	-9.40872	-1.62453	-8.56799
13077.900	-0.70801	-9.30543	-1.66668	-8.50045
13081.908	-0.68650	-9.50450	-1.61607	-8.46186
13085.903	-0.68948	-9.41732	-1.68079	-8.46073
13089.906	-0.73918	-9.39211	-1.53902	-8.56955
13093.908	-0.65863	-9.07016	-1.78069	-8.57143
13097.910	-0.66322	-9.43582	-1.91308	-8.52757
13101.937	-0.59344	-9.37074	-2.09108	-8.53062
13105.911	-0.61915	-9.43118	-1.94285	-8.54117
13109.903	-0.67953	-9.37412	-2.04755	-8.58510
13113.903	-0.65794	-9.44879	-2.02582	-8.63095
13117.905	-0.68967	-9.35371	-2.17239	-8.59695
13121.902	-0.65178	-9.50645	-2.06389	-8.60461
13125.903	-0.60838	-9.47520	-1.90242	-8.65581
13129.902	-0.59662	-9.49882	-1.93440	-8.65002
13133.904	-0.59295	-9.01810	-2.04627	-8.50956
13137.914	-0.55664	-9.48902	-2.14478	-8.45537
13141.906	-0.46418	-9.42293	-1.94104	-8.45728
13145.903	-0.53806	-9.45832	-1.86446	-8.50410
13149.902	-0.49508	-9.23194	-1.71749	-8.34417
13153.903	-0.46599	-9.26700	-1.51901	-8.35244
13157.905	-0.43346	-9.46204	-1.77424	-8.28415
13161.924	-0.39824	-9.58732	-1.75877	-8.23240
13165.903	-0.34012	-9.46219	-1.72339	-8.24345
13169.906	-0.35764	-9.28254	-1.75820	-8.31753
13173.903	-0.30076	-9.31415	-1.84914	-8.42295
13177.903	-0.30128	-9.45430	-1.86989	-8.47876
13181.906	-0.38482	-9.31347	-1.98241	-8.58818
13185.901	-0.51391	-9.17644	-1.74868	-8.31923
13189.904	-0.46731	-9.13138	-1.84969	-8.28667
13193.897	-0.54354	-9.15124	-1.93105	-8.32221
13197.905	-0.39797	-9.13132	-2.03038	-8.35874
13201.900	-0.41653	-9.17218	-2.06156	-8.40138
13205.904	-0.48525	-9.17844	-2.10691	-8.50440
13209.898	-0.54453	-8.96802	-2.09757	-8.38885
13213.905	-0.63650	-9.12466	-1.91058	-8.36189
13217.901	-0.57386	-9.07326	-1.79343	-8.36936
13221.907	-0.56682	-9.00408	-1.76668	-8.43154
13225.896	-0.56756	-9.01099	-1.69135	-8.45459
13229.904	-0.39363	-8.97289	-1.82906	-8.60467
13233.903	-0.36335	-8.94528	-1.72721	-8.47745
13237.904	-0.33499	-8.98902	-1.41645	-8.45288
13241.901	-0.27671	-9.05749	-1.40787	-8.50698
13245.897	-0.33322	-9.03119	-1.41854	-8.55106
13249.899	-0.38387	-8.91225	-1.46100	-8.59839
13253.903	-0.40087	-8.87537	-1.45485	-8.61320
13257.899	-0.30436	-8.87434	-1.53756	-8.55994
13261.904	-0.39623	-6.96799	-1.65478	-8.24274
13265.903	-0.36963	-5.47098	-1.64427	-7.14902
13269.902	-0.09540	-2.41381	-1.69758	-3.89659
13273.900	-0.24574	-0.14616	-1.51653	-1.70579
13277.899	-0.21487	3.01768	-1.68828	0.77816
13281.898	0.44140	2.89570	-1.74583	1.19126
13285.901	0.97581	4.82465	-1.67263	2.76249
13289.898	0.61583	6.31026	-1.77514	4.62883
13293.903	0.25354	6.41175	-1.57029	5.11083
13297.901	-0.09671	6.66431	-1.63631	5.61665
13301.908	-0.01437	7.00177	-1.67124	5.87486
13305.904	0.24428	6.96858	-1.94434	6.28096
13309.779	0.13871	6.94676	-1.73428	6.23219
13313.778	0.02355	6.92154	-1.57962	6.23741
13317.773	0.00315	7.03956	-1.45519	6.32710
13321.899	0.02544	7.14584	-1.38250	6.36470
13325.775	-0.04102	7.22169	-1.23305	6.49848
13329.773	-0.04777	7.29627	-1.79348	6.44299
13333.779	-0.06567	7.35577	-2.18102	6.46723
13337.776	-0.13789	7.44673	-2.10186	6.54767
13341.775	-0.12382	7.45228	-1.79190	6.66197
13345.780	-0.07185	7.42754	-1.59373	6.70183
13349.778	-0.15015	7.41147	-1.45626	6.63408
13353.777	-0.03760	7.30996	-1.28142	6.62563
13357.798	0.03345	7.29471	-1.67784	6.69417
13361.781	-0.02382	7.33030	-2.14223	6.65049
13365.772	-0.02618	7.53163	-2.05338	6.68416
13369.805	-0.04373	7.66298	-2.00046	6.64148
13373.774	-0.01142	7.79447	-1.66708	6.64900
13377.779	-0.04767	7.85973	-1.56739	6.60428
13381.773	0.06386	7.73878	-1.32031	6.50836
13385.772	0.14960	7.85705	-1.47568	6.53606
13389.777	0.21284	7.80603	-2.17883	6.47290
13393.776	0.01434	7.93224	-2.14957	6.50622
13397.774	-0.19901	7.87859	-1.84136	6.57269
13401.769	-0.23304	7.90529	-1.77997	6.56085
13405.772	-0.28260	7.93364	-1.46556	6.53540
13409.770	-0.11719	7.84553	-1.34671	6.48114
13413.774	-0.10332	7.78046	-1.25463	6.46315
13417.773	-0.01243	7.68788	-1.35159	6.47613
13421.776	0.02236	7.59114	-2.20721	6.42495
13425.772	0.08319	7.54454	-2.33658	6.37367
13429.775	0.11855	7.47419	-2.31817	6.41360
13433.772	-0.18819	7.51450	-2.27743	6.43396
13437.821	-0.00782	7.41652	-1.99317	6.47771
13441.775	0.01233	7.40308	-2.22570	6.37308
13445.769	-0.04241	7.34956	-1.86707	6.43804
13449.777	-0.07048	7.28737	-1.92552	6.52156
13453.772	-0.10629	7.23469	-1.94808	6.54265
13457.774	-0.19057	7.21586	-1.87996	6.59820
13461.768	-0.20358	7.18887	-1.93482	6.56128
13465.776	-0.21611	7.18160	-1.88283	6.60829
13469.775	-0.27262	7.17507	-1.77387	6.65280
13473.780	-0.33198	7.16304	-1.68191	6.68208
13477.769	-0.35653	7.13014	-1.59710	6.70147
13481.776	-0.37928	7.10265	-1.54105	6.67269
13485.770	-0.35139	7.06430	-1.51583	6.68811
13489.770	-0.36432	7.03443	-1.49039	6.63427
13493.771	-0.36226	7.01044	-1.47786	6.55508
13497.773	-0.24227	7.06660	-1.44574	6.51776
13501.771	-0.19062	7.18653	-1.46831	6.46700
13505.774	-0.21152	7.44032	-1.45693	6.41295
13509.776	-0.21921	7.42402	-1.44557	6.30014
13513.773	-0.08413	7.46072	-1.45748	6.28685
13517.779	0.03961	7.59561	-1.48491	6.11307
13521.769	0.00238	7.77052	-1.50294	5.97725
13525.774	0.03276	7.83594	-1.56419	5.84516
13529.768	0.11180	7.92475	-1.57183	5.87065
13533.770	0.22534	7.86729	-1.60352	6.08403
13537.772	0.20134	7.90416	-1.63727	6.22916
13541.769	0.25974	7.92583	-1.70350	6.59918
13545.776	0.33114	7.89167	-1.71273	6.65578
13549.770	0.35715	7.82045	-1.73646	6.53898
13553.773	0.42725	7.77841	-1.76361	6.38467
13557.774	0.38345	7.75247	-1.70936	6.42424
13561.775	0.32608	7.68973	-1.70162	6.43062
13565.772	0.31821	7.66509	-1.61689	6.53207
13569.776	0.34186	7.67791	-1.52786	6.46501
13573.776	0.19387	7.60472	-1.64370	6.52672
13577.769	0.02534	7.51244	-1.68962	6.50423
13581.774	0.08969	7.46636	-2.38561	6.43013
13585.772	0.10078	7.43831	-2.15152	6.44681
13589.769	-0.10615	7.41607	-2.15247	6.39835
13593.772	-0.20958	7.39267	-2.02455	6.36122
13597.775	-0.16474	7.26270	-2.12032	6.36018
13601.777	-0.14228	7.20516	-2.05311	6.32135
13605.774	-0.19387	7.25740	-1.88859	6.32258
13609.769	-0.00405	7.17429	-1.78619	6.28299
13613.767	-0.21219	7.17319	-1.81610	6.30352
13617.767	-0.04053	7.15787	-1.68302	6.30625
13621.771	-0.11232	7.19690	-2.22277	6.29615
13625.768	-0.19531	7.21390	-2.44957	6.32663
13629.770	-0.16529	7.18397	-2.35640	6.31004
13633.766	-0.15494	7.16771	-2.33284	6.32079
13637.771	-0.15680	7.20222	-2.17507	6.37908
13641.773	-0.28620	7.19710	-2.16954	6.57251
13645.772	-0.26815	7.23602	-1.96291	6.45509
13649.768	-0.17415	7.19272	-1.86719	6.45761
13653.772	-0.26125	7.24324	-1.93224	6.48755
13657.770	-0.08721	7.21745	-1.85683	6.52122
13661.767	-0.13200	7.25041	-1.63105	6.54054
13665.767	-0.20859	7.25798	-1.75952	6.52130
13669.769	-0.13578	7.26972	-2.06815	6.45473
13673.769	-0.15312	7.30754	-2.61914	6.45326
13677.767	-0.21658	7.32903	-2.23338	6.41795
13681.775	-0.11508	7.26645	-2.24480	6.38874
13685.768	-0.05775	7.16027	-2.31990	6.33475
13689.771	-0.00633	7.11557	-2.38539	6.33563
13693.767	0.01477	7.15455	-2.22545	6.32736
13697.771	0.08232	7.13343	-2.30940	6.28939
13701.768	0.02229	7.05770	-2.43959	6.28976
13705.768	-0.11019	7.12300	-2.71535	6.29729
13709.769	-0.24195	7.30058	-2.95886	6.33383
13713.770	-0.60754	7.44257	-2.88569	6.45230
13717.772	-1.05386	8.12756	-2.83303	6.45860
