time (ms)	lx (deg)	ly (deg)	rx (deg)	ry (deg)
0.000	1.34891	7.35686	-2.11740	-2.02941
4.020	1.21239	7.24877	-2.17383	-2.04590
8.003	1.17902	7.14331	-2.16173	-2.08165
12.009	1.33718	9.61677	-2.16969	-2.00754
16.046	1.22623	9.61122	-2.23236	-2.04220
20.096	1.33502	9.65802	-2.22379	-2.01840
24.032	1.41286	9.72199	-2.18280	-2.01848
28.000	1.37454	9.53704	-2.20376	-2.06116
32.004	1.47196	9.59785	-2.23035	-2.10333
36.007	1.56816	9.53284	-2.20711	-2.14549
40.004	0.86731	9.48218	-2.20845	-2.12409
44.016	0.87937	9.49699	-2.17160	-2.15697
47.997	0.69871	9.34217	-2.14845	-2.07351
52.010	0.56498	9.27260	-2.14188	-2.07131
55.996	0.53002	9.10472	-2.13036	-2.06642
59.996	0.58568	9.08407	-2.13031	-1.99442
63.990	1.24260	9.20461	-2.05370	-1.96979
67.997	2.17301	9.65532	-1.55993	-1.70409
71.996	5.01977	8.94875	-0.64528	-0.87270
75.994	5.13476	9.25716	-0.58029	-0.90282
79.996	4.80017	9.20771	-0.38578	-0.81366
84.005	4.94615	9.17289	-0.46425	-1.07173
88.046	4.81833	9.02384	-0.56677	-1.00284
92.001	3.63937	10.92787	-0.51106	-1.01842
96.001	2.93780	10.68766	-0.44542	-0.80446
100.002	3.09446	10.87312	-0.45723	-0.73182
104.011	4.22624	11.12161	-0.47440	-0.60414
108.002	3.89510	11.12637	-0.47046	-0.54704
111.990	3.47003	11.03780	-0.44152	-0.38867
116.001	3.37190	10.91195	-0.46522	-0.31276
119.994	3.55248	10.94708	-0.50925	-0.36010
123.997	3.55300	11.00506	-0.54669	-0.29457
127.990	3.61940	11.00928	-0.56503	-0.32290
131.997	3.55031	10.95523	-0.57111	-0.31057
135.993	3.49280	10.81339	-0.51403	-0.21240
139.998	3.70727	10.74962	-0.46549	-0.13080
143.993	3.86319	10.79620	-0.50828	-0.08809
148.034	3.87213	10.65553	-0.43832	-0.10421
152.026	1.24570	10.49577	-0.57468	-0.05906
155.993	1.67975	10.31777	-0.58734	-0.09345
159.989	1.63564	10.21124	-0.60565	-0.09653
163.996	1.95941	10.28303	-0.67665	-0.08282
167.992	1.58277	9.98046	-0.65077	-0.05894
171.989	1.62686	9.96486	-0.63287	-0.04140
175.997	1.80910	12.18104	-0.67389	-0.02457
179.997	3.15481	9.67572	-0.68771	0.00442
183.996	2.69284	9.66754	-0.79801	-0.02957
187.991	2.95119	9.55869	-0.77650	-0.06217
192.000	3.24805	9.62832	-0.82528	-0.06994
195.993	3.33935	9.62712	-0.78508	-0.10582
199.994	3.33963	9.52945	-0.75069	-0.12001
203.987	3.66226	9.43117	-0.72422	-0.17843
208.003	3.55041	9.34098	-0.65493	-0.25734
211.993	3.66955	9.33435	-0.58994	-0.33246
215.989	3.69985	9.14265	-0.56689	-0.48015
220.007	3.86662	9.00803	-0.57017	-0.63526
223.995	3.45601	9.99561	-0.49738	-0.78677
227.993	3.72383	10.82668	-0.53493	-0.77991
232.001	3.63621	10.49549	-0.53905	-0.83926
235.992	3.52363	10.26794	-0.61419	-0.67198
239.995	1.46025	10.52360	-0.66687	-0.71269
243.992	1.30097	10.55707	-0.65704	-0.78148
247.992	1.36809	10.59109	-0.81719	-0.82987
251.986	1.42437	10.66691	-0.79662	-0.75570
255.993	1.36623	10.62079	-0.84590	-0.70993
259.991	2.97064	8.25995	-0.86399	-0.73794
263.993	3.19068	8.20871	-0.82761	-0.70968
267.990	3.36055	8.10306	-0.82458	-0.69577
271.993	3.69056	8.21953	-0.61096	-0.73525
275.991	3.94577	8.32816	-0.54245	-0.86303
279.995	3.94483	8.41285	-0.42872	-0.84474
283.991	3.84320	8.38488	-0.36213	-0.85823
287.993	3.10178	8.54521	-0.41745	-0.79488
291.994	2.83197	8.44549	-0.32995	-0.84010
295.984	3.94426	8.49082	-0.27798	-0.80016
299.996	0.52426	8.49949	-0.25664	-0.78339
303.992	0.39258	8.52096	-0.26959	-0.61943
307.992	0.54902	8.52908	-0.27694	-0.52154
311.986	0.61528	8.61788	-0.32384	-0.90305
315.996	0.53428	8.67060	-0.35382	-0.86161
319.991	2.14476	8.71425	-0.42643	-0.82842
323.992	2.73645	8.80913	-0.48153	-0.87777
328.019	2.67724	8.82911	-0.49738	-0.82848
332.008	2.63745	8.98830	-0.45733	-0.82454
335.988	1.94890	9.12242	-0.46793	-0.93879
339.996	1.84857	9.11360	-0.39879	-0.99953
343.990	2.05093	9.30822	-0.38772	-0.95368
347.986	1.89825	9.16597	-0.40996	-0.98853
351.999	2.09167	9.29012	-0.42606	-1.08980
356.001	2.07802	9.25437	-0.46865	-0.99460
359.993	-0.38467	9.13577	-0.51604	-0.93393
363.989	-0.38668	8.96802	-0.49848	-0.87911
367.991	-0.40105	8.80234	-0.56647	-0.88968
371.995	-0.37442	8.12981	-0.53622	-1.00542
375.989	-0.10136	8.24520	-0.52478	-1.03538
379.990	0.07418	7.94252	-0.57853	-1.08292
383.984	0.06805	7.86936	-0.64067	-0.79132
387.993	0.12612	7.17369	-0.67915	-0.79196
391.989	0.15600	6.41778	-0.67893	-0.66300
395.990	0.07763	6.01633	-0.63228	-0.66492
399.994	0.22939	5.96258	-0.53160	-0.69790
403.991	0.38457	5.83403	-0.55039	-0.69976
407.864	-1.05982	5.53011	-0.55520	-0.69074
411.861	-0.46899	7.60908	-0.53061	-0.73668
415.893	-0.11568	7.80236	-0.58513	-0.75230
419.864	0.62550	5.55430	-0.61198	-0.76395
423.870	0.74722	5.28767	-0.62007	-0.73165
427.863	0.77235	5.16917	-0.58367	-0.81428
431.862	1.14087	5.57923	-0.45418	-0.80051
435.867	1.27889	4.94682	-0.46964	-0.85743
439.859	1.00099	7.30091	-0.55448	-0.96225
443.873	0.99923	7.11844	-0.60342	-0.99525
447.864	0.19080	6.91099	-0.70913	-0.99637
451.864	-0.90927	7.06539	-0.71546	-1.01778
455.859	-0.66407	6.64882	-0.72446	-1.00631
459.871	0.84632	4.52371	-0.70171	-1.02663
463.893	0.86255	4.41874	-0.70886	-1.01063
467.879	1.00779	4.51126	-0.62017	-1.00901
471.867	-0.30496	4.36080	-0.63436	-0.95088
475.863	-0.20095	4.33388	-0.55389	-0.94598
479.862	1.18014	4.43198	-0.60464	-0.87433
483.867	-1.39182	4.42747	-0.57367	-0.77799
487.861	-1.51767	4.49557	-0.60116	-0.80504
491.883	-1.48644	4.80331	-0.55255	-0.87433
495.864	0.57707	5.63884	-0.53141	-0.87491
499.857	-0.50026	5.82662	-0.50088	-0.89079
503.865	0.59548	4.35956	-0.42862	-0.89035
507.863	-0.40038	4.47132	-0.39340	-0.73548
511.862	0.01032	4.79890	-0.39467	-0.60795
515.858	-1.89788	4.69660	-0.43373	-0.78233
519.865	-1.93041	5.14075	-0.52039	-0.75919
523.867	-0.27153	4.19802	-0.55620	-0.87220
527.863	-0.02794	4.26232	-0.56193	-0.74798
531.863	-0.37015	4.65578	-0.56128	-0.45113
535.861	-0.17834	5.03878	-0.66702	-0.61130
539.864	-2.43365	4.94132	-0.69302	-0.58871
543.860	-1.71890	4.70348	-0.76243	-0.65548
547.856	-0.36893	3.34750	-0.76724	-0.51824
551.865	-0.22599	4.11028	-0.75409	-0.24052
555.861	-0.69486	4.21704	-0.76878	-0.43707
559.904	-0.39442	4.37442	-0.80136	-0.43136
563.956	-1.97761	4.97701	-0.78972	-0.45208
567.879	-0.83774	3.29484	-0.78235	-0.40234
571.872	-1.13849	2.38623	-0.79526	-0.47481
575.866	-0.73843	2.18454	-0.81260	-0.45868
579.873	1.81235	-0.78400	-0.78622	-0.42972
583.856	2.07898	-0.70532	-0.77553	-0.25229
587.865	-0.03884	-0.69144	-0.76493	-0.34967
591.861	0.98772	-0.82238	-0.77598	-0.34656
595.856	1.37483	-0.84087	-0.77002	-0.36661
599.889	0.61923	-0.94452	-0.78625	-0.34522
603.869	0.45837	-0.95526	-0.80483	-0.37287
607.858	0.60905	-1.04799	-0.81352	-0.38291
611.866	0.57374	-1.00939	-0.76307	-0.38733
615.866	0.75516	-0.80782	-0.71652	-0.35382
619.861	1.03446	-0.77055	-0.63362	-0.31268
623.887	0.71533	-0.78641	-0.63451	-0.39288
627.893	0.67168	-0.56526	-0.61977	-0.47381
631.888	0.73920	-0.67198	-0.63114	-0.56030
635.866	0.68422	-0.45127	-0.54957	-0.52617
639.874	0.57935	-0.57648	-0.55736	-0.63944
643.860	0.56687	-0.39301	-0.44954	-0.65212
647.867	0.67188	-0.31573	-0.48202	-0.70595
651.869	0.65826	-0.35484	-0.44368	-0.74534
655.860	0.71913	-0.30880	-0.50349	-0.77564
659.860	0.64426	-0.35139	-0.62260	-0.77816
663.854	0.57590	-0.33927	-0.63687	-0.81621
667.863	0.61890	-0.32973	-0.61543	-0.82414
671.860	0.59962	-0.47006	-0.62481	-0.79324
675.860	0.55724	-0.48274	-0.60905	-0.76477
679.864	0.55855	-0.54741	-0.56362	-0.77541
683.864	0.37653	-0.65938	-0.51418	-0.74046
687.861	0.42795	-0.87969	-0.51428	-0.75539
691.856	0.31808	-1.06338	-0.49011	-0.68320
695.868	0.29659	-1.27444	-0.51188	-0.59887
699.865	0.14533	-1.05467	-0.48378	-0.54150
703.860	0.26977	-1.14816	-0.44105	-0.47298
707.854	0.23388	-1.07136	-0.41053	-0.49688
711.859	0.23847	-1.20100	-0.38807	-0.48583
715.858	0.28622	-1.24967	-0.32325	-0.35814
719.865	0.25574	-1.27513	-0.23832	-0.30383
723.858	0.17658	-1.24238	-0.19015	-0.26879
727.858	0.19651	-1.19074	-0.15106	-0.26606
731.853	0.26915	-0.64845	-0.05517	-0.23383
735.867	0.30895	-0.61444	-0.06870	-0.28266
739.858	0.35717	-0.47403	-0.08336	-0.29615
743.897	0.41787	-0.48220	-0.07425	-0.33002
747.870	0.38834	-0.07383	-0.04502	-0.36858
751.862	0.41445	-0.26871	-0.07140	-0.40739
755.854	0.41135	-0.19804	-0.08490	-0.37176
759.861	0.36164	-0.08675	-0.13769	-0.43060
763.866	0.36315	-0.04105	-0.17970	-0.54336
767.928	0.40440	0.04637	-0.22353	-0.58207
771.877	0.42410	0.14129	-0.20085	-0.61901
775.864	0.41212	0.10583	-0.23361	-0.66001
779.857	0.40881	0.14258	-0.22028	-0.69949
783.880	0.42897	0.19839	-0.25416	-0.71141
787.873	0.40415	0.23658	-0.26748	-0.72182
791.859	0.41154	0.24264	-0.28694	-0.72937
795.853	0.41070	0.24945	-0.29697	-0.72329
799.859	0.45750	0.25310	-0.30434	-0.73591
803.860	0.46952	0.35165	-0.32312	-0.69402
807.859	0.46363	0.33503	-0.33474	-0.61185
811.852	0.62833	0.37696	-0.39656	-0.52143
815.884	0.58684	0.34213	-0.45371	-0.46110
819.871	0.63702	0.38016	-0.51485	-0.25941
823.865	0.67387	0.11221	-0.60674	-0.19361
827.881	0.71883	-0.15549	-0.62881	-0.09939
832.209	0.68995	-0.37700	-0.61588	-0.07961
835.868	0.68600	-0.70590	-0.63198	-0.10299
839.879	0.68474	-0.74513	-0.65588	-0.15892
843.865	0.69022	-0.59130	-0.61114	-0.36121
847.856	0.74558	-0.55745	-0.61183	-0.30140
851.857	0.81908	-0.59051	-0.61464	-0.37631
855.877	0.75300	-0.45668	-0.56612	-0.37450
859.872	0.72719	-0.47708	-0.55034	-0.48224
863.862	0.68695	-0.55053	-0.54572	-0.49894
867.872	0.68697	-0.48297	-0.53868	-0.51712
871.868	0.68903	-0.46801	-0.54131	-0.55397
875.865	0.69893	-0.35467	-0.58310	-0.62107
879.861	0.68521	-0.32542	-0.59166	-0.67513
883.875	0.72389	-0.27359	-0.57386	-0.67464
887.866	0.62163	-0.25643	-0.57429	-0.65546
891.863	0.63811	-0.20628	-0.59337	-0.65233
895.862	0.59672	-0.19498	-0.59645	-0.64132
899.900	0.59124	-0.19329	-0.61863	-0.65757
903.863	0.58250	-0.19118	-0.64320	-0.63905
907.862	0.57245	-0.16002	-0.63216	-0.63217
911.854	0.54600	-0.18768	-0.61769	-0.64326
915.863	0.52694	-0.18388	-0.61146	-0.63945
919.861	0.51299	-0.19829	-0.58828	-0.59943
923.862	0.49388	-0.20462	-0.54039	-0.56354
927.855	0.45646	-0.21697	-0.51470	-0.55248
931.862	0.48391	-0.19720	-0.48024	-0.51909
935.861	0.46974	-0.20619	-0.41745	-0.48938
939.864	0.41398	-0.19909	-0.34615	-0.44958
943.869	0.39268	-0.20030	-0.20554	-0.43942
947.860	0.34069	-0.24414	-0.29744	-0.45400
951.870	0.33930	-0.26029	-0.21450	-0.47118
955.861	0.32268	-0.27470	-0.22440	-0.46476
959.856	0.32955	-0.30380	-0.12434	-0.47863
963.856	0.34305	-0.35546	-0.14970	-0.49265
967.886	0.34315	-0.37364	-0.13111	-0.51471
971.874	0.35164	-0.44732	-0.09319	-0.54858
975.856	0.30610	-0.47828	-0.12776	-0.56105
979.868	0.32546	-0.58025	-0.16705	-0.55536
983.860	0.35025	-0.62253	-0.23016	-0.53635
987.866	0.28873	-0.70291	-0.27294	-0.53284
991.849	0.29061	-0.78043	-0.26798	-0.54492
995.863	0.16608	-0.87921	-0.26510	-0.57369
999.854	0.14866	-0.93434	-0.19665	-0.60808
1003.854	0.17911	-0.89506	-0.24100	-0.62428
1007.871	0.14590	-0.94930	-0.23587	-0.59024
1011.864	0.11158	-0.96987	-0.22847	-0.51699
1015.860	0.07416	-0.91966	-0.29066	-0.40468
1019.869	0.05016	-0.97678	-0.28448	-0.29227
1023.855	0.02271	-0.84243	-0.30605	-0.34286
1027.863	0.08100	-0.79592	-0.22060	-0.32825
1031.850	0.27014	-0.57362	-0.14399	-0.30524
1035.879	0.32218	-0.42033	-0.15156	-0.30835
1039.854	0.44827	-0.43138	-0.13672	-0.35964
1043.857	0.49624	-0.45926	-0.14853	-0.45060
1047.852	0.56635	-0.45123	-0.11880	-0.46005
1051.851	0.54962	-0.43247	-0.11299	-0.46407
1055.855	0.62111	-0.43985	-0.14570	-0.53061
1059.854	0.59434	-0.42529	-0.09674	-0.73229
1063.855	0.59799	-0.52654	-0.11133	-0.81192
1067.848	0.57523	-0.68768	-0.10515	-0.76190
1071.855	0.59496	-0.80758	-0.12784	-0.73214
1075.854	0.56168	-0.90394	-0.16742	-0.78009
1079.852	0.54123	-1.19258	-0.18755	-0.83303
1083.848	0.49922	-1.10911	-0.22544	-0.82252
1087.920	0.42812	-1.07725	-0.23145	-0.87144
1091.856	0.43259	-1.12251	-0.15715	-0.85256
1095.863	0.42368	-1.09298	-0.20998	-0.68078
1099.858	0.43048	-1.05234	-0.15918	-0.66183
1103.941	0.41343	-0.81674	-0.17484	-0.68210
1107.868	0.37420	-0.91520	-0.22631	-0.64657
1111.861	0.36923	-0.52563	-0.23346	-0.60659
1115.852	0.32421	-0.74150	-0.24922	-0.69412
1119.860	0.26614	-0.72212	-0.24877	-0.71323
1123.864	0.22279	-0.70292	-0.23636	-0.80856
1127.856	0.13918	-0.71770	-0.10875	-0.75415
1131.848	0.15432	-0.68816	-0.11761	-0.81437
1135.854	0.21271	-0.73022	-0.17397	-0.73211
1139.852	0.22668	-0.76945	-0.19735	-0.67604
1143.855	0.19799	-0.83353	-0.17283	-0.67335
1147.853	0.25431	-0.95856	-0.14119	-0.68573
1151.854	0.24207	-0.90048	-0.14479	-0.72866
1155.854	0.19720	-0.79586	-0.08118	-0.82210
1159.850	0.22591	-0.81546	-0.07698	-0.67191
1163.859	0.23862	-0.57981	-0.10890	-0.63228
1167.859	0.28637	-0.38992	-0.10932	-0.50691
1171.876	0.43237	-0.32628	-0.12754	-0.52380
1175.862	0.41298	-0.37215	-0.11617	-0.44685
1179.852	0.47954	-0.47690	-0.09473	-0.46681
1183.846	0.42735	-0.43571	-0.03579	-0.47853
1187.855	0.41311	-0.43275	-0.05651	-0.51836
1191.850	0.44907	-0.38659	-0.08475	-0.56960
1195.854	0.36481	-0.34549	-0.16901	-0.57181
1199.847	0.33084	-0.49445	-0.18015	-0.63104
1203.855	0.17851	-0.73052	-0.26274	-0.74841
1207.850	0.24018	-0.71790	-0.12764	-0.73915
1211.871	0.40152	-0.75453	-0.02735	-0.78874
1215.854	0.46143	-0.65532	-0.14481	-0.73343
1219.850	0.49515	-0.54615	-0.03187	-0.67114
1223.850	0.22336	-0.59968	-0.20405	-0.75966
1227.854	0.30940	-0.55026	-0.20760	-0.87700
1231.850	0.25431	-0.39335	-0.19169	-0.84118
1235.866	0.38794	-0.39302	-0.19576	-0.72776
1239.907	0.23810	-0.39440	-0.14578	-0.58885
1243.927	0.32077	-0.40456	-0.08865	-0.57121
1247.860	0.40524	-0.49534	-0.05045	-0.56045
1251.854	0.33538	-0.54144	-0.04405	-0.53968
1255.857	0.21408	-0.75283	-0.17916	-0.48047
1259.857	0.26639	-0.61007	-0.17233	-0.53707
1263.729	0.29267	-0.66883	-0.15844	-0.62376
1267.724	0.26696	-0.74863	-0.17879	-0.65159
1271.726	0.18303	-0.73499	-0.19993	-0.67758
1275.729	0.22748	-0.73817	-0.17797	-0.59983
1279.724	0.26694	-0.69161	-0.16067	-0.70349
1283.725	0.26401	-0.68311	-0.23378	-0.90015
1287.727	0.17958	-0.53538	-0.23897	-0.92895
1291.724	0.12265	-0.48554	-0.30689	-0.92698
1295.724	0.27848	-0.57086	-0.34265	-1.00411
1299.723	0.29173	-0.49115	-0.26249	-1.01912
1303.730	0.23207	-0.45599	-0.24649	-1.03124
1307.728	0.08986	-0.53322	-0.27562	-1.10283
1311.728	0.21150	-0.57643	-0.23093	-1.12263
1315.727	0.14553	-0.62620	-0.15308	-1.16777
1319.720	0.05308	-0.65303	-0.24026	-1.16317
1323.731	0.07138	-0.87328	-0.21395	-1.18957
1327.723	-0.00638	-0.98907	-0.19298	-1.19509
1331.733	0.11302	-0.90478	-0.21857	-1.17303
1335.729	-0.05966	-0.88200	-0.19152	-1.14889
1339.723	-0.03152	-0.89681	-0.12898	-1.16581
1343.747	0.11845	-0.99608	-0.17732	-1.14099
1347.731	0.22107	-0.91163	-0.20882	-1.15500
1351.730	0.07947	-0.74280	-0.24755	-1.08358
1355.730	0.00107	-0.80506	-0.23341	-1.09506
1359.743	0.07423	-0.64270	-0.31238	-1.04281
1363.725	0.28356	-0.64092	-0.28190	-1.04297
1367.723	0.25403	-0.32964	-0.28198	-1.01790
1371.718	0.24999	-0.41390	-0.31526	-0.95803
1375.761	0.21194	-0.37111	-0.29590	-0.97020
1379.744	0.30426	-0.32492	-0.32824	-0.94066
1383.730	0.32655	-0.29364	-0.31980	-0.86296
1387.722	0.15526	-0.31784	-0.24999	-0.84860
1391.731	0.20723	-0.26703	-0.22907	-0.72590
1395.735	0.16521	-0.32137	-0.17216	-0.71092
1399.729	0.20269	-0.33523	-0.23291	-0.55866
1403.729	0.12210	-0.35710	-0.18206	-0.50504
1407.723	0.07299	-0.40243	-0.16030	-0.51235
1411.723	0.13506	-0.43237	-0.13769	-0.54135
1415.764	0.13109	-0.54100	-0.11374	-0.61996
1419.738	0.19991	-0.53556	-0.12292	-0.50589
1423.730	0.02474	-0.58535	-0.13402	-0.48047
1427.728	-0.02204	-0.61253	-0.10136	-0.53610
1431.730	0.05805	-0.62041	-0.13344	-0.66848
1435.722	0.05269	-0.66282	-0.19127	-0.69951
1439.727	0.17144	-0.69398	-0.17556	-0.73251
1443.737	-0.11597	-0.69964	-0.11285	-0.70729
1450.870	0.04710	-0.74513	-0.10150	-0.73577
1453.580	0.07912	-0.71656	-0.15094	-0.67263
1456.234	0.05204	-0.71972	-0.17516	-0.52795
1459.733	0.09758	-0.64068	-0.15551	-0.46459
1463.721	0.08867	-0.61457	-0.11411	-0.56189
1467.725	-0.09227	-0.58008	-0.10190	-0.61514
1471.720	0.05058	-0.59872	-0.16414	-0.59964
1475.725	0.15975	-0.62200	-0.17201	-0.51794
1479.716	0.08426	-0.59584	-0.16586	-0.47667
1483.726	0.07321	-0.53789	-0.13168	-0.42541
1487.720	0.16164	-0.56187	-0.19231	-0.49538
1491.726	0.18509	-0.55255	-0.19641	-0.49990
1495.715	0.23113	-0.53948	-0.18184	-0.61511
1499.724	-0.10339	-0.55076	-0.17030	-0.73417
1503.720	0.06790	-0.60530	-0.19641	-0.71437
1507.722	0.04328	-0.65124	-0.20355	-0.74093
1511.800	0.18698	-0.67380	-0.22031	-0.74655
1515.731	0.18760	-0.70911	-0.17653	-0.72543
1519.722	0.07224	-0.70183	-0.17817	-0.77226
1523.730	0.08150	-0.74973	-0.23008	-0.90398
1527.727	0.05768	-0.82260	-0.23065	-0.98074
1531.738	0.14431	-0.83765	-0.21656	-1.01925
1535.726	0.09632	-0.90242	-0.24639	-1.06128
1539.725	0.10453	-0.95603	-0.22291	-1.12651
1543.722	0.13173	-1.01977	-0.20353	-1.10075
1547.741	0.18291	-1.03592	-0.18278	-1.13498
1551.725	0.20457	-1.07345	-0.22338	-1.16456
1555.729	0.07195	-1.08898	-0.23016	-1.19340
1559.726	-0.05969	-1.15406	-0.24507	-1.24029
1563.727	-0.04467	-1.19062	-0.26245	-1.27397
1567.727	0.03877	-1.23220	-0.23281	-1.26098
1571.728	-0.00812	-1.21243	-0.23569	-1.21329
1575.725	-0.07545	-1.22003	-0.23192	-1.20597
1579.779	-0.03097	-1.19609	-0.24885	-1.17636
1583.738	-0.01353	-1.14748	-0.26403	-1.10658
1587.739	-0.07120	-1.11636	-0.28935	-1.03593
1591.730	-0.11133	-1.01813	-0.30932	-0.92661
1595.721	-0.16945	-0.95707	-0.31684	-0.84954
1599.722	-0.12275	-0.86684	-0.27545	-0.86003
1603.725	-0.04916	-0.82956	-0.20266	-0.78145
1607.718	0.03797	-0.75718	-0.14513	-0.72312
1611.720	0.03058	-0.67736	-0.13049	-0.63047
1615.716	0.10235	-0.60980	-0.09843	-0.55740
1619.725	0.10108	-0.62043	-0.06805	-0.53235
1623.720	0.09041	-0.61139	-0.00295	-0.48952
1627.760	0.19450	-0.55024	0.03559	-0.46149
1631.712	0.16129	-0.50132	0.05398	-0.49103
1635.721	0.17742	-0.52793	0.05641	-0.51225
1639.717	0.19182	-0.54211	0.08073	-0.53307
1643.724	0.18253	-0.53807	0.08932	-0.50671
1647.807	0.14900	-0.49933	0.08289	-0.51807
1651.776	0.10418	-0.51657	0.06172	-0.54850
1655.740	0.06366	-0.51643	0.05048	-0.59738
1659.723	-0.01561	-0.60893	0.06274	-0.62063
1663.724	-0.00283	-0.51963	-0.01789	-0.56048
1667.725	0.09882	-0.39425	-0.00362	-0.32028
1671.737	0.40261	-0.03712	0.14990	-0.00574
1675.719	1.07602	0.73323	1.06433	0.49296
1679.714	2.53375	1.64787	0.98824	0.64461
1683.720	2.89505	2.39991	1.55105	1.04791
1687.719	2.44784	2.55266	1.43605	1.27847
1691.718	2.18451	2.29476	1.46767	1.26020
1695.714	1.45926	2.11195	1.53441	1.25371
1699.748	1.91519	1.86906	1.63980	1.28791
1703.737	2.04723	1.88295	1.73080	1.30751
1707.718	2.03323	1.94640	1.74526	1.28995
1711.713	1.99139	1.80936	1.75944	1.36233
1715.739	1.93750	1.97886	1.73616	1.45086
1719.727	1.94947	2.04090	1.70465	1.53940
1723.719	1.85423	2.04846	1.74070	1.62737
1727.718	1.85529	1.95553	1.73286	1.60907
1731.721	1.73576	1.85687	1.73316	1.61606
1735.719	1.76383	1.82788	1.73279	1.67632
1739.726	1.74913	1.77070	1.70095	1.68449
1743.716	1.70926	1.75600	1.60327	1.81339
1747.719	1.70040	1.79194	1.54036	1.83238
1751.711	1.64030	1.79202	1.58120	1.84934
1755.723	1.59693	1.78275	1.60422	1.93115
1759.720	1.52302	1.72556	1.64863	1.98681
1763.719	1.54105	1.64876	1.65607	1.97973
1767.742	1.58554	1.66622	1.71727	1.90373
1771.727	1.59236	1.66324	1.64169	1.96302
1775.733	1.61649	1.70732	1.74863	1.98901
1779.713	1.59331	1.72019	1.70137	1.92771
1783.724	1.60853	1.75669	1.76894	1.94615
1787.713	1.62163	1.78211	1.76906	1.88973
1791.721	1.65409	1.78379	1.79361	1.79701
1795.714	1.66966	1.79184	1.82668	1.79174
1799.716	1.67816	1.75702	1.78312	1.69777
1803.710	1.67018	1.76162	1.75991	1.41597
1807.722	1.69264	1.76674	1.80506	1.32521
1811.717	1.65128	1.67696	1.82547	1.18660
1815.711	1.67226	1.56258	1.81505	1.25505
1819.717	1.64684	1.55572	1.83479	1.17917
1823.750	1.64570	1.48379	1.79552	1.06471
1827.716	1.69388	1.42617	1.79604	1.04527
1831.710	1.70529	1.46287	1.83950	1.01143
1835.715	1.73398	1.44783	1.91246	1.02405
1839.714	1.83982	1.41012	1.88747	0.98484
1843.719	1.88606	1.46710	1.90899	1.00183
1847.714	1.98556	1.41683	1.86927	1.12845
1851.747	2.01407	1.49875	1.87498	1.19969
1855.716	1.97696	1.60234	1.80429	1.17703
1859.713	1.99776	1.68121	1.83732	1.19071
1863.709	2.08404	1.96342	1.77139	1.45920
1867.718	2.05454	2.37178	1.73249	2.60406
1871.724	1.90750	2.81461	1.51080	4.07879
1875.716	1.56965	3.70852	0.75062	4.48240
1879.710	1.30241	4.71306	1.00454	4.76530
1883.717	1.20901	5.24711	1.03717	4.73769
1887.713	1.02233	4.94068	0.97844	4.73267
1891.712	1.00841	4.81249	1.12948	4.64685
1895.716	0.92726	4.62261	0.95693	4.63311
1899.716	0.81389	4.35294	0.89986	4.58135
1903.708	0.85875	4.09777	0.85987	4.65301
1907.718	0.85190	4.33807	0.83731	4.69475
1911.714	0.67541	4.07846	0.75044	4.78867
1915.714	0.68280	4.65352	0.72233	5.42654
1919.714	0.66183	4.89612	0.80674	5.43478
1923.714	0.65345	4.86044	0.77218	5.68960
1927.709	0.60938	4.81637	0.75573	5.85213
1931.717	0.65985	5.00713	0.79925	5.87518
1935.713	0.70360	5.24071	0.74630	5.83183
1939.717	0.72307	5.31785	0.78756	5.93378
1943.716	0.75687	5.31574	0.84337	5.90287
1947.718	0.76449	5.25109	0.86111	5.80754
1951.709	0.66781	5.32518	0.92066	5.82651
1955.716	0.71580	5.34185	0.76412	5.84518
1959.713	0.74484	5.33344	0.74141	5.83614
1963.710	0.67672	5.34433	0.71878	5.77259
1967.716	0.67595	5.32460	0.77665	5.73479
1971.713	0.70610	5.35440	0.84109	5.68370
1975.712	0.68156	5.26473	0.85942	5.62826
1979.717	0.68461	5.23193	0.92135	5.56596
1983.721	0.67816	5.18815	0.96256	5.52247
1987.725	0.68819	5.14250	0.86158	5.49884
1991.709	0.70345	5.10736	0.69449	5.48875
1995.717	0.80689	5.05744	0.68022	5.51631
1999.712	0.71384	4.97184	0.69737	5.50977
2003.712	0.72360	4.91720	0.74987	5.51997
2007.707	0.77890	4.85688	0.79414	5.52624
2011.716	0.86156	4.81871	0.84672	5.49414
2015.715	0.87972	4.74198	0.91830	5.48040
2019.714	0.88721	4.66667	0.96549	5.47976
2023.738	0.86570	4.68872	0.91976	5.46496
2027.711	0.85285	4.66161	0.95991	5.41100
2031.716	0.85987	4.57883	0.90691	5.42336
2035.711	0.83749	4.55508	0.97231	5.28384
2039.714	0.68918	4.54519	0.89376	5.21534
2043.718	-1.20504	1.57367	0.66384	2.86456
2047.712	-1.54443	0.73776	0.51900	0.47991
2051.711	-1.42508	-0.81323	-0.00707	-0.05842
2055.744	-1.57942	-1.77572	-0.12208	-1.63964
2059.725	-1.72527	-3.06074	-0.27366	-2.34539
2063.713	-1.84714	-5.39123	-0.61818	-3.58511
2067.712	-1.93395	-5.43608	-0.72039	-5.08919
2071.706	-1.94689	-6.53221	-0.97189	-5.84563
2075.714	-2.04349	-8.36067	-1.15890	-6.75986
2079.721	-2.37010	-7.83965	-1.41196	-7.49787
2083.712	-2.45988	-7.97719	-2.18357	-7.72652
2087.749	-2.65223	-8.01157	-2.20148	-7.61024
2091.719	-2.56453	-8.30720	-2.37005	-7.61531
2095.714	-2.52322	-8.33279	-2.26928	-7.63522
2099.720	-2.51817	-8.41463	-2.13509	-7.65624
2103.715	-2.62927	-8.51865	-2.17561	-7.71608
2107.716	-2.65364	-8.56891	-2.35471	-7.75819
2111.711	-2.71770	-8.75869	-2.39710	-7.83609
2115.724	-2.67841	-8.89461	-2.36517	-7.79837
2119.594	-2.57910	-8.77964	-2.39956	-7.85235
2123.749	-2.31391	-8.82948	-2.46454	-7.85000
2127.595	-2.40553	-8.87581	-2.49855	-7.84113
2131.586	-2.40322	-8.89162	-2.49778	-7.85918
2135.593	-2.32709	-8.86738	-2.44437	-7.84693
2139.620	-2.32781	-8.91304	-2.47618	-7.82869
2143.596	-2.30665	-8.88932	-2.52287	-7.81231
2147.608	-2.23457	-8.97653	-2.54358	-7.78986
2151.586	-2.22064	-8.99917	-2.56971	-7.75629
2155.589	-2.19727	-8.94817	-2.52996	-7.68701
2159.584	-2.20381	-8.88880	-2.54846	-7.68558
2163.583	-2.20456	-8.88902	-2.59628	-7.64617
2167.585	-2.26785	-8.91304	-2.60835	-7.62517
2171.584	-2.24341	-8.88481	-2.59854	-7.63284
2175.579	-2.24388	-8.82660	-2.60032	-7.61844
2179.597	-2.20203	-8.79530	-2.64852	-7.64227
2183.585	-2.17561	-8.74479	-2.67531	-7.65402
2187.586	-2.21291	-8.76194	-2.70275	-7.65693
2191.606	-2.20847	-8.76497	-2.72201	-7.67353
2195.609	-2.22339	-8.72423	-2.75908	-7.70696
2199.593	-2.20696	-8.68825	-2.81798	-7.72062
2203.590	-2.18949	-8.67518	-2.83440	-7.75216
2207.608	-2.18835	-8.68705	-2.83338	-7.79396
2211.614	-2.18054	-8.65028	-2.84561	-7.82194
2215.585	-2.20565	-8.62948	-2.89133	-7.83244
2219.579	-2.20699	-8.62217	-2.91762	-7.82834
2223.589	-2.23982	-8.62635	-2.92723	-7.82757
2227.606	-2.24168	-8.61872	-2.90767	-7.81219
2231.602	-2.25417	-8.60762	-2.90106	-7.83284
2235.582	-2.25647	-8.62788	-2.88626	-7.86643
2239.584	-2.24545	-8.64362	-2.84992	-7.87055
2243.584	-2.26762	-8.69350	-2.83298	-7.87061
2247.611	-2.28856	-8.72365	-2.82350	-7.85631
2251.588	-2.37372	-8.75736	-2.83489	-7.84464
2255.590	-2.36864	-8.88038	-2.86581	-7.80589
2259.619	-2.37961	-8.88647	-2.82288	-7.75131
2263.584	-2.40531	-8.89440	-2.80414	-7.79934
2267.584	-2.28660	-9.04919	-2.71634	-7.89035
2271.580	-2.16800	-10.60155	-2.64123	-8.76435
2275.587	-2.06394	-11.54868	-2.31502	-10.11047
2279.585	-2.03234	-12.11076	-1.96876	-10.40550
2283.586	-1.62267	-12.57399	-1.82333	-10.84332
2287.582	-1.23588	-12.95842	-1.74489	-10.90033
2291.584	-0.76029	-13.28629	-1.74928	-11.14446
2295.578	-0.36836	-13.47891	-1.58609	-11.37824
2299.615	-0.30568	-13.32566	-1.52164	-11.52799
2303.589	-0.32439	-13.25518	-1.46229	-11.42349
2307.589	-0.27299	-13.19495	-1.40673	-11.32215
2311.592	-0.28349	-13.25518	-1.34103	-11.40471
2315.588	-0.20703	-13.23533	-1.30332	-11.50408
2319.582	-0.40328	-13.04663	-1.25763	-11.54158
2323.583	-0.45964	-13.10737	-1.27631	-11.55347
2327.642	-0.44989	-13.25162	-1.27269	-11.56589
2331.602	-0.64953	-13.21630	-1.19579	-11.51195
2335.584	-0.52788	-13.30610	-1.15024	-11.47668
2339.591	-0.46028	-13.32414	-1.12960	-11.51594
2343.582	-0.37774	-13.25181	-1.09978	-11.48375
2347.596	-0.23259	-13.25132	-1.09661	-11.46069
2351.594	-0.44118	-13.26371	-1.08284	-11.44680
2355.588	-0.52528	-13.03068	-1.11502	-11.37855
2359.589	-0.74101	-12.97751	-1.08393	-11.37045
2363.596	-0.75250	-13.16818	-1.06642	-11.30509
2367.586	-0.76451	-13.25867	-1.05391	-11.33216
2371.586	-0.68985	-13.36792	-1.07483	-11.27818
2375.582	-0.68881	-13.46741	-1.08554	-11.25848
2379.576	-0.44763	-12.94405	-1.16555	-11.22173
2383.595	-0.32441	-13.10399	-1.13883	-11.15075
2387.582	-0.28548	-12.75674	-1.16267	-11.11321
2391.577	-0.29888	-12.79177	-1.12601	-11.10114
2395.618	-0.61367	-12.71195	-1.20544	-11.04803
2399.598	-0.59918	-13.01805	-1.21055	-11.05921
2403.586	-0.56419	-13.21264	-1.28174	-10.98996
2407.581	-0.39859	-12.98078	-1.21333	-10.94607
2411.576	-0.18546	-13.12748	-1.17701	-10.91766
2415.583	-0.14454	-12.79514	-1.09827	-10.91610
2419.609	-0.09595	-12.67797	-1.14382	-10.90279
2423.604	-0.10552	-12.68771	-1.13774	-10.94748
2427.589	-0.06281	-12.65409	-1.09882	-10.90535
2431.596	-0.21837	-12.75328	-1.07959	-10.88632
2435.585	-0.27813	-12.92741	-1.05791	-10.85889
2439.585	-0.32238	-13.10602	-0.99439	-10.85220
2443.581	-0.66709	-13.15049	-0.98876	-10.89113
2447.574	-0.16556	-13.02383	-0.94750	-10.87976
2451.588	-0.19869	-12.88730	-0.98077	-10.81955
2455.579	-0.10071	-12.80792	-0.99928	-10.79118
2459.581	-0.25143	-12.89200	-0.98832	-10.79946
2463.587	-0.25659	-12.95205	-0.96395	-10.82502
2467.589	-0.51014	-12.85458	-0.97933	-10.75381
2471.579	-0.65268	-12.86999	-1.00089	-10.76844
2475.574	-0.65560	-12.92110	-1.05505	-10.73069
2479.582	-0.55620	-12.94951	-1.05158	-10.74060
2483.578	-0.40914	-13.05195	-1.05580	-10.71020
2487.580	-0.47661	-12.92550	-1.03099	-10.73038
2491.574	-0.37866	-12.85846	-1.06212	-10.71200
2495.584	-0.36099	-12.92056	-1.05483	-10.66285
2499.578	-0.47711	-12.88645	-1.06456	-10.59329
2503.581	-0.49344	-12.84972	-1.05091	-10.52687
2507.573	-0.50051	-12.77308	-1.01000	-10.54857
2511.582	-0.42470	-12.77099	-1.00553	-10.53434
2515.579	-0.43477	-12.83012	-1.01382	-10.58215
2519.580	-0.47684	-12.94233	-1.00467	-10.54220
2523.576	-0.39333	-12.77178	-1.01538	-10.52989
2527.580	-0.32819	-12.83708	-0.99715	-10.55937
2531.585	-0.08009	-12.81185	-0.95229	-10.56620
2535.595	0.91140	-12.81263	-0.63841	-10.45054
2539.582	1.40884	-12.76817	0.82826	-10.58521
2543.578	1.48949	-12.83424	1.59980	-10.70684
2547.577	1.43602	-12.88542	1.55179	-10.68101
2551.572	1.44480	-12.78687	1.00285	-10.69013
2555.581	1.24458	-12.79011	1.04553	-10.72021
2559.578	1.16461	-12.74872	1.01945	-10.79893
2563.582	1.35730	-12.73930	1.01414	-10.71948
2567.573	1.45376	-12.78411	1.09001	-10.69202
2571.588	1.45988	-12.65095	1.04203	-10.62082
2575.582	1.39297	-12.56183	1.05917	-10.62734
2579.578	1.43669	-12.60725	1.13543	-10.78040
2583.573	1.44116	-12.65678	1.08609	-10.65142
2587.583	1.38143	-12.68859	1.04386	-10.60068
2591.579	1.42350	-12.51326	1.04880	-10.57502
2595.573	1.49170	-12.43880	1.05151	-10.65648
2599.617	1.53964	-12.58602	1.08155	-10.62139
2603.588	1.61091	-12.50641	1.07669	-10.60366
2607.583	1.63588	-12.53536	1.08770	-10.51909
2611.582	1.62869	-12.50692	1.03543	-10.56239
2615.577	1.61684	-12.56184	1.11100	-10.56965
2619.587	1.64082	-12.42406	1.10425	-10.52472
2623.587	1.63645	-12.42882	1.12211	-10.53600
2627.629	1.60409	-12.33676	1.17446	-10.55271
2631.575	1.60692	-12.35123	1.17265	-10.63659
2635.587	1.52392	-12.49548	1.10906	-10.60269
2639.593	1.45418	-12.46844	1.06875	-10.57328
2643.585	1.48280	-12.41966	1.11864	-10.53608
2647.580	1.42655	-12.42043	1.07545	-10.46549
2651.585	1.40777	-12.39662	1.07872	-10.48025
2655.585	1.30982	-12.32194	1.05850	-10.46420
2659.584	1.31793	-12.26804	1.06255	-10.46834
2663.577	1.44448	-12.31826	1.12047	-10.54911
2667.590	1.64350	-12.34051	1.02804	-10.59163
2671.642	1.57478	-12.42554	0.94405	-10.53458
2675.593	1.47139	-12.40816	0.90587	-10.53291
2679.582	1.60027	-12.23068	0.91086	-10.47100
2683.577	1.62921	-12.14339	0.94125	-10.44535
2687.586	1.60868	-12.17055	0.89738	-10.39707
2691.595	1.53959	-12.17847	0.95098	-10.42064
2695.581	1.47670	-12.16953	0.93929	-10.44648
2699.570	1.44021	-12.29732	0.96452	-10.43826
2703.580	1.43887	-12.32035	1.00444	-10.42629
2707.580	1.49168	-12.34543	0.98616	-10.40753
2711.577	1.44307	-12.22116	0.99869	-10.43114
2715.593	1.43600	-12.16371	0.99561	-10.48103
2719.574	1.46725	-12.23963	1.04858	-10.51992
2723.580	1.47164	-12.34135	0.96224	-10.51687
2727.579	1.46254	-12.50704	0.91545	-10.55637
2731.575	1.30727	-12.37304	0.94443	-10.59717
2735.621	1.45207	-12.40001	0.93217	-10.60561
2739.625	1.46075	-12.40644	0.94844	-10.59469
2743.602	1.43555	-12.30353	0.92148	-10.68143
2747.578	1.48674	-12.25782	0.89855	-10.68390
2751.583	1.46712	-12.17188	0.90674	-10.69903
2755.589	1.48515	-12.16720	0.95954	-10.68024
2759.576	1.53322	-12.11635	0.98722	-10.68274
2763.570	1.41549	-12.17761	1.07684	-10.68955
2767.578	1.47330	-12.19658	1.11211	-10.71090
2771.576	1.42536	-12.25328	1.18832	-10.67271
2775.575	1.44701	-12.30859	1.20762	-10.71169
2779.578	1.43483	-12.33450	1.21683	-10.71583
2783.573	1.40643	-12.33363	1.20489	-10.74674
2787.575	1.37699	-12.48514	1.19666	-10.71742
2791.601	1.38500	-12.51349	1.16937	-10.69853
2795.580	1.44624	-12.47078	1.17714	-10.63624
2799.580	1.42615	-12.23543	1.12310	-10.56161
2803.608	1.57339	-9.34450	1.18778	-9.61473
2807.693	1.91995	-8.42275	1.28601	-7.29458
2811.591	2.37238	-5.45113	1.93916	-5.76049
2815.580	2.84125	-4.48583	1.69431	-4.44867
2819.576	2.91807	-3.23796	1.64434	-2.89475
2823.585	3.01329	-1.21872	1.82177	-2.00769
2827.576	3.62314	-0.84396	1.80496	-1.29413
2831.577	3.24610	-0.19736	2.24857	0.15623
2835.579	2.79498	1.16050	2.27136	1.14874
2839.569	2.86948	1.38113	2.43506	1.67711
2843.582	2.93322	1.13243	2.41380	1.23863
2847.572	2.89208	0.77451	2.60817	0.73250
2851.576	2.81749	0.68192	2.75069	1.08009
2855.572	2.74222	0.88724	2.70344	1.22354
2859.601	2.78711	0.89195	2.76777	1.25419
2863.582	2.76695	0.91058	2.93874	1.52149
2867.584	2.65327	0.99161	2.90195	1.65637
2871.593	2.69334	1.16261	2.91785	1.71186
2875.648	2.69807	1.49789	2.89136	1.62948
2879.594	2.73999	1.41053	2.88022	1.65642
2883.575	2.87341	1.28907	2.85782	1.59057
2887.581	2.94636	1.20656	2.85398	1.68277
2891.578	2.90012	1.40924	2.78074	1.71772
2895.576	2.91747	1.32772	2.72186	1.72854
2899.574	2.95965	1.35927	2.59948	1.70557
2903.567	2.95841	1.35867	2.49575	1.70660
2907.596	2.95990	1.37492	2.47090	1.65653
2911.587	2.98718	1.32639	2.37731	1.53285
2915.574	3.01712	1.19932	2.40825	1.44216
2919.581	2.98176	0.94625	2.39440	1.37577
2923.589	2.93181	0.92528	2.41284	1.45761
2927.574	2.93903	0.87990	2.41492	1.29225
2931.567	2.91621	0.83794	2.41160	1.20292
2935.578	2.93537	0.79371	2.38648	1.13306
2939.598	2.99653	0.72734	2.44001	1.15570
2943.575	2.99319	0.69380	2.48748	1.10079
2947.572	2.98683	0.66361	2.53384	1.09323
2951.575	2.93082	0.67372	2.59576	0.99208
2955.575	2.90512	0.70495	2.63247	0.90874
2959.570	2.75517	0.71415	2.70545	0.89013
2963.569	2.63041	0.76264	2.73402	0.84229
2967.577	2.74987	0.79235	2.77919	0.84880
2971.445	2.73662	0.84948	2.80880	0.71612
2975.446	2.68925	0.87433	2.83964	0.69613
2979.450	2.62900	0.95666	2.86923	0.65785
2983.449	2.68061	1.04506	2.87406	0.63774
2987.448	2.72464	1.19583	2.86334	0.52953
2991.441	2.93079	1.25096	2.92007	0.69146
2995.461	2.90185	1.20569	2.92369	0.76099
2999.449	3.12967	1.26432	2.91686	1.13357
3003.446	3.23949	1.22352	2.86797	1.16296
3007.467	3.28026	1.24943	2.85702	1.31251
3011.447	3.28506	1.21602	2.84460	1.39051
3015.446	3.31375	1.22630	2.83479	1.42634
3019.440	3.36916	1.19442	2.84494	1.45939
3023.469	3.38281	1.13995	2.83425	1.43837
3027.439	3.42683	1.08166	2.79879	1.45473
3031.445	3.40902	1.01053	2.78255	1.50210
3035.447	3.30779	1.02038	2.77267	1.49011
3039.451	2.85428	1.11477	2.69713	1.35759
3043.443	1.73569	1.23499	1.27281	1.31123
3047.439	0.63781	1.64687	0.56431	1.48632
3051.447	0.06400	1.86037	0.49163	1.46061
3055.444	-0.08679	1.71559	0.43167	1.55833
3059.471	0.55806	1.57246	0.68652	1.47789
3063.447	0.64707	1.24452	0.78779	1.28255
3067.452	0.88448	1.45687	1.31049	1.20089
3071.449	0.94457	1.37512	1.10343	1.16887
3075.500	1.07088	1.48000	0.83109	1.25122
3079.444	0.90473	1.57102	0.62332	1.27681
3083.469	0.95976	1.59858	0.69059	1.38591
3087.448	0.71017	1.49050	0.57354	1.42414
3091.452	0.69402	1.41489	0.36114	1.66015
3095.458	0.73650	1.46526	0.36702	1.71750
3099.445	0.73022	1.45655	0.58578	1.74932
3103.438	0.62933	1.68759	0.60322	1.93764
3107.451	0.64546	1.86346	0.78292	2.14271
3111.443	0.55451	1.93043	0.76426	2.30636
3115.453	0.52880	2.03396	0.58965	2.29429
3119.439	0.51451	2.09213	0.62488	2.17085
3123.452	0.47909	2.25690	0.27647	2.18279
3127.442	0.45726	2.16699	0.42666	2.20409
3131.438	0.47567	2.14857	0.54384	2.25883
3135.448	0.51150	2.20185	0.50215	2.23692
3139.441	0.55783	2.15594	0.66980	2.20549
3143.452	0.49321	2.02004	0.63047	2.16387
3147.495	0.53597	1.87677	0.65369	1.95663
3151.448	0.49475	1.87085	0.65781	2.02562
3155.443	0.46371	1.88384	0.56099	2.06951
3159.443	0.43514	1.90840	0.58905	1.99289
3163.438	0.42959	1.82733	0.45542	1.90231
3167.446	0.46626	1.80257	0.57813	1.85154
3171.438	0.54942	1.74791	0.63104	1.84671
3175.452	0.51408	1.78305	0.60521	1.80564
3179.443	0.42986	1.67779	0.60635	1.73010
3183.444	0.42758	1.62349	0.58401	1.57320
3187.438	0.56441	1.64441	0.61818	1.53279
3191.446	0.64752	1.67899	0.62307	1.46405
3195.441	0.77426	1.67507	0.58136	1.51626
3199.447	0.53359	1.52501	0.62235	1.39477
3203.437	0.42172	1.50733	0.59898	1.48733
3207.458	0.49284	1.50019	0.64541	1.41794
3211.462	0.41698	1.56392	0.58739	1.34097
3215.444	0.35402	1.59177	0.51294	1.29561
3219.436	0.38596	1.55864	0.45132	1.25993
3223.444	0.50912	1.58392	0.44889	1.25675
3227.445	0.52935	1.66915	0.46381	1.27098
3231.442	0.62742	1.72339	0.48078	1.29030
3235.445	0.55649	1.70854	0.52282	1.29474
3239.443	0.50947	1.87249	0.61357	1.28354
3243.437	0.57245	1.87763	0.68044	1.33143
3247.485	0.64551	1.88907	0.70218	1.38325
3251.449	0.74126	1.92986	0.57826	1.32398
3255.447	0.72814	1.98015	0.45902	1.41587
3259.440	0.64005	2.04332	0.64826	1.43887
3263.451	-0.05519	2.04432	0.33015	1.50310
3267.447	-1.21705	1.98664	-0.43410	1.41433
3271.447	-1.47516	1.82782	-1.33098	1.36151
3275.444	-1.54911	1.64910	-1.51100	1.26753
3279.453	-1.26376	1.46292	-1.47045	1.28250
3283.451	-0.64255	1.53695	-1.26805	1.23650
3287.447	-0.61645	1.54198	-1.12119	1.17051
3291.439	-0.74025	1.50511	-1.10941	1.11274
3295.448	-0.92073	1.44883	-0.92428	1.11241
3299.446	-0.93760	1.40478	-1.02605	1.02932
3303.448	-1.14439	1.36513	-1.01285	1.00186
3307.439	-1.16806	1.32631	-1.00618	0.94881
3311.447	-1.27706	1.27771	-0.91604	0.90099
3315.445	-1.15382	1.23441	-0.80945	0.88792
3319.446	-1.13888	1.17770	-0.97102	0.86719
3323.442	-1.17637	1.18618	-0.91696	0.80359
3327.448	-1.15213	1.19247	-0.92138	0.73975
3331.449	-1.25126	1.08326	-1.10279	0.77118
3335.449	-1.30508	1.04196	-1.17456	0.76716
3339.445	-1.36538	0.97434	-1.17470	0.72414
3343.444	-1.35340	0.90490	-1.15047	0.70420
3347.450	-1.29712	0.87095	-1.08445	0.64730
3351.493	-1.29553	0.78724	-1.21432	0.63113
3355.462	-1.29266	0.74584	-1.26349	0.66500
3359.446	-1.22960	0.72266	-1.30072	0.62666
3363.446	-1.20574	0.77535	-1.27601	0.67078
3367.448	-1.26371	0.73072	-1.30786	0.64775
3371.445	-1.36910	0.72162	-1.35010	0.68849
3375.440	-1.39351	0.69325	-1.33564	0.66172
3379.438	-1.41965	0.66883	-1.34601	0.62652
3383.434	-1.47427	0.65282	-1.35271	0.62081
3387.443	-1.45834	0.65404	-1.36620	0.61425
3391.439	-1.50214	0.60554	-1.38954	0.64561
3395.439	-1.57049	0.59666	-1.38136	0.66069
3399.442	-1.56300	0.57704	-1.36531	0.62140
3403.451	-1.61285	0.55780	-1.36201	0.64428
3407.436	-1.64055	0.51770	-1.35120	0.63919
3411.440	-1.63690	0.45981	-1.30833	0.64628
3415.483	-1.60781	0.48115	-1.28254	0.63198
3419.493	-1.60313	0.46821	-1.23578	0.60511
3423.473	-1.61587	0.46940	-1.16897	0.62011
3427.441	-1.57709	0.55458	-1.13407	0.61122
3431.447	-1.54217	0.58896	-1.10356	0.65164
3435.453	-1.47719	0.97081	-1.07885	0.61846
3439.443	-1.37399	1.09262	-1.06059	0.59770
3443.440	-1.32989	1.20607	-1.05582	0.60694
3447.438	-1.11792	1.35734	-1.05959	0.59084
3451.434	-1.03935	1.34772	-1.06587	0.56438
3455.454	-1.02057	1.38627	-1.10080	0.54858
3459.437	-0.93083	1.50169	-1.11400	0.51394
3463.435	-0.89269	1.55265	-1.13997	0.52534
3467.439	-0.91842	1.63467	-1.19237	0.51398
3471.437	-0.90143	1.66581	-1.23933	0.52165
3475.433	-0.96432	1.72930	-1.30781	0.48554
3479.439	-1.05163	1.69098	-1.37312	0.51958
3483.440	-1.02037	1.61950	-1.34145	0.55499
3487.464	-1.08554	1.55944	-1.34214	0.55938
3491.456	-1.18019	1.44263	-1.23161	0.60819
3495.447	-1.24067	1.23440	-1.19227	0.65600
3499.443	-1.21271	1.29940	-1.19247	0.80044
3503.448	-0.88632	1.36688	-0.89699	1.08815
3507.451	-0.27272	1.60526	-0.09619	1.54902
3511.447	1.12174	2.16915	0.90708	1.50644
3515.443	1.24734	2.81746	1.03543	1.67036
3519.452	0.92381	3.06698	0.69414	2.05524
3523.443	0.63464	2.69527	0.78007	1.76727
3527.438	0.25133	2.40146	0.63032	1.71107
3531.437	0.68104	1.98786	0.67657	1.85583
3535.432	0.78191	2.09909	0.66744	1.90594
3539.443	0.76886	2.10371	0.63297	2.00317
3543.441	0.65005	2.36990	0.54848	2.14256
3547.436	0.78280	2.65237	0.66010	2.17813
3551.443	0.71789	2.74436	0.80406	2.06397
3555.437	0.67029	2.44911	0.72600	1.99085
3559.442	0.67188	2.38651	0.70672	1.98108
3563.432	0.60253	2.27037	0.70868	1.75997
3567.443	0.61617	2.19293	0.76397	1.89039
3571.436	0.65039	1.98775	0.74173	1.89162
3575.439	0.58409	1.95596	0.76201	1.96162
3579.439	0.51751	1.88013	0.71915	1.83476
3583.435	0.48661	1.71375	0.73389	1.77540
3587.431	0.54208	1.88611	0.75650	1.73354
3591.439	0.47914	1.77822	0.78086	1.88304
3595.436	0.48527	1.75190	0.73486	1.97779
3599.431	0.53242	1.66455	0.66449	2.08406
3603.439	0.54428	1.62967	0.59128	2.10831
3607.437	0.58305	1.58432	0.58473	2.13022
3611.437	0.60285	1.54243	0.61469	2.03281
3615.474	0.60146	1.51534	0.67739	2.10926
3619.509	0.65618	1.58129	0.64737	2.05836
3623.446	0.71905	1.57762	0.74134	2.00767
3627.437	0.76191	1.67019	0.77072	1.92821
3631.443	0.75692	1.65428	0.84592	1.93761
3635.439	0.79002	1.64798	0.92842	2.12335
3639.486	0.79141	1.56806	0.84146	2.27360
3643.435	0.77414	1.62510	0.82320	2.32156
3647.433	0.74856	1.63839	0.82952	2.35073
3651.439	0.73752	1.76604	0.80173	2.43304
3655.433	0.74747	1.78918	0.70459	2.46011
3659.434	0.79191	1.99040	0.56198	2.43852
3663.443	0.84173	1.97858	0.42584	2.37463
3667.434	0.91778	2.11869	0.50661	2.47342
3671.434	1.00655	2.27992	0.41078	2.49746
3675.429	0.97551	2.36768	0.32255	2.48211
3679.437	1.00385	2.37063	0.32444	2.40010
3683.433	1.03151	2.38100	0.39842	2.33053
3687.461	1.18691	2.33008	0.47939	2.22328
3691.444	1.19438	2.38980	0.51585	2.08270
3695.433	1.19271	2.34255	0.48120	1.97801
3699.440	1.20809	2.37997	0.52763	1.92873
3703.438	1.21536	2.34762	0.59349	1.89609
3707.444	1.20043	2.25809	0.60630	1.87454
3711.440	1.20189	2.28386	0.59612	1.80403
3715.433	1.15416	2.15860	0.58034	1.73455
3719.433	1.17892	2.11274	0.71953	1.76627
3723.427	1.16920	2.18444	0.73322	1.78583
3727.433	1.10209	2.16777	0.63796	1.74928
3731.433	0.68047	2.03318	0.55463	1.74389
3735.428	-0.00789	1.77096	0.48609	1.80714
3739.433	-0.13962	0.94820	0.39402	1.70515
3743.441	-0.00970	0.62645	0.31952	1.69412
3747.445	0.05581	0.51205	0.25426	1.67595
3751.434	-0.00285	0.71810	0.15350	1.66159
3755.453	-0.07105	0.97188	0.11699	1.67537
3759.479	-0.12803	0.85611	0.02861	1.66897
3763.443	-0.20202	0.71119	-0.05850	1.64359
3767.438	-0.15419	0.63353	-0.12280	1.61645
3771.439	-0.24773	0.61089	-0.18149	1.60431
3775.452	-0.26205	0.56656	-0.22854	1.56030
3779.439	-0.25763	0.54321	-0.28364	1.49283
3783.432	-0.24264	0.56954	-0.32434	1.48803
3787.436	-0.22907	0.61499	-0.36807	1.48492
3791.431	-0.27592	0.62135	-0.41430	1.47006
3795.435	-0.29406	0.61705	-0.44492	1.43661
3799.429	-0.33578	0.58827	-0.46954	1.38594
3803.437	-0.35806	0.56924	-0.49110	1.39694
3807.432	-0.38995	0.57967	-0.48170	1.38286
3811.434	-0.41045	0.59925	-0.45204	1.39573
3815.427	-0.39335	0.61667	-0.41370	1.44235
3819.436	-0.41065	0.62700	-0.37849	1.51213
3823.693	-0.38623	0.73657	-0.36903	1.58047
3827.468	-0.33650	1.53941	-0.34320	1.60749
3831.308	-0.25453	2.44943	-0.26240	1.58458
3835.331	-0.04336	2.83491	-0.46701	1.69597
3839.430	0.09175	2.90902	-5.82574	1.89337
3843.312	2.54603	2.98167	0.32858	14.79069
3847.307	3.68063	3.18110	NaN	NaN
3851.306	NaN	NaN	NaN	NaN
3855.301	NaN	NaN	NaN	NaN
3859.306	5.81901	13.14393	NaN	NaN
3863.314	NaN	NaN	NaN	NaN
3867.302	NaN	NaN	NaN	NaN
3871.308	NaN	NaN	NaN	NaN
3875.312	NaN	NaN	NaN	NaN
3879.582	NaN	NaN	NaN	NaN
3883.308	NaN	NaN	NaN	NaN
3887.308	NaN	NaN	NaN	NaN
3892.314	NaN	NaN	NaN	NaN
3896.096	NaN	NaN	NaN	NaN
3900.275	NaN	NaN	NaN	NaN
3904.366	NaN	NaN	NaN	NaN
3908.386	NaN	NaN	NaN	NaN
3912.484	NaN	NaN	NaN	NaN
3916.304	NaN	NaN	NaN	NaN
3920.330	NaN	NaN	NaN	NaN
3924.228	NaN	NaN	NaN	NaN
3928.210	NaN	NaN	NaN	NaN
3931.312	NaN	NaN	NaN	NaN
3935.302	21.56207	3.29926	NaN	NaN
3939.303	NaN	NaN	NaN	NaN
3943.299	15.29737	3.46780	NaN	NaN
3947.308	NaN	NaN	NaN	NaN
3951.305	NaN	NaN	NaN	NaN
3955.306	3.59095	5.75531	NaN	NaN
3959.322	2.34644	5.74602	NaN	NaN
3963.321	3.98390	5.08277	12.64688	3.37203
3967.306	3.71026	4.16121	7.24371	-0.10975
3971.305	6.38709	4.08867	8.64953	0.85991
3975.300	8.19990	3.44425	8.22846	0.68452
3979.310	9.30805	3.37788	7.99849	1.59253
3983.339	8.61955	2.97566	5.54634	0.30720
3987.313	8.18920	2.82870	1.15729	-0.42843
3991.304	8.38189	2.90191	8.00905	1.21945
3995.323	8.30043	2.83771	8.17306	1.86901
3999.306	8.46184	2.80236	8.07628	1.51158
4003.310	7.93729	2.77541	7.44828	1.14696
4007.304	8.16416	2.87672	8.38376	1.59246
4011.307	7.01646	3.85824	8.59946	1.59545
4015.312	7.27399	3.76349	8.47930	1.60383
4019.305	6.97110	4.43505	8.55816	1.57480
4023.333	8.54387	2.56765	8.70122	1.58171
4027.316	8.26106	2.66429	8.30855	1.49950
4031.307	8.39899	2.59239	8.42874	1.44841
4035.302	8.06626	2.51317	8.42430	1.32930
4039.305	8.19389	2.44495	8.21553	1.39419
4043.302	7.99428	2.45729	8.02998	1.30829
4047.307	8.13767	2.44046	8.08521	1.26663
4051.310	8.26335	2.39425	7.96755	1.32128
4055.304	8.26145	2.38128	7.79476	1.27813
4059.297	8.23277	2.37200	7.78002	1.34115
4063.303	8.26386	2.39948	7.75283	1.35349
4067.306	8.27105	2.39786	7.69105	1.44308
4071.303	8.29248	2.33330	7.64622	1.52888
4075.298	8.26315	2.15870	7.58625	1.49401
4079.304	8.23542	1.99127	7.54932	1.59145
4083.305	8.20683	2.26689	7.48397	1.62118
4087.339	8.19404	2.16057	7.35422	1.70565
4091.307	8.22815	2.29741	7.30073	1.75993
4095.342	8.18891	2.15539	7.21198	1.85665
4099.307	8.13787	2.18117	7.21945	1.97191
4103.300	8.14859	2.23738	7.22993	1.94170
4107.297	8.06626	2.08905	7.22114	1.95686
4111.304	7.98719	2.03517	7.21315	1.98174
4115.302	7.85468	2.01387	7.22133	1.99593
4119.302	7.74113	2.12106	7.20345	1.98993
4123.301	7.74908	2.18062	7.16412	1.93849
4127.306	7.67572	2.11623	7.17324	1.94451
4131.305	7.60524	2.12218	7.19363	1.94383
4135.297	7.51930	2.05136	7.23460	1.94446
4139.306	7.51866	2.03798	7.23709	1.81173
4143.295	7.44147	2.05335	7.22852	1.78795
4147.312	7.46292	1.94233	7.21933	1.65981
4151.303	7.42544	1.89101	7.21779	1.70398
4155.298	7.51642	1.97645	7.18323	1.62563
4159.304	7.44376	2.00136	7.10040	1.68005
4163.612	6.88629	2.12628	6.91312	1.66308
4167.312	4.70964	2.25693	4.95238	1.82116
4171.301	3.62479	2.26125	4.06068	2.57693
4175.297	2.62531	2.20102	3.29280	2.07665
4179.304	2.26272	2.22633	2.82103	2.47386
4183.303	2.29478	2.24280	2.47568	2.63654
4187.332	2.06832	1.95687	1.91303	2.52999
4191.295	2.23635	1.91424	1.66971	2.33190
4195.302	2.19489	1.92648	1.73631	2.37802
4199.303	2.25563	1.90913	1.73209	2.41350
4203.300	2.29433	1.91717	1.92347	2.47936
4207.296	2.29230	1.75830	1.94491	2.45880
4211.299	2.21249	1.72317	1.81600	2.35416
4215.297	2.18481	1.61816	1.78307	2.34612
4219.303	2.13219	1.58628	1.70896	2.45709
4223.295	2.08481	1.57040	1.63120	2.40574
4227.331	2.06770	1.53525	1.61369	2.37467
4231.337	2.10530	1.50807	1.62743	2.41066
4235.313	2.08193	1.51971	1.64600	2.42234
4239.314	2.05440	1.49109	1.63782	2.41868
4243.313	2.03910	1.53479	1.64243	2.47277
4247.304	1.99349	1.57706	1.60496	2.43917
4251.312	1.96635	1.70578	1.56045	2.42437
4255.320	1.94166	1.80939	1.53637	2.42308
4259.303	1.94622	1.81033	1.50847	2.44327
4263.305	1.94094	1.86809	1.48379	2.36363
4267.304	1.94466	1.96481	1.47330	2.26719
4271.303	1.92126	2.00946	1.41541	2.24587
4275.294	1.89429	2.00242	1.42660	2.22252
4279.302	1.81200	2.08561	1.41256	2.19996
4283.301	1.82738	2.13877	1.37997	2.16864
4287.295	1.81917	2.15500	1.35390	2.09585
4291.301	1.74843	2.19497	1.33788	2.04870
4295.299	1.73150	2.22576	1.32294	2.11220
4299.300	1.71714	2.23642	1.32580	2.13571
4303.298	1.65704	2.28296	1.32237	2.12071
4307.298	1.63608	2.31071	1.31873	2.13009
4311.294	1.60747	2.29505	1.33753	2.10725
4315.302	1.59117	2.24636	1.36057	2.15722
4319.297	1.57825	2.26998	1.33376	2.18584
4323.299	1.59365	2.27185	1.33247	2.22139
4327.292	1.59271	2.27927	1.33411	2.14355
4331.302	1.58606	2.24617	1.31369	2.12660
4335.304	1.60752	2.23290	1.32830	2.19024
4339.306	1.61401	2.15568	1.34663	2.20831
4343.297	1.64055	2.13487	1.31027	2.16659
4347.298	1.68635	2.08461	1.31116	2.07298
4351.292	1.71486	2.04402	1.30084	2.07185
4355.303	1.71424	2.03695	1.29831	2.12284
4359.298	1.74000	2.03621	1.32374	2.12535
4363.298	1.72984	1.96313	1.31659	2.10139
4367.298	1.72485	1.77221	1.31699	2.10667
4371.299	1.70164	1.62855	1.34259	2.17772
4375.293	1.67420	1.65148	1.37595	2.27607
4379.303	1.62897	1.66092	1.41333	2.35190
4383.301	1.64384	1.64359	1.42290	2.28073
4387.298	1.68830	1.63866	1.46420	2.35105
4391.291	1.66138	1.61635	1.47107	2.28952
4395.311	1.67350	1.60537	1.46936	2.30425
4399.322	1.67457	1.63299	1.45834	2.29761
4403.300	1.61758	1.81353	1.36352	2.38486
4407.327	1.20378	3.89116	0.68330	2.82678
4411.302	0.32521	4.31773	-0.72186	4.19460
4415.298	0.01514	4.68495	-1.18842	5.70363
4419.307	-0.17861	4.99856	-0.92157	5.61992
4423.312	-0.46401	5.26892	-0.81193	5.67476
4427.298	-0.37335	4.91282	-0.58602	5.48234
4431.291	-0.46703	4.96335	-0.58444	5.37896
4435.333	-0.30632	4.82915	-0.68352	4.91492
4439.305	-0.37248	4.93068	-0.62915	4.97424
4443.292	-0.36315	4.95429	-0.60307	4.92341
4447.301	-0.33268	5.11295	-0.64263	5.05725
4451.296	-0.43137	5.23098	-0.74250	5.33258
4455.296	-0.36395	5.23237	-0.68578	5.33257
4459.295	-0.28587	5.36740	-0.65732	5.20698
4463.299	-0.32089	5.35957	-0.64498	5.22510
4467.299	-0.24254	5.34687	-0.70786	5.28111
4471.291	-0.27341	5.35125	-0.72565	5.36866
4475.298	-0.25197	5.31275	-0.69149	5.35141
4479.302	-0.24716	5.41596	-0.76551	5.44365
4483.295	-0.19757	5.42945	-0.77677	5.45912
4487.298	-0.16839	5.45652	-0.82786	5.58258
4491.294	-0.17911	5.44137	-0.86294	5.66342
4495.296	-0.14948	5.42082	-0.82444	5.63756
4499.290	-0.17851	5.43620	-0.82372	5.47974
4503.299	-0.19668	5.39652	-0.82076	5.52714
4507.300	-0.16945	5.38729	-0.83292	5.56596
4511.296	-0.15980	5.36363	-0.80511	5.53957
4515.295	-0.14486	5.38026	-0.80677	5.51977
4519.290	-0.14047	5.40649	-0.86332	5.39149
4523.299	-0.14149	5.41708	-0.87257	5.32916
4527.301	-0.16144	5.41404	-0.90284	5.34084
4531.298	-0.19261	5.41184	-0.88371	5.29833
4535.295	-0.21986	5.41080	-0.85545	5.28403
4539.299	-0.24547	5.42771	-0.87346	5.23638
4543.300	-0.26220	5.40992	-0.86481	5.28606
4547.300	-0.25661	5.41630	-0.85161	5.29377
4551.290	-0.26039	5.43061	-0.82235	5.27262
4555.299	-0.25862	5.45250	-0.80702	5.26924
4559.294	-0.26073	5.47614	-0.77049	5.24391
4563.295	-0.26694	5.47668	-0.70059	5.25446
4567.288	-0.28230	5.49117	-0.64938	5.27652
4571.313	-0.25927	5.49914	-0.64359	5.26615
4575.297	-0.23507	5.53076	-0.63957	5.25315
4579.291	-0.21470	5.52944	-0.64992	5.28182
4583.301	-0.20514	5.52744	-0.64496	5.29535
4587.323	-0.23373	5.54853	-0.65769	5.25914
4591.339	-0.21839	5.58576	-0.67583	5.28615
4595.300	-0.22266	5.56321	-0.70484	5.34856
4599.294	-0.19296	5.57242	-0.76091	5.40179
4603.289	-0.19556	5.56770	-0.81754	5.47298
4607.294	-0.20549	5.59878	-0.88684	5.50787
4611.294	-0.20241	5.58948	-0.93304	5.66407
4615.294	-0.22070	5.59617	-0.96269	5.76840
4619.293	-0.20807	5.57190	-1.00700	5.78151
4623.286	-0.21544	5.55304	-1.03253	5.87512
4627.297	-0.21537	5.58074	-1.09495	5.88407
4631.293	-0.21001	5.57589	-1.07344	5.92986
4635.293	-0.21343	5.49292	-1.01585	5.96121
4639.319	-0.26277	5.40435	-1.00405	5.94877
4643.338	-0.28158	5.42235	-0.96879	5.97641
4647.309	-0.31339	5.36788	-0.92286	5.95417
4651.295	-0.34504	5.31357	-0.92232	5.98187
4655.288	-0.36697	5.14961	-0.86905	5.98387
4659.296	-0.43199	5.26215	-0.85424	5.96819
4663.293	-0.37546	5.13349	-0.83518	5.97419
4667.292	-0.39080	4.87976	-0.76464	5.59148
4671.295	-0.49324	3.13852	-0.75042	3.08627
4675.292	-0.48138	2.31532	-0.70365	2.02558
4679.177	-0.47488	1.31544	-0.47192	1.49958
4683.166	-0.36127	0.69300	0.00660	1.41656
4687.170	-0.18958	0.55238	0.05028	1.52935
4691.167	0.01194	1.05691	-0.27366	1.70279
4695.170	0.17921	2.39755	-0.26612	1.79177
4699.162	0.44842	2.67034	-0.27031	1.87487
4703.170	0.50624	2.20590	-0.42003	2.22230
4707.215	0.50937	1.62121	-0.22443	2.01616
4711.176	0.64109	1.73808	-0.33503	1.90572
4715.180	0.63692	1.49402	-0.28947	2.09839
4719.171	0.55610	1.11208	-0.31086	1.89698
4723.172	0.59764	1.71771	-0.24026	1.95446
4727.168	0.56870	1.68756	-0.35315	1.99650
4731.175	0.56262	1.69384	-0.40698	1.92712
4735.171	0.51470	1.65001	-0.46076	1.97126
4739.174	0.48512	1.19662	-0.39015	1.89215
4743.171	0.36209	1.59368	-0.29493	1.87594
4747.172	0.42060	1.64511	-0.32089	1.96861
4751.174	0.41936	1.50028	-0.27026	1.90439
4755.175	0.49036	1.65999	-0.31642	1.87521
4759.171	0.31940	1.62733	-0.27644	1.78779
4763.166	0.46805	1.67207	-0.22351	1.73102
4767.175	0.34186	1.82211	-0.24820	1.90213
4771.174	0.47118	1.37226	-0.24589	1.73298
4775.176	0.40033	1.82565	-0.29649	1.84444
4779.176	0.44706	1.68520	-0.21924	1.95535
4783.196	0.40467	1.86393	-0.25872	1.97436
4787.168	0.62081	1.83812	-0.24468	1.99856
4791.174	0.49545	1.80649	-0.18296	1.96037
4795.170	0.48215	1.88039	-0.21708	2.00626
4799.176	0.50289	1.50126	-0.22969	1.94773
4803.169	0.46247	1.81077	-0.22445	1.95463
4807.172	0.49766	1.08397	-0.19616	2.07729
4811.168	0.51091	1.81190	-0.21527	2.04281
4815.171	0.43599	1.83349	-0.28441	2.13251
4819.174	0.54240	1.83845	-0.21919	2.10798
4823.173	0.58215	1.97093	-0.28324	2.05392
4827.168	0.55501	1.82715	-0.26498	2.05901
4831.169	0.65546	1.81696	-0.34906	2.03482
4835.170	0.59598	2.01755	-0.35298	2.12582
4839.186	0.68972	1.55000	-0.36548	2.02512
4843.175	0.65675	1.71769	-0.38482	2.08629
4847.164	0.71258	1.76434	-0.36144	2.16485
4851.173	0.68714	1.75244	-0.37670	2.25812
4855.171	0.67479	1.86156	-0.37956	2.22288
4859.170	0.83518	1.44447	-0.26001	2.24008
4863.163	1.55313	1.80207	1.26746	2.31803
4867.178	3.26737	1.79304	2.15494	2.42180
4871.171	3.44231	1.52533	4.43971	2.54181
4875.172	6.45324	1.92824	5.15559	2.69371
4879.167	6.49761	1.95877	5.85143	2.68198
4883.173	6.69951	2.11883	6.86684	2.57364
4887.171	6.98754	2.16149	6.78314	2.77776
4891.172	7.14844	1.91361	6.47362	2.99716
4895.168	7.41380	2.11170	6.52816	2.78348
4899.171	7.24302	2.13757	6.21995	2.85038
4903.170	7.22568	2.42107	6.35606	3.03307
4907.168	6.97313	2.37815	6.42266	3.05481
4911.171	7.35573	2.48226	6.41687	3.22378
4915.168	7.33659	2.23480	6.52142	3.27194
4919.168	7.42549	2.15298	6.55633	3.32885
4923.166	7.41885	2.62631	6.52522	3.25376
4927.171	7.40726	2.37590	6.68252	3.22350
4931.167	7.42527	2.86602	6.51780	3.21566
4935.169	7.40919	2.63357	6.62140	3.40162
4939.173	7.43088	3.20840	6.51469	3.28311
4943.164	7.42005	2.51375	6.59718	3.36046
4947.164	7.43137	3.04513	6.69838	3.29973
4951.172	7.56249	2.56020	6.68100	3.22678
4955.170	7.45604	2.76118	6.70051	3.23620
4959.168	7.52654	2.65442	6.74734	3.39627
4963.163	7.51332	3.01370	6.59904	3.34116
4967.171	7.43959	2.65844	6.53649	3.30797
4971.166	7.53096	2.70221	6.52946	3.35784
4975.171	7.60387	2.87732	6.59691	3.41344
4979.171	7.52176	2.85116	6.56378	3.38017
4983.169	7.63221	2.85045	6.54227	3.34338
4987.172	7.72393	2.70133	6.57375	3.40984
4991.187	7.67316	2.81313	6.46265	3.41059
4995.168	7.36520	2.70062	6.53193	3.51385
4999.167	7.65310	2.87923	6.38489	3.53724
5003.168	7.57910	2.64080	6.29293	3.48457
5007.162	7.49344	2.86923	6.23945	3.68565
5011.169	7.56486	2.66213	6.34912	3.58501
5015.167	7.61141	2.92051	6.36930	3.64779
5019.167	7.52396	2.73966	6.11577	3.46407
5023.160	7.55357	2.80585	6.09992	3.56820
5027.165	7.48493	3.02640	6.03628	3.65125
5031.161	7.36886	2.61689	6.16974	3.74516
5035.169	7.33506	2.76466	6.13324	3.62291
5039.169	7.48251	2.66952	6.01554	3.71963
5043.165	7.42583	2.58373	6.04112	3.51522
5047.178	7.59434	2.94897	6.10104	3.54616
5051.211	7.47756	2.69462	6.20555	3.74535
5055.180	7.26205	2.80771	6.03555	3.82111
5059.164	7.42773	2.59515	5.87700	3.65289
5063.175	7.33171	2.52940	5.98540	3.77828
5067.165	7.42617	2.68948	6.09157	3.88772
5071.161	7.61965	2.63141	6.03456	3.90827
5075.156	7.59188	2.68671	6.04207	3.73736
5079.184	7.68345	2.69801	5.96250	3.87951
5083.189	7.64659	2.69202	5.99232	3.85758
5087.187	6.97673	2.64329	6.04068	3.82769
5091.167	7.44318	2.52148	6.01255	3.89879
5095.166	6.21367	2.60116	5.80730	3.73346
5099.161	4.53677	2.46988	4.96662	3.68559
5103.175	2.47519	2.04606	2.46592	3.55481
5107.163	2.11130	1.66260	2.18592	3.57354
5111.164	1.86816	1.69022	1.94226	3.34629
5115.175	1.91526	2.44013	1.23330	3.18576
5119.234	2.14587	2.33483	1.19753	3.38212
5123.170	1.99632	1.34961	1.36786	9.26200
5127.171	2.27312	1.91157	1.09941	10.63337
5131.173	2.34909	1.86747	0.65995	8.09117
5135.161	3.20098	1.97460	1.43734	8.86228
5139.163	2.68650	2.33239	0.54771	9.45666
5143.154	2.70646	1.26742	1.06555	10.29173
5147.186	2.39007	1.08186	0.64613	7.90093
5151.181	2.28737	1.51081	0.91540	11.51845
5155.172	2.57565	2.00913	0.53587	9.33048
5159.161	2.79090	2.04489	1.28504	10.17254
5163.160	2.53439	1.75747	2.53402	11.00965
5167.163	2.65812	1.30491	1.29767	11.93223
5171.162	2.53659	1.43430	0.74340	9.73063
5175.161	2.68073	1.70167	1.30600	10.54464
5179.154	2.36046	1.58656	1.55234	1.83138
5183.162	2.32320	1.23288	0.89116	2.09643
5187.163	2.66966	1.52891	0.80905	2.35263
5191.160	2.50380	1.79380	1.05384	2.62323
5195.153	2.49533	1.89879	1.44294	2.60968
5199.161	2.54804	1.26704	1.11172	2.45780
5203.158	2.42869	1.52815	1.03982	2.58846
5207.159	2.50920	1.85839	1.29169	2.50700
5211.154	2.44772	1.22969	1.33106	2.40436
5215.160	2.57360	1.21513	1.02285	2.48532
5219.154	2.50172	1.89131	1.28780	2.71372
5223.160	2.57323	1.98469	1.17322	2.65342
5227.159	2.60765	1.17254	1.05739	2.63962
5231.159	2.72261	1.55476	1.08083	2.64986
5235.159	2.54554	1.84755	1.33646	2.67904
5239.160	2.66803	1.95404	1.21596	2.60977
5243.153	2.37934	1.41879	1.17083	2.53246
5247.165	2.64401	1.46903	1.13618	2.52979
5251.171	3.01660	1.60678	1.23779	2.28626
5255.161	2.74997	1.63682	1.30861	2.51396
5259.161	2.52305	1.95251	1.29608	2.74757
5263.157	2.68271	1.92553	1.13310	2.59334
5267.158	2.66887	1.75800	0.79230	2.50135
5271.152	2.38167	1.68097	0.84372	2.51059
5275.157	2.18706	1.69983	1.02461	2.60900
5279.188	2.16389	1.75583	1.02129	2.60962
5283.173	2.10637	1.74981	1.02434	2.63833
5287.158	2.37154	1.70170	1.08795	2.68724
5291.157	2.48084	1.77089	1.12013	2.66252
5295.153	2.38801	1.82195	1.14890	2.63069
5299.162	2.29399	1.89825	1.11020	2.55337
5303.158	2.24594	1.86609	1.13362	2.31964
5307.157	2.24988	1.83830	1.19467	2.42710
5311.152	2.26301	1.79485	1.26870	2.35410
5315.167	2.31230	1.80499	1.27534	2.83039
5319.163	2.35789	1.80922	1.31419	2.67453
5323.162	2.38653	1.80769	1.34485	2.35462
5327.156	2.42284	1.72555	1.35653	2.15705
5331.159	2.41534	1.60810	1.39753	2.20178
5335.161	2.39606	1.53449	1.36300	2.15134
5339.161	2.40848	1.57846	1.32669	2.72389
5343.152	2.38115	1.54418	1.33264	2.47738
5347.160	2.40714	1.55241	1.42737	2.51376
5351.156	2.39255	1.62440	1.43297	2.39840
5355.160	2.40741	1.64720	1.45683	2.45417
5359.173	2.47809	1.78126	1.51814	2.38492
5363.159	2.43127	1.87633	1.51199	2.38869
5367.158	2.39205	1.93826	1.49413	2.39214
5371.156	2.32771	1.73782	1.48823	2.49477
5375.152	2.33960	1.88871	1.42799	2.65266
5379.187	2.50105	1.93697	1.50765	2.62379
5383.178	2.60926	1.98369	1.53074	2.59178
5387.161	2.59237	2.08906	1.49879	2.50988
5391.156	2.67496	2.12630	1.47873	2.50606
5395.154	2.61588	2.20991	1.41000	2.48908
5399.159	2.53957	2.16513	1.34864	2.46075
5403.153	2.51869	2.15408	1.30913	2.33032
5407.154	2.54469	1.96234	1.33621	2.23850
5411.149	2.54373	1.98602	1.32843	2.11396
5415.158	2.44583	1.96906	1.37481	2.15894
5419.155	2.56743	2.04921	1.38602	2.12576
5423.151	2.77054	1.97296	1.32133	2.02646
5427.157	2.60768	1.95223	1.37258	2.01795
5431.155	2.41058	1.91098	1.40547	2.05110
5435.155	2.31549	1.97418	1.18904	1.90943
5439.156	1.35340	2.01134	1.04927	1.88813
5443.148	-0.02266	1.91540	-0.93135	1.71321
5447.168	-0.98048	2.03211	-2.30811	1.55987
5451.158	-0.73598	1.91487	-1.88251	1.56166
5455.157	-1.22263	1.83012	-1.80536	1.67395
5459.159	-1.33919	1.88041	-2.07003	1.24021
5463.154	-1.63583	1.00007	-2.49037	1.04103
5467.159	-1.84966	0.96038	-2.72853	1.49450
5471.153	-1.56052	1.28369	-2.54435	1.52043
5475.153	-1.29353	1.45083	-2.50323	1.45391
5479.159	-1.62820	1.38223	-2.67803	1.54499
5483.157	-1.85405	1.38010	-2.71966	1.23337
5487.158	-1.74400	1.27096	-2.62838	1.18324
5491.154	-1.97411	1.29288	-2.40783	1.23950
5495.158	-1.74553	1.25187	-2.35313	1.14830
5499.161	-1.60422	1.32107	-2.59787	0.85878
5503.153	-1.79234	1.47437	-2.68777	0.71476
5507.152	-1.75738	1.44020	-2.63395	1.11853
5511.158	-1.56761	1.46640	-2.66627	1.14160
5515.158	-1.60863	1.49973	-2.77787	1.02731
5519.153	-1.61545	1.40277	-2.75381	1.00545
5523.160	-1.58344	1.14583	-2.83259	0.99481
5527.244	-1.63874	1.36891	-2.65914	0.98850
5531.050	-1.80355	1.15290	-2.75519	0.96475
5535.033	-1.55938	1.18720	-2.84645	1.00956
5539.029	-1.62418	1.42955	-2.84974	0.93842
5543.023	-1.51660	1.44489	-2.86222	0.84922
5547.034	-1.74238	1.30725	-3.00995	0.98106
5551.034	-1.74333	0.97444	-2.74229	0.98280
5555.062	-1.93321	1.01170	-2.76047	0.96073
5559.022	-1.78230	1.05772	-2.79592	0.89993
5563.030	-1.81260	1.40841	-2.89512	0.95796
5567.026	-1.99183	1.80829	-2.44541	1.13606
5571.027	-1.94513	1.64300	-2.65775	1.09756
5575.020	-1.69098	1.86247	-2.59215	1.65223
5579.038	-1.82252	1.96462	-3.64009	2.34161
5583.028	-0.95308	1.65499	-3.89987	1.99175
5587.023	2.29287	0.98066	-6.88793	3.48760
5591.543	1.97753	1.35990	NaN	NaN
5595.064	1.40762	1.89905	NaN	NaN
5599.047	-1.24076	2.48640	NaN	NaN
5603.028	-3.20924	3.62395	NaN	NaN
5607.022	-1.24515	3.78740	NaN	NaN
5611.028	-3.41476	4.04038	NaN	NaN
5615.027	NaN	NaN	NaN	NaN
5619.025	NaN	NaN	NaN	NaN
5623.025	NaN	NaN	NaN	NaN
5627.028	NaN	NaN	NaN	NaN
5631.050	NaN	NaN	NaN	NaN
5635.043	NaN	NaN	NaN	NaN
5639.233	NaN	NaN	NaN	NaN
5643.033	NaN	NaN	NaN	NaN
5647.028	NaN	NaN	NaN	NaN
5651.029	NaN	NaN	NaN	NaN
5655.033	NaN	NaN	NaN	NaN
5659.056	NaN	NaN	NaN	NaN
5663.040	NaN	NaN	NaN	NaN
5667.024	NaN	NaN	NaN	NaN
5671.189	NaN	NaN	NaN	NaN
5675.059	NaN	NaN	NaN	NaN
5679.225	NaN	NaN	NaN	NaN
5683.352	NaN	NaN	NaN	NaN
5687.513	NaN	NaN	NaN	NaN
5691.429	NaN	NaN	NaN	NaN
5695.371	0.77047	4.99683	NaN	NaN
5699.033	-0.50389	3.48550	NaN	NaN
5703.034	-2.55861	2.68698	NaN	NaN
5707.030	3.96931	2.18218	23.54310	10.20435
5711.033	2.43974	2.44590	3.96935	-8.35448
5715.036	2.26205	1.34384	3.65159	-2.84527
5719.030	2.75876	1.62991	NaN	NaN
5723.030	0.96566	1.24047	NaN	NaN
5727.061	0.55726	1.52930	2.48926	5.17259
5731.037	0.73915	1.04321	-1.17808	4.32504
5735.029	0.77546	0.96782	-1.28864	4.09937
5739.026	2.89099	1.68485	-1.18210	4.68302
5743.027	2.91297	1.84778	-1.02290	4.29184
5747.031	1.77033	2.29505	-2.94458	3.02817
5751.028	2.85519	2.14439	-6.12492	2.39270
5755.020	2.52012	1.98179	-3.06984	2.34758
5759.033	2.29022	1.66744	-4.46988	2.27211
5763.058	2.92000	1.36728	-3.64573	1.98711
5767.024	2.46444	1.46996	-4.24897	2.04744
5771.029	0.72077	1.49054	-4.89405	1.82280
5775.023	1.63658	2.45220	-4.89826	1.62045
5779.022	2.23603	2.35053	-3.62000	1.70100
5783.030	1.75022	2.51874	-3.73643	1.61220
5787.025	0.90021	2.06903	-3.60568	1.52709
5791.025	1.57830	1.69911	-3.69585	1.51393
5795.026	1.59712	1.51486	-3.88507	1.54586
5799.055	1.55598	1.40829	-3.80228	1.43436
5803.034	1.62076	1.52445	-3.56962	1.37076
5807.034	1.36159	1.53766	-3.41874	1.35226
5811.030	1.27911	1.72452	-3.39826	1.27010
5815.027	1.49902	1.69002	-2.90653	1.33864
5819.024	1.43530	1.65400	-2.56560	1.39815
5823.018	1.39247	1.70851	-2.34196	1.45381
5827.026	1.60154	1.58559	-1.84939	1.62450
5831.023	1.45700	1.42112	-1.72034	1.50990
5835.026	1.33879	1.42154	-1.61791	1.50089
5839.028	1.38634	1.43474	-2.15475	1.49075
5843.027	1.25096	1.44602	-1.38183	1.87988
5847.016	1.22035	1.30349	0.08711	2.37449
5851.026	1.36613	1.21278	0.09974	2.05551
5855.022	1.26381	1.21015	0.69516	2.21987
5859.022	1.44946	1.27035	0.66699	2.07125
5863.100	1.33316	1.28645	1.01824	2.34517
5867.096	1.30429	1.20653	0.74533	2.11854
5871.041	1.26120	1.24653	0.70283	2.36925
5875.024	1.38084	1.33121	1.11055	2.41574
5879.031	1.47122	1.45286	1.18629	2.28968
5883.033	1.41147	1.62580	0.98271	2.15721
5887.024	1.41479	1.67248	0.71077	2.36295
5891.026	1.46484	1.66425	1.06843	2.36344
5895.021	1.49133	1.75644	1.09820	2.22285
5899.016	1.52035	1.79743	1.07076	2.24425
5903.026	1.50093	1.84879	1.34681	2.10895
5907.019	1.82785	1.70224	1.01000	2.16583
5911.025	1.56977	1.61741	0.99472	2.21238
5915.021	1.54438	1.87193	1.16882	2.18603
5919.024	1.45961	1.86970	0.98425	2.17673
5923.023	1.52523	1.72045	1.01685	2.02345
5927.026	1.63623	1.28585	0.69427	2.17243
5931.027	1.40385	1.83989	0.85339	2.06372
5935.059	1.55926	1.70012	0.81667	1.97433
5939.032	1.44971	1.39195	0.88416	1.98161
5943.027	1.54363	1.70070	0.76598	1.88270
5947.022	1.71536	1.78612	0.66166	2.00055
5951.035	1.49061	1.51282	0.68965	2.06494
5955.031	1.53151	1.56239	0.90671	1.92509
5959.032	1.47749	1.57342	0.78863	1.92585
5963.029	1.53600	1.57678	0.89865	1.85555
5967.033	1.61701	1.59052	0.78382	1.94769
5971.023	1.67206	1.53317	0.76369	1.93507
5975.028	1.56955	1.39920	0.74002	2.03730
5979.026	1.71831	1.41421	0.79935	2.03772
5983.026	1.55050	1.45457	0.76995	2.04319
5987.024	1.53939	1.50817	0.76250	2.11024
5991.027	1.65790	1.46249	0.79952	2.12444
5995.026	1.67757	1.24441	0.82970	2.05790
5999.032	1.42995	1.22340	0.84853	2.05695
6003.029	1.62155	1.17034	0.88753	2.23321
6007.019	1.68451	1.07913	0.74307	2.06090
6011.028	1.64543	1.14043	0.80640	2.05397
6015.029	1.67363	1.12330	0.87265	2.21104
6019.027	2.07172	1.23708	1.04493	2.06698
6023.022	2.83026	1.06217	1.78067	2.43280
6027.025	3.52939	1.25917	4.17058	2.24977
6031.025	3.63629	1.63798	3.30017	2.70649
6035.028	3.35061	1.70865	2.73429	2.35792
6039.023	2.97022	1.62435	1.53193	2.43083
6043.028	2.72919	1.76268	1.67963	2.59474
6047.023	3.05716	1.66721	1.74214	2.60846
6051.038	3.22186	1.67362	1.95554	2.60993
6055.021	3.10636	1.45277	1.73249	2.60669
6059.029	3.21584	1.46858	2.20458	2.69310
6063.024	3.24338	1.48624	2.71035	2.69698
6067.039	3.00737	1.59050	2.13854	2.68323
6071.110	3.09431	1.89621	2.06585	2.79336
6075.035	2.96846	1.72229	1.59457	2.72540
6079.029	2.99173	1.78496	1.79971	2.69136
6083.031	2.96710	1.51389	2.06121	2.76133
6087.050	2.96094	1.56436	2.08724	2.72197
6091.026	3.05828	1.49496	2.00775	2.79351
6095.028	2.98522	1.74964	1.62458	2.83851
6099.024	2.99368	1.85628	1.81317	2.84722
6103.021	3.01442	1.72983	1.78699	2.79914
6107.027	3.10465	1.70651	1.68555	2.81235
6111.023	3.14489	1.69625	1.58944	2.82376
6115.022	3.22084	1.65791	1.96410	2.83090
6119.027	3.09238	1.78970	1.69250	2.85345
6123.048	3.15909	1.58797	1.86784	2.86787
6127.022	3.06850	1.51124	1.93757	2.80272
6131.017	3.04395	1.46359	2.17893	2.91391
6135.088	3.01044	1.61574	2.23791	2.84137
6139.073	3.15548	1.61837	2.11385	2.79332
6143.025	3.07394	1.54376	2.08049	2.72941
6147.017	3.25743	1.32992	2.09199	2.72238
6151.036	3.13323	1.23445	2.07569	2.65328
6155.023	2.84078	1.39126	2.09891	2.64685
6159.018	3.09602	1.37149	2.09616	2.61548
6163.019	2.98861	1.40226	2.18401	2.62467
6167.040	3.10285	1.56971	2.10087	2.62724
6171.035	3.19363	1.49928	2.03942	2.69351
6175.022	3.07973	1.53369	2.01154	2.73018
6179.013	3.06357	1.68034	1.95857	2.69780
6183.019	2.98532	1.63514	1.92314	2.76722
6187.017	3.17923	1.41515	1.92542	2.86141
6191.017	2.82697	1.40814	1.90852	2.84385
6195.011	3.04338	1.60679	1.86910	2.88568
6199.020	3.09510	1.62342	1.91375	2.86175
6203.086	3.03271	1.67424	1.85626	2.85077
6207.124	3.10864	1.58738	1.83119	2.80549
6211.040	2.94087	1.77401	1.80234	2.80004
6215.023	2.97307	1.85004	1.84054	2.82847
6219.022	3.14427	1.67223	1.95480	2.78694
6223.032	2.95718	1.46646	1.94017	2.82340
6227.022	3.08362	1.77256	1.96444	2.84135
6231.019	3.01846	1.79240	1.85566	2.86814
6235.019	3.09453	1.78087	2.03511	2.88426
6239.017	2.97918	1.75005	1.98043	2.85671
6243.020	3.06798	1.81770	1.92686	2.81411
6247.018	3.00564	2.03526	1.60737	2.79601
6251.018	3.00819	1.91076	1.96853	2.93139
6255.011	3.05449	1.89573	1.93621	2.89424
6259.022	3.05417	1.96791	2.18922	2.95252
6263.017	2.95426	1.95659	1.93180	3.09961
6267.017	3.05429	2.07316	1.83087	3.01851
6271.026	3.01789	1.98941	1.93415	2.99322
6275.022	2.90866	1.92137	1.86481	2.96703
6279.020	3.03749	1.94660	1.75225	2.71499
6283.015	3.03732	1.86517	1.81721	2.88153
6287.018	3.11262	1.91687	1.70157	3.26806
6291.016	3.06407	1.86406	1.64590	3.06810
6295.019	2.89497	1.81107	1.61195	2.91568
6299.040	3.06088	1.80933	1.87084	2.92581
6303.024	3.24288	1.76507	1.61771	3.04139
6307.022	2.90190	1.75624	1.66103	2.95393
6311.031	2.94609	1.73066	1.75002	2.90854
6315.015	3.01579	1.66753	1.53215	2.94213
6319.019	3.15330	1.68439	2.00522	3.07422
6323.015	2.96547	1.62843	1.62641	3.06193
6327.041	3.07174	1.61577	1.63006	3.03456
6331.009	3.12851	1.64077	1.95068	3.01149
6335.017	3.13558	1.62438	1.78885	2.96062
6339.021	3.24380	1.64728	1.74486	2.99470
6343.022	2.85824	1.64043	1.74397	3.06601
6347.011	3.16414	1.74461	1.77920	3.06791
6351.018	3.28778	1.63098	1.84396	3.06889
6355.012	2.73818	1.43211	1.62492	3.04225
6359.014	3.08166	1.69383	1.93735	3.07192
6363.008	3.01094	1.82439	1.74454	3.02103
6367.023	3.34786	1.78348	1.73522	3.00606
6371.015	2.90497	1.79343	1.85447	2.99541
6375.014	2.80216	1.90965	1.69750	2.98075
6379.009	2.90997	1.91767	1.76061	2.95742
6383.021	3.05986	1.75790	1.69917	2.94696
6386.886	3.00730	1.80933	1.78793	2.92574
6390.889	2.83764	1.85705	1.68796	2.87707
6394.883	2.67647	1.77701	1.75838	2.92537
6398.891	2.82219	1.79217	1.75595	2.90697
6402.891	2.87269	1.79514	1.70157	2.86771
6406.918	2.85351	1.76936	1.71965	2.88418
6410.893	2.86274	1.77058	1.63430	2.95853
6414.895	3.02754	1.89157	1.66395	2.97050
6418.896	2.77703	1.81512	1.72002	2.93026
6422.891	2.75529	1.91413	1.49540	2.95890
6426.888	2.11494	1.95056	1.45405	2.56344
6430.894	1.60563	1.74542	1.11526	2.73253
6434.881	1.62346	1.80201	0.64647	2.22244
6438.888	1.42231	1.67506	0.89552	2.43013
6442.882	1.46177	1.64917	0.66290	2.76378
6446.893	1.39549	1.46765	0.69491	2.48402
6450.889	1.36372	1.53430	0.67134	2.23050
6454.915	1.54192	1.59001	0.43676	2.51047
6458.906	1.49723	1.69017	0.49917	2.46347
6462.887	1.57314	1.54521	0.61131	2.43195
6466.886	1.53290	1.53141	0.45482	2.42080
6470.893	1.47556	1.54093	0.43095	2.38316
6474.890	1.54041	1.54913	0.28664	2.49117
6478.892	1.55851	1.34201	0.45661	2.42720
6482.887	1.62155	1.36845	0.61541	2.39249
6486.909	1.60161	1.56149	0.51753	2.38067
6490.896	1.67229	1.58082	0.48609	2.32946
6494.894	1.58701	1.48078	0.54803	2.35821
6498.901	1.65183	1.14844	0.44991	2.35581
6502.893	1.64754	1.26906	0.50212	2.29916
6506.892	1.61513	1.59837	0.42179	2.27770
6510.889	1.55509	1.44925	0.47644	2.23849
6514.893	1.58624	1.28516	0.44966	2.24964
6518.905	1.64084	1.16419	0.45095	2.23001
6522.904	1.59822	1.22217	0.50329	2.23054
6526.921	1.56566	1.30566	0.46599	2.25879
6530.881	1.52474	1.28438	0.48058	2.22427
6534.889	1.52503	1.30677	0.48061	2.23328
6538.890	1.60737	1.30893	0.44457	2.18371
6543.301	1.64613	1.40493	0.48277	2.21965
6546.889	1.71851	1.48188	0.52763	2.25358
6550.915	1.66683	1.44334	0.53056	2.30131
6554.893	1.61342	1.40227	0.57213	2.25168
6558.887	1.54706	1.46939	0.55431	2.24943
6562.894	1.51819	1.46549	0.54706	2.29220
6566.903	1.69116	1.39978	0.53188	2.33351
6570.887	1.69545	1.35157	0.52138	2.11004
6574.881	1.58507	1.31917	0.51188	2.12858
6578.888	1.52233	1.28306	0.50572	2.12114
6582.885	1.44644	1.31690	0.47602	2.09658
6586.881	1.47660	1.29024	0.40445	2.11102
6590.887	1.43503	1.18375	0.39517	2.12847
6594.886	1.35236	1.25957	0.36727	2.36060
6598.885	1.31205	1.27094	0.34784	2.42862
6602.894	1.40122	1.29595	0.34799	2.39010
6606.884	1.43327	1.24853	0.36209	2.39506
6610.945	1.51484	1.31043	0.38921	2.42700
6614.896	1.45425	1.34771	0.38360	2.38627
6618.891	1.46611	1.32362	0.41924	2.47087
6622.887	1.57089	1.33688	0.48552	2.53488
6626.893	1.46130	1.29509	0.51565	2.54816
6630.888	1.35784	1.26995	0.58044	2.62508
6634.891	1.41435	1.34773	0.55334	2.62063
6638.902	1.28407	1.32044	0.58679	2.60973
6642.889	1.67717	1.34530	0.63563	2.62986
6646.883	3.45823	1.43252	2.73420	2.73115
6650.894	4.38085	1.39640	3.44008	2.87363
6654.895	5.98096	1.42098	4.48211	2.81247
6658.888	6.50141	1.45974	5.79067	2.84622
6662.893	5.95496	1.54153	6.01365	2.94416
6666.890	7.27650	1.60692	6.58758	2.91083
6670.905	7.89405	1.43701	6.27667	2.84463
6674.887	7.56439	1.40522	7.03284	2.93455
6678.935	7.38139	1.62639	7.17832	2.96635
6682.894	7.78730	1.84291	6.96240	3.03794
6686.894	7.80175	1.86628	6.82102	3.09575
6690.887	7.25438	1.74834	6.72492	3.09526
6694.881	7.24737	1.67015	6.79941	3.14184
6698.887	7.60756	1.91285	6.72795	3.13431
6702.883	7.46089	1.84370	6.87051	3.16332
6706.886	7.42092	1.80699	6.88480	3.12507
6710.879	7.60565	1.79687	7.07838	3.15680
6714.884	7.61097	1.95274	7.05838	3.18949
6718.908	7.76189	1.94755	7.04936	3.22655
6722.933	7.52071	1.52536	6.90799	3.21737
6726.890	7.82185	1.95570	6.97991	3.19974
6730.911	7.88534	2.01765	7.01893	3.21454
6734.896	7.77242	1.90591	7.15022	3.11607
6738.882	7.86481	2.01483	7.06457	3.08159
6742.879	8.06810	1.98616	7.10824	3.01282
6747.237	8.01010	2.06926	7.00181	3.15381
6750.883	8.07402	2.00291	6.98575	3.12505
6754.887	8.01569	2.11246	6.89492	3.11170
6758.882	8.14341	1.99159	6.82897	3.04152
6762.887	8.15307	1.90581	6.82391	3.10555
6766.876	8.21276	1.98583	6.81517	3.04803
6770.910	8.24397	1.95534	6.79890	3.11422
6774.891	8.21315	2.16931	6.71167	3.03311
6778.885	8.19630	1.90843	6.71172	2.94839
6782.890	8.24278	2.01057	6.70599	3.00322
6786.947	NaN	NaN	NaN	NaN
6794.884	8.28196	2.05696	6.73179	3.00537
6798.885	8.24001	2.01011	6.78089	3.00782
6802.881	8.25756	1.93120	6.80573	2.96003
6806.881	8.23389	2.10353	6.85155	2.97264
6810.901	8.20204	2.09419	6.86887	2.94679
6814.930	8.15555	2.06820	6.92990	2.87452
6818.899	8.01370	2.05860	6.93220	2.86137
6822.891	8.08511	2.14745	6.96237	2.90269
6826.883	7.97571	1.84677	6.99519	2.91713
6830.877	7.98286	2.11288	7.03330	2.92299
6834.880	8.20530	2.02016	7.04508	2.91243
6838.885	7.97072	2.05486	7.03748	2.90515
6842.881	8.03450	1.93353	7.07679	2.87627
6846.883	7.83081	1.81889	7.24144	2.85271
6850.886	8.05492	2.00593	7.07989	2.91123
6854.880	7.97033	1.91801	7.15740	2.87100
6858.881	8.02039	1.93566	7.17539	3.00283
6862.876	7.71991	1.90231	7.05924	2.94779
6866.884	8.02762	1.91439	7.25858	2.91329
6870.880	8.01861	2.03921	7.15389	2.94664
6874.909	8.12147	2.10520	7.14575	2.88937
6878.883	8.00856	2.21297	7.17546	3.05830
6882.893	8.04017	2.12548	7.12320	3.00605
6886.898	8.11702	2.11621	6.99150	3.03387
6890.884	7.96069	2.17816	7.10355	3.00092
6894.876	8.09012	2.36589	7.22353	3.07174
6898.885	7.91144	2.23824	7.20377	3.02915
6902.881	7.98690	2.18532	7.04293	2.88696
6906.900	7.99803	2.24802	7.04176	2.95594
6910.888	8.08346	2.21443	7.04513	2.87315
6914.887	8.00231	2.15526	7.01382	2.89566
6918.898	7.77154	2.00298	6.97812	2.95981
6922.901	8.14879	1.99581	6.93075	2.86925
6926.883	8.02952	2.01350	6.96262	2.91255
6930.877	8.15380	1.91446	6.94286	3.01241
6934.882	8.03845	1.86052	6.80000	2.82822
6938.879	8.00737	1.88652	6.88194	2.88790
6942.884	7.92347	1.93920	6.83159	2.90322
6946.881	8.01491	2.01114	6.84113	2.89300
6950.883	7.94353	1.81188	6.87034	2.84572
6954.903	8.00355	1.77429	6.84431	2.76758
6958.891	7.99807	1.79413	6.96651	2.77745
6962.886	8.08920	1.88621	6.96211	2.85609
6966.881	8.08105	1.75464	6.97597	2.85872
6970.905	8.04720	1.81700	6.99186	2.88858
6974.881	8.03280	1.79939	6.89380	2.75966
6978.880	8.14974	1.83565	7.17265	2.72896
6982.882	8.18704	1.86641	7.07561	2.68768
6986.877	8.20960	1.80388	7.11367	2.80437
6990.889	8.18682	1.75503	7.15257	2.70679
6994.874	8.23459	1.85860	7.19737	2.77018
6998.885	8.24230	1.88561	7.08077	2.57729
7002.899	8.20632	1.81146	7.22243	2.77886
7006.886	8.22299	1.92518	6.95607	2.80003
7010.879	8.16688	1.95958	7.14846	2.85244
7014.887	8.12403	1.69163	6.97964	2.82868
7018.925	8.10034	1.98973	7.17744	2.74295
7022.886	8.05171	2.07827	7.12163	2.69723
7026.883	8.04579	2.18872	7.04711	2.65561
7030.884	8.06258	2.22349	6.99864	2.66938
7034.878	7.26679	2.20716	6.83748	2.85111
7038.889	6.79131	2.29846	5.88410	2.90373
7042.886	3.92798	2.62964	3.05541	3.54348
7046.883	3.65801	2.79384	3.21322	4.35346
7050.883	3.54776	2.80193	2.91715	4.62770
7054.883	3.01522	2.85327	2.41204	4.97732
7058.886	2.17926	2.92421	2.17777	5.04339
7062.882	1.87587	2.99369	1.75783	4.46469
7066.883	1.98732	3.22528	1.63653	5.05330
7070.878	1.89997	3.19700	1.22494	5.03694
7074.891	2.00596	3.25644	1.63549	5.14238
7078.885	1.99263	3.36163	1.35626	5.22858
7082.883	2.27290	3.38149	1.41005	5.21198
7086.898	2.00795	3.40565	1.24322	5.16781
7090.887	2.03809	3.42261	1.34666	5.30472
7094.885	1.86434	3.41604	1.24543	5.28291
7098.898	1.77281	3.46123	1.20413	5.27925
7102.883	1.75032	3.49633	1.10289	5.26480
7106.880	2.05754	3.50276	1.13439	5.27718
7110.885	1.76390	3.50383	1.15558	5.29591
7114.880	1.87210	3.48551	1.11229	5.37446
7118.882	1.68332	3.47879	1.21328	5.35046
7122.880	1.82309	3.46905	1.12340	5.27028
7126.886	1.64682	3.49862	1.16575	5.25939
7130.881	1.47496	3.46179	1.18450	5.20116
7134.882	1.96491	3.44125	1.21886	5.23197
7138.877	1.45708	3.44095	1.23367	5.23780
7142.899	1.69247	3.43237	1.27130	5.22090
7146.876	1.73455	3.45333	1.30670	5.24586
7150.880	1.52786	3.46420	1.33936	5.25611
7154.891	1.63886	3.33974	1.21745	5.19324
7158.887	1.53091	3.35306	1.18808	5.20933
7162.881	1.54934	3.36937	1.21221	5.18477
7166.883	1.64060	3.35580	1.31751	5.20080
7170.879	1.66574	3.33821	1.19790	5.11501
7174.882	1.71203	3.49997	1.21023	5.19158
7178.883	1.64583	3.38906	1.08716	5.07897
7182.883	1.73698	3.45399	1.09807	5.25323
7186.880	1.70712	3.55968	1.13017	4.91262
7190.883	1.60858	3.41029	1.13613	5.00735
7194.879	1.60546	3.44091	1.15116	5.25148
7198.884	1.61205	3.43263	1.18443	5.03305
7202.878	1.72418	3.41298	1.26351	5.08942
7206.880	1.62353	3.52618	1.21107	5.32514
7210.884	1.61004	3.49238	1.22824	5.20408
7214.926	1.57602	3.53074	1.37149	5.35301
7218.881	1.62522	3.50995	1.34053	5.30015
7222.992	1.70187	3.47408	1.42843	5.28040
7226.885	1.71662	3.46843	1.40512	5.22525
7230.875	1.55606	3.55396	1.41214	5.39268
7234.878	1.65314	3.48872	1.43188	5.35329
7238.875	1.58163	3.53239	1.35789	5.23861
7242.761	1.80184	3.76486	1.38999	5.28539
7246.749	1.62319	3.71451	1.36762	5.43811
7250.749	1.65882	3.62044	1.45648	5.29211
7254.745	1.74367	3.67183	1.39592	5.24788
7258.751	1.63469	3.75811	1.39406	5.04060
7262.749	1.85063	3.66437	1.39465	5.33545
7266.752	1.71330	3.72796	1.38461	4.71814
7270.752	1.77199	3.77370	1.42241	5.39665
7274.750	1.94545	3.53136	1.41566	4.97293
7278.748	1.77114	3.58962	1.42776	5.27986
7282.781	1.96742	3.57319	1.43230	5.32807
7286.756	1.52245	2.90478	1.44078	3.72870
7291.059	1.53369	2.28818	1.45522	2.81846
7294.760	1.35650	1.82831	1.47062	2.68097
7298.794	1.55911	1.51320	1.55797	2.55816
7302.754	1.85998	1.15122	1.68287	1.66326
7306.756	1.84880	1.30407	1.55799	2.17005
7310.749	1.85569	1.33266	1.53986	1.94225
7314.757	1.80231	1.75318	1.50013	2.16133
7318.756	1.50137	1.53602	1.50797	2.51089
7322.755	1.50229	1.56844	1.61238	2.40874
7326.747	1.37793	1.59429	1.54601	2.13759
7330.769	1.60057	1.54496	1.46561	2.27945
7334.750	1.55350	1.52631	1.50197	2.31180
7338.743	1.64503	1.41642	1.48354	1.90754
7342.746	1.70383	1.54218	1.38337	2.38223
7346.746	1.63908	1.51339	1.45229	2.27979
7350.748	1.67077	1.57720	1.41893	2.23366
7354.751	1.72490	1.57261	1.39666	2.39383
7358.768	1.60298	1.55931	1.43907	2.16310
7362.751	1.64617	1.60390	1.42002	2.35578
7366.742	1.69686	1.65511	1.43957	2.24294
7370.750	1.66819	1.54700	1.45512	2.29117
7374.747	1.66589	1.56832	1.41948	2.15597
7378.746	1.66574	1.53533	1.46680	2.18966
7382.771	1.66328	1.62446	1.47585	2.32822
7386.761	1.66115	1.53273	1.48009	2.25434
7390.752	1.62857	1.64174	1.42350	2.13952
7394.763	1.68052	1.64361	1.43920	2.19795
7398.752	1.63551	1.59381	1.46127	2.20046
7402.750	1.70514	1.77829	1.48458	2.19461
7406.747	1.74985	1.61858	1.48453	2.13163
7410.742	1.69951	1.63833	1.47566	2.15359
7414.768	1.79232	1.63331	1.54076	2.09878
7418.753	1.78605	1.70598	1.54854	2.10924
7422.749	1.79279	1.75347	1.59388	2.18946
7426.767	1.83494	1.79511	1.58924	2.16451
7430.755	1.81121	1.82794	1.56853	2.24239
7434.758	1.78143	1.84084	1.59016	2.30159
7438.751	1.72220	1.89412	1.58282	2.22680
7442.803	1.70311	1.87017	1.58574	2.27012
7446.747	1.73301	1.85424	1.60551	2.37207
7450.747	1.75215	1.95167	1.61322	2.34204
7454.747	1.88613	1.97306	1.60251	2.36588
7458.750	1.75652	1.97826	1.56920	2.39709
7462.747	1.73703	1.91711	1.52236	2.43738
7466.751	1.71692	1.97146	1.50502	2.50380
7470.746	1.84324	1.95569	1.49106	2.43690
7474.749	1.89788	1.92723	1.49054	2.45247
7478.741	1.80883	1.94678	1.52771	2.48530
7482.747	1.92961	1.90152	1.53795	2.51695
7486.746	1.97917	1.96343	1.49837	2.53787
7490.746	1.92339	1.92829	1.47848	2.54665
7494.754	1.92803	1.84111	1.47938	2.57870
7498.749	1.95834	1.82726	1.47117	2.62294
7502.796	1.94650	1.83744	1.45544	2.57109
7506.740	1.94692	1.92432	1.47176	2.58444
7510.747	2.02116	1.89819	1.46526	2.53895
7514.743	1.87728	1.91152	1.46879	2.58246
7518.753	1.90889	1.97338	1.37746	2.59974
7522.750	1.63177	2.12585	0.77732	2.94293
7526.745	0.88453	2.94560	0.16156	3.14794
7530.743	0.14037	3.04564	-0.29545	3.90070
7534.752	0.67553	3.99423	-0.51503	4.95150
7538.744	1.38922	3.65924	-0.65141	4.88200
7542.748	0.43534	3.62160	-0.61947	5.01531
7546.745	0.93192	3.76795	-0.32752	4.96186
7550.745	0.69640	3.76701	-0.40695	5.03318
7554.739	0.84759	3.86572	-0.34578	4.79822
7558.754	0.55079	3.58872	-0.52555	4.97221
7562.750	0.59161	3.64463	-0.46604	4.88437
7566.776	0.45368	3.75173	-0.45505	4.91541
7570.748	0.50111	3.89063	-0.45874	4.98513
7574.750	0.46562	3.96569	-0.51853	5.02343
7578.744	0.51475	4.00787	-0.44656	4.98894
7582.762	0.56970	3.86825	-0.38050	5.06739
7586.760	0.46152	3.94229	-0.45358	5.02758
7590.741	0.49860	3.96211	-0.36630	4.96692
7594.745	0.43224	4.03479	-0.44003	4.99084
7598.742	0.56984	4.08270	-0.48845	4.98958
7602.741	0.58895	4.04481	-0.47656	4.91421
7606.746	0.34255	4.06878	-0.49939	4.99036
7610.743	0.53242	4.18175	-0.54347	5.08744
7614.742	0.54997	4.17138	-0.56064	5.08087
7618.765	0.41589	4.14000	-0.60856	5.01756
7622.751	0.51190	4.12936	-0.62330	5.05088
7626.750	0.54394	4.16849	-0.60967	4.99939
7630.772	0.48309	4.14923	-0.59258	4.99247
7634.818	0.44036	4.13004	-0.66680	5.01479
7638.767	0.47907	4.17479	-0.63079	5.00100
7642.762	0.69580	4.15814	-0.66218	5.05625
7646.747	0.37397	4.14849	-0.60583	5.07920
7650.749	0.49508	4.22228	-0.61268	5.01633
7654.766	0.56166	4.19297	-0.64106	5.01477
7658.746	0.42308	4.16281	-0.62362	5.01104
7662.752	0.34618	4.22402	-0.60364	4.92931
7666.754	0.66650	4.28642	-0.57059	4.94204
7670.744	0.60620	4.31000	-0.67685	4.96460
7674.737	0.39832	4.25241	-0.64389	4.97477
7678.746	0.41720	4.33567	-0.72196	5.03569
7682.742	0.38703	4.35367	-0.68079	5.01399
7686.743	0.53121	4.42443	-0.73097	4.93113
7690.737	0.41241	4.30563	-0.72149	4.85867
7694.747	0.49733	4.19531	-0.71836	4.98207
7699.218	0.48741	4.18445	-0.73766	4.90068
7702.786	0.69727	4.00734	-0.62635	4.73305
7706.781	1.01752	3.32651	0.55099	3.28117
7710.762	1.70809	2.44785	1.55296	2.21639
7714.738	1.87765	1.87937	2.06359	0.98441
7718.758	1.88006	1.00632	2.15152	0.68098
7722.749	2.16151	0.81355	2.05464	0.83861
7726.742	2.06629	0.95226	1.91038	1.01685
7730.748	2.15529	1.50502	1.26731	1.52992
7734.757	2.36735	1.97723	1.51521	2.27370
7738.741	2.44395	1.92148	1.44173	2.23721
7742.744	2.33331	1.85045	1.44188	1.92304
7746.742	2.52840	1.65239	1.50864	1.47163
7750.735	2.47781	1.50143	1.51229	1.21814
7754.746	2.56017	1.42601	1.88199	1.28695
7758.739	2.50957	1.23725	1.59415	1.11245
7762.741	2.52728	1.48289	1.80100	1.37955
7766.765	2.49654	1.44080	1.64940	1.10780
7770.741	2.55089	1.47862	1.79304	1.32489
7774.741	2.49540	1.52309	1.64156	1.39334
7778.743	2.49773	1.40782	1.83424	1.27521
7782.742	2.34074	1.40821	1.68216	1.16739
7786.765	2.50620	1.35988	1.68183	1.23629
7790.750	2.44150	1.36818	1.80583	1.15880
7794.737	2.52022	1.37810	1.72865	1.18700
7798.740	2.48042	1.36953	1.83873	1.19182
7802.737	2.60594	1.43973	1.76552	1.05308
7806.751	2.49679	1.48151	1.61391	1.26541
7810.742	2.50761	1.43930	1.65959	1.25162
7814.741	2.74219	1.47318	1.56593	1.24729
7818.734	2.68150	1.43369	1.61411	1.31489
7822.749	2.72944	1.42140	1.54073	1.31439
7826.740	2.71488	1.40502	1.57957	1.35803
7830.741	2.71466	1.40894	1.57585	1.38430
7834.790	2.73271	1.40381	1.57116	1.43360
7838.741	2.66003	1.34126	1.62239	1.36860
7842.746	2.68167	1.39472	1.58420	1.30113
7846.739	2.67387	1.35124	1.57233	1.46878
7850.747	2.57397	1.41240	1.55980	1.54179
7854.741	2.63851	1.44188	1.58564	1.48096
7858.743	2.66957	1.38263	1.60680	1.43127
7862.743	2.61815	1.39305	1.61429	1.41009
7866.736	2.54955	1.38340	1.62515	1.32886
7870.741	2.54380	1.38936	1.65478	1.42888
7874.771	2.60287	1.40865	1.66046	1.40209
7878.746	2.55074	1.43374	1.63301	1.38925
7882.740	2.51670	1.35858	1.61751	1.43824
7886.755	2.55148	1.42476	1.63779	1.44401
7890.751	2.55207	1.47284	1.62745	1.37041
7894.736	2.53657	1.38232	1.64092	1.32179
7898.743	2.49562	1.41239	1.62326	1.32794
7902.755	2.56282	1.45094	1.66254	1.30875
7906.744	2.50360	1.41476	1.54730	1.35582
7910.736	2.45359	1.42501	1.62205	1.29792
7914.736	2.52641	1.50668	1.59393	1.31222
7918.732	2.63262	1.45374	1.66981	1.26495
7922.742	2.81677	1.43539	1.66192	1.22334
7926.739	2.64166	1.50429	1.64714	1.18345
7930.738	2.49550	1.49406	1.61248	1.14933
7934.737	2.49788	1.50912	1.61761	1.29535
7938.740	2.39245	1.44696	1.66631	1.23350
7942.736	2.67472	1.41591	1.65689	1.17531
7946.742	2.75336	1.46158	1.66207	1.18379
7950.736	2.64265	1.34572	1.64342	1.20297
7954.736	2.42436	1.33177	1.66395	1.36790
7958.733	2.59190	1.33719	1.67737	1.21643
7962.739	2.47697	1.37551	1.61800	1.18620
7966.736	2.38467	1.43045	1.62792	1.11802
7970.741	2.59544	1.43218	1.64000	1.26944
7974.750	2.45104	1.35482	1.63665	1.23570
7978.737	2.62145	1.37045	1.59120	1.34209
7982.738	2.63138	1.40549	1.58021	1.27759
7986.742	2.47145	1.39755	1.57917	1.27553
7990.739	2.36415	1.40019	1.54063	1.25495
7994.737	2.35501	1.38199	1.52536	1.23303
7998.731	2.41645	1.44944	1.54239	1.26629
8002.738	2.30771	1.45963	1.49711	1.23956
8006.736	2.33420	1.47494	1.49736	1.35016
8010.737	2.17968	1.43750	1.42035	1.37961
8014.731	2.32962	1.48494	1.45911	1.25572
8018.739	2.19561	1.48639	1.46928	1.39887
8022.736	2.21236	1.50697	1.44785	1.33753
8026.742	2.11980	1.52205	1.42828	1.34072
8030.735	2.17782	1.67990	1.42667	1.41257
8034.736	2.14801	1.52217	1.44381	1.46415
8038.910	2.15148	1.65591	1.43352	1.51830
8042.750	2.16404	1.63868	1.37684	1.45811
8046.740	2.29418	1.64213	1.45916	1.78115
8050.744	3.16997	1.77383	2.04574	1.99951
8054.742	3.47895	2.03493	2.58058	2.71341
8058.750	4.25065	2.64211	2.58772	2.24647
8062.742	3.57023	2.71790	2.10582	2.41887
8066.743	3.18210	2.20073	1.91338	2.84837
8070.740	3.11970	2.01267	2.12235	2.47573
8074.740	2.91091	2.06064	2.23593	2.60530
8078.739	3.41543	2.18813	2.06319	2.42600
8082.784	3.52793	2.46792	2.41700	2.43422
8086.755	3.36671	2.52872	2.35794	2.49221
8090.741	3.37190	2.38948	2.36046	2.59636
8094.739	3.43321	2.40800	2.19249	3.07286
8098.613	3.55993	2.48481	2.28950	2.57912
8102.605	3.40855	2.51863	2.21764	2.53154
8106.617	3.39592	2.37053	2.20580	2.80908
8110.640	3.46310	2.33562	2.22679	2.62252
8114.615	3.49616	2.47731	2.26522	2.68310
8118.616	3.52425	2.40504	2.22297	2.45411
8122.611	3.49985	2.42902	2.14575	2.74872
8126.627	3.51246	2.38519	2.19621	2.73067
8130.611	3.57641	2.31496	2.23697	2.74868
8134.609	3.54618	2.36381	2.22872	2.67234
8138.604	3.56040	2.32260	2.23809	2.75574
8142.613	3.51448	2.31430	2.20305	2.33504
8146.633	3.46241	2.30519	2.12119	2.68594
8150.618	3.63243	2.19339	2.17259	2.28701
8154.614	3.47836	2.27236	2.20991	2.72126
8158.608	3.55466	2.23345	2.12169	2.44408
8162.627	3.44528	2.28148	2.19519	2.69135
8166.616	3.53397	2.31957	2.28150	2.53051
8170.608	3.63616	2.32662	2.20937	2.44278
8174.610	3.56324	2.34431	2.09517	2.60738
8178.608	3.59374	2.32514	2.14689	2.44590
8182.627	3.60326	2.40535	2.16506	2.23384
8186.617	3.62988	2.38236	2.08218	2.51865
8190.613	3.60791	2.36796	2.17445	2.40476
8194.624	3.58190	2.44294	2.22161	2.22957
8198.615	3.67376	2.41296	2.28911	2.30151
8202.617	3.60245	2.42905	2.30630	2.46670
8206.612	3.64731	2.43494	2.30065	2.68289
8210.613	3.57419	2.43863	2.25893	2.38802
8214.613	3.51960	2.44459	2.23871	2.87060
8218.607	3.51070	2.39847	2.30662	2.33965
8222.608	3.45863	2.43393	2.30628	2.43515
8226.603	3.47398	2.44664	2.37439	2.23543
8230.615	3.43714	2.43396	2.33955	2.31707
8234.608	3.44416	2.46432	2.34488	2.52938
8238.602	3.44189	2.38621	2.20951	2.51505
8242.649	3.37996	2.25070	2.24577	2.56547
8246.623	3.30401	2.24790	2.28150	2.64831
8250.617	3.25810	2.26185	2.27000	2.43772
8254.608	3.31798	2.21750	2.26589	2.36609
8258.609	3.40860	2.18819	2.25333	2.29485
8262.611	3.47151	2.20103	2.28868	2.42500
8266.608	3.50279	2.20848	2.34198	2.36423
8270.607	3.55095	2.13672	2.30794	2.38404
8274.611	3.56373	2.18939	2.35630	2.36000
8278.606	3.54079	2.13778	2.44071	2.31020
8282.612	3.47613	2.26045	2.39540	2.20986
8286.607	3.47881	2.34392	2.42228	2.34637
8290.628	3.57696	2.40701	2.34473	2.24738
8294.601	3.54927	2.35422	2.36111	2.23151
8298.610	3.58670	2.50454	2.41581	2.17116
8302.607	3.55355	2.47909	2.34039	2.30713
8306.606	3.54262	2.54105	2.35092	2.34055
8310.652	3.45705	2.41935	2.28759	2.24546
8314.612	3.41397	2.53620	2.18919	2.17792
8318.616	3.35753	2.61688	2.23053	2.18337
8322.611	3.27494	2.45289	2.21938	2.19268
8326.611	3.12752	2.64260	2.08847	2.40323
8330.608	2.53045	2.57618	1.90279	2.20256
8334.620	2.80387	2.67364	1.56598	2.32379
8338.621	2.60679	2.45371	1.78610	2.24623
8342.612	2.75982	2.68934	1.69716	0.97352
8346.606	3.05818	2.57773	-0.86595	-1.59095
8350.605	2.84616	2.79354	-0.77082	-0.99328
8354.610	2.94470	2.83895	-0.56935	0.48174
8358.609	2.44142	2.68546	-0.21589	-1.62141
8362.632	2.78664	2.91024	0.32156	-0.27582
8366.623	2.89109	2.92590	2.45740	2.57573
8370.601	2.92483	2.76017	1.51623	2.32136
8374.607	5.48415	6.23426	0.71786	2.51905
8378.681	5.85023	5.13753	0.80079	2.63998
8382.615	2.99913	2.96323	1.11569	2.53263
8386.611	3.15864	2.91080	1.32245	2.57379
8390.606	2.75854	2.95668	1.35906	3.19276
8394.613	2.75695	2.73759	2.98190	2.21252
8398.622	2.91785	2.71842	0.77302	1.45390
8402.609	2.66219	2.92711	2.32402	2.97223
8406.609	2.70701	2.89734	2.69212	2.41360
8410.604	2.91611	2.80305	1.45452	2.50138
8414.604	2.70446	2.79241	-0.25661	2.91839
8418.611	2.66647	2.71776	-0.10540	6.06004
8422.603	2.51512	2.61947	-1.19825	3.05026
8426.604	2.53216	2.68315	-0.69543	6.48713
8430.598	2.61352	2.67688	-0.65498	3.33001
8434.609	2.66263	2.68520	-1.44716	7.27904
8438.609	2.63182	2.91161	-0.96445	8.27289
8442.609	2.59403	3.02845	0.35457	6.37049
8446.646	4.38793	2.83178	-0.73168	7.13604
8450.624	2.42559	2.76003	-1.77276	8.17609
8454.612	2.70973	2.86530	-1.20011	8.58729
8458.609	NaN	NaN	NaN	NaN
8462.606	NaN	NaN	NaN	NaN
8466.612	NaN	NaN	NaN	NaN
8470.613	NaN	NaN	NaN	NaN
8474.908	NaN	NaN	NaN	NaN
8479.151	NaN	NaN	NaN	NaN
8483.322	NaN	NaN	NaN	NaN
8487.546	NaN	NaN	NaN	NaN
8491.679	3.91114	2.57898	NaN	NaN
8495.894	2.94599	2.62710	-1.12821	15.10197
8498.635	2.81848	2.70582	0.62526	12.77655
8502.611	2.43213	2.59047	1.32756	14.92140
8506.610	2.37394	2.50901	NaN	NaN
8510.612	2.58994	2.94693	1.41236	14.97838
8514.618	2.41539	2.38555	NaN	NaN
8518.610	2.41603	2.43977	NaN	NaN
8522.614	2.55212	2.53675	NaN	NaN
8526.611	2.23861	2.30603	NaN	NaN
8530.606	2.52181	2.62211	NaN	NaN
8534.605	2.57486	2.72328	NaN	NaN
8538.608	2.50972	2.36290	NaN	NaN
8542.609	2.37223	2.44708	1.79904	1.84879
8546.605	2.49117	2.73408	1.62631	1.79789
8550.609	2.44623	2.69596	1.61443	1.77298
8554.603	2.46949	2.68721	1.64422	1.86470
8558.610	2.59331	2.83429	1.66242	1.95876
8562.609	2.47742	2.91624	1.44800	1.86048
8566.607	2.57917	2.81506	1.17905	2.04321
8570.602	2.49193	2.39396	1.19443	2.04281
8574.611	2.67353	2.75076	1.46154	1.84892
8578.625	2.60094	2.86384	2.15373	2.02172
8582.632	2.57697	2.60141	2.36363	1.89919
8586.618	2.56401	2.70921	2.21241	9.40749
8590.629	2.51519	2.70617	1.35891	2.02883
8594.601	2.61773	2.45456	1.17627	2.42461
8598.616	2.60681	2.72889	0.87101	9.07721
8602.597	2.53664	2.62302	0.64645	2.17193
8606.607	2.58824	2.70621	0.75240	8.92707
8610.601	2.45057	2.61060	0.54486	2.22703
8614.604	2.48339	2.48646	0.98191	5.97262
8618.600	2.47836	2.62311	0.80362	3.95494
8622.610	2.46882	2.66953	2.23258	2.67806
8626.601	2.44841	2.58900	1.14739	5.10411
8630.602	2.42324	2.37064	0.90411	3.75860
8634.595	2.47402	2.36021	0.78446	3.05002
8638.607	2.50164	2.65656	0.68863	2.54587
8642.606	2.55998	2.57471	4.15897	1.81695
8646.605	2.51844	2.34422	0.42276	1.53358
8650.606	2.53575	2.35224	2.43310	1.39787
8654.615	2.48847	2.35897	2.36351	1.39588
8658.626	2.39396	2.49517	2.26903	1.39478
8662.601	2.44613	2.46100	2.13380	-1.59792
8666.606	2.54767	2.49094	2.54616	-1.32776
8670.602	2.06191	2.42474	0.02941	-1.19815
8674.603	0.02038	2.43390	0.31245	-4.11908
8678.600	-1.54624	2.18534	-0.50272	-4.25032
8682.606	-2.21586	1.45027	-1.58882	-4.17398
8686.636	-1.89711	0.38134	-2.09997	0.78662
8690.609	-2.29493	0.23434	-2.31101	0.02475
8694.601	-2.17814	0.29733	-2.59440	-0.35559
8698.608	-2.42057	0.35870	-2.91319	-0.34614
8702.621	-2.65010	0.25225	-3.57426	-0.09137
8706.603	-2.69819	0.55435	-3.69501	0.40739
8710.605	-2.61696	0.46828	-3.55941	0.05615
8714.598	-2.62571	0.37048	-3.41649	0.40836
8718.603	-2.46122	0.47668	-3.25919	0.21618
8722.608	-2.72711	0.36687	-3.46006	0.08252
8726.594	-2.76017	0.28799	-3.68490	0.14789
8730.605	-2.99735	0.38805	-3.50370	0.39468
8734.598	-3.03078	0.47834	-3.56786	0.36618
8738.599	-3.06979	0.37403	-3.64914	0.22497
8742.602	-3.02586	0.56168	-0.80568	3.08427
8746.600	-2.89247	0.44140	-1.33292	5.40493
8750.594	-2.99198	0.41071	-0.82329	4.76364
8754.600	-2.99118	0.47505	-0.76913	6.89379
8758.602	-2.89314	0.45221	NaN	NaN
8762.599	-1.74873	0.37971	NaN	NaN
8766.593	NaN	NaN	-2.40823	0.58769
8770.611	NaN	NaN	-2.61508	0.06221
8774.938	NaN	NaN	-3.58437	0.15168
8779.264	-6.76217	-12.94182	-3.11762	0.05211
8782.606	-6.27741	-12.84706	-2.99834	-0.15393
8786.629	-5.92672	-12.92847	-3.18494	-0.02044
8790.602	-2.76705	0.41593	-3.20711	0.16057
8794.608	-2.96832	0.37015	-3.24622	0.21668
8798.596	-3.12118	0.34419	-3.52168	0.24752
8802.602	-2.98554	0.26195	-3.42433	0.22299
8806.598	-3.14103	0.09295	-3.51199	0.26973
8810.598	-2.96530	0.37117	-3.64459	0.35938
8814.593	-3.09102	0.40846	-3.64602	0.49916
8818.601	-3.10158	0.37206	-3.62961	0.47351
8822.596	-3.13830	0.36624	-3.71935	0.49305
8826.598	-2.93673	0.49925	-3.72024	0.48320
8830.592	-3.26010	0.39257	-3.85842	0.49116
8834.597	-3.06159	0.32344	-3.81931	0.57332
8838.598	-2.99027	0.46682	-3.88717	0.43742
8842.604	-2.99430	0.25592	-3.75309	0.63125
8846.592	-3.04068	0.45364	-3.89584	0.50961
8850.601	-2.99156	0.26081	-3.83697	0.65281
8855.046	-3.11448	0.25765	-3.87808	0.57238
8858.641	-2.87106	0.23319	-3.91067	0.58332
8862.606	-3.13073	0.18170	-3.89720	0.62435
8866.620	-2.99094	0.24455	-3.89202	0.74815
8870.603	-3.08567	0.18332	-3.93796	0.76444
8874.609	-3.03279	0.18755	-3.83848	0.83255
8878.600	-2.88680	0.11659	-3.86568	0.85184
8882.597	-3.15548	0.13274	-3.81004	0.80117
8886.597	-3.07087	0.13744	-3.89367	0.74798
8890.599	-3.14375	0.21618	-3.79821	0.80240
8894.603	-3.08446	0.38405	-3.77278	0.93153
8898.593	-3.02356	0.35514	-3.79109	0.82804
8902.603	-3.05971	0.38344	-3.70099	0.80122
8906.601	-2.97923	0.37598	-3.73062	0.83895
8910.601	-3.00430	0.51795	-3.78897	0.82789
8914.595	-3.03833	0.48297	-3.76290	0.76599
8918.595	-3.07117	0.28768	-3.75506	0.70617
8922.637	-3.38105	0.20140	-3.66629	0.47039
8926.602	-3.39020	-0.47068	-3.83902	0.10572
8930.595	-3.12972	-0.21758	-3.78864	0.27440
8934.602	-3.12064	-0.35454	-3.77219	-0.27086
8938.602	-3.42413	-0.58627	-3.78551	0.24971
8942.608	-3.15773	0.32210	-3.88270	0.06986
8946.602	-3.09077	-0.32912	-3.90958	0.01272
8950.475	-3.35795	-0.12877	-3.87225	-0.10683
8954.470	-3.21349	0.10135	-3.84611	-0.23697
8958.478	-3.15919	-0.45101	-3.89155	-0.23126
8962.478	-3.12672	-0.37585	-3.84626	-0.23164
8966.482	-2.88022	0.19782	-3.92015	-0.24005
8970.475	-3.29256	-0.16123	-3.89392	-0.11409
8974.476	-3.11410	0.04389	-3.91398	-0.08241
8978.479	-3.00586	0.35942	-3.93858	-0.03634
8982.478	-2.87151	0.23778	-3.93569	0.03166
8986.474	-2.96322	0.26513	-3.87267	-0.00280
8990.484	-2.92970	6.27493	-3.90834	-0.09758
8994.479	-3.21735	5.47140	-4.02836	0.03882
8998.479	-2.74900	7.86846	-4.02263	0.10488
9002.475	-3.06956	7.60271	-4.02033	0.21737
9006.469	-3.57864	6.85068	-3.98687	0.32280
9010.478	-2.74551	9.72455	-4.06441	0.20878
9014.477	-3.05071	9.64026	-3.98953	0.26326
9018.476	-3.67376	9.45943	-4.02408	0.26218
9022.478	-2.54640	12.23258	-4.03636	0.22455
9026.479	-2.25090	1.02728	-4.05036	0.28165
9030.478	-2.30697	0.81799	-4.05327	0.42680
9034.473	-2.63314	0.75254	-4.12510	0.48716
9038.478	-2.68655	-0.76382	-2.75291	0.32611
9042.509	-2.83516	0.60203	-4.00000	-7.06146
9046.487	-2.50878	0.66169	-4.01260	-8.95092
9050.471	-2.92441	0.09612	-4.12303	-10.60238
9054.478	-2.98121	0.43722	-4.57766	-9.99525
9058.528	-3.10703	0.32139	-5.85274	-11.10185
9062.541	-3.01581	0.09618	-4.21461	-10.54923
9066.495	-2.88975	0.55947	-4.02534	-11.22386
9070.485	-2.91230	0.20452	-4.41761	-10.41433
9074.476	-2.92542	0.38979	-4.91809	-11.11253
9078.482	-3.01952	0.23765	-5.09217	-12.35255
9082.518	-3.01861	0.15522	-5.54358	-11.59867
9086.485	-3.05704	0.29687	-4.25314	-12.74441
9090.475	-3.02153	0.13432	-3.44659	-12.09817
9094.469	-2.98849	0.37865	-4.16107	-13.01020
9098.477	-2.68784	0.05051	-2.58086	-11.53825
9102.474	-0.13516	0.85199	-1.34894	-12.39061
9106.474	0.84590	0.87974	-1.22779	-10.73881
9110.474	1.54274	1.94089	-19.99372	-11.95959
9114.476	1.81823	2.24991	1.23035	-10.45636
9118.472	NaN	NaN	-19.99372	-11.99889
9122.473	NaN	NaN	-19.99372	-11.99869
9126.490	NaN	NaN	-19.99372	-12.04989
9130.476	NaN	NaN	-19.99372	-12.02074
9134.723	NaN	NaN	-19.99372	-12.06407
9138.960	NaN	NaN	-19.99372	-12.02467
9143.134	NaN	NaN	-19.99372	-12.04933
9147.334	NaN	NaN	-19.99372	-12.07664
9151.516	3.79119	2.61841	-19.99372	-12.07724
9155.740	4.13270	2.32889	-19.99372	-12.07724
9159.967	3.41521	1.96134	NaN	NaN
9164.197	3.07347	2.32463	-1.19735	-10.83899
9166.963	3.53597	2.55542	-1.33478	-12.45598
9170.484	2.73808	2.31402	-0.80268	-9.48151
9174.470	2.63955	2.27305	-0.00325	-9.61748
9178.467	2.77411	2.49777	0.21341	-10.22312
9182.468	2.91436	2.62886	-1.28152	-10.65810
9186.471	2.41613	2.45823	0.68005	3.21372
9190.469	2.68494	2.51012	2.27104	2.94013
9194.512	2.84957	2.64865	0.96078	2.95315
9198.476	2.74613	2.78922	1.50177	2.89222
9202.472	2.55116	2.81485	0.89237	2.88458
9206.468	2.62675	2.61037	1.65314	2.95414
9210.477	5.30547	7.94714	0.96494	2.88777
9214.476	5.71851	7.74470	1.36583	2.92653
9218.475	NaN	NaN	1.31612	3.04465
9222.469	NaN	NaN	1.39150	3.06212
9226.474	NaN	NaN	2.20751	3.01276
9230.476	2.90435	2.84051	-1.75979	-2.62708
9234.479	2.54908	2.97451	-1.09301	-3.57282
9238.465	2.40967	2.91384	-3.27076	-5.24253
9242.469	2.94324	2.63191	-2.76455	-3.82286
9246.466	2.35003	2.98035	-1.58656	-4.86092
9250.476	2.48849	2.88009	-0.78987	-3.48577
9254.490	3.23046	2.69643	-1.82854	-4.30519
9258.470	2.28784	2.72889	-3.20483	-5.09093
9262.517	2.57315	2.55759	-2.48606	-3.89976
9266.490	2.25256	2.57294	-3.67146	-4.71664
9270.492	2.67779	2.90301	-2.96881	-5.22023
9274.477	2.37307	2.68245	-3.96894	-5.94593
9278.474	3.70401	2.75276	-3.33520	-4.70788
9282.478	NaN	NaN	NaN	NaN
9286.469	NaN	NaN	NaN	NaN
9290.468	NaN	NaN	NaN	NaN
9294.468	NaN	NaN	NaN	NaN
9298.472	NaN	NaN	NaN	NaN
9302.943	NaN	NaN	NaN	NaN
9307.195	NaN	NaN	NaN	NaN
9311.351	NaN	NaN	NaN	NaN
9315.531	NaN	NaN	NaN	NaN
9319.940	NaN	NaN	NaN	NaN
9324.145	NaN	NaN	NaN	NaN
9329.202	NaN	NaN	NaN	NaN
9333.504	NaN	NaN	NaN	NaN
9337.766	NaN	NaN	NaN	NaN
9341.872	NaN	NaN	NaN	NaN
9346.094	NaN	NaN	NaN	NaN
9350.515	NaN	NaN	NaN	NaN
9354.753	NaN	NaN	NaN	NaN
9358.941	NaN	NaN	NaN	NaN
9363.019	NaN	NaN	NaN	NaN
9367.170	NaN	NaN	NaN	NaN
9371.310	NaN	NaN	NaN	NaN
9375.438	NaN	NaN	NaN	NaN
9379.519	NaN	NaN	NaN	NaN
9383.642	NaN	NaN	NaN	NaN
9387.825	NaN	NaN	NaN	NaN
9391.960	NaN	NaN	NaN	NaN
9397.053	NaN	NaN	NaN	NaN
9401.356	NaN	NaN	NaN	NaN
9405.526	NaN	NaN	NaN	NaN
9409.817	NaN	NaN	NaN	NaN
9414.071	NaN	NaN	NaN	NaN
9418.201	NaN	NaN	NaN	NaN
9422.429	NaN	NaN	NaN	NaN
9426.730	NaN	NaN	NaN	NaN
9430.918	NaN	NaN	NaN	NaN
9435.037	NaN	NaN	NaN	NaN
9439.183	NaN	NaN	NaN	NaN
9443.342	NaN	NaN	NaN	NaN
9447.441	NaN	NaN	NaN	NaN
9451.535	NaN	NaN	NaN	NaN
9455.736	NaN	NaN	NaN	NaN
9459.896	NaN	NaN	NaN	NaN
9464.910	NaN	NaN	NaN	NaN
9469.121	NaN	NaN	NaN	NaN
9473.311	NaN	NaN	NaN	NaN
9477.499	NaN	NaN	NaN	NaN
9481.661	NaN	NaN	NaN	NaN
9485.939	NaN	NaN	NaN	NaN
9490.145	NaN	NaN	NaN	NaN
9494.294	NaN	NaN	NaN	NaN
9498.484	NaN	NaN	NaN	NaN
9502.691	NaN	NaN	NaN	NaN
9506.892	NaN	NaN	NaN	NaN
9510.984	NaN	NaN	NaN	NaN
9515.117	NaN	NaN	NaN	NaN
9519.293	NaN	NaN	NaN	NaN
9523.585	NaN	NaN	NaN	NaN
9527.759	NaN	NaN	NaN	NaN
9532.832	NaN	NaN	NaN	NaN
9537.011	NaN	NaN	NaN	NaN
9541.119	NaN	NaN	NaN	NaN
9545.238	NaN	NaN	NaN	NaN
9549.367	NaN	NaN	NaN	NaN
9553.562	NaN	NaN	NaN	NaN
9558.049	NaN	NaN	NaN	NaN
9562.395	NaN	NaN	NaN	NaN
9566.683	NaN	NaN	NaN	NaN
9570.811	NaN	NaN	NaN	NaN
9574.957	NaN	NaN	NaN	NaN
9579.116	NaN	NaN	NaN	NaN
9583.270	NaN	NaN	NaN	NaN
9587.421	NaN	NaN	NaN	NaN
9591.539	NaN	NaN	NaN	NaN
9595.667	NaN	NaN	NaN	NaN
9600.720	NaN	NaN	NaN	NaN
9604.944	NaN	NaN	NaN	NaN
9609.145	NaN	NaN	NaN	NaN
9613.332	NaN	NaN	NaN	NaN
9617.558	NaN	NaN	NaN	NaN
9621.845	NaN	NaN	NaN	NaN
9626.071	NaN	NaN	NaN	NaN
9630.191	NaN	NaN	NaN	NaN
9634.412	NaN	NaN	NaN	NaN
9638.506	NaN	NaN	NaN	NaN
9642.685	NaN	NaN	NaN	NaN
9646.895	NaN	NaN	NaN	NaN
9651.013	NaN	NaN	NaN	NaN
9655.166	NaN	NaN	NaN	NaN
9659.397	NaN	NaN	NaN	NaN
9663.665	NaN	NaN	NaN	NaN
9668.743	NaN	NaN	NaN	NaN
9672.986	NaN	NaN	NaN	NaN
9677.108	NaN	NaN	NaN	NaN
9681.295	NaN	NaN	NaN	NaN
9811.369	NaN	NaN	NaN	NaN
9861.063	NaN	NaN	NaN	NaN
9911.167	NaN	NaN	NaN	NaN
9961.167	NaN	NaN	NaN	NaN
10028.865	NaN	NaN	NaN	NaN
10032.585	NaN	NaN	NaN	NaN
10036.579	NaN	NaN	NaN	NaN
10040.581	NaN	NaN	NaN	NaN
10044.577	NaN	NaN	NaN	NaN
10048.582	NaN	NaN	NaN	NaN
10052.579	NaN	NaN	NaN	NaN
10056.585	NaN	NaN	NaN	NaN
10060.582	NaN	NaN	NaN	NaN
10064.579	NaN	NaN	NaN	NaN
10068.572	NaN	NaN	NaN	NaN
10072.583	NaN	NaN	NaN	NaN
10076.578	NaN	NaN	NaN	NaN
10080.579	NaN	NaN	NaN	NaN
10084.634	NaN	NaN	NaN	NaN
10088.594	NaN	NaN	NaN	NaN
10092.581	NaN	NaN	NaN	NaN
10096.588	NaN	NaN	NaN	NaN
10100.584	NaN	NaN	NaN	NaN
10104.578	NaN	NaN	NaN	NaN
10108.577	NaN	NaN	NaN	NaN
10112.580	NaN	NaN	NaN	NaN
10116.582	NaN	NaN	NaN	NaN
10120.578	NaN	NaN	NaN	NaN
10124.577	-2.82026	12.61005	NaN	NaN
10128.597	NaN	NaN	NaN	NaN
10132.593	NaN	NaN	NaN	NaN
10136.584	NaN	NaN	NaN	NaN
10140.588	NaN	NaN	NaN	NaN
10144.605	NaN	NaN	NaN	NaN
10148.585	NaN	NaN	NaN	NaN
10152.583	NaN	NaN	NaN	NaN
10156.595	NaN	NaN	NaN	NaN
10160.579	NaN	NaN	NaN	NaN
10165.095	NaN	NaN	NaN	NaN
10168.752	NaN	NaN	NaN	NaN
10172.581	NaN	NaN	NaN	NaN
10176.607	NaN	NaN	NaN	NaN
10180.590	NaN	NaN	NaN	NaN
10184.588	NaN	NaN	NaN	NaN
10188.586	NaN	NaN	NaN	NaN
10192.648	NaN	NaN	NaN	NaN
10196.606	NaN	NaN	NaN	NaN
10200.786	NaN	NaN	NaN	NaN
10205.035	5.56256	4.54787	-1.64340	-9.40954
10208.578	1.12117	12.19400	NaN	NaN
10212.580	4.98906	4.59227	-2.46870	-2.87191
10216.577	3.97948	4.85490	-6.41658	-3.30393
10220.588	3.04078	4.80844	-5.19022	12.72233
10224.585	0.83198	5.07782	-3.09589	8.94268
10228.579	0.46296	4.77476	-0.71630	7.71827
10232.582	0.41395	4.08128	2.03063	8.43071
10236.657	0.80151	4.80862	-5.06572	7.96262
10240.578	0.37903	4.39147	-4.98955	5.60880
10244.580	0.35516	4.49922	-4.92863	4.20407
10248.574	2.49676	4.54445	-3.36352	4.18380
10252.595	-0.03579	4.57855	-3.03068	4.39275
10256.587	4.23350	4.04741	-3.18554	3.84552
10260.582	4.96098	4.09381	-3.42240	2.97022
10264.579	4.33628	4.28301	-3.17433	2.75743
10268.595	3.95515	3.76759	-2.06602	3.72518
10272.585	4.53630	3.82978	-1.89652	3.75949
10276.585	3.87107	3.85693	-1.22452	4.38553
10280.582	3.44901	3.75194	1.79691	2.60194
10284.578	3.93816	3.44104	3.19820	1.89973
10288.579	3.48128	3.43016	2.86561	1.96809
10292.589	3.89589	3.25623	1.78845	1.50791
10296.579	3.97387	3.21009	4.29031	1.46244
10300.583	2.91577	3.31401	3.74330	1.28041
10304.591	2.78820	3.21156	1.92609	0.84831
10308.582	2.43402	3.41595	4.51060	0.47668
10312.591	2.96131	3.73625	6.23008	0.02621
10316.579	2.96616	3.75190	4.36370	-0.38283
10320.582	2.68368	3.77592	3.66901	4.05943
10324.583	3.20800	3.61664	3.41192	1.00572
10328.577	2.61711	3.86059	4.95960	-1.50943
10332.580	2.99727	3.89634	4.54957	-1.70512
10336.603	2.18067	3.94852	4.69906	-2.06817
10340.593	2.63165	3.55855	5.94487	-2.12175
10344.583	2.82011	3.64279	3.25159	4.86087
10348.577	2.36723	3.73553	3.74142	4.79913
10352.585	2.47529	3.50913	2.96728	4.74776
10356.580	2.86351	3.54041	2.80726	4.78935
10360.588	3.15654	3.55671	3.11794	4.62483
10364.576	2.40350	3.62476	3.13459	4.69114
10368.624	2.55824	3.46226	2.59517	4.81951
10372.582	2.78882	3.29038	2.87153	4.53865
10376.586	2.43060	3.27540	2.77270	4.81775
10380.600	2.25174	3.41729	2.82251	4.62207
10384.575	2.36210	3.41119	2.50764	4.87754
10388.583	2.97926	3.65194	2.69443	4.52347
10392.578	2.38866	3.19735	2.81117	4.48672
10396.574	2.42760	3.36335	2.53922	4.74547
10400.577	2.29565	3.47000	2.34597	4.50047
10404.590	2.24084	3.58672	2.45066	4.74155
10408.585	2.24837	3.17415	2.68425	4.79215
10412.573	2.18062	3.10978	3.05704	4.52983
10416.573	2.20577	3.28679	2.58469	4.70173
10420.575	2.18496	3.43704	2.48591	4.50928
10424.581	2.17978	3.50335	2.67021	4.43430
10428.576	2.31938	3.53654	2.69678	4.62204
10432.583	2.20399	3.44667	2.64923	4.24981
10436.633	2.12310	3.39274	2.52257	4.74109
10440.595	2.14724	3.59832	2.45879	4.56592
10444.576	2.09232	3.61104	2.70295	4.61703
10448.578	0.73469	14.72503	2.36143	4.42312
10452.579	-1.79745	12.90277	2.51044	3.94890
10456.582	NaN	NaN	NaN	NaN
10460.576	2.82286	0.72696	NaN	NaN
10464.583	1.95304	1.12646	3.42371	-12.78569
10468.575	1.83863	1.79672	2.95200	-13.48197
10472.579	2.10161	1.88755	2.35932	-14.50576
10476.578	2.00723	1.93599	1.97158	-14.84487
10480.575	2.30496	1.94925	-19.99372	-12.14214
10484.572	2.27171	2.56227	4.17813	-14.02300
10488.578	2.16741	2.12013	2.37481	-14.73757
10492.582	2.39832	2.34860	-19.99372	-12.17644
10496.580	2.04161	2.15437	-19.99372	-12.16015
10500.573	2.56107	2.03868	-19.99372	-12.15698
10504.600	1.93214	2.21188	-19.99372	-12.15341
10508.577	2.41546	2.21952	-19.99372	-12.15618
10512.577	2.37017	2.22480	-19.99372	-12.11451
10516.584	2.45413	2.14769	-19.99372	-12.10618
10520.574	NaN	NaN	-19.99372	-12.10147
10524.589	NaN	NaN	-19.99372	-12.10031
10528.569	NaN	NaN	-19.99372	-12.07917
10532.572	NaN	NaN	NaN	NaN
10536.571	NaN	NaN	NaN	NaN
10540.775	NaN	NaN	NaN	NaN
10545.082	NaN	NaN	NaN	NaN
10549.226	NaN	NaN	NaN	NaN
10553.410	NaN	NaN	NaN	NaN
10557.618	NaN	NaN	NaN	NaN
10561.896	NaN	NaN	NaN	NaN
10566.127	NaN	NaN	1.76001	1.62304
10571.305	NaN	NaN	2.00755	1.67512
10574.083	NaN	NaN	1.90415	1.73936
10576.778	NaN	NaN	1.78605	1.76322
10580.448	NaN	NaN	2.15247	1.78936
10584.569	NaN	NaN	2.23043	1.81729
10588.450	NaN	NaN	2.08575	1.70386
10592.439	NaN	NaN	2.30261	1.78238
10596.470	NaN	NaN	2.34032	1.78533
10600.447	NaN	NaN	2.47224	1.81244
10604.456	NaN	NaN	2.33222	1.74409
10608.449	NaN	NaN	2.10922	1.77343
10612.446	NaN	NaN	2.33492	1.94055
10616.451	-1.89082	13.38179	2.57043	1.80588
10620.447	-1.62859	13.40610	2.58690	1.60819
10624.459	-1.04605	13.34967	2.36324	1.67430
10628.446	-2.09698	10.66056	2.67883	1.64346
10632.457	3.93453	2.64788	3.57070	2.41245
10636.445	4.75598	2.73153	4.86014	1.76224
10640.455	5.38007	3.26872	6.48521	2.57850
10644.461	8.08993	3.18271	8.01438	3.03500
10648.452	9.17549	3.24495	7.99121	3.05002
10652.451	9.01302	3.41086	7.53391	3.01872
10656.447	9.07849	3.38616	9.38892	3.19640
10660.447	9.19469	3.18953	9.73352	2.82950
10664.453	9.10502	3.51777	8.62006	2.75029
10668.448	8.78050	3.76869	7.69800	3.09587
10672.444	8.74229	3.23422	8.43501	2.93206
10676.449	8.66891	3.47222	8.14008	3.38592
10680.452	8.74001	3.73017	8.85538	2.93568
10684.451	8.84772	3.71158	8.62722	3.31621
10688.455	8.96157	3.30418	8.81954	3.16466
10692.473	9.07506	3.07853	8.74937	3.03917
10696.447	9.14702	3.28719	8.83953	2.98256
10700.455	8.97022	3.42704	8.66515	3.30692
10704.450	6.30382	3.16523	8.66067	3.11421
10708.471	6.13032	1.67688	8.37009	3.27097
10712.510	6.31627	2.89879	8.50581	3.16914
10716.445	8.14750	2.88634	8.39353	3.31434
10720.447	8.98852	3.74002	8.45662	3.20882
10724.440	8.88663	3.08020	8.48012	3.17672
10728.469	9.17969	2.82654	7.81629	4.01060
10732.457	9.35003	3.87481	7.89566	6.52108
10736.445	9.00314	3.43492	7.63169	5.80497
10740.445	8.71756	3.00678	7.91329	2.54169
10744.446	9.09255	3.12618	8.60220	3.92831
10748.445	9.50938	2.96606	9.23947	3.57694
10752.448	8.69700	2.92970	9.50197	3.54348
10756.450	8.78629	2.95977	9.61173	3.41138
10760.445	10.26117	3.09768	9.86042	3.10308
10764.459	NaN	NaN	NaN	NaN
10768.450	NaN	NaN	NaN	NaN
10772.446	NaN	NaN	NaN	NaN
10776.984	NaN	NaN	NaN	NaN
10781.172	NaN	NaN	NaN	NaN
10785.360	NaN	NaN	NaN	NaN
10789.564	NaN	NaN	NaN	NaN
10793.742	NaN	NaN	NaN	NaN
10797.977	NaN	NaN	NaN	NaN
10802.156	NaN	NaN	NaN	NaN
10806.274	NaN	NaN	NaN	NaN
10810.414	NaN	NaN	NaN	NaN
10814.550	NaN	NaN	NaN	NaN
10818.764	NaN	NaN	NaN	NaN
10822.940	NaN	NaN	NaN	NaN
10827.118	NaN	NaN	NaN	NaN
10831.299	NaN	NaN	NaN	NaN
10835.600	NaN	NaN	NaN	NaN
10839.849	NaN	NaN	NaN	NaN
10844.972	NaN	NaN	NaN	NaN
10849.374	NaN	NaN	7.04296	10.97677
10852.464	11.37896	3.25226	9.14868	9.55410
10856.449	10.40694	3.18333	8.29574	9.74896
10860.443	NaN	NaN	9.39762	9.47238
10864.454	NaN	NaN	9.02842	9.24357
10868.452	NaN	NaN	10.11154	11.95015
10872.448	10.73468	3.33055	9.94587	11.52164
10876.444	9.93874	3.27131	8.49085	11.93103
10880.441	NaN	NaN	NaN	NaN
10884.442	9.68505	3.29286	8.86892	10.46554
10888.449	8.73817	3.17013	6.95257	10.39964
10892.446	6.77966	3.19627	3.55849	11.06480
10896.453	6.48977	4.00037	NaN	NaN
10900.448	5.54253	4.54507	NaN	NaN
10904.451	2.28886	6.04995	NaN	NaN
10908.449	NaN	NaN	NaN	NaN
10912.446	NaN	NaN	NaN	NaN
10916.445	NaN	NaN	NaN	NaN
10920.447	NaN	NaN	NaN	NaN
10924.445	NaN	NaN	NaN	NaN
10928.652	NaN	NaN	NaN	NaN
10932.877	NaN	NaN	NaN	NaN
10937.053	NaN	NaN	NaN	NaN
10941.231	NaN	NaN	NaN	NaN
10945.365	NaN	NaN	NaN	NaN
10949.591	NaN	NaN	NaN	NaN
10953.869	NaN	NaN	NaN	NaN
10958.024	NaN	NaN	NaN	NaN
10962.185	NaN	NaN	NaN	NaN
10966.353	NaN	NaN	NaN	NaN
10970.613	NaN	NaN	NaN	NaN
10974.824	NaN	NaN	NaN	NaN
10979.951	NaN	NaN	NaN	NaN
10984.308	NaN	NaN	NaN	NaN
10988.567	NaN	NaN	NaN	NaN
10992.890	NaN	NaN	0.05718	9.49076
10997.175	1.02645	-7.87229	0.29677	9.32042
11000.461	-0.78032	-7.63856	0.37953	8.25744
11004.442	-1.42407	-7.44079	0.34444	9.21093
11008.453	0.77379	-7.16347	-0.25582	8.75907
11012.441	-1.79480	-7.24141	0.16392	8.37240
11016.444	-1.56474	-7.88807	0.02420	8.61144
11020.474	NaN	NaN	1.51333	8.32945
11024.466	NaN	NaN	NaN	NaN
11028.439	NaN	NaN	1.42838	8.42102
11032.438	NaN	NaN	NaN	NaN
11036.441	NaN	NaN	NaN	NaN
11040.719	NaN	NaN	NaN	NaN
11044.929	NaN	NaN	1.18450	8.50128
11050.146	NaN	NaN	1.79703	8.63689
11054.484	NaN	NaN	0.28791	7.90233
11058.713	-4.44864	-7.71772	0.77734	7.90278
11061.433	-3.96928	-9.70861	1.43245	7.63124
11064.456	-3.78422	-9.46543	0.40100	7.83906
11068.445	-3.67247	-9.18073	1.13965	7.77078
11072.439	-3.32597	-7.90440	1.32215	7.56932
11076.440	-4.11984	-10.32567	1.26021	7.50075
11080.433	-4.26457	-9.70657	0.71920	7.60010
11084.452	-3.70643	-9.71956	0.88098	7.47697
11088.444	-3.61668	-9.22791	0.71494	7.43760
11092.445	-4.61361	-11.08306	1.19825	7.52053
11096.441	-4.50693	-10.71351	0.43142	7.55565
11100.455	2.15348	6.18537	1.23360	7.47824
11104.431	2.22485	6.19257	0.55632	7.46116
11108.450	1.06423	6.49805	0.94460	7.41414
11112.435	1.27331	6.51905	0.36901	7.35635
11116.443	1.64275	6.64006	0.06165	7.57339
11120.441	1.72840	6.64029	-0.02839	7.47540
11124.446	0.79905	6.67498	0.63580	7.48003
11128.440	0.92234	6.68062	0.49493	7.44657
11132.436	0.82719	6.67148	-0.43152	7.81879
11136.440	1.20961	6.69936	-0.76868	7.49892
11140.441	1.16855	6.60149	-0.20152	7.42809
11144.452	1.83387	6.70665	0.30744	7.36498
11148.449	0.91455	6.75339	0.53478	7.46319
11152.442	1.05441	6.74503	0.10597	7.78673
11156.455	0.92996	6.71110	0.06587	7.90698
11160.447	1.15228	6.72820	0.31890	7.75174
11164.437	1.14226	6.78112	0.37186	7.26209
11168.440	1.82462	6.76286	0.39725	7.57275
11172.463	1.30305	6.61906	0.51202	7.94390
11176.443	1.30417	6.70824	0.27287	7.90339
11180.436	1.19537	6.68153	0.19023	7.65306
11184.442	1.09959	6.69124	0.34796	7.98976
11188.915	1.12621	6.67035	0.36926	7.45436
11192.449	1.26282	6.62948	0.37313	8.01601
11196.431	1.16488	6.70969	0.43773	7.93799
11200.451	1.09884	6.86601	0.19978	8.01688
11204.438	1.15265	6.50649	0.52619	7.83888
11208.465	1.23171	6.55964	0.59754	7.89052
11212.441	1.12420	6.58267	0.28682	7.55401
11216.449	-1.92582	-0.40846	0.34077	7.41779
11220.436	-1.29916	-3.82813	0.26289	5.91330
11224.440	-0.90870	-4.30394	0.49205	5.20782
11228.440	-0.38583	-4.89456	0.42373	4.60025
11232.443	1.11065	3.71201	0.42070	4.58868
11236.436	1.07254	3.69733	0.70930	3.96608
11240.435	1.23779	2.90376	0.33062	3.01172
11244.439	1.02640	2.69530	0.53662	3.35733
11248.443	1.05768	3.20602	0.26704	4.42028
11252.436	0.90173	3.37857	0.44289	3.74520
11256.442	0.95638	3.58235	0.44728	4.43721
11260.435	0.97112	3.69963	0.39901	4.24935
11264.442	0.81133	3.63956	0.51892	4.11171
11268.441	1.12199	3.39825	0.72618	4.08435
11272.446	1.12045	3.39932	0.72441	4.31325
11276.453	1.06217	3.69546	0.44242	3.77130
11280.446	1.10720	3.67366	0.48448	4.03012
11284.434	1.04801	3.65941	0.61920	4.39203
11288.438	1.07289	3.69827	0.39737	4.42508
11292.441	1.04744	3.72945	0.34144	4.44075
11296.457	1.11598	3.74653	0.56183	4.53285
11300.439	1.77459	3.67736	0.59905	4.24801
11304.443	1.13906	3.71016	0.51761	4.61253
11308.440	1.15759	3.77290	0.30960	4.61905
11312.456	1.10256	3.83125	0.39646	4.60622
11316.440	2.46241	3.91245	0.36630	4.70653
11320.435	4.78294	-7.05596	0.44596	4.64993
11324.462	1.13717	-6.57928	0.28687	4.59412
11328.435	2.38727	3.89779	0.31905	4.52344
11332.455	2.65607	-10.43284	0.47609	4.61521
11336.442	3.45116	-9.73089	0.43256	4.55000
11340.432	1.34175	-8.59770	0.29845	4.65998
11344.440	2.49097	-10.74020	0.36970	4.41314
11348.440	4.00964	-13.64604	0.60895	4.44752
11352.446	3.94493	-11.66081	0.33151	4.52442
11356.439	2.38244	-13.99505	0.24770	4.60424
11360.437	3.02410	-13.27918	0.42447	4.44787
11364.441	3.67509	-14.20077	0.55568	4.48584
11368.432	1.49842	4.32455	0.53562	4.70388
11372.435	1.26401	4.28140	0.31682	4.63304
11376.447	1.29509	4.19559	0.39849	4.34786
11380.438	1.23925	4.30555	0.80915	4.75485
11384.428	1.19785	4.12944	0.78786	4.79800
11388.438	1.00276	3.79350	0.44604	4.71751
11392.518	1.04895	4.00348	0.42006	4.52011
11396.439	1.00067	4.16636	0.35030	4.29355
11400.450	0.92172	4.14078	0.46683	4.37458
11404.439	0.90458	4.05629	0.43743	4.36036
11408.429	0.90311	3.73441	-2.35816	14.75694
11412.441	0.88083	3.66387	NaN	NaN
11416.443	0.89297	3.59540	NaN	NaN
11420.437	0.86379	3.72049	NaN	NaN
11424.428	0.88729	3.62964	NaN	NaN
11428.319	1.09777	3.75203	NaN	NaN
11432.312	0.92495	3.51976	NaN	NaN
11436.321	0.96956	3.38311	NaN	NaN
11440.312	0.95125	3.43401	NaN	NaN
11444.313	1.02379	3.41465	NaN	NaN
11448.313	1.19934	3.27545	NaN	NaN
11452.310	1.13350	3.31084	NaN	NaN
11456.306	1.06222	3.36257	0.32687	14.84950
11460.325	1.08028	3.39263	NaN	NaN
11464.314	1.10507	3.32273	NaN	NaN
11468.308	1.00032	3.17289	NaN	NaN
11472.305	1.07061	3.28743	1.99392	14.59835
11476.312	1.17009	3.28487	1.28852	14.29472
11480.324	1.12464	3.36106	NaN	NaN
11484.318	1.13620	3.41237	NaN	NaN
11488.303	1.01131	3.35544	1.01568	4.04036
11492.311	1.08175	3.40298	0.69511	4.04534
11496.308	0.97286	3.55013	0.81731	4.22618
11500.325	1.14300	3.37919	1.02196	4.48954
11504.311	1.85118	3.46674	0.83875	4.18136
11508.306	-1.82576	-1.20238	0.60310	4.39476
11512.310	-3.30302	0.40161	0.77856	4.28407
11516.313	-2.03474	2.79428	0.81774	4.54093
11520.307	-1.30474	2.00813	0.96698	4.31348
11524.329	-2.46652	3.23347	-0.02732	4.39483
11528.311	-1.41358	2.48347	-0.69518	4.47132
11532.317	-2.31066	3.37021	-1.03213	4.38083
11536.319	-1.18956	4.81765	-2.97631	4.03521
11540.305	-2.23340	5.90426	-3.38657	4.46301
11544.310	-1.72359	7.57401	-4.08448	5.53609
11548.302	4.09876	5.53401	-3.13259	8.86863
11552.314	2.89510	4.42556	-3.85432	5.62110
11556.307	-1.79071	6.15740	-4.51196	8.04434
11560.309	3.18522	5.77811	8.60638	3.28165
11564.316	3.50971	5.38027	NaN	NaN
11568.313	-1.34341	4.80178	NaN	NaN
11572.306	4.72206	14.59340	NaN	NaN
11576.309	NaN	NaN	NaN	NaN
11580.305	NaN	NaN	NaN	NaN
11584.316	NaN	NaN	NaN	NaN
11588.309	NaN	NaN	NaN	NaN
11592.304	NaN	NaN	NaN	NaN
11596.586	NaN	NaN	NaN	NaN
11600.655	NaN	NaN	NaN	NaN
11604.558	NaN	NaN	NaN	NaN
11608.311	NaN	NaN	NaN	NaN
11612.329	NaN	NaN	NaN	NaN
11616.307	NaN	NaN	NaN	NaN
11620.312	NaN	NaN	NaN	NaN
11624.304	NaN	NaN	NaN	NaN
11628.303	NaN	NaN	NaN	NaN
11632.301	NaN	NaN	NaN	NaN
11636.312	NaN	NaN	NaN	NaN
11640.302	NaN	NaN	NaN	NaN
11644.306	NaN	NaN	NaN	NaN
11648.318	NaN	NaN	NaN	NaN
11652.311	NaN	NaN	NaN	NaN
11656.305	NaN	NaN	NaN	NaN
11660.358	NaN	NaN	NaN	NaN
11664.693	NaN	NaN	NaN	NaN
11668.890	NaN	NaN	NaN	NaN
11672.660	NaN	NaN	NaN	NaN
11676.748	NaN	NaN	NaN	NaN
11680.318	NaN	NaN	NaN	NaN
11684.311	NaN	NaN	NaN	NaN
11688.450	NaN	NaN	NaN	NaN
11692.622	NaN	NaN	NaN	NaN
11696.532	NaN	NaN	NaN	NaN
11700.718	NaN	NaN	NaN	NaN
11704.885	NaN	NaN	NaN	NaN
11708.903	NaN	NaN	NaN	NaN
11712.965	NaN	NaN	NaN	NaN
11716.952	NaN	NaN	NaN	NaN
11720.790	NaN	NaN	NaN	NaN
11724.816	NaN	NaN	NaN	NaN
11728.493	NaN	NaN	NaN	NaN
11732.945	NaN	NaN	NaN	NaN
11736.776	NaN	NaN	NaN	NaN
11740.884	NaN	NaN	NaN	NaN
11744.624	NaN	NaN	NaN	NaN
11748.719	NaN	NaN	NaN	NaN
11752.310	NaN	NaN	NaN	NaN
11756.366	NaN	NaN	NaN	NaN
11760.536	NaN	NaN	NaN	NaN
11764.305	NaN	NaN	NaN	NaN
11768.309	NaN	NaN	NaN	NaN
11772.587	NaN	NaN	NaN	NaN
11776.717	NaN	NaN	NaN	NaN
11780.827	5.84915	7.52720	NaN	NaN
11785.120	5.71222	5.06465	NaN	NaN
11789.235	17.41630	5.24869	NaN	NaN
11793.036	7.83210	4.59832	NaN	NaN
11797.287	5.89021	4.43420	NaN	NaN
11802.449	5.72256	5.04800	8.81329	12.52779
11806.827	8.26653	6.21381	9.59086	12.39063
11811.071	5.60809	6.14318	9.06731	10.08024
11815.275	NaN	NaN	8.60827	9.63574
11819.450	7.95611	4.69641	6.58171	9.77123
11823.686	6.88913	4.69360	6.49560	6.87079
11827.866	NaN	NaN	7.12417	7.01389
11832.066	NaN	NaN	6.75761	12.34366
11836.267	NaN	NaN	6.91796	9.66567
11840.334	NaN	NaN	5.93893	9.01761
11844.299	NaN	NaN	NaN	NaN
11848.310	NaN	NaN	NaN	NaN
11852.310	NaN	NaN	NaN	NaN
11856.353	NaN	NaN	NaN	NaN
11860.310	NaN	NaN	NaN	NaN
11864.325	NaN	NaN	NaN	NaN
11868.871	NaN	NaN	NaN	NaN
11872.581	NaN	NaN	NaN	NaN
11876.308	NaN	NaN	NaN	NaN
11880.311	NaN	NaN	NaN	NaN
11884.300	NaN	NaN	NaN	NaN
11888.303	NaN	NaN	NaN	NaN
11892.314	NaN	NaN	NaN	NaN
11896.309	NaN	NaN	NaN	NaN
11900.321	NaN	NaN	NaN	NaN
11904.303	NaN	NaN	NaN	NaN
11908.313	NaN	NaN	NaN	NaN
11912.308	NaN	NaN	NaN	NaN
11916.296	NaN	NaN	NaN	NaN
11920.302	NaN	NaN	NaN	NaN
11924.315	NaN	NaN	NaN	NaN
11928.301	NaN	NaN	NaN	NaN
11932.297	NaN	NaN	NaN	NaN
11936.874	NaN	NaN	NaN	NaN
11941.381	NaN	NaN	NaN	NaN
11945.169	NaN	NaN	NaN	NaN
11948.493	NaN	NaN	NaN	NaN
11952.307	NaN	NaN	NaN	NaN
11956.312	NaN	NaN	NaN	NaN
11960.299	NaN	NaN	NaN	NaN
11964.298	NaN	NaN	NaN	NaN
11968.294	NaN	NaN	NaN	NaN
11972.294	NaN	NaN	NaN	NaN
11976.298	NaN	NaN	NaN	NaN
11980.297	NaN	NaN	NaN	NaN
12109.172	NaN	NaN	NaN	NaN
12176.699	4.74580	3.13753	2.08064	0.43072
12180.761	4.62927	3.02585	2.41742	0.44030
12184.437	4.47888	2.86652	3.08706	0.07250
12188.420	4.45261	2.72600	3.59419	0.02244
12192.424	4.52513	2.63328	2.58824	-0.10967
12196.421	4.38001	2.51581	2.70527	0.09983
12200.426	4.00455	2.81304	3.46165	0.08319
12204.420	4.01337	2.76350	2.57219	0.13206
12208.423	3.58524	2.65045	2.42418	0.40559
12212.421	3.87173	2.52239	2.98062	0.03253
12216.422	3.98398	2.44562	2.99549	0.10068
12220.415	3.83586	2.58463	2.57073	0.53115
12224.428	3.64748	2.37694	3.17094	0.01481
12228.422	3.58742	2.34536	2.51928	0.35383
12232.421	3.34893	2.50465	2.77099	0.50622
12236.414	3.56101	2.43790	2.94176	0.27948
12240.423	3.42376	2.53134	2.58328	0.28098
12244.418	3.69271	2.61133	2.55963	0.60686
12248.426	3.40791	2.49648	2.70582	0.70824
12252.420	3.63992	2.40763	2.47093	0.68690
12256.415	3.33131	2.50390	2.67058	0.73440
12260.421	3.66113	2.58779	2.56025	0.85586
12264.463	3.50739	2.77374	2.49424	0.90636
12268.437	3.41958	2.86615	2.63517	0.86784
12272.451	3.19298	2.61973	2.65265	0.51689
12276.443	3.13427	2.47200	2.61927	0.30421
12280.426	3.15251	2.73672	2.57266	0.07137
12284.422	2.83992	2.50875	3.02242	-0.12196
12288.417	3.26537	2.63514	2.54207	-0.20274
12292.420	3.14033	2.39350	2.64260	0.33240
12296.424	3.40514	2.73788	2.69274	0.01397
12300.419	3.03972	2.42213	2.59388	0.46752
12304.439	3.17628	2.71492	2.62110	0.16731
12308.423	2.75485	2.63752	2.63324	0.30599
12312.422	2.92384	2.49992	2.51083	0.28834
12316.429	2.97332	2.77565	2.41182	-0.01351
12320.422	2.82125	2.63776	2.46474	0.29662
12324.418	3.03754	2.78739	2.19859	0.29544
12328.422	2.80033	2.52714	2.31334	0.36853
12332.413	2.86816	2.65133	2.17834	0.36603
12336.425	2.95002	2.53268	2.15750	0.48979
12340.417	2.89992	2.94001	1.99840	0.43064
12344.421	2.92406	2.69295	1.88016	0.43417
12348.420	2.87732	2.56311	1.87508	0.51071
12352.421	2.92782	3.04210	1.89379	0.40384
12356.416	2.52755	2.94490	1.85720	0.38749
12360.423	2.67177	2.79303	1.83224	0.43262
12364.416	2.66994	2.64560	1.69247	0.36497
12368.417	2.75202	2.83484	1.73708	0.46858
12372.419	2.91480	2.70433	1.69634	0.58822
12376.459	2.89096	2.73569	1.62205	0.71166
12380.429	2.78109	2.71312	1.67142	0.54705
12384.421	2.79689	2.79638	1.60290	0.52435
12388.416	2.74534	2.92886	1.62512	0.45827
12392.423	2.56897	2.99977	1.62604	0.32514
12396.416	2.57456	2.77906	1.59217	0.67637
12400.418	2.69066	2.82461	1.63172	0.60404
12404.291	2.74767	2.85976	1.56109	0.51186
12408.299	2.46709	2.82251	1.59135	0.56292
12412.291	2.64792	2.79670	1.69517	0.65990
12416.296	2.63504	2.82694	1.77023	0.57226
12420.291	2.47130	2.89231	1.67831	0.49152
12424.301	2.67855	2.92516	1.73770	0.53544
12428.291	2.48277	2.79454	1.74380	0.43969
12432.293	2.60835	2.85622	1.89389	0.52995
12436.288	2.30003	2.74237	1.78148	0.55805
12440.303	0.86441	2.69719	1.62108	0.44583
12444.291	-0.16263	2.61333	0.89488	-0.20272
12448.290	-2.32028	1.35565	-0.29451	-1.17990
12452.860	-3.13595	0.70058	-1.58475	-1.66510
12456.313	-3.32031	1.07545	-2.05987	-0.71215
12460.294	-3.23591	0.69426	-2.38898	-0.86855
12464.294	-3.00797	2.05303	-2.57521	-0.46072
12468.291	-2.47660	1.57255	-2.68115	-1.01797
12472.293	-2.35625	1.80332	-2.84086	-0.63647
12476.330	-2.47108	0.75924	-2.91973	-0.62303
12480.305	-2.49349	1.12801	-2.85789	-0.66778
12484.293	-2.62831	2.11136	-3.08330	-0.99292
12488.289	-2.61701	1.99225	-3.00160	-0.93019
12492.311	-2.39631	2.06529	-3.25347	-0.85161
12496.288	-2.00539	2.04823	-3.14476	-0.81464
12500.293	-2.90809	2.10048	-3.21466	-0.86871
12504.290	-2.72857	1.79248	-3.37198	-0.84164
12508.315	-2.45644	1.65697	-3.45294	-0.79157
12512.288	-3.48002	1.05891	-3.36473	-0.75452
12516.292	-2.82212	0.13670	-3.48756	-0.75055
12520.323	-2.48975	1.73144	-3.43400	-0.80885
12524.305	-2.84727	1.78353	-3.54442	-0.83087
12528.293	-2.71231	1.60485	-3.57926	-0.82955
12532.289	-2.48450	1.12997	-3.54717	-0.87411
12536.290	-3.96992	-2.51769	-3.56794	-0.77327
12540.286	-2.59567	1.43066	-3.58774	-0.77685
12544.293	-4.38511	-1.33932	-3.63883	-0.63230
12548.288	-3.84325	-3.22084	-3.71528	-0.68754
12552.288	-2.68019	-3.02386	-3.59987	-0.64473
12556.295	-4.05552	-2.69020	-3.70485	-0.66937
12560.328	-2.89378	1.57517	-3.65359	-0.64370
12564.305	-2.60129	1.45941	-3.62215	-0.64764
12568.291	-2.76019	1.62274	-3.67571	-0.65045
12572.286	-2.85757	1.64160	-3.55612	-0.61793
12576.295	-2.64666	0.91620	-3.58057	-0.54617
12580.288	-2.67967	1.04464	-3.65381	-0.50851
12584.290	-2.56012	0.93468	-3.59152	-0.50681
12588.295	-2.59017	1.66580	-3.64714	-0.47580
12592.287	-2.75715	1.62850	-3.62803	-0.41551
12596.290	-2.62303	1.53259	-3.64741	-0.35918
12600.285	-2.80419	-0.89519	-3.64612	-0.31303
12604.295	-2.55049	-3.73576	-3.67205	-0.28738
12608.292	-1.75838	-3.18146	-3.62613	-0.29543
12612.291	-2.78362	-2.04436	-3.77379	-0.29186
12616.286	-2.29560	-4.47713	-3.78393	-0.12229
12620.290	-1.37394	-3.59330	-3.70586	-0.20135
12624.289	-2.47246	-5.53110	-3.81585	-0.25141
12628.289	-1.77717	-5.35901	-3.71997	-0.12981
12632.290	NaN	NaN	NaN	NaN
12636.286	NaN	NaN	NaN	NaN
12640.289	NaN	NaN	NaN	NaN
12644.293	NaN	NaN	NaN	NaN
12648.399	NaN	NaN	NaN	NaN
12652.501	NaN	NaN	NaN	NaN
12657.651	NaN	NaN	NaN	NaN
12661.956	NaN	NaN	NaN	NaN
12666.104	NaN	NaN	NaN	NaN
12670.191	NaN	NaN	NaN	NaN
12674.287	NaN	NaN	NaN	NaN
12678.336	NaN	NaN	NaN	NaN
12682.381	NaN	NaN	NaN	NaN
12686.495	NaN	NaN	NaN	NaN
12690.550	-2.12025	-14.07345	-1.79686	0.76441
12693.353	-2.97515	-14.29259	-3.08609	1.21110
12696.307	-19.99372	-12.09522	-2.38789	1.37037
12700.292	-19.99372	-12.09502	NaN	NaN
12704.286	-19.99372	-12.09473	NaN	NaN
12708.291	-19.99372	-12.09437	NaN	NaN
12712.294	-19.99372	-12.09392	NaN	NaN
12716.433	-19.99372	-12.09339	NaN	NaN
12720.452	-19.99372	-12.09281	NaN	NaN
12725.399	-19.99372	-12.09216	NaN	NaN
12729.616	-19.99372	-12.09149	NaN	NaN
12733.826	-19.99372	-12.08379	NaN	NaN
12737.785	NaN	NaN	NaN	NaN
12741.783	NaN	NaN	NaN	NaN
12745.943	NaN	NaN	NaN	NaN
12749.951	NaN	NaN	NaN	NaN
12754.121	NaN	NaN	NaN	NaN
12758.110	NaN	NaN	NaN	NaN
12762.269	NaN	NaN	NaN	NaN
12766.248	NaN	NaN	NaN	NaN
12770.299	NaN	NaN	NaN	NaN
12774.442	NaN	NaN	NaN	NaN
12778.530	NaN	NaN	NaN	NaN
12782.590	NaN	NaN	NaN	NaN
12786.641	NaN	NaN	NaN	NaN
12792.600	NaN	NaN	NaN	NaN
12796.814	NaN	NaN	NaN	NaN
12800.975	NaN	NaN	NaN	NaN
12804.954	NaN	NaN	NaN	NaN
12809.004	NaN	NaN	NaN	NaN
12813.115	NaN	NaN	NaN	NaN
12817.112	NaN	NaN	NaN	NaN
12821.190	NaN	NaN	NaN	NaN
12825.222	NaN	NaN	NaN	NaN
12829.360	NaN	NaN	NaN	NaN
12833.485	NaN	NaN	NaN	NaN
12837.679	NaN	NaN	NaN	NaN
12841.826	NaN	NaN	NaN	NaN
12845.832	NaN	NaN	NaN	NaN
12849.858	NaN	NaN	NaN	NaN
12854.017	NaN	NaN	NaN	NaN
12858.995	NaN	NaN	NaN	NaN
12863.271	NaN	NaN	NaN	NaN
12867.475	NaN	NaN	NaN	NaN
12871.548	NaN	NaN	NaN	NaN
12875.706	NaN	NaN	NaN	NaN
12879.920	NaN	NaN	NaN	NaN
12883.993	NaN	NaN	NaN	NaN
12888.089	NaN	NaN	NaN	NaN
12892.220	NaN	NaN	NaN	NaN
12896.347	NaN	NaN	NaN	NaN
12900.487	NaN	NaN	NaN	NaN
12904.656	NaN	NaN	NaN	NaN
12908.741	NaN	NaN	NaN	NaN
12912.936	NaN	NaN	NaN	NaN
12917.076	NaN	NaN	NaN	NaN
12921.202	NaN	NaN	NaN	NaN
12926.223	NaN	NaN	NaN	NaN
12930.506	NaN	NaN	NaN	NaN
12934.677	NaN	NaN	NaN	NaN
12938.737	NaN	NaN	NaN	NaN
12942.909	NaN	NaN	NaN	NaN
12947.057	NaN	NaN	NaN	NaN
12951.134	NaN	NaN	NaN	NaN
12955.220	NaN	NaN	NaN	NaN
12959.311	NaN	NaN	NaN	NaN
12963.456	NaN	NaN	NaN	NaN
12967.545	NaN	NaN	NaN	NaN
12971.623	NaN	NaN	NaN	NaN
12975.749	NaN	NaN	NaN	NaN
12979.915	NaN	NaN	NaN	NaN
12984.147	NaN	NaN	NaN	NaN
12988.261	NaN	NaN	NaN	NaN
12993.295	NaN	NaN	NaN	NaN
12997.492	NaN	NaN	NaN	NaN
13001.618	NaN	NaN	NaN	NaN
13005.642	NaN	NaN	NaN	NaN
13009.763	NaN	NaN	NaN	NaN
13013.748	NaN	NaN	NaN	NaN
13017.655	NaN	NaN	NaN	NaN
13021.504	NaN	NaN	NaN	NaN
13025.392	NaN	NaN	NaN	NaN
13029.192	NaN	NaN	NaN	NaN
13033.017	NaN	NaN	NaN	NaN
13036.864	NaN	NaN	NaN	NaN
13040.677	NaN	NaN	NaN	NaN
13044.445	NaN	NaN	NaN	NaN
13048.278	NaN	NaN	NaN	NaN
13052.292	NaN	NaN	NaN	NaN
13056.289	NaN	NaN	NaN	NaN
13061.122	NaN	NaN	NaN	NaN
13065.136	NaN	NaN	NaN	NaN
13068.869	NaN	NaN	NaN	NaN
13072.660	NaN	NaN	NaN	NaN
13076.279	NaN	NaN	NaN	NaN
13080.291	NaN	NaN	NaN	NaN
13084.284	NaN	NaN	NaN	NaN
13088.295	NaN	NaN	NaN	NaN
13092.277	NaN	NaN	NaN	NaN
13096.276	NaN	NaN	NaN	NaN
13245.121	NaN	NaN	NaN	NaN
13294.876	NaN	NaN	NaN	NaN
13344.986	NaN	NaN	NaN	NaN
13394.987	NaN	NaN	NaN	NaN
13444.976	NaN	NaN	NaN	NaN
13494.978	NaN	NaN	NaN	NaN
13544.991	NaN	NaN	NaN	NaN
13595.107	NaN	NaN	NaN	NaN
13645.102	NaN	NaN	NaN	NaN
13695.157	NaN	NaN	NaN	NaN
13745.113	NaN	NaN	NaN	NaN
13795.097	NaN	NaN	NaN	NaN
13845.099	NaN	NaN	NaN	NaN
13895.218	NaN	NaN	NaN	NaN
13945.240	NaN	NaN	NaN	NaN
13995.219	NaN	NaN	NaN	NaN
14045.221	NaN	NaN	NaN	NaN
14095.240	NaN	NaN	NaN	NaN
14145.371	NaN	NaN	NaN	NaN
14195.361	NaN	NaN	NaN	NaN
14245.365	NaN	NaN	NaN	NaN
14295.363	NaN	NaN	NaN	NaN
14363.169	7.82998	6.71715	9.50846	13.59839
14367.323	6.41381	3.01217	7.97680	12.82597
14370.905	NaN	NaN	6.86053	12.22464
14374.880	3.14711	4.42017	5.74355	9.11560
14378.881	0.60431	2.93206	-1.83422	5.46597
14382.882	NaN	NaN	5.02514	8.18209
14386.912	NaN	NaN	3.23747	4.66637
14390.892	NaN	NaN	-1.62185	4.63808
14394.885	NaN	NaN	3.57189	4.64933
14398.879	NaN	NaN	2.26879	3.51784
14402.901	NaN	NaN	NaN	NaN
14406.891	NaN	NaN	2.08934	4.97495
14410.910	NaN	NaN	0.35573	4.80470
14414.887	NaN	NaN	3.62472	4.81601
14418.886	NaN	NaN	NaN	NaN
14422.881	NaN	NaN	NaN	NaN
14426.878	NaN	NaN	NaN	NaN
14430.877	NaN	NaN	3.85108	4.72860
14434.934	NaN	NaN	2.95829	5.31499
14438.885	NaN	NaN	2.31812	5.38116
14442.888	NaN	NaN	3.06946	5.78636
14446.879	NaN	NaN	NaN	NaN
14450.883	NaN	NaN	NaN	NaN
14454.908	NaN	NaN	NaN	NaN
14458.915	NaN	NaN	NaN	NaN
14463.159	NaN	NaN	NaN	NaN
14467.338	NaN	NaN	NaN	NaN
14471.486	NaN	NaN	NaN	NaN
14475.740	NaN	NaN	NaN	NaN
14479.920	NaN	NaN	NaN	NaN
14484.081	NaN	NaN	NaN	NaN
14488.204	NaN	NaN	NaN	NaN
14492.422	NaN	NaN	NaN	NaN
14496.573	NaN	NaN	NaN	NaN
14501.763	NaN	NaN	NaN	NaN
14505.959	NaN	NaN	NaN	NaN
14510.166	NaN	NaN	NaN	NaN
14514.370	NaN	NaN	NaN	NaN
14518.537	NaN	NaN	NaN	NaN
14522.707	NaN	NaN	NaN	NaN
14526.880	NaN	NaN	NaN	NaN
14531.062	NaN	NaN	NaN	NaN
14535.195	NaN	NaN	NaN	NaN
14539.312	NaN	NaN	NaN	NaN
14543.407	NaN	NaN	NaN	NaN
14547.535	NaN	NaN	NaN	NaN
14551.663	NaN	NaN	NaN	NaN
14555.948	NaN	NaN	NaN	NaN
14560.187	NaN	NaN	NaN	NaN
14564.508	NaN	NaN	NaN	NaN
14569.508	NaN	NaN	NaN	NaN
14573.718	NaN	NaN	2.88943	3.50391
14576.359	NaN	NaN	2.91936	3.62013
14579.007	NaN	NaN	2.79498	3.88337
14582.764	NaN	NaN	2.68120	3.59167
14586.754	NaN	NaN	2.82581	3.71309
14590.906	NaN	NaN	NaN	NaN
14598.758	NaN	NaN	2.81531	3.56311
14602.755	NaN	NaN	2.87631	3.63419
14606.751	NaN	NaN	2.82843	3.77207
14610.752	NaN	NaN	2.75539	3.92390
14614.768	NaN	NaN	2.78159	3.96489
14618.763	NaN	NaN	2.74913	4.02611
14622.760	NaN	NaN	2.72865	4.15476
14626.749	NaN	NaN	2.73038	4.13107
14630.750	NaN	NaN	2.82660	3.98247
14634.748	NaN	NaN	2.88903	4.20482
14638.774	NaN	NaN	2.81927	4.21915
14642.759	NaN	NaN	2.77582	4.10694
14646.756	NaN	NaN	2.77763	4.15597
14650.784	NaN	NaN	2.84853	4.29545
14654.756	NaN	NaN	2.95728	4.28024
14658.747	NaN	NaN	2.93277	4.19212
14662.770	NaN	NaN	3.19261	4.13785
14666.774	NaN	NaN	3.32197	4.10664
14670.750	NaN	NaN	3.16955	4.24305
14674.748	NaN	NaN	3.08525	4.32686
14678.749	NaN	NaN	3.02036	4.26854
14682.753	NaN	NaN	2.92693	4.18005
14686.754	NaN	NaN	3.14768	3.99077
14690.748	NaN	NaN	2.93616	4.26487
14694.775	NaN	NaN	2.86316	4.15293
14698.755	NaN	NaN	2.94891	3.97506
14702.771	NaN	NaN	2.82019	3.97385
14706.778	NaN	NaN	2.70010	4.16849
14710.754	NaN	NaN	2.69009	3.94234
14714.752	NaN	NaN	2.53313	3.58497
14718.752	NaN	NaN	1.67209	3.43033
14722.747	NaN	NaN	1.92054	2.77720
14726.749	NaN	NaN	1.62259	2.04948
14730.750	NaN	NaN	1.72525	2.09186
14734.746	NaN	NaN	1.99662	2.94858
14738.751	NaN	NaN	1.81282	2.69582
14742.770	NaN	NaN	1.98043	2.24271
14746.767	NaN	NaN	1.67301	2.11169
14750.747	NaN	NaN	1.61280	2.57547
14754.749	NaN	NaN	1.56144	2.83755
14758.747	NaN	NaN	1.50609	2.78524
14762.749	NaN	NaN	1.58919	2.47095
14766.749	NaN	NaN	1.47010	2.56828
14770.750	NaN	NaN	1.57808	2.59661
14774.768	NaN	NaN	1.50790	2.63563
14778.752	NaN	NaN	1.44393	2.42150
14782.753	NaN	NaN	1.43850	2.06109
14786.751	NaN	NaN	1.38654	2.41531
14790.756	NaN	NaN	1.38523	2.60581
14794.767	NaN	NaN	1.42657	2.65536
14798.762	NaN	NaN	1.39430	2.60763
14802.747	NaN	NaN	1.50162	2.49575
14806.749	NaN	NaN	1.35358	2.82329
14810.749	NaN	NaN	1.39897	2.90608
14814.747	NaN	NaN	1.32582	3.01117
14818.741	NaN	NaN	1.37776	2.53342
14822.751	NaN	NaN	2.24079	2.65250
14826.766	NaN	NaN	1.35363	2.76190
14830.768	NaN	NaN	1.25624	2.91950
14834.749	NaN	NaN	1.19968	2.64100
14838.746	NaN	NaN	1.25833	2.90210
14842.770	NaN	NaN	1.30278	2.97361
14846.759	NaN	NaN	2.84529	3.04126
14850.767	NaN	NaN	1.23496	3.03102
14854.747	NaN	NaN	NaN	NaN
14858.744	NaN	NaN	NaN	NaN
14862.747	NaN	NaN	NaN	NaN
14866.750	NaN	NaN	NaN	NaN
14870.751	NaN	NaN	NaN	NaN
14874.749	NaN	NaN	NaN	NaN
14878.740	NaN	NaN	NaN	NaN
14882.772	NaN	NaN	NaN	NaN
14886.772	NaN	NaN	NaN	NaN
14892.521	NaN	NaN	NaN	NaN
14895.570	NaN	NaN	NaN	NaN
14902.747	NaN	NaN	NaN	NaN
14906.754	NaN	NaN	NaN	NaN
14911.489	NaN	NaN	NaN	NaN
14915.524	NaN	NaN	10.50040	4.88924
14919.422	NaN	NaN	9.87531	4.99654
14923.239	NaN	NaN	9.82173	5.05331
14926.763	11.46516	3.47851	9.72110	5.03862
14930.757	11.08593	3.02158	9.92134	5.18192
14934.758	11.30099	3.16837	9.56948	5.21917
14938.745	10.93684	3.24373	9.68708	5.18362
14942.746	11.04448	3.12821	9.47449	5.12164
14946.739	11.04838	3.36434	9.31516	5.00258
14950.751	11.02636	3.44144	9.68766	4.97801
14954.751	10.97296	3.30532	9.51556	5.14235
14958.743	11.03267	3.54085	9.59245	5.05831
14962.748	10.88154	2.94316	9.61047	5.14012
14966.745	11.03741	3.35812	9.18850	5.11993
14970.743	10.99525	3.41879	9.13828	5.23677
14974.748	11.03227	3.40560	9.45843	5.05892
14978.817	10.95287	3.23057	9.45245	5.15360
14982.753	11.07338	3.45445	9.18337	5.13178
14986.756	11.09929	3.38390	9.54916	5.23673
14990.742	11.08925	3.46124	9.61532	5.04754
14994.742	11.05581	3.28281	9.55587	5.08715
14998.763	11.03196	2.95597	9.37008	5.07086
15002.757	11.00544	2.80383	9.65527	5.07373
15006.742	11.09975	3.06562	9.15502	5.21979
15010.743	11.03408	3.10828	9.46520	5.03730
15014.754	11.02791	2.98635	9.47507	4.83858
15018.755	10.88858	3.01837	9.62618	5.12552
15022.750	11.02956	3.19424	9.71160	10.42607
15026.745	10.94490	2.95981	10.20250	13.41139
15030.766	10.89468	2.91023	9.24789	13.47906
15034.763	11.00233	2.98675	11.30467	13.13760
15038.748	11.13155	3.16598	11.14096	12.66270
15042.742	11.08146	3.24088	12.42747	11.76279
15046.787	11.13463	3.36930	NaN	NaN
15050.750	12.50673	3.36997	NaN	NaN
15054.757	12.60604	3.23026	11.94812	10.20533
15058.742	12.79314	3.29508	12.21207	9.95581
15062.742	12.63234	3.28936	NaN	NaN
15066.752	12.86119	3.21127	NaN	NaN
15070.755	13.01117	3.20640	NaN	NaN
15074.749	13.05825	3.23477	NaN	NaN
15078.864	13.15117	3.24079	NaN	NaN
15082.991	13.08908	3.13467	10.82438	8.12264
15086.759	13.11344	2.99615	10.50777	7.93041
15090.830	12.86643	2.82455	11.37641	4.57360
15094.749	10.06434	2.81140	8.29304	6.49858
15098.742	7.51366	2.76895	8.03735	4.61985
15102.759	6.01841	2.00310	5.37743	2.97249
15106.759	4.18899	-0.74166	4.56188	1.45413
15110.742	NaN	NaN	NaN	NaN
15114.762	NaN	NaN	NaN	NaN
15118.767	5.40796	0.04663	NaN	NaN
15122.760	1.64952	-0.08020	0.10011	0.92187
15126.741	2.35900	0.51564	-0.26403	0.77698
15130.744	2.59024	0.52218	-0.48048	0.76379
15134.743	2.43798	1.49822	-0.21802	0.72833
15138.768	2.69148	1.15909	0.15263	0.62133
15142.751	2.87755	0.59528	0.33134	0.44789
15146.744	3.17581	0.50526	0.47413	1.80006
15150.742	2.79441	0.40269	0.54438	1.29642
15154.760	2.88871	0.49383	NaN	NaN
15158.754	2.78934	0.58798	-0.32111	0.94094
15162.746	2.82947	0.47937	-0.39365	0.51351
15166.746	2.88136	0.34888	0.97385	0.04701
15170.742	2.82236	0.47418	-0.21894	-0.15543
15174.742	2.78456	0.42265	0.26602	-0.33923
15178.734	2.84021	0.48333	0.59764	-0.56418
15182.744	2.79998	0.38906	0.83535	1.45326
15186.763	2.71637	0.42312	2.18027	0.57199
15190.757	2.62244	0.34017	1.43843	0.31004
15194.740	2.61872	0.25526	-0.50612	0.08277
15198.738	2.61350	0.25176	-0.00422	0.07880
15202.738	2.59765	0.29540	0.11292	-0.28845
15206.755	2.46317	0.21465	0.96561	-0.49439
15210.743	2.42661	0.19370	2.40845	-0.70575
15214.737	2.43580	0.11827	2.05402	1.27473
15218.743	2.41469	0.12649	0.25249	1.51608
15222.760	2.43417	0.04546	0.30195	1.47746
15226.742	2.38578	0.05556	0.60394	1.22359
15230.741	2.36673	-0.05293	1.45867	1.42390
15234.767	2.39743	-0.14929	0.26795	1.57353
15238.744	2.41222	-0.09588	0.56486	1.60372
15242.760	2.29565	-0.08740	0.96063	1.58127
15246.746	2.29480	-0.11670	1.80630	1.52852
15250.805	2.39014	-0.02756	0.45105	1.58939
15254.770	2.50670	0.03694	0.80729	1.49111
15258.743	2.30499	0.06885	1.44014	1.35740
15262.737	2.35667	0.13583	1.98742	1.11506
15266.742	2.37981	0.22566	0.93534	1.07148
15270.742	2.15046	0.09195	1.57855	0.77225
15274.740	2.33953	0.17355	1.95701	1.98610
15278.742	2.46924	0.12559	0.74923	2.23398
15282.742	2.02495	0.16122	1.23419	1.85947
15286.763	2.47938	0.25995	2.18820	1.44593
15290.756	2.31133	0.31031	0.85875	1.31365
15294.738	2.48646	0.27072	1.29340	0.99138
15298.740	2.22877	0.18432	1.66867	2.66012
15302.735	2.50680	0.24004	0.78598	3.11094
15306.767	2.05782	0.17830	2.47284	2.30648
15310.746	2.47177	0.14362	2.19873	2.43238
15314.740	2.57724	0.17265	0.76238	5.47576
15318.756	2.31304	0.11568	1.97451	5.23609
15322.745	2.38980	0.15160	0.39517	5.47065
15326.624	2.20780	0.18318	1.05885	5.37564
15330.615	2.40233	0.25118	0.13124	5.54209
15334.636	2.18944	0.24056	0.83126	5.54701
15338.745	2.34334	0.23713	1.73844	5.58395
15342.613	2.23462	0.29029	0.69186	5.71243
15346.615	2.22612	0.21920	1.50447	5.85176
15350.611	2.29458	0.23272	0.51312	6.69555
15354.637	2.21363	0.22424	0.97854	10.67759
15358.626	2.28519	0.25974	-0.33131	11.97201
15362.612	2.20728	0.26377	0.72943	11.78269
15366.611	2.21962	0.34852	-0.48753	12.57959
15370.617	2.32372	0.31433	0.68727	12.67197
15374.615	2.05427	0.40222	-0.66034	13.64668
15378.615	2.32815	0.41766	-1.90326	14.80806
15382.610	2.10260	0.33523	NaN	NaN
15386.686	2.28393	0.35103	NaN	NaN
15390.634	2.28023	0.32889	NaN	NaN
15394.637	2.28185	0.34917	NaN	NaN
15398.615	2.44502	0.42212	NaN	NaN
15402.613	2.28373	0.38165	NaN	NaN
15406.611	2.37362	0.40019	NaN	NaN
15410.620	2.39034	0.38703	NaN	NaN
15414.613	2.46493	0.43914	NaN	NaN
15418.614	2.41536	0.42161	NaN	NaN
15422.628	2.19482	0.43195	NaN	NaN
15426.616	2.58469	0.45042	NaN	NaN
15430.612	2.42156	0.29112	NaN	NaN
15434.608	2.41752	0.22595	NaN	NaN
15438.607	2.26024	0.09269	NaN	NaN
15442.617	2.17653	0.06113	NaN	NaN
15446.616	2.25603	0.06970	NaN	NaN
15450.611	2.47928	-0.03334	NaN	NaN
15454.678	2.24728	0.14910	NaN	NaN
15458.632	2.23925	0.16294	NaN	NaN
15462.625	1.95725	0.52171	0.62493	4.27023
15466.612	1.86885	1.82639	-0.09386	4.81330
15470.609	1.81359	2.42852	-0.29607	6.33150
15474.612	1.37883	2.94800	-0.18286	6.87859
15478.611	1.34192	3.34757	-0.60826	6.61798
15482.606	0.95767	3.41509	-1.04151	7.05833
15486.612	0.96140	3.40991	NaN	NaN
15490.613	1.18850	3.16563	NaN	NaN
15494.613	1.16133	3.09368	NaN	NaN
15498.612	1.13553	2.99877	NaN	NaN
15502.613	0.95125	3.04877	NaN	NaN
15506.612	0.92324	3.06683	NaN	NaN
15510.614	0.93735	3.09306	NaN	NaN
15514.610	0.93726	3.05087	NaN	NaN
15518.608	0.86746	2.99679	NaN	NaN
15522.708	0.83744	3.01249	NaN	NaN
15526.630	0.90053	2.98514	NaN	NaN
15530.613	0.87324	2.97844	NaN	NaN
15534.607	1.01365	3.06821	NaN	NaN
15538.611	0.91708	3.27800	NaN	NaN
15542.613	0.98653	3.70238	NaN	NaN
15546.616	0.97616	3.90627	NaN	NaN
15550.607	0.91907	3.66865	NaN	NaN
15554.612	0.93172	3.86816	NaN	NaN
15558.609	1.01109	3.91738	0.80781	7.16055
15562.610	1.00672	4.09416	-0.97457	7.09114
15566.604	1.01337	3.94188	-1.02709	6.95319
15570.612	0.97345	3.82082	-1.01424	6.93645
15574.608	0.97402	3.76805	-0.84600	7.48828
15578.611	0.91071	4.09534	-1.05525	7.05409
15582.604	0.93616	3.84455	-0.97105	7.00973
15586.613	0.85371	3.71103	-0.72848	6.95191
15590.679	0.86753	3.33352	-0.73302	7.01760
15594.626	0.93356	3.31478	-0.83017	7.04796
15598.622	0.84558	3.36478	-0.78851	7.01029
15602.614	0.91986	3.37172	-0.82044	7.04622
15606.608	0.84932	3.41524	-0.90101	7.04132
15610.608	0.87853	3.43299	-0.73218	7.11309
15614.637	0.87136	3.57672	-0.82870	7.26452
15618.619	0.92991	3.57450	-0.79444	7.19493
15622.614	0.98779	3.68434	-0.79486	7.05142
15626.633	1.00405	3.62949	-0.67521	7.09426
15630.625	0.98549	3.61001	-0.62342	7.18216
15634.620	0.99936	3.46250	-0.01432	7.08494
15638.608	0.87989	3.26535	-0.36926	7.10133
15642.636	1.01144	3.57682	-0.74799	7.08992
15646.627	1.05806	3.41238	-0.38157	7.16075
15650.612	0.88920	3.45764	-0.54768	6.93721
15654.606	1.02002	3.57909	-0.50974	7.02338
15658.634	1.13107	3.81692	-0.42222	6.92732
15662.617	0.99310	3.81018	-0.36107	6.80895
15666.616	0.83441	3.65193	-0.48669	6.83998
15670.609	0.87704	3.53929	-0.52962	7.05048
15674.607	0.87175	3.72120	-0.50999	6.81489
15678.604	0.84200	3.58380	-0.46085	6.70977
15682.611	0.94376	3.75126	-0.58793	6.55273
15686.605	1.22829	3.96864	-0.62357	6.63370
15690.608	0.94785	3.96476	-0.69737	6.56853
15694.607	1.07609	3.96329	-0.65975	6.77348
15698.604	1.43443	3.67461	-0.59511	6.60679
15702.609	0.91118	3.87881	-0.60171	6.20612
15706.606	0.99846	3.10680	2.19115	3.63163
15710.611	1.10075	0.75260	-0.69243	6.46346
15714.610	1.06394	0.07066	0.92959	1.73955
15718.606	1.23302	-1.60576	1.25778	0.86627
15722.604	1.46638	-0.67341	1.29588	1.23802
15726.612	1.69413	-0.20037	1.11536	1.36219
15730.633	1.34294	0.34843	1.33525	1.47176
15734.621	1.66500	0.46740	1.24391	1.92106
15738.605	2.02582	0.74834	1.23689	2.25828
15742.605	1.39445	0.64996	1.37220	2.19833
15746.601	1.48228	-0.00328	0.04946	3.24231
15750.614	2.37233	0.13561	0.92076	2.11068
15754.612	2.35372	0.75461	1.26108	2.16926
15758.604	NaN	NaN	1.55410	2.15190
15762.604	2.10183	0.72624	2.04758	1.98540
15766.867	2.53783	0.57090	0.84441	2.04735
15771.110	3.45010	0.34544	1.18959	2.11208
15775.366	2.07001	0.41272	1.34462	2.28550
15779.576	1.91132	0.52140	-0.25445	3.35927
15782.613	1.70889	0.52486	-0.13828	6.11252
15786.612	1.71417	0.52459	1.33336	2.56644
15790.605	1.72180	0.44260	-2.08483	6.42847
15794.611	1.75538	0.44649	-1.69616	6.30218
15798.610	3.22591	0.96293	0.90924	2.48263
15802.609	2.16035	0.28077	0.98961	2.71871
15806.604	1.72741	0.53663	1.21043	2.88820
15810.606	3.18101	0.25878	1.40740	2.96184
15814.607	1.73341	0.59959	0.66640	2.86746
15818.813	2.47777	0.65438	1.02977	3.08928
15823.084	3.20251	0.71718	1.55343	3.20519
15827.364	NaN	NaN	1.65902	3.08105
15831.577	NaN	NaN	0.57602	3.06128
15835.881	NaN	NaN	0.52972	3.13920
15840.048	6.03481	0.55305	0.52709	3.13256
15842.802	NaN	NaN	0.15898	2.97945
15846.622	5.30407	0.82301	0.50877	3.13333
15850.620	5.97286	1.19172	1.54455	3.25552
15854.621	6.48580	1.59292	0.28399	3.21210
15858.603	NaN	NaN	0.42889	3.25829
15862.604	NaN	NaN	1.11492	3.60093
15866.608	NaN	NaN	1.42752	3.51584
15870.628	NaN	NaN	NaN	NaN
15874.798	NaN	NaN	0.85657	3.36133
15879.048	NaN	NaN	NaN	NaN
15883.161	NaN	NaN	NaN	NaN
15887.276	NaN	NaN	NaN	NaN
15891.429	NaN	NaN	NaN	NaN
15895.629	NaN	NaN	NaN	NaN
15899.701	NaN	NaN	NaN	NaN
15903.902	NaN	NaN	NaN	NaN
15908.041	NaN	NaN	NaN	NaN
15912.185	NaN	NaN	NaN	NaN
15916.368	NaN	NaN	NaN	NaN
15920.615	NaN	NaN	NaN	NaN
15924.816	NaN	NaN	NaN	NaN
15929.861	NaN	NaN	NaN	NaN
15934.080	NaN	NaN	NaN	NaN
15938.270	NaN	NaN	NaN	NaN
15942.442	NaN	NaN	NaN	NaN
15946.744	NaN	NaN	NaN	NaN
15950.973	NaN	NaN	NaN	NaN
15955.166	NaN	NaN	NaN	NaN
15959.291	NaN	NaN	NaN	NaN
15963.387	NaN	NaN	NaN	NaN
15967.532	NaN	NaN	NaN	NaN
15971.749	NaN	NaN	NaN	NaN
15975.977	NaN	NaN	NaN	NaN
15980.237	NaN	NaN	NaN	NaN
15984.369	NaN	NaN	NaN	NaN
15988.537	NaN	NaN	NaN	NaN
15992.623	NaN	NaN	NaN	NaN
15997.630	NaN	NaN	NaN	NaN
16001.957	NaN	NaN	NaN	NaN
16006.147	NaN	NaN	NaN	NaN
16010.322	NaN	NaN	NaN	NaN
16016.358	NaN	NaN	NaN	NaN
16020.421	NaN	NaN	NaN	NaN
16026.614	NaN	NaN	NaN	NaN
16030.766	NaN	NaN	NaN	NaN
16035.042	3.03578	2.29962	NaN	NaN
16039.274	3.01608	2.46556	-4.28160	6.35523
16042.623	2.87391	2.65753	-3.71182	6.66862
16046.604	2.79152	2.87119	-5.56202	6.94108
16050.601	2.71567	2.76049	-5.14495	7.29943
16054.600	2.43937	2.75393	-4.39987	7.51702
16058.603	2.33157	2.65278	-5.64602	7.51010
16062.603	2.56897	2.68750	-5.34713	7.70643
16066.653	2.55002	2.69763	-5.06294	8.00249
16070.610	2.58526	2.72576	-4.59840	8.50496
16074.610	2.36277	2.70628	-5.92930	9.37199
16078.613	2.47212	2.75069	-5.74559	9.75858
16082.620	2.46387	2.67801	-5.40430	10.03363
16086.623	2.50209	2.60837	-5.16831	10.07949
16090.613	2.38876	2.49932	-4.84605	10.27299
16094.604	2.30310	2.45801	-6.08122	10.42813
16098.601	2.35650	2.43370	-6.07501	10.55024
16102.605	2.49617	2.48970	-5.74650	10.64049
16106.599	2.62739	2.42718	-5.64970	10.83581
16110.605	2.52949	2.45966	-5.17009	10.87702
16114.603	2.51111	2.38979	-5.27619	10.82754
16118.602	2.56760	2.33417	-5.00706	11.04672
16122.631	2.52161	2.30929	-4.74846	11.01707
16126.620	2.53553	2.27517	-4.41660	10.95330
16130.603	2.51150	2.20199	-4.25645	10.94799
16134.644	2.56525	2.23119	-5.90809	10.89675
16138.606	2.62464	2.27104	-5.62866	10.85926
16142.601	2.58903	2.24595	-5.56954	10.92494
16146.605	2.59520	2.15068	-5.23622	10.85020
16150.604	2.52106	2.03974	-5.05875	10.72286
16154.596	2.48765	2.00721	-5.08623	10.61571
16158.607	2.53191	1.96013	-4.83159	10.62849
16162.599	2.50098	1.83911	-4.85287	10.50324
16166.605	2.43590	1.75931	-4.81313	10.21588
16170.603	2.42805	1.72321	-4.69221	10.27977
16174.604	2.41573	1.69963	-4.94307	9.86074
16178.594	2.41497	1.69587	-4.70673	9.82930
16182.468	2.41001	1.59374	-4.50498	10.02023
16186.475	2.44955	1.58873	-4.27642	9.84971
16190.477	2.44256	1.52340	-4.16571	9.71216
16194.473	2.43840	1.52067	-4.05231	9.71320
16198.472	2.50355	1.49043	-3.98326	9.49618
16202.512	2.48017	1.46307	-3.83559	9.43568
16206.525	2.48596	1.49884	-3.76574	9.24175
16210.475	2.58046	1.54616	-3.62032	9.03563
16214.480	2.62207	1.55834	-3.34888	9.03287
16218.476	2.64661	1.51567	-3.17933	8.92639
16222.499	2.67447	1.52265	-3.30755	11.43086
16226.483	2.65815	1.68312	-3.13860	11.42656
16230.474	2.70218	2.00682	-3.09770	10.95457
16234.471	2.72461	2.06174	-2.99881	11.14496
16238.468	2.77626	2.10067	-2.91057	10.66701
16242.476	2.79265	2.16882	-2.81231	10.24945
16246.471	2.84262	2.20047	-2.76168	9.94399
16250.473	2.90173	2.14795	-2.72682	9.45669
16254.498	2.88339	2.16930	-2.67278	9.29490
16258.489	2.90525	2.17255	-2.66186	8.90153
16262.473	2.94339	2.27566	-2.69416	8.68662
16266.472	2.90324	2.19513	-2.65954	8.12417
16270.491	2.85012	2.15414	-2.62774	6.88815
16274.479	2.75648	2.12442	-2.67066	6.72069
16278.474	2.81110	2.16621	-2.81585	9.48900
16282.473	2.81115	2.11282	-3.36728	8.77494
16286.471	2.73514	2.03976	-2.32917	8.29174
16290.493	2.64958	2.03028	-2.25801	8.05507
16294.482	2.66912	1.98838	-2.32124	7.45533
16298.475	2.69921	1.93026	-2.10032	6.89632
16302.474	2.48222	1.97828	-2.86774	6.34689
16306.470	2.38885	1.95176	-3.51676	7.66831
16310.477	2.20837	1.85793	-4.29552	6.66513
16314.472	2.18401	1.51521	-3.07882	5.11370
16318.473	2.18255	1.24454	-3.64533	3.86365
16322.490	2.28023	0.96657	-1.88978	3.39899
16326.490	2.09261	0.85328	-1.97002	3.14436
16330.473	2.06270	0.66443	-4.53766	3.35729
16334.470	1.96469	0.57547	-2.66102	3.24758
16338.493	1.99211	0.75819	-3.31299	3.10271
16342.482	1.98536	0.70491	-3.59911	2.83989
16346.473	2.03018	0.82981	-1.64984	2.70547
16350.470	1.94355	0.73701	-2.12833	2.29915
16354.469	1.94647	0.77137	-2.22116	1.99663
16358.475	1.93889	0.73411	-2.55205	-1.87832
16362.471	2.01104	0.80869	-3.02306	-1.86361
16366.469	1.85130	0.88027	-3.32711	-1.88780
16370.469	1.92332	1.07479	-2.25062	1.55499
16374.472	1.84327	1.12668	-2.22163	-1.90913
16378.473	2.22190	1.11100	-2.47526	-2.02109
16382.475	1.94496	1.20158	-2.71221	-2.04944
16386.469	1.96251	1.22999	-3.05412	-2.05061
16390.496	1.87302	1.16849	-2.04815	-2.10544
16394.485	1.83952	1.05672	-2.07311	-2.07349
16398.471	1.86179	1.16907	-2.31178	-2.01233
16402.493	1.84027	1.03752	-2.62417	-2.07522
16407.003	1.90706	0.98651	-2.76430	-4.63142
16410.508	1.94315	1.21412	-2.87311	-4.17970
16414.482	1.91583	1.26048	-1.99689	-1.95877
16418.470	1.93789	0.98476	-1.95740	-4.04049
16422.472	1.91209	0.93229	-2.56104	-4.05959
16426.472	2.08852	0.88762	-0.47840	-3.86348
16430.472	1.95755	0.76946	-2.89213	-5.59264
16434.468	1.90621	1.04372	-1.79311	-3.54943
16438.467	1.89595	1.04474	-2.31936	-5.89750
16442.469	1.98522	1.05727	-2.55839	-5.80598
16446.471	1.97443	1.17736	-2.91889	-5.82596
16450.468	1.94570	1.06303	-1.51425	-5.52187
16454.465	1.96677	1.04370	-1.81823	-5.78823
16458.469	1.90691	0.91086	-2.35969	-5.67323
16462.473	2.05070	0.95597	-0.93023	-5.71026
16466.472	1.94407	1.03461	-1.17604	-5.80585
16470.473	1.91578	0.98368	-2.03474	-8.59214
16474.478	1.87612	0.96414	2.91413	2.26266
16478.479	1.73075	0.95123	1.59127	2.08650
16482.473	1.85214	0.92147	1.38334	2.15320
16486.467	1.91452	0.87369	1.43570	2.15931
16490.472	1.84156	0.87295	1.11904	2.17155
16494.483	1.80489	0.83617	1.56796	2.21642
16498.473	1.87210	0.87373	1.59199	2.20479
16502.474	1.89107	0.86970	1.48503	2.23322
16506.473	1.85641	0.88149	1.39584	2.23619
16510.496	1.85018	0.90945	1.30831	2.21546
16514.485	1.91660	0.97864	1.44021	2.23091
16518.472	1.79921	1.06538	1.36680	2.15178
16522.472	1.88251	1.00358	1.28886	2.00296
16526.470	1.86853	0.91741	1.43900	2.11552
16530.470	1.79187	0.93724	1.42704	1.94119
16534.463	1.82177	0.93459	1.38808	1.99809
16538.471	1.88145	1.04900	1.37342	1.93555
16542.477	1.84049	1.15955	1.36935	1.81023
16546.542	1.78396	1.23660	1.22342	1.64774
16550.475	1.83137	1.04830	1.36094	1.51767
16554.468	1.71982	1.14314	1.44411	1.89877
16558.471	1.77965	0.90353	1.36204	1.81304
16562.468	1.75384	0.86222	1.38875	1.87904
16566.469	1.71025	0.79718	1.31632	1.68449
16570.463	1.85633	0.99275	1.46752	1.60987
16574.471	1.83972	1.07638	1.39086	1.66267
16578.464	1.82614	1.05469	1.39036	1.59069
16582.468	1.95096	1.04488	1.53108	1.84400
16586.472	1.86446	1.00645	1.43178	1.44916
16590.470	1.87398	1.07830	1.42030	1.63986
16594.496	1.91566	1.12690	1.47903	1.72508
16598.483	1.77397	1.20135	1.48052	1.81916
16602.492	1.82738	1.34190	1.51273	1.73354
16606.473	1.95425	1.12060	1.50988	1.89295
16610.493	1.69106	1.16856	1.49979	1.91284
16614.500	1.80997	1.05882	1.38352	1.79682
16618.481	1.82646	1.01154	1.47511	1.82005
16622.469	1.76916	1.08938	1.44572	1.71972
16626.466	1.84547	1.09130	1.42094	1.69675
16630.469	1.78438	1.11636	1.42670	1.95233
16634.496	1.80581	1.13529	1.36045	1.98670
16638.481	1.92433	1.18109	1.41769	1.99841
16642.468	2.07209	1.19213	1.63757	2.26984
16646.465	3.65312	1.10722	3.63003	2.56833
16650.483	4.97847	1.25440	5.48238	2.36127
16654.468	5.45848	1.34317	5.57923	2.03746
16658.465	5.58132	1.53918	5.53599	1.96515
16662.484	6.09390	1.75920	5.50346	2.24031
16666.474	6.39025	1.80790	5.43288	2.27737
16670.471	6.99030	2.07478	5.66489	2.59422
16674.469	6.41021	2.01214	5.67720	2.27964
16678.499	6.60497	1.91695	6.40643	2.43928
16682.474	6.51657	2.08973	5.48978	2.62849
16686.483	6.65537	2.16740	5.65479	2.96676
16690.463	6.60438	2.25537	6.35635	2.94494
16694.462	6.72660	2.25663	7.65522	-0.74765
16698.463	6.78414	2.44668	6.86327	-0.47486
16702.470	6.78549	2.40870	8.81496	-0.59361
16706.470	6.67921	2.46564	7.39215	-0.52061
16710.487	6.93875	2.35522	9.00760	-0.62088
16714.477	6.49928	2.35548	7.94562	-0.62198
16718.472	6.91356	2.34139	7.56388	2.98871
16722.465	6.45704	2.36477	8.86141	-0.69971
16726.463	7.07618	2.33794	6.19260	3.16403
16730.461	6.50094	2.47705	6.93489	2.89191
16734.466	7.12789	2.43793	6.28727	2.69364
16738.463	6.53144	2.51223	6.80575	2.54668
16742.463	7.16241	2.44181	6.19783	2.52003
16746.460	6.70173	2.61388	5.91833	2.84904
19084.179	NaN	NaN	NaN	NaN
19215.073	NaN	NaN	NaN	NaN
19282.457	2.77433	1.15522	1.62428	-2.99107
19286.559	2.61226	0.67534	1.58078	-2.83089
19290.206	2.59923	1.10106	1.40110	-2.80329
19294.175	2.32880	1.21972	1.31352	-2.75870
19298.170	2.20114	1.06296	1.35125	-2.55234
19302.186	2.04091	1.06885	1.34385	-2.46133
19306.188	1.93512	1.05544	1.39210	-2.51883
19310.173	2.16748	1.07907	1.39413	-2.59176
19314.169	2.04924	1.19880	1.41663	-2.55165
19318.188	2.06753	1.19553	1.41015	-2.56445
19322.182	2.08290	1.11788	1.39048	-2.55185
19326.177	1.90956	1.27335	1.37513	-2.52646
19330.171	1.87227	1.30133	1.38733	-2.45952
19334.170	1.84205	1.38009	1.36772	-2.35435
19338.175	1.85242	1.30449	1.37994	-2.25009
19342.171	1.91600	1.33803	1.39671	-2.22093
19346.174	1.92897	1.27408	1.41430	-2.08798
19350.167	2.01875	1.26078	1.39182	-2.21563
19354.190	1.98878	1.29647	1.43997	-2.13033
19358.174	2.05467	0.81467	1.37047	-2.04822
19362.171	2.09693	0.81197	1.32453	-2.03380
19366.175	2.24183	1.04218	1.29246	-1.99211
19370.172	2.25216	1.24597	1.44785	-1.95514
19374.171	2.48061	1.39504	1.42005	-1.90804
19378.191	2.45507	1.48217	1.45487	-1.89350
19382.173	2.36230	1.42729	1.32969	-1.92841
19386.173	2.42507	1.34880	1.39644	-1.96392
19390.171	2.41378	1.35399	1.37149	-1.99183
19394.176	2.46503	1.06120	1.43778	-1.90872
19398.171	2.47199	1.15418	1.37151	-1.89014
19402.197	2.47586	1.05610	1.43597	-1.92034
19406.188	2.40669	1.04608	1.43506	-1.90853
19410.170	2.41110	1.21903	1.46640	-1.85034
19414.168	2.33138	1.27772	1.39946	-1.87282
19418.166	2.09916	1.19429	1.46663	-1.88081
19422.176	2.23028	1.16319	1.45217	-1.85792
19426.178	2.21623	1.25575	1.52020	-1.73626
19430.178	2.28021	1.09822	1.55779	-1.77063
19434.194	2.32481	1.00603	1.47702	-1.69333
19438.175	2.30219	1.01250	1.55422	-1.69687
19442.182	2.29285	1.13993	1.57491	-1.51557
19446.171	2.23102	1.31518	1.46963	-1.66393
19450.182	2.33588	1.25863	1.53257	-1.58205
19454.184	2.27919	1.10468	1.53195	-1.53481
19458.176	2.35576	1.17867	1.44364	-1.51099
19462.175	2.37917	1.03421	1.41065	-1.30004
19466.191	2.40248	1.40589	1.40100	-1.39861
19470.189	2.31862	1.18948	1.28782	-1.43485
19474.181	2.37951	1.05625	1.29596	-1.42171
19478.179	2.30481	1.07731	1.33036	-1.40185
19482.201	2.27307	1.37942	1.28425	-1.47286
19486.187	2.31190	1.34533	1.26808	-1.51061
19490.199	2.31515	1.25272	1.26999	-1.46927
19494.183	2.29941	1.07021	1.22908	-1.41656
19498.200	2.38155	1.33693	1.23469	-1.33521
19502.182	2.40622	1.39998	1.30613	-1.35084
19506.173	2.37243	1.20008	1.26257	-1.29311
19510.198	2.38866	1.43260	1.30630	-1.36741
19514.175	2.50702	1.43319	1.32570	-1.31734
19518.177	2.39118	1.15842	1.31840	-1.30148
19522.175	2.46102	1.41071	1.34095	-1.20716
19526.201	2.56780	1.50110	1.36501	-1.17079
19530.181	2.49741	1.22416	1.26785	-1.17864
19534.189	2.39978	1.14712	1.34296	-1.19544
19538.169	2.65372	1.53595	1.35601	-1.13911
19542.171	2.51133	1.44879	1.34150	-1.18675
19546.169	2.42785	1.09932	1.29898	-1.16318
19550.169	2.51393	1.42691	1.38927	-1.17493
19554.170	2.69569	1.55209	1.26019	-1.10908
19558.192	2.55339	1.21872	1.33254	-1.08126
19562.174	2.56131	1.35394	1.35779	-1.09402
19566.180	2.53053	1.16936	1.29377	-1.07450
19570.183	2.55039	1.32663	1.27567	-1.05819
19574.167	2.39686	1.40641	1.27810	-1.05541
19578.166	2.52381	1.50934	1.31845	-0.97252
19582.185	2.49258	1.48729	1.22082	-1.02019
19586.196	2.44846	1.34684	1.34457	-0.99265
19590.169	2.49818	1.41102	1.31625	-0.97118
19594.185	2.44596	1.36051	1.24233	-0.98996
19598.177	2.40587	1.14496	1.31000	-0.92531
19602.165	2.39418	1.25619	1.32178	-0.94565
19606.164	2.36683	1.38788	1.33800	-0.89701
19610.169	2.38660	1.40856	1.25074	-0.88495
19614.167	2.44346	1.64431	1.29422	-0.84206
19618.165	2.46414	1.50772	1.33234	-0.88308
19622.163	2.48527	1.50549	1.44760	-0.84608
19626.238	2.44521	1.51461	1.28219	-0.78760
19630.209	2.54083	1.48927	1.25972	-0.76341
19634.183	2.43095	1.11694	1.32190	-0.76647
19638.171	2.41521	1.51966	1.34877	-0.69341
19642.163	2.42577	1.69962	1.22648	-0.67487
19646.164	2.52874	1.73372	1.31704	-0.65805
19650.161	2.44695	1.67415	1.28455	-0.67065
19654.170	2.48520	1.79385	1.19931	-0.61277
19658.166	2.46677	1.76942	1.19822	-0.60656
19662.164	2.50469	1.63979	1.25595	-0.57465
19666.173	2.46426	1.36451	1.24771	-0.57366
19670.168	2.41569	1.38478	1.22194	-0.58611
19674.165	2.32412	1.37798	1.21003	-0.56609
19678.168	2.47918	1.77009	1.25877	-0.58804
19682.160	2.41507	1.81916	1.30270	-0.59111
19686.169	2.39926	1.67294	1.10760	-0.59289
19690.165	2.37627	1.76961	1.18644	-0.65888
19694.187	2.45881	1.75534	1.19807	-0.66275
19698.166	2.23320	1.12027	1.29112	-0.66213
19702.180	2.29265	1.82885	1.24796	-0.64505
19706.173	2.27632	1.85211	1.32123	-0.67253
19710.165	2.28881	1.93121	1.29385	-0.74211
19714.165	2.40999	1.68523	1.36037	-0.75816
19718.173	2.19710	1.71270	1.35189	-0.73892
19722.039	2.23640	1.76991	1.39974	-0.79809
19726.053	2.22478	1.84216	1.36022	-0.80612
19730.040	2.45639	1.69152	1.37791	-0.76933
19734.044	2.23110	1.67477	1.40527	-0.73021
19738.042	2.16672	1.58880	1.44212	-0.70893
19742.038	2.27074	1.77842	1.42171	-0.70397
19746.034	2.30989	1.66642	1.46358	-0.71367
19750.041	2.20582	1.68448	1.46621	-0.68618
19754.041	2.25057	1.64987	1.50331	-0.61955
19758.042	2.37444	1.64970	1.39768	-0.57760
19762.065	2.32181	1.59079	1.42528	-0.57372
19766.049	2.27875	1.63190	1.44862	-0.59632
19770.045	2.28697	1.74167	1.48451	-0.50123
19774.067	2.32179	1.72113	1.37305	-0.53121
19778.037	2.38838	1.40774	1.40227	-0.57271
19782.037	2.25950	1.73505	1.44798	-0.56234
19786.057	2.22027	1.79830	1.40269	-0.44573
19790.049	2.24802	1.83615	1.42290	-0.46783
19794.037	2.36093	1.81264	1.30759	-0.43941
19798.040	2.38023	1.82077	1.23779	-0.42218
19802.036	2.28893	1.79103	1.34547	-0.42661
19806.044	2.18520	1.52080	1.34222	-0.44425
19810.038	2.15566	1.77774	1.32066	-0.39723
19814.039	2.39577	1.69805	1.30109	-0.48420
19818.035	2.27721	1.62009	1.36409	-0.46891
19822.038	2.17157	1.82007	1.32952	-0.36858
19826.040	2.22381	1.76948	1.35998	-0.40435
19830.041	2.35499	1.59078	1.29906	-0.39937
19834.045	2.21274	1.46769	1.35822	-0.40003
19838.039	2.15217	1.51537	1.38877	-0.43184
19842.035	2.21219	1.67331	1.34038	-0.45786
19846.041	2.25065	1.41187	1.50296	-0.45671
19850.040	2.15093	1.56966	1.50924	-0.40698
19854.039	2.16330	1.52829	1.42035	-0.42712
19858.065	2.13319	1.86928	1.31501	-0.37800
19862.046	2.12060	1.53344	1.39502	-0.28178
19866.040	2.00470	1.35898	1.44237	-0.33920
19870.036	2.11532	1.51595	1.19777	-0.26046
19874.042	2.09128	1.49580	1.39172	-0.28369
19878.042	2.09405	1.27651	1.46707	-0.34966
19882.038	2.09544	1.60535	1.39966	-0.34301
19886.035	2.10151	1.59778	1.53924	-0.28380
19890.051	2.08704	1.41230	1.45381	-0.35602
19894.047	2.11418	1.69875	1.35933	-0.40194
19898.038	2.14320	1.59974	1.43121	-0.44016
19902.038	2.06205	1.55164	1.49562	-0.27876
19906.063	2.09509	1.61401	1.26612	-0.22736
19910.049	2.12047	1.72571	1.41675	-0.35267
19914.035	2.02195	1.81176	1.37330	-0.38269
19918.036	2.03595	1.74441	1.37672	-0.43860
19922.032	2.09755	1.73759	1.42722	-0.22300
19926.033	2.02106	1.55642	1.23665	-0.19885
19930.035	2.12833	1.64318	1.36000	-0.15074
19934.044	2.03590	1.86979	1.19725	-0.28786
19938.056	2.08421	1.70302	1.28926	-0.30676
19942.051	1.98561	1.90870	1.29710	-0.16175
19946.034	2.09489	1.81302	1.14933	-0.06678
19950.039	2.00321	1.94289	1.38022	-0.16557
19954.036	2.13103	1.76790	1.18058	-0.19927
19958.039	2.04527	1.99726	1.24496	-0.19574
19962.043	2.15301	1.67700	1.20591	-0.27104
19966.058	2.11680	2.08089	1.19403	-0.21651
19970.041	2.12568	1.84032	1.23404	-0.14633
19974.047	1.94930	1.88964	1.18810	-0.15416
19978.036	1.91169	2.00094	1.25964	-0.16744
19982.032	2.01154	1.44209	1.13114	-0.14715
19986.038	1.97713	1.94460	1.28417	-0.18364
19990.034	1.94746	1.71448	1.28162	-0.35326
19994.043	1.94421	1.76656	1.16949	-0.29867
19998.032	1.91020	1.83959	1.28224	-0.34323
20002.036	1.96898	1.64344	1.20152	-0.41116
20006.059	1.87351	1.61018	1.30883	-0.38029
20010.050	1.82138	1.68766	1.32351	-0.43017
20014.043	1.87741	1.80169	1.17751	-0.39034
20018.045	1.88953	1.52162	1.30801	-0.44977
20022.034	1.81815	1.58087	1.33212	-0.59091
20026.040	1.82386	1.25271	1.31895	-0.64757
20030.034	2.02958	1.02907	1.38637	-0.75811
20034.060	2.16914	-0.21608	1.50743	-0.87559
20038.039	1.80330	-0.16074	1.40594	-1.15977
20042.036	1.72669	-0.20861	1.42796	-1.45460
20046.034	1.71667	-0.71458	1.49706	-1.79246
20050.036	1.19448	-1.13029	1.26495	-1.85935
20054.034	1.17783	-0.85104	1.18631	-1.96326
20058.061	1.25302	-0.79222	1.19271	-1.85193
20062.049	1.37992	-0.56469	1.18088	-1.58630
20066.038	1.49872	-0.89079	1.23461	-1.89027
20070.034	1.34304	-0.80317	1.12236	-1.84753
20074.047	1.43436	-0.83493	1.10556	-1.70463
20078.045	1.38433	-1.01598	1.16133	-1.93591
20082.074	1.30888	-1.07392	1.17619	-1.72074
20086.044	1.31302	-1.05875	1.02598	-1.59624
20090.038	1.39001	-0.95198	1.02990	-1.74649
20094.038	1.30451	-1.05195	1.01779	-1.57184
20098.042	1.35090	-1.02910	1.10695	-1.67529
20102.091	1.33091	-1.03969	1.09611	-1.59022
20106.040	1.32071	-1.05460	1.12745	-1.70844
20110.058	1.26493	-1.10978	1.04602	-1.60502
20114.045	1.28988	-1.12273	1.12221	-1.56744
20118.031	1.32808	-1.09962	1.13057	-1.51850
20122.031	1.20537	-1.06043	1.09844	-1.53309
20126.042	1.30781	-1.01104	1.18651	-1.54238
20130.032	1.21072	-1.03209	1.06709	-1.48360
20134.025	1.11598	-1.01928	1.05545	-1.49875
20138.035	1.21990	-0.92154	1.18619	-1.44354
20142.038	1.21529	-0.87380	1.15903	-1.42000
20146.029	1.36677	-0.89861	1.10842	-1.39658
20150.040	1.31774	-0.77517	1.13657	-1.37410
20154.040	1.30131	-0.80853	1.17599	-1.33832
20158.031	1.24523	-0.75457	1.06438	-1.34190
20162.027	1.19423	-0.78062	1.12685	-1.33082
20166.061	1.30603	-0.68200	1.05627	-1.29731
20170.051	1.28226	-0.70056	1.12630	-1.22494
20174.037	1.28757	-0.64410	1.00665	-1.19998
20178.028	1.36184	-0.54365	1.14727	-1.16215
20182.042	1.10685	-0.53245	0.94311	-1.12276
20186.036	1.32954	-0.54038	1.13541	-1.09247
20190.031	1.36030	-0.39926	0.82262	-1.10616
20194.053	1.40194	-0.45286	1.13471	-1.07166
20198.041	1.41204	-0.32868	0.92867	-1.04751
20202.038	1.47518	-0.00479	1.17582	-1.04941
20206.032	1.56635	-0.16089	0.90324	-0.95919
20210.030	1.67387	0.92600	1.04503	-0.78960
20214.037	1.56092	0.77998	1.24213	-0.56882
20218.031	1.59740	1.79365	0.23264	0.40809
20222.033	1.98083	1.59569	-3.52123	2.19762
20226.044	1.91424	1.28692	-2.10530	-0.57127
20230.034	3.72877	13.00821	-7.41141	14.03278
20234.028	1.75386	10.22037	NaN	NaN
20238.029	4.39022	12.95990	NaN	NaN
20242.052	NaN	NaN	NaN	NaN
20246.042	NaN	NaN	NaN	NaN
20250.044	NaN	NaN	NaN	NaN
20254.032	NaN	NaN	NaN	NaN
20258.051	NaN	NaN	NaN	NaN
20262.051	NaN	NaN	NaN	NaN
20266.045	NaN	NaN	NaN	NaN
20270.066	NaN	NaN	NaN	NaN
20274.044	NaN	NaN	NaN	NaN
20278.048	NaN	NaN	NaN	NaN
20282.041	NaN	NaN	NaN	NaN
20286.030	NaN	NaN	NaN	NaN
20290.178	NaN	NaN	NaN	NaN
20294.040	NaN	NaN	NaN	NaN
20298.029	4.45523	11.06999	NaN	NaN
20302.028	NaN	NaN	NaN	NaN
20306.038	NaN	NaN	NaN	NaN
20310.030	7.62058	15.14292	NaN	NaN
20314.026	4.11085	11.01038	NaN	NaN
20318.051	0.92845	-0.84795	NaN	NaN
20322.061	0.85168	-0.74108	NaN	NaN
20326.028	1.66614	-0.97095	NaN	NaN
20330.029	1.22434	-2.59368	NaN	NaN
20334.028	0.86461	-1.49685	NaN	NaN
20338.024	1.80712	-1.39148	NaN	NaN
20342.030	2.40563	-1.56956	NaN	NaN
20346.025	1.79785	-1.54878	NaN	NaN
20350.031	3.48326	-1.35807	NaN	NaN
20354.029	2.67677	-1.25441	NaN	NaN
20358.026	2.05677	-1.14242	NaN	NaN
20362.024	1.74122	-0.74320	NaN	NaN
20366.033	1.41613	-1.11688	NaN	NaN
20370.031	0.72548	-0.74989	NaN	NaN
20374.030	1.75778	-1.12750	NaN	NaN
20378.026	1.30052	-0.85877	NaN	NaN
20382.030	0.94328	-0.83488	NaN	NaN
20386.026	0.97668	-0.74110	NaN	NaN
20390.032	0.80593	-0.76342	NaN	NaN
20394.049	1.05304	-0.76545	NaN	NaN
20398.036	0.94331	-0.68661	NaN	NaN
20402.027	0.91666	-0.77803	NaN	NaN
20406.023	0.80339	-0.79052	NaN	NaN
20410.028	0.78483	-0.90162	NaN	NaN
20414.027	0.88552	-0.90465	NaN	NaN
20418.022	0.81074	-1.03217	NaN	NaN
20422.030	0.83185	-0.97493	NaN	NaN
20426.023	0.91403	-0.99419	NaN	NaN
20430.037	1.00608	-0.98698	NaN	NaN
20434.032	0.93267	-1.05769	NaN	NaN
20438.025	0.95390	-1.16413	NaN	NaN
20442.026	0.82754	-1.27452	NaN	NaN
20446.159	0.84362	-1.31437	NaN	NaN
20450.035	0.89560	-1.27733	NaN	NaN
20454.029	0.92140	-0.90387	NaN	NaN
20458.026	0.92701	-1.08151	NaN	NaN
20462.038	0.98316	-0.89958	NaN	NaN
20466.029	0.94227	-1.05737	NaN	NaN
20470.025	0.97571	-0.89414	NaN	NaN
20474.028	0.92589	-1.05846	NaN	NaN
20478.029	0.93001	-0.77959	NaN	NaN
20482.024	0.92770	-1.46827	NaN	NaN
20486.026	0.88324	-1.24738	NaN	NaN
20490.021	0.98169	-0.86039	NaN	NaN
20494.027	0.97894	-0.85147	NaN	NaN
20498.024	0.86605	-1.41305	NaN	NaN
20502.026	0.92115	-1.00859	NaN	NaN
20506.022	0.85019	-0.86171	NaN	NaN
20510.026	0.75471	-1.47583	NaN	NaN
20514.030	0.83739	-1.00628	NaN	NaN
20518.051	0.80784	-0.91676	NaN	NaN
20522.032	0.73387	-1.76905	NaN	NaN
20526.024	0.75178	-1.19060	NaN	NaN
20530.026	0.80007	-1.01170	NaN	NaN
20534.025	0.74742	-1.30904	NaN	NaN
20538.022	0.77747	-1.50994	NaN	NaN
20542.021	0.79372	-1.16550	NaN	NaN
20546.024	0.77022	-1.13193	NaN	NaN
20550.026	0.79414	-1.44503	NaN	NaN
20554.023	0.77709	-1.58085	NaN	NaN
20558.026	0.89185	-1.41857	NaN	NaN
20562.025	0.78719	-1.31871	NaN	NaN
20566.026	0.82585	-1.20255	NaN	NaN
20570.027	0.85399	-1.23738	NaN	NaN
20573.896	0.85079	-1.46852	NaN	NaN
20577.903	0.82895	-1.53776	NaN	NaN
20581.924	0.82173	-1.30750	NaN	NaN
20585.911	0.82310	-1.22341	NaN	NaN
20589.897	0.87319	-1.13172	NaN	NaN
20593.901	0.96184	-1.21184	NaN	NaN
20597.897	0.96561	-1.34750	NaN	NaN
20601.903	0.89855	-1.30442	NaN	NaN
20605.903	0.94954	-1.11769	NaN	NaN
20609.898	0.91654	-1.04848	NaN	NaN
20613.894	0.99635	-1.04935	NaN	NaN
20617.895	1.02434	-0.99694	NaN	NaN
20621.900	0.96035	-1.06255	NaN	NaN
20625.895	1.01340	-1.17817	NaN	NaN
20629.901	0.94969	-1.35603	NaN	NaN
20633.922	1.01017	-1.03713	NaN	NaN
20637.907	1.00052	-1.04704	NaN	NaN
20641.895	1.04910	-1.29418	NaN	NaN
20645.912	1.05907	-1.39154	NaN	NaN
20649.931	0.98172	-0.89764	NaN	NaN
20653.910	1.07111	-1.26310	NaN	NaN
20657.900	0.99625	-1.35804	NaN	NaN
20661.896	1.03034	-1.28170	NaN	NaN
20665.894	1.10117	-1.29485	NaN	NaN
20669.903	1.02881	-1.11233	NaN	NaN
20673.897	1.15555	-1.04592	NaN	NaN
20677.896	1.11904	-1.08890	NaN	NaN
20681.892	1.20403	-0.99198	NaN	NaN
20685.905	1.09026	-1.25239	NaN	NaN
20689.899	1.07540	-1.06587	NaN	NaN
20693.896	NaN	NaN	NaN	NaN
20697.896	NaN	NaN	NaN	NaN
20701.921	NaN	NaN	NaN	NaN
20705.909	NaN	NaN	NaN	NaN
20709.899	NaN	NaN	NaN	NaN
20713.897	NaN	NaN	NaN	NaN
20717.912	NaN	NaN	NaN	NaN
20721.908	NaN	NaN	NaN	NaN
20725.896	NaN	NaN	NaN	NaN
20729.901	NaN	NaN	NaN	NaN
20733.914	NaN	NaN	NaN	NaN
20737.908	NaN	NaN	NaN	NaN
20741.895	NaN	NaN	NaN	NaN
20745.895	NaN	NaN	NaN	NaN
20749.891	NaN	NaN	NaN	NaN
20753.900	NaN	NaN	NaN	NaN
20757.896	NaN	NaN	NaN	NaN
20761.895	NaN	NaN	NaN	NaN
20765.918	NaN	NaN	NaN	NaN
20769.910	NaN	NaN	NaN	NaN
20773.903	NaN	NaN	NaN	NaN
20777.897	NaN	NaN	NaN	NaN
20781.922	NaN	NaN	NaN	NaN
20785.907	NaN	NaN	NaN	NaN
20789.898	NaN	NaN	NaN	NaN
20793.893	NaN	NaN	NaN	NaN
20797.889	NaN	NaN	NaN	NaN
20801.891	NaN	NaN	NaN	NaN
20805.898	NaN	NaN	NaN	NaN
20809.897	NaN	NaN	NaN	NaN
20813.898	NaN	NaN	NaN	NaN
20817.898	NaN	NaN	NaN	NaN
20821.892	NaN	NaN	NaN	NaN
20825.898	NaN	NaN	NaN	NaN
20829.894	NaN	NaN	NaN	NaN
20833.898	NaN	NaN	NaN	NaN
20837.896	NaN	NaN	NaN	NaN
20841.895	NaN	NaN	NaN	NaN
20845.892	NaN	NaN	NaN	NaN
20849.901	NaN	NaN	NaN	NaN
20853.906	NaN	NaN	NaN	NaN
20857.900	NaN	NaN	NaN	NaN
20861.894	NaN	NaN	NaN	NaN
20865.892	NaN	NaN	NaN	NaN
20869.898	NaN	NaN	NaN	NaN
20873.893	NaN	NaN	NaN	NaN
20877.894	NaN	NaN	NaN	NaN
20881.892	NaN	NaN	NaN	NaN
20885.900	NaN	NaN	NaN	NaN
20889.897	NaN	NaN	NaN	NaN
20893.898	NaN	NaN	NaN	NaN
20897.897	NaN	NaN	NaN	NaN
20901.895	NaN	NaN	NaN	NaN
20905.917	NaN	NaN	NaN	NaN
20909.891	NaN	NaN	NaN	NaN
20913.891	NaN	NaN	NaN	NaN
20917.921	NaN	NaN	NaN	NaN
20921.906	NaN	NaN	NaN	NaN
20925.893	NaN	NaN	NaN	NaN
20929.892	NaN	NaN	NaN	NaN
20933.891	NaN	NaN	NaN	NaN
20937.905	NaN	NaN	NaN	NaN
20941.890	NaN	NaN	NaN	NaN
20945.890	NaN	NaN	NaN	NaN
20949.891	NaN	NaN	NaN	NaN
20953.897	NaN	NaN	NaN	NaN
20957.891	NaN	NaN	NaN	NaN
20961.891	NaN	NaN	NaN	NaN
20965.897	NaN	NaN	NaN	NaN
20969.894	NaN	NaN	NaN	NaN
20973.891	NaN	NaN	NaN	NaN
20977.907	NaN	NaN	NaN	NaN
20981.890	NaN	NaN	NaN	NaN
20985.922	NaN	NaN	NaN	NaN
20989.909	NaN	NaN	NaN	NaN
20993.914	NaN	NaN	NaN	NaN
20997.900	NaN	NaN	NaN	NaN
21001.892	NaN	NaN	NaN	NaN
21005.895	NaN	NaN	NaN	NaN
21009.890	NaN	NaN	NaN	NaN
21013.890	NaN	NaN	NaN	NaN
21017.907	NaN	NaN	NaN	NaN
