time (ms)	lx (deg)	ly (deg)	rx (deg)	ry (deg)
0.000	-0.58915	1.22993	-0.46882	-0.82203
3.988	-0.72216	1.27433	-0.31459	-0.76336
8.000	-0.88453	1.23755	-0.57533	-0.77575
11.999	-0.91835	1.55093	-0.52612	-0.70376
16.000	-0.81595	1.19003	-0.77789	-0.63491
19.997	-0.82367	1.24626	-0.59243	-1.62469
23.985	-0.81851	1.26595	-0.65345	-1.00587
27.997	-0.82409	0.56696	-0.67613	-0.80339
31.997	-0.84250	1.13382	-0.66853	-0.59483
35.999	-0.96507	1.07723	-0.72397	-0.50302
39.999	-1.11370	1.27627	-0.58627	-0.45016
43.997	-1.05776	1.16792	-0.78012	-0.40925
47.997	-1.32862	1.29544	-0.64652	-0.55960
51.999	-1.28224	1.53356	-0.69481	-0.33111
56.000	-1.36000	0.79013	-0.89190	0.16582
60.002	-1.27616	0.72520	-0.87716	-0.62709
63.998	-1.36238	0.87207	-0.89790	-1.02616
67.975	-1.42960	1.00371	-0.99300	-0.62784
71.955	-1.43565	1.38645	-0.85783	-0.36946
75.997	-1.25180	1.83338	-0.70030	-0.22743
80.001	-1.23930	1.92858	-0.63603	0.19443
83.997	-1.13963	1.69669	-0.58932	-0.91539
88.003	-1.30687	1.29086	-0.63392	-0.91203
92.003	-1.40847	0.56262	-0.63985	-0.84997
95.999	-1.60469	1.48012	-0.60173	-1.10303
100.001	-1.69832	1.11162	-0.48314	-1.21875
104.000	-1.70787	0.89393	-0.52997	-1.27373
108.001	-1.87183	0.98040	-0.55610	-1.45968
112.002	-1.80714	1.12603	-0.54294	-1.47806
116.001	-1.84684	1.06863	-0.42594	-1.86809
120.001	-1.86176	0.61869	-0.51808	-1.78975
124.002	-1.94746	0.66505	-0.59779	-1.77997
128.004	-1.79202	0.84939	-0.85106	-1.85046
132.001	-1.95934	0.81502	-0.87232	-2.00150
135.956	-1.96556	0.81318	-0.75446	-2.23247
139.963	-1.90403	0.69744	-0.64605	-2.37414
144.002	-1.89186	0.68354	-0.45979	-2.33411
147.993	-1.63068	0.58022	-0.56195	-2.25823
151.994	-1.45542	0.29836	-0.53081	-2.34934
156.002	-1.45867	0.25082	-0.57364	-2.06871
160.002	-1.32210	-0.03406	-0.72838	-2.14182
164.002	-1.51310	-0.20786	-0.61538	-2.16874
168.001	-1.33594	-0.46489	-0.87361	-2.04229
172.002	-1.81634	-0.19112	-0.78905	-2.15439
176.000	-1.47484	-0.41889	-0.43554	-2.30673
180.001	-1.47236	-0.04456	-0.26207	-2.14272
184.003	-1.30990	-0.04586	-0.23713	-2.13925
188.005	-1.37451	0.51899	-0.00350	-2.14998
191.971	-1.41576	0.25646	-0.80220	-2.22252
195.996	-1.48218	0.36406	-0.63315	-2.32426
200.003	-1.31429	-0.02276	-0.45517	-2.20331
203.958	-1.19919	0.01687	-0.95643	-2.07284
208.004	-1.52379	0.18663	-0.97269	-2.26620
212.003	-1.49532	0.06757	-0.60198	-2.31145
216.003	-1.81010	0.30499	-0.39623	-2.26655
220.003	-1.49617	0.25506	-0.32814	-2.16126
224.003	-1.06078	0.29550	-0.21812	-2.02269
228.007	-1.22186	0.52100	0.03239	-1.64498
231.982	-0.86950	0.27728	-0.25984	-1.98957
235.991	-1.53567	0.39326	0.04182	-1.73153
240.002	-1.23072	0.35364	0.04204	-1.86390
244.002	-0.88865	0.25124	0.14387	-2.29408
248.002	-1.36712	0.27438	-0.57255	-1.94589
252.003	-1.33604	0.12620	-0.93718	-1.58521
256.002	-1.52727	0.27871	-0.40273	-1.78397
260.004	-1.14900	0.24335	-0.39658	-1.70617
264.004	-1.51742	0.40112	-0.67744	-1.88372
268.010	-1.28400	0.35701	-0.89473	-1.82451
272.004	-1.57905	0.13247	-1.03513	-1.96348
276.005	-1.50938	0.35067	-0.91589	-2.02604
280.003	-1.27730	0.24440	-0.92820	-1.94764
284.006	-1.26212	0.18717	-0.95219	-2.02614
288.005	-1.20561	0.02974	-0.99668	-1.80395
292.009	-1.52300	-0.01416	-1.02494	-1.95955
296.005	-1.29467	0.20570	-0.96534	-2.05393
300.005	-1.27053	-0.02703	-0.89850	-2.09129
304.004	-1.12596	-0.11215	-0.83625	-2.13807
308.004	-1.28832	0.10414	-0.91225	-2.16179
312.008	-1.30734	0.06628	-0.96827	-2.02437
315.983	-1.05575	-0.00947	-0.76283	-2.11736
319.964	-1.18371	-0.11448	-0.75928	-2.19066
323.900	-1.05818	-0.25717	-0.46924	-2.03097
328.008	-1.05029	-0.45637	-0.17040	-1.83587
332.008	-1.03441	-0.47287	-0.33273	-2.00515
336.007	-0.64394	-0.28666	-0.31826	-2.03920
340.007	-0.38323	-0.23283	-0.39040	-2.17475
344.004	-1.03813	-0.23287	-0.15509	-2.14362
348.005	-0.89857	-0.31231	0.06579	-2.39305
352.006	-0.62340	-0.56760	0.37174	-2.32927
356.001	-0.70216	-0.74021	0.05120	-2.20405
359.999	-0.93668	-0.49926	0.16506	-2.47348
364.005	-1.15272	-0.47608	0.14737	-2.80840
368.005	-0.53900	-0.55914	0.37908	-2.50240
372.007	-0.79426	-0.74715	-0.13637	-2.32822
376.008	-1.19720	-0.40857	0.06691	-2.40004
380.005	-1.48391	-0.47753	-0.23013	-2.24882
384.005	-0.92842	-0.56321	0.35000	-2.00167
387.962	-0.89384	-0.66227	0.02757	-2.14966
392.008	-1.15057	-0.36091	-0.35216	-2.08116
396.008	-1.37942	-0.41652	-0.07669	-2.13574
399.981	-1.09341	-0.56651	0.39323	-2.51172
404.009	-1.01171	-0.69193	0.05048	-2.13286
408.007	-1.15501	-0.45660	-0.12389	-2.42901
412.006	-1.17359	-0.42189	0.60804	-2.78917
416.005	-1.11467	-0.30606	0.15260	-2.54920
420.009	-1.24707	-0.57582	0.13771	-2.85478
424.007	-1.31563	-0.47893	0.01995	-2.54435
428.009	-1.30320	-0.38314	0.15360	-2.66094
432.008	-1.12181	-0.31823	0.07890	-2.59779
436.010	-1.29050	-0.49155	0.02204	-2.50360
439.987	-1.29367	-0.62904	0.07842	-2.60527
444.006	-1.38719	-0.42479	0.22825	-2.23197
448.005	-1.45066	-0.41223	0.15759	-1.94421
452.008	-1.31268	-0.58527	-0.17591	-2.20888
456.008	-1.44547	-0.80336	0.10984	-2.35831
460.006	-1.46603	-0.78490	-0.18648	-1.96303
464.007	-1.49158	-0.67372	0.34583	-1.95853
468.010	-1.46316	-0.63260	-0.14012	-1.71291
472.008	-1.27936	-0.63556	-0.00715	-1.79084
476.009	-1.37245	-0.67463	0.29044	-1.82242
480.009	-1.36208	-0.76194	-0.14332	-1.88107
483.905	-1.30107	-0.70600	0.11262	-1.67924
488.009	-1.32366	-0.52657	0.33794	-1.64674
492.008	-1.36598	-0.50709	-0.17715	-1.69540
496.008	-1.46608	-0.48466	0.03164	-1.57506
500.011	-1.38977	0.15986	-0.11602	-1.64317
504.011	-1.44106	-0.28662	-0.01695	-1.68833
508.012	-1.34631	-0.41056	0.02144	-1.74159
511.965	-1.23369	-0.23060	0.00529	-1.78702
515.906	-1.05724	-0.24783	0.37439	-1.56642
520.011	-1.29623	-0.47029	0.11838	-1.53436
523.986	-1.40294	-0.44232	-0.00658	-1.61859
528.008	-1.42394	0.08198	-0.00789	-1.70594
532.014	-1.62234	0.19129	-0.03546	-1.84637
536.011	-1.40822	0.08719	-0.11297	-1.81609
540.010	-1.43156	-0.43484	-0.07875	-2.13673
544.009	-1.39272	0.08662	-0.00938	-1.81212
548.021	-1.39693	0.20442	-0.00509	-1.74060
552.010	-1.23749	-0.26396	0.12074	-2.08104
556.010	-1.28737	-0.36620	0.19963	-2.43007
559.887	-1.39574	-0.46942	0.48376	-1.98538
563.913	-1.50981	-0.35375	1.13347	-2.10478
567.889	-1.51407	-0.41274	0.92078	-2.06239
571.886	-1.48882	-0.02812	0.73469	-2.13172
575.884	-1.44344	0.01895	0.57451	-2.08216
579.906	-1.51181	0.03659	0.81295	-2.40970
583.841	-1.51551	0.25186	0.70265	-2.39438
587.886	-1.53488	0.25238	0.69662	-2.55212
591.885	-1.55767	0.32582	0.65878	-2.33581
595.906	-1.69175	0.31120	0.63784	-1.76514
599.886	-1.71357	0.31723	0.64369	-1.75935
603.887	-1.71387	0.29756	0.72039	-1.76523
607.886	-1.62812	0.33547	0.82950	-1.69143
611.906	-1.59269	0.42716	0.85999	-1.81785
615.883	-1.61275	0.43721	0.90078	-1.53979
619.886	-1.59006	0.39857	1.08411	-1.63600
623.887	-1.46452	0.29210	0.80275	-1.65746
627.906	-1.36367	0.24298	0.32268	-1.43112
631.891	-1.22471	0.18096	0.16117	-1.50692
635.843	-1.74526	0.14634	0.09431	-1.46831
639.919	-1.71144	0.08825	-0.02191	-1.51934
643.910	-1.83933	0.03924	-0.23549	-1.48640
647.857	-1.75761	0.03497	-0.26699	-1.46254
651.885	-1.57927	0.00445	-0.20596	-1.42805
655.852	-1.47139	-0.03716	-0.28607	-1.53313
659.876	-1.59869	-0.08843	-0.34146	-1.69076
663.888	-2.00700	-0.07917	-0.27671	-1.80155
667.887	-1.97220	-0.00047	-0.23207	-1.55680
671.888	-1.94754	0.25396	-0.12592	-1.58594
675.909	-1.96117	0.11801	0.55071	-1.59970
679.888	-1.80087	0.45821	0.98643	-1.71164
683.888	-1.64833	0.55645	0.38904	-1.82737
687.888	-1.52193	0.01622	0.04405	-1.70254
691.910	-1.29293	0.37676	0.21030	-1.74910
695.864	-1.56642	-0.08893	0.18219	-1.97566
699.888	-1.84929	0.78326	0.21060	-1.93448
703.890	-1.75954	0.02690	-0.19862	-1.94950
707.908	-1.73576	0.96058	-0.15938	-1.90989
711.844	-1.37880	0.52519	-0.12342	-2.06647
715.892	-1.16255	1.21750	0.09190	-2.06442
719.890	-1.47491	0.77104	0.19325	-2.04440
723.908	-1.98445	0.65927	0.32962	-2.07590
727.890	-2.06458	0.92396	0.43512	-2.00639
731.895	-2.08079	1.03437	0.81431	-2.03880
735.889	-1.87260	1.08416	0.84312	-2.07861
739.880	-1.78461	1.10263	1.06994	-2.04148
743.889	-1.64055	0.95691	1.23312	-2.01643
747.890	-1.45333	1.04083	0.33479	-1.98775
751.889	-1.37754	0.73461	0.02631	-1.95214
755.910	-1.12812	0.46667	0.11582	-1.76758
759.888	-1.18272	-0.81679	-0.05490	-2.02044
763.890	-1.30910	-0.46122	0.30071	-2.01461
767.889	-1.38657	-0.25346	0.15801	-2.11238
771.911	-1.87245	0.13640	0.43663	-2.12977
775.891	-1.60206	0.32584	0.57724	-2.05007
779.890	-1.42218	0.19481	0.19102	-2.21875
783.888	-1.23620	0.55270	0.05735	-2.08856
787.915	-1.13970	0.85530	0.03939	-2.12571
791.892	-1.11770	-0.07016	0.27823	-2.15668
795.890	-1.58083	-0.66634	0.47244	-2.16028
799.891	-1.36729	-0.76680	0.44587	-2.20756
803.912	-1.93755	-0.13264	0.63752	-2.20349
807.892	-1.98021	-0.40782	0.78972	-2.20538
811.892	-2.02150	-0.19122	0.89416	-2.21815
815.891	-1.92193	-0.26710	1.06041	-2.17110
819.900	-1.78312	-0.22582	1.28683	-2.17110
823.846	-1.88945	-0.41731	1.04744	-2.11365
827.847	-1.93755	-0.47116	1.24838	-2.14290
831.899	-2.04344	-0.32891	1.30925	-2.22503
835.913	-2.03234	-0.30411	1.25800	-2.25908
839.894	-2.02128	1.19338	1.09036	-2.34795
843.893	-2.02817	1.06809	1.03161	-2.26871
847.893	-1.95254	1.28163	0.62501	-2.28664
851.883	-1.92404	1.09026	0.13466	-2.30741
855.896	-1.87810	0.62350	0.62424	-2.33806
859.892	-1.83563	0.63812	0.46028	-2.27596
863.886	-1.78870	0.78160	0.40556	-2.32834
867.915	-1.79143	0.66180	0.46095	-2.36231
871.893	-1.75446	0.75998	0.39263	-2.34479
875.892	-1.71645	0.83102	0.37529	-2.28600
879.891	-1.67072	0.87132	0.27768	-2.27072
883.894	-1.67253	0.78706	0.27083	-2.21641
887.891	-1.65999	0.82340	0.26413	-2.31366
891.892	-1.68595	0.81767	0.30367	-2.34109
895.892	-1.78580	0.82774	0.35146	-2.40104
899.883	-1.78654	0.93625	0.35553	-2.36443
903.864	-1.88787	1.01773	0.21482	-2.37559
907.895	-1.93524	1.07123	0.26607	-2.36365
911.892	-1.91734	1.13030	0.25949	-2.42648
915.891	-1.95834	1.20266	0.28917	-2.48814
919.893	-2.00752	1.10423	0.24011	-2.39652
923.895	-2.12079	1.17037	0.29828	-2.43580
927.894	-2.07266	1.11466	0.24128	-1.89516
931.914	-2.09157	0.80559	0.22343	-2.32761
935.895	-1.88380	0.46169	0.41187	-2.23057
939.897	-1.44158	0.45526	0.28014	-2.05640
943.879	-1.21621	0.84541	0.25453	-2.12738
947.916	-1.37555	0.57619	0.33953	-2.07870
951.895	-1.63489	0.68654	0.36102	-2.19073
955.897	-1.61022	0.25030	0.26860	-2.12085
959.894	-1.03662	0.52784	0.24651	-1.89230
963.896	-1.00918	0.73667	0.30116	-2.09313
967.896	-1.12933	0.76397	0.26979	-2.14038
971.895	-1.31349	0.49523	-0.21338	-2.10545
975.898	-0.98933	0.42540	0.18045	-1.95476
979.915	-1.36419	0.41987	0.18993	-1.98531
983.894	-1.21722	1.16850	0.08480	-2.07122
987.864	-1.04937	1.67728	0.15375	-1.98889
991.850	-2.28180	0.59154	0.05452	-0.55633
995.897	-2.07194	1.82071	2.98782	-1.19216
999.896	-2.04408	2.25477	-0.14749	-1.19931
1003.895	-7.48232	2.84225	-0.14436	-2.02520
1007.855	NaN	NaN	2.78515	2.15089
1011.914	NaN	NaN	NaN	NaN
1015.896	NaN	NaN	NaN	NaN
1019.896	NaN	NaN	NaN	NaN
1023.894	NaN	NaN	NaN	NaN
1027.876	NaN	NaN	NaN	NaN
1031.895	NaN	NaN	NaN	NaN
1035.895	NaN	NaN	NaN	NaN
1039.894	NaN	NaN	NaN	NaN
1043.896	NaN	NaN	NaN	NaN
1047.895	NaN	NaN	NaN	NaN
1051.896	NaN	NaN	NaN	NaN
1055.899	NaN	NaN	NaN	NaN
1059.892	NaN	NaN	NaN	NaN
1063.894	NaN	NaN	NaN	NaN
1067.891	NaN	NaN	NaN	NaN
1071.852	NaN	NaN	NaN	NaN
1075.898	NaN	NaN	NaN	NaN
1079.852	NaN	NaN	NaN	NaN
1083.929	NaN	NaN	NaN	NaN
1087.854	NaN	NaN	NaN	NaN
1091.899	-11.57896	8.52847	NaN	NaN
1095.894	-12.94054	7.26157	-11.05574	13.38163
1099.897	-12.81139	4.75424	-13.06179	10.23379
1103.897	-11.53546	3.77371	-10.99781	6.25153
1107.898	-10.58138	2.58668	-11.52676	2.97846
1111.887	-11.30094	3.78932	-11.54914	3.80436
1115.898	-10.85480	3.34795	-11.51611	2.68042
1119.898	-10.95131	3.22261	-11.58265	2.94429
1123.898	-11.12073	1.96176	-11.86167	2.66354
1127.899	-10.85145	1.84371	-11.60806	2.34061
1131.897	-10.47036	2.02224	-11.34306	2.89135
1135.900	-10.77993	2.87450	-10.23870	2.68371
1139.900	-8.82591	2.93391	-8.56001	0.90424
1143.900	-6.90273	2.76776	-10.07514	-0.25843
1147.899	-9.16799	2.73847	-8.92105	0.09679
1151.885	-9.46553	0.91165	-9.14733	0.21805
1155.885	-10.06583	1.24154	-9.56890	-0.80557
1159.888	-9.18206	0.95659	-9.49861	-0.89623
1163.898	-9.76449	1.51053	-9.75131	-0.73491
1167.898	-10.08445	1.45755	-9.91368	-0.41030
1171.899	-10.10576	1.51928	-9.84346	-0.61845
1175.901	-10.33334	1.99913	-9.83592	-0.27299
1179.899	-10.18505	2.06970	-9.76587	-0.19317
1183.899	-9.95476	1.68015	-9.90412	0.25955
1187.901	-9.84744	1.67213	-9.90614	0.22378
1191.903	-9.78510	1.69192	-9.86298	0.43217
1195.865	-9.90380	1.75943	-9.86245	0.37028
1199.903	-9.99241	1.82653	-9.84811	0.81633
1203.900	-9.96877	1.87954	-9.59288	0.57714
1207.902	-10.13753	1.95384	-9.78300	-0.16211
1211.900	-10.23372	2.01346	-9.69460	0.24492
1215.900	-10.19101	2.05770	-9.65165	-0.08229
1219.900	-10.13494	2.14304	-9.59206	0.06378
1223.902	-10.09638	2.30122	-9.58398	-0.08186
1227.901	-10.41354	2.47451	-9.79860	-0.06489
1231.900	-10.90073	2.41724	-10.23711	0.02563
1235.884	-12.39554	2.48165	-11.07981	0.23381
1239.903	-12.16221	2.22014	-11.06628	0.25833
1243.900	-11.88644	2.34793	-11.23167	0.17156
1247.900	-11.50885	2.32250	-11.31426	0.24127
1251.899	-11.51311	2.26128	-11.06662	0.27272
1255.902	-11.74953	2.28807	-11.04635	0.19194
1259.901	-11.89000	2.27549	-11.39611	-0.11992
1263.902	-11.95275	2.26773	-11.48649	0.21882
1267.902	-12.10948	2.03844	-11.49445	0.46348
1271.799	-12.10952	2.11041	-11.33996	0.42919
1275.902	-12.24057	1.89093	-11.41326	0.37264
1279.898	-12.16214	2.07096	-11.44397	0.66535
1283.903	-11.97094	2.14036	-11.57715	0.41661
1287.904	-12.16686	2.10872	-11.65823	0.36521
1291.903	-12.04130	2.11653	-11.52705	0.36305
1295.902	-12.09662	2.15409	-11.32727	0.31428
1299.902	-12.17838	2.03209	-11.23525	0.01306
1303.796	-12.15396	1.90825	-11.00491	0.40632
1307.902	-12.18550	1.76695	-10.94600	0.27220
1311.902	-12.30786	1.85710	-11.34063	0.39518
1315.903	-12.26128	1.76130	-11.36055	0.39488
1319.804	-12.25453	1.94555	-11.16535	0.20446
1323.903	-12.24336	1.78978	-11.10780	0.21979
1327.904	-12.32580	1.72926	-11.00099	0.30817
1331.903	-12.23936	1.67357	-10.93215	0.40776
1335.800	-12.21961	1.71251	-10.84690	0.30008
1339.899	-12.24467	1.64587	-10.86440	0.05169
1343.903	-12.32871	1.63205	-10.93610	0.31505
1347.904	-12.31966	1.69137	-10.99621	0.28091
1351.795	-12.33188	1.69192	-10.99097	0.24674
1355.905	-12.22798	1.71942	-11.19681	0.23942
1359.890	-12.18751	1.68986	-11.26856	0.33733
1363.902	-12.15792	1.66660	-11.27820	0.48045
1367.800	-12.17397	1.78595	-11.22515	0.32414
1371.904	-12.11918	1.81875	-11.18360	0.35061
1375.905	-12.10941	1.80398	-11.33485	0.36120
1379.906	-12.05950	1.76766	-11.32287	0.28105
1383.800	-12.10381	1.84113	-11.38309	0.43205
1387.901	-12.03270	1.85866	-11.40043	0.32794
1391.859	-11.93679	1.85432	-11.37708	0.32938
1395.908	-11.93674	1.88295	-11.26724	0.35797
1399.801	-11.97199	2.14140	-11.37729	0.23584
1403.870	-11.98220	2.06900	-11.23740	0.46826
1407.904	-11.90906	2.15134	-11.10837	0.39457
1411.905	-12.01112	1.99914	-11.07035	0.37736
1415.800	-12.09844	1.94774	-11.07632	0.31843
1419.906	-12.02724	1.99562	-11.07984	0.85759
1423.904	-12.04970	2.03751	-11.01139	0.85828
1427.906	-11.84872	2.23919	-11.05775	1.02784
1431.799	-11.33607	2.09757	-10.82600	0.45118
1435.907	-9.14994	1.77552	-9.58087	-0.31640
1439.907	-8.25999	-0.65934	-7.94582	-1.63503
1443.889	-6.33785	-0.70739	-6.59608	-0.69709
1447.905	-4.75802	-1.73104	-5.03068	-1.10315
1451.905	-4.27336	-1.92734	-3.19511	-2.40068
1455.905	-2.38707	-2.76588	-1.87312	-4.06123
1459.906	-1.38743	-4.01954	-0.82491	-4.89086
1463.906	-0.80699	-5.14537	0.80044	-5.10470
1467.906	-0.51714	-6.83681	0.71853	-5.48990
1471.906	-0.67717	-6.97304	0.92021	-5.25792
1475.907	-0.65330	-6.67495	1.11254	-5.37338
1479.802	-0.51537	-6.32735	1.29353	-5.16717
1483.867	-0.60240	-6.04699	1.31369	-5.14527
1487.869	-0.79302	-6.13001	1.27559	-5.15771
1491.906	-1.13548	-6.39486	1.29425	-5.17670
1495.907	-0.90969	-6.35926	1.24391	-5.19050
1499.906	-0.85999	-6.09645	1.54505	-5.26212
1503.906	-1.00881	-6.02944	1.33646	-5.38143
1507.862	-1.10723	-6.30074	1.34951	-5.51422
1511.908	-0.97440	-6.10576	1.38508	-5.54468
1515.908	-1.33716	-6.35746	1.38528	-5.60415
1519.906	-1.28179	-6.25095	1.43369	-5.92984
1523.907	-1.26545	-6.26499	1.34152	-5.86291
1527.805	-1.25870	-5.94346	1.01853	-5.53405
1531.905	-1.32188	-6.05965	1.23642	-5.64848
1535.911	-1.23459	-5.98608	1.47501	-5.82162
1539.907	-1.29829	-5.94253	1.61627	-5.68354
1543.907	-1.28732	-5.99849	1.51995	-5.78497
1547.908	-1.31806	-5.91919	1.52345	-5.78821
1551.907	-1.35601	-5.78184	1.46283	-5.62239
1555.863	-1.35765	-5.70550	1.06627	-5.47791
1559.805	-1.33051	-5.70731	1.36975	-5.36350
1563.907	-1.32143	-5.72794	1.50172	-5.43575
1567.900	-1.37531	-5.64534	1.46804	-5.39563
1571.863	-1.35571	-5.70056	1.60563	-5.28189
1575.774	-1.24086	-5.83578	1.51085	-5.48787
1579.779	-1.38934	-5.82651	1.27346	-5.29803
1583.909	-1.42382	-5.68527	1.12591	-5.25160
1587.784	-1.34395	-5.50138	1.34266	-5.25470
1591.740	-1.36972	-5.71607	1.41995	-5.14891
1595.785	-1.32810	-5.58876	1.43771	-5.07324
1599.784	-1.43121	-5.38045	1.60323	-5.09358
1603.785	-1.44698	-5.29558	1.08874	-5.15685
1607.782	-1.46752	-5.50616	1.14074	-5.23300
1611.785	-1.41988	-5.51196	1.01521	-5.25768
1615.783	-1.42384	-5.49800	1.13025	-5.31059
1619.785	-1.39577	-5.52888	1.60814	-5.45411
1623.772	-1.39860	-5.33133	1.86751	-5.37084
1627.785	-1.46033	-5.54300	1.65838	-5.62753
1631.784	-1.48669	-5.54333	1.07902	-5.50765
1635.783	-1.60434	-5.54083	0.91842	-5.54258
1639.775	-1.52935	-5.43170	1.30015	-5.50064
1643.784	-1.54946	-5.45742	1.52593	-5.73218
1647.742	-1.51472	-5.61252	1.23248	-5.95175
1651.786	-1.47330	-5.57409	1.38009	-5.82108
1655.775	-1.61049	-5.48121	1.51682	-5.95473
1659.776	-3.06986	-5.60617	2.04765	-5.92642
1663.785	-4.04058	-6.31120	11.90638	-6.60683
1667.784	NaN	NaN	-1.57999	-5.96527
1671.776	NaN	NaN	NaN	NaN
1675.783	NaN	NaN	NaN	NaN
1679.787	NaN	NaN	NaN	NaN
1683.790	NaN	NaN	NaN	NaN
1687.789	NaN	NaN	NaN	NaN
1691.785	NaN	NaN	NaN	NaN
1695.740	NaN	NaN	NaN	NaN
1699.739	NaN	NaN	NaN	NaN
1703.786	NaN	NaN	NaN	NaN
1707.786	NaN	NaN	NaN	NaN
1711.785	NaN	NaN	NaN	NaN
1715.785	NaN	NaN	NaN	NaN
1719.784	NaN	NaN	NaN	NaN
1723.786	NaN	NaN	NaN	NaN
1727.786	NaN	NaN	NaN	NaN
1731.786	NaN	NaN	NaN	NaN
1735.785	NaN	NaN	NaN	NaN
1739.774	NaN	NaN	NaN	NaN
1743.782	NaN	NaN	NaN	NaN
1747.787	NaN	NaN	NaN	NaN
1751.741	NaN	NaN	NaN	NaN
1755.786	NaN	NaN	NaN	NaN
1759.775	NaN	NaN	NaN	NaN
1763.787	NaN	NaN	NaN	NaN
1767.787	NaN	NaN	NaN	NaN
1771.789	20.53105	-4.23378	NaN	NaN
1775.789	5.42732	-6.47989	23.33065	-7.45425
1779.787	20.58595	-8.00227	22.52475	-7.82791
1783.763	6.35030	-10.04185	22.19926	-9.54313
1787.789	6.16429	-10.24519	20.11649	-11.66148
1791.788	6.06919	-10.60711	19.26816	-11.47503
1795.807	8.56702	-10.93022	12.50690	-9.28734
1799.788	11.75322	-10.95161	13.94422	-9.06044
1803.788	13.65711	-12.32982	13.44803	-8.90571
1807.787	13.15748	-11.73942	13.53568	-9.04501
1811.777	12.76435	-11.56723	13.63571	-9.12868
1815.788	12.77483	-11.00782	13.69097	-9.03210
1819.748	12.61620	-11.14750	13.99438	-8.94607
1823.769	11.66653	-11.18636	13.89236	-9.19212
1827.811	12.25877	-11.03439	13.90050	-9.26898
1831.791	12.04094	-11.25333	14.15643	-9.23021
1835.791	12.30135	-10.76788	14.46186	-9.28345
1839.794	12.03902	-11.08818	14.77978	-9.50509
1843.810	12.05041	-11.33728	14.47292	-9.37771
1847.789	12.28377	-10.97931	14.34205	-9.61155
1851.789	11.97368	-10.95569	14.48415	-9.50084
1855.789	11.79900	-10.84749	14.13953	-9.41301
1859.814	11.91270	-10.95726	14.46000	-9.37956
1863.791	11.87710	-10.86152	14.60181	-9.51007
1867.783	12.12950	-10.80385	14.69281	-9.45646
1871.790	12.13809	-10.77093	14.58847	-9.48979
1875.810	11.84941	-10.35171	14.45977	-9.52801
1879.790	11.67877	-9.86839	14.46182	-9.46578
1883.779	11.94330	-10.40594	14.57369	-9.47329
1887.744	11.82193	-10.86559	14.71387	-9.67653
1891.823	11.92686	-10.85744	14.61787	-9.56016
1895.790	11.64570	-10.78568	14.41485	-9.43242
1899.791	11.72838	-10.66926	14.38460	-9.40805
1903.790	11.61709	-10.73273	14.35724	-9.55277
1907.812	12.51553	-10.72690	14.62091	-9.59222
1911.789	12.54580	-10.39088	14.22424	-9.37179
1915.790	11.88304	-10.32535	14.38132	-9.43028
1919.791	11.60377	-10.25201	14.51577	-9.46497
1923.812	11.97940	-10.30844	14.39648	-9.42101
1927.791	11.72781	-10.39370	13.97388	-9.33208
1931.791	11.66249	-10.22477	14.37366	-9.39557
1935.792	11.55087	-10.40033	14.57183	-9.50881
1939.814	11.66034	-10.34192	14.00851	-9.24532
1943.793	11.57500	-10.50770	14.36313	-9.44827
1947.791	11.48289	-10.24216	14.37380	-9.37244
1951.792	11.40684	-10.20582	14.52402	-9.57561
1955.813	11.50224	-9.96544	14.04162	-9.27038
1959.791	11.67877	-10.40153	14.41443	-9.38552
1963.792	11.32330	-10.25070	14.50739	-9.54280
1967.792	11.34948	-9.79821	14.17392	-9.35960
1971.788	11.41068	-9.99424	14.39883	-9.55451
1975.791	11.28586	-10.27193	14.65288	-9.53126
1979.793	11.22501	-10.03598	14.56790	-9.64382
1983.772	11.57291	-9.85859	14.28408	-9.30001
1987.795	11.20051	-10.29012	14.23818	-9.58411
1991.793	11.93073	-10.01171	14.70869	-9.57487
1995.795	12.14399	-10.11733	14.41336	-9.42761
1999.793	10.68525	-9.69861	14.32286	-9.39684
2003.794	11.05579	-9.80407	14.43375	-9.47334
2007.790	11.51123	-9.78242	14.21565	-9.50045
2011.793	11.71825	-9.78622	9.79028	-8.21434
2015.795	11.35809	-9.65978	14.68651	-9.47235
2019.793	11.96422	-8.76424	14.31458	-8.89123
2023.793	12.84803	-8.98719	14.48615	-9.13227
2027.792	8.25800	-9.02456	14.71426	-8.75030
2031.770	7.93031	-8.02174	21.05208	-9.07038
2035.820	19.10689	-5.51247	22.46055	-8.79559
2039.798	18.71788	-2.29519	23.33500	-8.62381
2043.794	-19.99372	-12.07624	12.89699	-7.72305
2047.794	-19.99372	-12.07698	-19.99372	-12.07492
2051.785	-19.99372	-12.07729	-19.99372	-12.07646
2055.794	-19.99372	-12.07740	-19.99372	-12.07680
2059.793	NaN	NaN	-19.99372	-12.07704
2063.793	NaN	NaN	-19.99372	-12.07713
2067.798	NaN	NaN	-19.99372	-12.07720
2071.786	NaN	NaN	-19.99372	-12.07722
2075.789	NaN	NaN	-19.99372	-12.07740
2079.796	NaN	NaN	NaN	NaN
2083.796	NaN	NaN	NaN	NaN
2087.793	NaN	NaN	NaN	NaN
2091.796	NaN	NaN	NaN	NaN
2095.796	NaN	NaN	NaN	NaN
2099.796	NaN	NaN	NaN	NaN
2103.754	NaN	NaN	NaN	NaN
2107.797	NaN	NaN	NaN	NaN
2111.795	NaN	NaN	NaN	NaN
2115.765	NaN	NaN	NaN	NaN
2119.751	NaN	NaN	NaN	NaN
2123.798	NaN	NaN	NaN	NaN
2127.797	NaN	NaN	NaN	NaN
2131.794	NaN	NaN	NaN	NaN
2135.794	NaN	NaN	NaN	NaN
2139.802	NaN	NaN	NaN	NaN
2143.795	-18.05409	0.30510	NaN	NaN
2147.796	-17.84615	-5.01215	NaN	NaN
2151.797	-7.72256	-4.23732	NaN	NaN
2155.778	-11.35661	-3.10633	-19.96566	7.10450
2159.792	-14.03919	-0.18917	-9.69759	-0.18204
2163.796	-4.94075	-3.60998	-13.83180	-2.37665
2167.798	-11.88765	0.15545	-17.59626	-0.96724
2171.798	-12.12604	0.21003	-6.70599	0.86343
2175.797	-13.41962	0.09504	-8.36683	3.64359
2179.797	-3.23660	4.08712	-13.13736	3.94320
2183.752	-3.83860	2.87516	-12.15424	4.03415
2187.802	-7.03682	2.93106	-10.24653	3.31197
2191.798	-7.40240	2.80296	-10.59809	2.52708
2195.800	-8.07718	2.34949	-9.71177	2.38341
2199.755	-8.05144	2.41888	-8.82293	2.23459
2203.798	-8.17208	1.83108	-7.19703	1.35637
2207.798	-7.69537	2.09232	-7.40013	0.49101
2211.798	-7.71291	1.94271	-7.40765	0.51852
2215.794	-7.62709	2.14033	-7.17927	0.43623
2219.798	-7.58661	2.31512	-7.31298	0.34505
2223.797	-7.75609	2.20780	-6.84619	-0.29813
2227.798	-7.66807	2.16966	-6.98142	0.14148
2231.800	-7.62587	2.28292	-6.95276	0.58771
2235.798	-7.54876	2.18229	-7.41878	0.48081
2239.779	-7.72834	2.34071	-7.13263	0.44012
2243.799	-7.57503	2.33331	-6.89916	0.38483
2247.800	-7.54844	2.18212	-6.99866	0.44456
2251.803	-7.61138	2.18214	-6.89373	0.58147
2255.798	-7.68725	2.63898	-7.02027	0.50382
2259.752	-7.64050	2.39715	-6.92670	0.61593
2263.754	-7.80611	2.12044	-6.91432	0.56893
2267.797	-7.90099	2.71102	-7.08730	1.42666
2271.800	-7.69327	2.80145	-7.08522	0.70249
2275.799	-7.85572	2.54308	-7.10863	-0.08307
2279.793	-7.92325	2.23614	-6.95125	1.48264
2283.755	-7.81388	2.64698	-7.00927	1.14914
2287.799	-7.84450	2.41292	-7.10081	0.00488
2291.799	-7.74540	2.07486	-6.97404	0.26300
2295.799	-7.87859	2.64869	-6.91437	1.73043
2299.800	-7.73017	2.41601	-7.14311	0.69870
2303.800	-7.74060	2.14580	-6.86078	0.13044
2307.800	-7.82803	1.48030	-7.01590	-0.52472
2311.789	-7.74359	4.07708	-7.00629	-0.02491
2315.802	-8.17011	2.80366	-8.98758	0.87012
2319.796	-9.56928	3.18981	-10.43925	1.59596
2323.798	-10.67881	2.98616	-11.33724	1.04321
2327.802	-11.39871	3.06400	-11.21579	-0.11458
2331.800	-11.57034	3.18942	-11.40043	0.28322
2335.803	-11.99583	3.18260	-11.65244	0.99365
2339.801	-11.82216	3.37881	-11.75700	1.54658
2343.702	-11.82901	3.31401	-11.73562	1.17856
2347.801	-12.03235	3.18564	-11.74853	1.26033
2351.799	-11.81593	3.03549	-11.87142	1.08458
2355.807	-11.92731	2.54554	-11.87940	1.16433
2359.697	-11.94959	1.93029	-11.80136	0.77880
2363.786	-11.90421	2.61518	-11.65120	0.38214
2367.798	-11.91084	2.63450	-11.42957	0.18995
2371.800	-11.97140	2.46035	-11.64992	0.06685
2375.694	-11.94437	2.29552	-11.80148	0.65521
2379.800	-11.95258	2.33824	-11.81451	0.93352
2383.820	-11.99956	2.31395	-11.72767	0.75002
2387.756	-11.94802	2.22364	-11.87470	0.52154
2391.697	-11.95258	2.24283	-11.82554	0.59844
2395.803	-11.97420	2.30842	-11.78683	0.57031
2399.802	-11.99662	2.18574	-11.74979	0.67336
2403.804	-12.01259	2.27497	-11.78122	0.71358
2407.699	-11.98163	2.30976	-11.78685	0.83867
2411.802	-12.01566	2.38763	-11.83783	0.94650
2415.802	-12.06109	2.61356	-11.86094	1.20335
2419.802	-12.08238	2.89217	-11.70183	1.21623
2423.697	-12.11429	2.81398	-11.69262	0.96534
2427.802	-12.19650	2.91182	-11.58082	1.11563
2431.802	-11.96467	2.72227	-11.54363	1.18899
2435.802	-11.97892	2.96146	-11.63668	1.26999
2439.697	-12.01929	3.11523	-11.72377	1.22910
2443.803	-12.12976	3.24970	-11.72636	1.39982
2447.804	-12.16498	3.07721	-11.62263	1.43832
2451.804	-12.20887	3.05074	-11.62082	1.59548
2455.704	-11.91560	2.90443	-11.56772	1.58230
2459.802	-11.88661	2.71597	-11.45250	1.67180
2463.802	-11.92633	2.97830	-11.49283	1.36685
2467.803	-11.85770	2.98451	-11.42642	1.24258
2471.804	-11.88815	2.86759	-11.37195	1.20188
2475.801	-11.94565	3.03010	-11.32104	0.94913
2479.802	-12.08893	2.92029	-11.34215	0.98043
2483.823	-12.10312	2.93988	-11.30584	1.11311
2487.700	-12.04438	2.97436	-11.22286	0.89955
2491.793	-11.99419	2.76868	-11.18000	1.02507
2495.802	-11.89362	2.58507	-11.15568	1.06697
2499.803	-11.75762	2.62690	-11.16010	1.39722
2503.700	-11.79154	2.85640	-11.30142	1.03791
2507.804	-11.83576	2.89366	-11.37560	1.42629
2511.807	-11.86324	3.08783	-11.53191	1.83537
2515.803	-11.85266	3.18358	-11.68084	1.47807
2519.805	-11.79919	3.37888	-11.73521	1.50421
2523.805	-11.70166	3.51199	-11.91657	1.34707
2527.804	-11.74703	3.27179	-12.07412	1.52747
2531.805	-11.73338	3.10020	-11.79677	1.25754
2535.805	-11.70763	3.12417	-11.44342	1.03245
2539.760	-11.75170	2.88996	-11.58015	0.98291
2543.809	-11.78737	3.07879	-11.68610	1.12467
2547.805	-11.85946	3.27944	-11.98914	1.10664
2551.705	-11.89038	3.16588	-12.22454	1.52146
2555.805	-11.77910	3.16602	-12.18746	1.34865
2559.804	-11.82083	2.98181	-12.42498	1.33479
2563.806	-11.86954	3.09826	-11.54768	1.97087
2567.706	-11.88299	3.12889	-11.40734	1.32381
2571.787	-11.98548	3.33781	-11.28791	1.01304
2575.802	-11.96294	3.03970	-11.38788	1.19183
2579.805	-12.10350	3.20788	-11.22250	1.01388
2583.669	-12.05782	2.98146	-11.03552	1.02019
2587.807	-12.16240	3.01847	-11.39744	1.09978
2591.807	-12.02639	2.87626	-11.82271	1.63633
2595.807	-11.98009	2.63887	-12.11636	1.59872
2599.700	-12.00367	2.49604	-11.70366	1.06000
2603.806	-12.04825	2.58561	-11.65335	0.95842
2607.682	-12.12189	2.54380	-11.67939	0.98835
2611.680	-12.35715	2.84828	-11.77812	0.70729
2615.638	-12.19832	2.79061	-11.50291	-0.02885
2619.653	-11.94562	3.14192	-11.78906	0.30934
2623.682	-12.09159	3.10577	-12.02003	0.99166
2627.682	-12.20131	3.49454	-11.82188	1.07836
2631.655	-12.14463	3.57682	-11.99063	1.22931
2635.638	-12.41185	3.55275	-11.97828	1.03573
2639.684	-12.42401	3.17674	-11.82138	1.91376
2643.687	-12.52731	3.35849	-11.73031	1.45388
2647.674	-12.55339	3.44985	-11.73666	1.51460
2651.683	-12.68654	3.49649	-11.62837	0.61946
2655.685	-12.42536	2.91429	-11.85381	1.20620
2659.669	-12.26294	3.05798	-11.92776	1.28694
2663.639	-12.53055	3.12654	-11.75484	0.46536
2667.683	-12.67277	3.10779	-11.46235	0.24682
2671.682	-12.60436	2.60818	-11.63606	0.18422
2675.682	-12.69278	2.63617	-11.84007	0.48864
2679.674	-12.63395	2.76744	-12.08323	1.40952
2683.638	-12.67927	3.14958	-11.98047	1.12327
2687.685	-12.75526	3.30289	-11.83063	1.12226
2691.684	-12.82101	3.60048	-11.80495	1.20248
2695.681	-12.84411	3.19559	-11.67391	1.40067
2699.683	-12.59526	3.76275	-11.56100	0.88056
2703.683	-10.33370	3.47427	-11.22967	1.64884
2707.682	-8.52666	3.79604	-9.43250	1.31867
2711.702	-6.61486	3.20160	-8.34460	1.22963
2715.684	-4.31306	2.73036	-6.95377	1.41048
2719.684	-3.40079	1.80003	-4.20548	0.75604
2723.684	-1.33726	0.53084	-3.01858	-0.21651
2727.705	-0.42065	0.57629	0.16045	-1.43098
2731.685	0.19616	-1.13354	-0.37367	-2.02000
2735.684	0.92423	-0.80642	0.10912	-2.95529
2739.684	0.87240	-0.30290	0.84595	-3.16559
2743.692	0.94614	-0.50570	1.22990	-2.83518
2747.681	0.88029	-0.60203	1.23422	-2.71154
2751.686	0.88729	-0.67400	1.24327	-2.84584
2755.684	0.98077	-0.71922	1.28785	-3.09972
2759.705	0.76543	-0.89044	1.74169	-3.46012
2763.685	0.73407	-1.02714	1.64308	-3.60847
2767.685	0.66868	-1.25184	1.47479	-3.57295
2771.685	0.48661	-1.32619	1.54946	-3.60104
2775.683	0.51438	-1.31002	1.28579	-3.19491
2779.686	-0.62285	-1.25153	1.51318	-3.26616
2783.668	-0.06909	-1.08590	1.75079	-3.53560
2787.685	0.16759	-1.22281	2.56775	-3.76030
2791.675	0.36784	-1.24040	2.32932	-3.54814
2795.685	0.57104	-1.36568	2.21985	-3.76239
2799.684	-0.05611	-1.50680	1.86640	-3.90420
2803.686	-0.01519	-1.41902	1.47330	-3.81056
2807.675	-0.41673	-1.45780	1.36459	-3.80250
2811.684	0.09284	-1.38641	0.86791	-3.83632
2815.686	2.06250	-1.60829	0.74399	-3.75316
2819.642	0.73997	-1.90559	0.80645	-3.62226
2823.681	1.07689	-1.54616	0.80198	-3.64466
2827.667	0.84903	-1.82056	0.55803	-3.34278
2831.686	0.24408	-1.87317	1.26207	-3.54441
2835.688	0.20524	-1.67176	1.64139	-3.20173
2839.707	0.94433	-1.45664	-4.12883	-7.18829
2843.692	3.10186	2.04011	0.95906	-3.74454
2847.689	0.68104	-2.84909	0.74615	-3.59865
2851.686	0.63414	-2.00928	0.98271	-3.55460
2855.708	0.49895	-2.06129	0.94135	-3.53742
2859.688	0.30039	-1.54852	1.01834	-3.51838
2863.688	0.48123	-1.57327	-1.86922	-7.22767
2867.675	0.23832	-1.92338	2.55173	-3.79473
2871.685	0.27267	-2.61633	3.00111	-3.71751
2875.688	0.07679	-2.28086	2.03890	-2.66739
2879.686	0.07974	-1.80737	1.31669	-2.41734
2883.686	-0.00124	-1.55818	1.54014	-3.92444
2887.644	0.07242	-1.60677	1.15439	-4.04425
2891.687	0.32444	-1.51187	1.05359	-3.95133
2895.687	0.16618	-2.26039	1.52583	-3.82667
2899.686	0.72464	-1.65943	2.16404	-3.99040
2903.680	-0.59580	-1.40531	-2.45079	-6.25027
2907.689	-0.84240	3.08496	2.95369	-3.32765
2911.656	5.05715	-3.57246	2.18027	-3.70602
2915.687	NaN	NaN	2.38046	-1.63372
2919.710	NaN	NaN	2.17807	6.22049
2923.688	NaN	NaN	NaN	NaN
2927.688	NaN	NaN	NaN	NaN
2931.687	NaN	NaN	NaN	NaN
2935.710	NaN	NaN	NaN	NaN
2939.687	NaN	NaN	NaN	NaN
2943.688	NaN	NaN	NaN	NaN
2947.687	NaN	NaN	NaN	NaN
2951.671	NaN	NaN	NaN	NaN
2955.682	NaN	NaN	NaN	NaN
2959.689	NaN	NaN	NaN	NaN
2963.645	NaN	NaN	NaN	NaN
2967.644	NaN	NaN	NaN	NaN
2971.690	NaN	NaN	NaN	NaN
2975.689	-13.17913	-14.29046	NaN	NaN
2979.680	-16.66685	4.90110	NaN	NaN
2983.655	-13.47524	-1.16807	NaN	NaN
2987.692	-14.59538	0.27373	-16.81487	10.00565
2991.691	-14.66921	1.58714	-23.23776	3.56030
2995.686	-15.45968	2.85543	-14.37412	7.06353
2999.689	-16.53575	5.19868	-17.28808	8.61570
3003.681	-16.81760	1.19269	-16.56342	1.48794
3007.690	-17.12140	1.48880	-16.65756	6.45686
3011.691	-15.17422	2.64194	-16.13697	5.38134
3015.663	-15.04813	2.54913	-15.93988	2.65403
3019.688	-14.15764	1.72392	-15.57083	1.47808
3023.690	-14.54081	2.35216	-15.08317	0.54261
3027.690	-12.47118	3.07031	-13.81752	1.48933
3031.691	-13.84687	2.93730	-14.48457	1.20779
3035.692	-13.67368	2.78321	-13.42657	1.32382
3039.689	-13.56709	2.96185	-13.42423	1.67029
3043.690	-13.62495	3.19786	-13.10426	1.46335
3047.692	-13.66498	3.16316	-13.08894	0.29511
3051.682	-13.40558	3.37017	-12.89666	0.72336
3055.691	-13.34366	3.02612	-12.74586	0.08386
3059.692	-13.32193	3.23799	-12.79083	0.02079
3063.690	-13.46268	3.22989	-12.63636	0.61394
3067.682	-13.54455	3.11677	-12.71328	1.02432
3071.693	-13.50352	3.09398	-12.75627	0.03754
3075.694	-13.52839	2.99686	-12.73916	-0.05436
3079.682	-13.48294	2.72539	-12.73191	0.30244
3083.648	-13.43925	2.92909	-12.53403	0.34364
3087.694	-13.51607	2.86739	-12.68066	0.45452
3091.692	-13.38106	2.89418	-12.76817	0.67013
3095.692	-13.46299	2.82936	-12.71911	0.61934
3099.682	-13.60106	2.77534	-12.67898	0.63999
3103.690	-13.51182	2.82298	-12.70279	0.28808
3107.693	-13.51309	2.72804	-12.69521	0.52363
3111.693	-13.44484	2.74080	-12.62750	0.09418
3115.664	-13.46385	2.66287	-12.72440	0.66021
3119.661	-13.48113	3.22152	-12.61566	0.50798
3123.693	-13.53690	3.57855	-12.56668	0.61037
3127.692	-13.49664	2.96179	-12.63038	0.65350
3131.682	-13.53230	3.33697	-12.49190	0.51844
3135.689	-13.52473	3.46138	-12.59373	0.68240
3139.693	-13.53568	3.59106	-12.52613	0.53215
3143.692	-13.54394	3.60446	-12.50931	0.64510
3147.682	-13.56162	3.39255	-12.46431	0.67726
3151.694	-13.62460	3.25468	-12.44732	0.78000
3155.695	-13.74634	3.03933	-12.41982	0.59291
3159.676	-13.80367	2.65242	-12.43286	0.53370
3163.690	-13.58364	2.52563	-12.55841	0.33049
3167.694	-13.65186	2.55141	-12.59654	0.19915
3171.694	-13.60334	2.51595	-12.39880	0.20979
3175.693	-13.18482	2.53903	-12.51399	0.08491
3179.691	-13.26326	2.59489	-12.52206	0.38410
3183.697	-13.58355	2.44561	-12.51593	0.36870
3187.696	-13.56512	2.54210	-12.61613	1.00478
3191.694	-13.44289	2.69486	-12.60888	0.88692
3195.690	-13.71915	2.47373	-12.52480	0.23746
3199.693	-13.53627	2.47144	-12.37863	0.19781
3203.690	-13.42242	2.72820	-12.54779	0.20794
3207.695	-13.41984	2.63914	-12.40922	0.35082
3211.692	-13.50542	2.62081	-12.39513	0.91771
3215.696	-13.44606	2.61247	-12.46268	0.81484
3219.696	-13.38477	2.65067	-12.48854	-0.24887
3223.694	-13.57921	2.64794	-12.59387	0.52507
3227.694	-13.53995	2.85898	-12.60231	0.78620
3231.693	-13.53066	2.50333	-12.52875	0.17764
3235.696	-13.43012	2.80569	-12.50687	0.72821
3239.696	-13.51285	2.75190	-12.56642	0.77341
3243.615	-13.22556	2.85892	-12.62022	0.58869
3247.699	-13.33899	2.67105	-12.63199	0.73641
3251.696	-13.36260	2.60563	-12.63137	0.62198
3255.694	-13.21056	2.49468	-12.59564	0.66368
3259.685	-13.53897	2.73907	-12.44647	0.63866
3263.696	-13.41274	2.66529	-12.53764	0.82246
3267.656	-13.23368	2.64192	-12.37034	0.68449
3271.696	-13.21926	2.78361	-12.45885	0.60051
3275.590	-13.11594	2.67489	-12.31466	0.67690
3279.697	-13.24828	2.79006	-12.52036	0.67871
3283.717	-13.30933	2.68118	-12.35860	0.64084
3287.698	-13.15993	2.69359	-12.50056	0.26720
3291.686	-13.17558	2.82099	-12.38853	0.06903
3295.696	-13.33856	2.94758	-12.54755	0.63938
3299.696	-13.38156	2.94667	-12.40226	0.68866
3303.698	-13.17289	2.90187	-12.36251	0.44205
3307.594	-13.16252	2.90745	-12.60226	0.49244
3311.697	-13.25138	3.07112	-12.26740	0.47477
3315.698	-13.15847	3.03153	-12.64860	0.44690
3319.701	-13.31892	3.02043	-12.54415	0.37734
3323.697	-13.19216	2.94172	-12.43885	0.53417
3327.667	-13.14367	2.95220	-12.66171	0.47659
3331.698	-13.28491	2.91687	-12.46883	0.61851
3335.696	-13.27177	2.96942	-12.44567	0.59200
3339.596	-13.39922	2.70538	-12.47061	0.27752
3343.697	-13.21728	2.79715	-12.32077	0.03319
3347.700	-13.13246	2.35819	-12.41256	0.68348
3351.698	-13.20486	2.51067	-12.24322	-0.54897
3355.594	-13.75809	1.95951	-12.64803	0.11730
3359.699	-13.33995	1.76139	-12.28664	-0.18683
3363.701	-13.19395	2.41921	-12.37226	-0.35303
3367.676	-13.08232	1.59999	-12.10597	-0.64964
3371.594	-13.19066	2.11005	-12.08067	-0.12407
3375.699	-12.96519	1.76152	-12.14954	-0.44872
3379.699	-13.09506	1.62893	-12.26581	-0.73366
3383.698	-13.00801	1.86334	-12.13507	-0.42880
3387.660	-13.07342	1.54362	-12.00687	-0.56547
3391.699	-13.06791	1.53241	-12.07379	-0.87340
3395.700	-13.02933	1.57399	-11.85095	-1.20138
3399.699	-13.07483	1.95776	-11.94363	-0.93021
3403.595	-12.94278	2.06571	-11.87703	-1.18493
3407.700	-12.86178	1.58507	-12.18694	-0.52512
3411.691	-12.95471	1.55915	-11.90478	-0.64363
3415.700	-12.94528	1.67076	-11.79413	-1.02186
3419.597	-12.96420	1.81224	-11.65049	-0.85809
3423.701	-12.88213	2.11832	-12.22402	-0.31049
3427.700	-12.86645	2.45549	-11.95064	-0.38459
3431.701	-12.77622	2.32332	-11.67739	-0.68164
3435.598	-12.75040	2.10127	-11.63749	-0.82482
3439.700	-12.74062	2.30349	-11.51173	-0.77027
3443.701	-12.78165	1.96604	-11.86139	-0.42960
3447.701	-12.84607	1.89233	-12.10563	-0.31381
3451.639	-12.69578	2.05653	-12.02090	-0.43582
3455.701	-12.49472	2.04600	-11.78034	-0.63767
3459.698	-12.54119	2.01760	-11.57381	-0.69839
3463.700	-12.56779	2.00196	-11.62859	-0.76644
3467.596	-12.67492	1.96284	-11.77501	-0.50381
3471.702	-12.73552	1.92492	-11.83144	-0.43773
3475.700	-12.80060	1.90359	-11.57803	-0.74747
3479.701	-12.82295	1.87517	-11.64958	-0.63695
3483.598	-12.91583	1.84133	-11.73590	-0.54185
3487.702	-12.77825	1.81341	-11.74844	-0.62748
3491.691	-12.65952	1.75184	-11.72008	-0.55887
3495.692	-12.55815	1.66592	-11.66399	-0.55239
3499.594	-12.66670	1.55136	-11.59973	-0.52983
3503.702	-12.75675	1.33614	-11.55843	-0.51019
3507.704	-12.88820	1.38166	-11.60127	-0.36397
3511.703	-12.79817	1.72384	-11.59746	-0.17916
3515.588	-12.77365	1.65866	-11.57686	-0.37954
3519.702	-12.74888	1.48413	-11.55157	-0.41504
3523.702	-12.96489	1.90292	-11.58513	-0.28839
3527.704	-12.92406	1.58613	-11.51916	-0.29520
3531.599	-12.74645	1.37084	-11.57050	-0.27226
3535.677	-12.69736	1.25703	-11.53162	-0.24011
3539.701	-12.75035	1.80349	-11.83633	-0.24739
3543.702	-12.68560	1.86076	-12.17784	-0.17044
3547.600	-12.52572	2.50841	-12.11477	-0.17179
3551.702	-12.62237	2.32281	-11.66458	-0.34467
3555.701	-12.42001	1.93579	-11.56800	-0.01405
3559.702	-12.78177	1.61206	-11.66879	-0.00922
3563.598	-12.63140	1.74043	-12.00469	0.37527
3567.701	-12.64491	2.36787	-12.04595	0.16088
3571.700	-12.63180	2.17037	-11.64428	0.22490
3575.685	-12.57909	2.02782	-11.36983	0.26878
3579.703	-12.86258	2.32482	-11.44780	0.34976
3583.658	-12.98683	2.25592	-11.54980	0.11513
3587.705	-12.88652	1.90986	-11.56345	0.23181
3591.704	-12.92078	1.82603	-11.53684	0.14416
3595.601	-12.88695	1.73376	-11.31918	0.13647
3599.703	-12.69238	1.69605	-11.47381	0.04883
3603.704	-12.82859	2.31200	-11.40035	-0.23112
3607.704	-12.76421	2.45170	-11.87822	0.14233
3611.600	-12.92538	2.22468	-11.66120	-0.06972
3615.701	-12.73040	1.94469	-11.55712	-0.30098
3619.698	-12.63197	1.95068	-11.50904	-0.34067
3623.705	-12.71363	2.17325	-11.61304	-0.49558
3627.599	-12.86404	1.99048	-11.80799	-0.25398
3631.580	-12.90815	1.90751	-11.68967	-0.51430
3635.660	-12.83342	1.94886	-11.73654	-0.62656
3639.582	-12.86562	2.05415	-11.82894	-0.63219
3643.585	-12.69245	2.02280	-11.72572	-0.74635
3647.538	-12.58841	1.91552	-11.64797	-0.79194
3651.580	-12.55914	1.83409	-12.01210	-0.15045
3655.580	-12.46467	1.98112	-11.82773	-0.22770
3659.569	-12.60301	1.86253	-11.42050	-0.20840
3663.562	-11.17462	2.32475	-11.64316	0.29884
3667.578	-8.96547	3.47834	-11.22480	0.78530
3671.580	-6.80856	4.26609	-8.15625	2.36668
3675.577	-4.88348	4.88515	-7.01871	2.87540
3679.580	-2.51472	4.38664	-5.39883	4.03004
3683.579	0.05656	4.69060	-2.49089	3.97693
3687.581	1.05887	4.86738	-0.70258	3.04678
3691.577	3.09953	4.86316	2.35722	3.96759
3695.582	4.82437	5.10684	3.24095	3.24040
3699.537	6.83477	4.97029	4.56905	4.34947
3703.536	7.49193	4.82733	6.54085	3.34430
3707.578	9.26800	4.95754	8.65836	4.07768
3711.582	11.33399	4.98881	8.95850	3.83339
3715.581	12.25991	4.81702	10.89020	4.13826
3719.583	12.06596	5.06376	12.03254	4.41155
3723.573	12.23147	5.05319	11.77839	4.30192
3727.582	12.53429	5.00860	11.58272	4.49859
3731.583	11.66782	5.05808	11.58229	4.78431
3735.582	11.89388	4.95508	11.63054	4.70427
3739.572	11.89335	5.02034	11.83778	4.78182
3743.583	11.89152	5.08562	11.66668	5.05830
3747.560	11.70994	5.20769	11.47670	4.90771
3751.586	11.88309	5.17090	11.67967	4.90313
3755.579	11.40102	5.32152	11.60151	4.92255
3759.580	11.56648	5.27154	11.44807	5.23875
3763.582	11.43007	5.36499	11.64073	5.03351
3767.582	11.37963	5.34508	11.61354	5.03301
3771.574	11.34005	5.44794	11.62966	5.30038
3775.583	11.40438	5.43655	11.82994	5.11470
3779.582	11.18250	5.47146	11.48957	5.15080
3783.584	11.07422	5.53357	11.41292	4.88263
3787.574	11.14481	5.48722	11.20204	5.26564
3791.583	11.23124	5.51428	11.41092	5.02975
3795.583	11.06796	5.57966	11.59080	5.53802
3799.584	11.16461	5.49105	11.76190	4.94005
3803.583	11.07032	5.48892	11.32376	6.05160
3807.582	11.00604	5.49959	11.17111	6.02875
3811.583	10.93574	5.62572	11.01663	5.51119
3815.580	11.03796	5.61495	11.04290	4.81581
3819.539	11.04585	5.51313	11.32681	5.14533
3823.582	11.06779	5.42962	11.60418	5.12410
3827.587	10.97176	5.44804	11.80055	5.45473
3831.553	10.83683	5.47011	11.24755	5.36867
3835.578	10.65525	5.54742	11.20662	5.36887
3839.585	10.60996	5.67495	11.41099	5.59667
3843.583	10.57855	5.61142	11.55712	5.52286
3847.584	10.73579	5.51386	11.87603	5.40578
3851.581	10.83817	5.53262	11.48096	5.27442
3855.585	10.75227	5.49965	11.76825	5.38171
3859.584	10.73526	5.53126	11.89846	5.18776
3863.584	10.66165	5.63489	11.84520	5.26901
3867.576	10.69240	5.57400	11.83873	5.24417
3871.565	10.92289	5.50500	11.32979	5.66181
3875.582	10.94856	5.41055	11.62282	5.54436
3879.584	10.71969	5.74239	11.66477	5.45457
3883.574	10.62380	5.74226	11.73585	5.26818
3887.586	10.68585	5.65253	11.43700	4.97812
3891.540	10.71341	5.45090	11.24158	5.56696
3895.585	10.67226	5.42756	11.36384	5.56472
3899.575	10.62941	5.54111	11.30450	5.77324
3903.585	10.45853	5.70426	11.44969	5.53369
3907.586	10.29032	5.85104	11.56843	5.20275
3911.590	10.29524	5.73060	11.50627	5.47847
3915.584	10.31206	5.61102	11.47143	5.54755
3919.585	10.40300	5.58781	11.35439	5.48270
3923.587	10.55812	5.48433	11.01445	5.42603
3927.585	10.72932	5.38216	11.02701	5.33715
3931.543	10.98623	5.10835	11.19156	5.01353
3935.585	10.70766	5.14622	11.26579	4.82179
3939.586	10.72362	5.45026	11.26548	4.99213
3943.547	10.69031	5.41715	11.44501	4.77181
3947.583	10.85239	5.27395	11.14247	4.91872
3951.590	10.64226	5.29463	11.12565	4.66996
3955.564	10.87271	5.21414	11.07781	5.19383
3959.588	11.00682	5.13178	11.01058	4.84968
3963.575	10.85612	5.03758	11.01634	4.68536
3967.586	10.81303	4.63191	11.25018	4.60062
3971.586	10.83864	5.01350	11.17147	4.67738
3975.587	10.68609	5.38786	11.34950	5.07379
3979.584	10.57433	5.55882	11.30954	5.32418
3983.614	10.65999	5.47855	11.52026	5.15384
3987.587	10.64695	5.26132	11.69395	4.95959
3991.590	10.52624	5.33818	11.55902	4.72897
3995.575	10.59740	5.41658	11.36517	5.40265
3999.578	10.74204	5.32274	11.45560	5.45877
4003.588	10.87235	5.21054	11.54311	5.54282
4007.542	10.71875	4.71460	11.47846	5.00625
4011.577	10.75462	5.13543	11.50467	4.84269
4015.591	10.45397	5.60682	11.52645	4.74543
4019.589	10.74005	5.59243	11.58303	4.43195
4023.589	11.05385	7.50649	11.72681	5.32574
4027.610	13.52925	8.04283	12.06612	10.28701
4031.589	10.32090	10.48633	12.83116	10.28442
4035.590	NaN	NaN	13.80627	9.71250
4039.587	NaN	NaN	NaN	NaN
4043.588	NaN	NaN	NaN	NaN
4047.578	NaN	NaN	NaN	NaN
4051.592	NaN	NaN	NaN	NaN
4055.545	NaN	NaN	NaN	NaN
4059.590	NaN	NaN	NaN	NaN
4063.591	NaN	NaN	NaN	NaN
4067.586	NaN	NaN	NaN	NaN
4071.548	NaN	NaN	NaN	NaN
4075.588	NaN	NaN	NaN	NaN
4079.571	NaN	NaN	NaN	NaN
4083.585	NaN	NaN	NaN	NaN
4087.592	NaN	NaN	NaN	NaN
4091.544	NaN	NaN	NaN	NaN
4095.586	NaN	NaN	NaN	NaN
4099.588	NaN	NaN	NaN	NaN
4103.589	NaN	NaN	NaN	NaN
4107.545	NaN	NaN	NaN	NaN
4111.587	-20.02569	4.99229	NaN	NaN
4115.588	-12.48842	4.43133	NaN	NaN
4119.591	-9.33434	2.26421	-12.56044	5.62920
4123.555	-8.02331	1.21073	-12.29168	3.53072
4127.591	-7.18982	0.94997	-13.88336	2.81588
4131.590	-4.38324	2.06155	-13.76221	2.13057
4135.591	-6.96585	2.45880	-13.67660	2.36186
4139.592	-8.23000	1.89361	-12.06404	1.95239
4143.591	-9.19353	1.59984	-7.81931	0.98908
4147.591	-8.92500	1.64951	-8.58818	0.52169
4151.584	-9.30498	1.70565	-8.81986	0.01785
4155.591	-9.61276	1.77761	-8.74857	0.05516
4159.592	-9.61807	1.87178	-8.58109	-0.17190
4163.569	-9.98839	1.82868	-8.57796	-0.57264
4167.594	-9.73246	2.02698	-8.56258	-0.56549
4171.591	-9.44506	2.37251	-8.56636	-0.25474
4175.591	-9.48345	2.21762	-8.40218	0.00765
4179.590	-9.51505	2.09527	-8.43244	-0.08729
4183.611	-9.55937	2.13675	-8.45929	0.04692
4187.591	-9.59585	1.90233	-8.47364	-0.18711
4191.593	-9.45020	2.15356	-8.50362	-0.36996
4195.594	-9.40161	2.03321	-8.50003	-0.10187
4199.572	-9.20102	1.92006	-8.41643	0.06347
4203.581	-9.20763	1.75947	-8.35950	-0.44009
4207.580	-9.16487	2.70898	-8.29880	-0.37421
4211.591	-9.30962	2.97359	-8.23909	-0.51496
4215.589	-9.29212	2.26776	-8.38367	-0.40476
4219.591	-9.46437	1.75580	-8.41009	0.49458
4223.592	-9.35334	1.64990	-8.44511	0.20809
4227.547	-9.07670	2.53085	-8.65923	-0.19832
4231.589	-9.13635	2.15688	-8.53836	-0.37755
4235.592	-9.24593	1.68577	-8.55877	-0.21174
4239.597	-9.19099	1.57530	-8.38039	0.17381
4243.594	-8.70126	1.88513	-8.24903	-0.41319
4247.583	-8.86139	2.22516	-8.30255	-0.65116
4251.602	-9.30766	2.03511	-8.35921	-0.33372
4255.594	-9.01656	1.70944	-8.44441	-0.00093
4259.592	-9.12420	1.94336	-8.38899	0.04627
4263.593	-9.18959	1.89638	-8.23138	-0.21430
4267.590	-9.01782	2.10513	-8.25114	-0.19423
4271.593	-8.92457	2.20578	-8.25532	-0.26369
4275.593	-8.98271	2.05197	-8.24458	-0.11347
4279.591	-8.98533	1.93340	-8.22572	-0.23410
4283.625	-9.13214	1.96101	-8.02431	-0.11466
4287.577	-8.98380	1.73804	-8.03893	0.35017
4291.595	-9.12164	1.74367	-8.13831	0.65140
4295.584	-9.13717	1.55188	-8.12252	0.53122
4299.594	-9.09928	1.95249	-8.15757	0.66342
4303.595	-9.18238	1.94001	-8.28177	0.46754
4307.598	-9.14411	2.21076	-8.36054	0.33369
4311.490	-9.09751	2.12965	-8.41772	0.06155
4315.591	-9.11387	2.03816	-8.55430	0.10512
4319.549	-9.23693	1.93341	-8.67878	0.14510
4323.593	-9.16564	2.06827	-8.44402	-0.14259
4327.595	-9.17894	2.25701	-8.39258	0.09147
4331.558	-9.22172	2.39237	-8.34050	0.72693
4335.596	-9.19377	2.42456	-8.33523	0.29029
4339.595	-9.26964	2.33106	-8.22304	-0.03391
4343.593	-9.20990	2.31735	-8.08494	-0.16939
4347.596	-9.20767	2.00494	-8.04935	-0.11972
4351.595	-9.24501	1.76429	-7.91833	-0.07645
4355.598	-9.28980	1.82668	-7.98067	-0.20966
4359.593	-9.39192	1.40194	-7.86936	-0.19338
4363.596	-9.31781	2.15803	-7.83466	0.13461
4367.552	-9.27312	2.35726	-7.78326	-0.07288
4371.573	-9.31252	2.49593	-7.73487	-0.19066
4375.481	-9.38235	1.85595	-7.70229	-0.34379
4379.595	-9.42907	1.79923	-7.74530	-0.45740
4383.595	-9.23713	2.08639	-7.81015	-0.45246
4387.551	-9.30215	1.69430	-7.86856	2.38907
4391.499	-8.83924	1.49238	-7.99927	1.31980
4395.598	-9.00288	1.65533	-7.90849	0.95437
4399.597	-9.11210	1.44906	-8.08961	0.48307
4403.598	-9.16501	1.42138	-8.18908	-0.14391
4407.587	-9.27733	1.89407	-8.03757	-0.50845
4411.586	-9.24982	2.07277	-8.08358	-0.17409
4415.595	-9.14868	1.64959	-7.79464	-0.03033
4419.597	-9.05860	1.58088	-7.68033	-0.31637
4423.490	-9.07637	1.58978	-7.64993	-0.41692
4427.595	-9.17178	1.60149	-8.05837	0.48936
4431.597	-9.07416	1.76803	-7.69500	0.54967
4435.598	-9.17776	1.91832	-7.62133	0.27696
4439.494	-9.11382	1.90982	-7.85290	0.50649
4443.597	-9.12343	1.95572	-7.67267	0.31029
4447.599	-9.06734	1.97164	-7.67141	0.51801
4451.597	-9.02709	1.80180	-7.88996	0.52451
4455.494	-9.03737	1.75661	-7.68091	0.27746
4459.599	-9.09725	1.65201	-7.77968	0.35554
4463.597	-9.10879	1.59503	-7.83739	0.38865
4467.598	-9.12541	1.65484	-7.93016	0.47435
4471.495	-9.13233	1.59353	-7.93350	0.22204
4475.597	-9.18908	1.60656	-7.96001	0.12497
4479.598	-9.20187	1.67711	-7.93118	-0.14816
4483.598	-8.65237	1.70840	-7.96371	-0.09248
4487.601	-8.61057	1.62785	-7.84194	0.21636
4491.599	-8.86858	1.53703	-7.67630	-0.23629
4495.583	-9.01256	1.54391	-7.81249	0.18107
4499.597	-9.19587	1.51409	-7.88346	0.02599
4503.501	-9.15909	1.51452	-7.88770	0.03151
4507.600	-9.08355	1.55174	-7.98418	0.19561
4511.553	-9.05768	1.89914	-7.77629	0.32757
4515.594	-8.87840	1.81845	-7.58056	0.06927
4519.495	-9.03069	1.75017	-7.70480	0.19316
4523.599	-9.16460	2.01400	-7.89720	0.46543
4527.599	-9.15952	1.82986	-7.59020	0.59581
4531.599	-9.07489	1.98610	-7.85551	0.35843
4535.499	-9.13698	1.99777	-7.81797	0.55244
4539.600	-9.49779	2.08400	-10.79006	2.15120
4543.599	-4.05283	2.09162	-10.85734	4.58722
4547.599	-13.52257	2.67048	-6.41359	6.16148
4551.600	-11.13920	3.37304	-7.61319	11.28817
4555.601	NaN	NaN	NaN	NaN
4559.600	NaN	NaN	NaN	NaN
4563.599	NaN	NaN	NaN	NaN
4567.602	NaN	NaN	NaN	NaN
4571.600	NaN	NaN	NaN	NaN
4575.601	NaN	NaN	NaN	NaN
4579.576	NaN	NaN	NaN	NaN
4583.596	NaN	NaN	NaN	NaN
4587.599	NaN	NaN	NaN	NaN
4591.603	NaN	NaN	NaN	NaN
4595.601	NaN	NaN	NaN	NaN
4599.601	NaN	NaN	NaN	NaN
4603.560	NaN	NaN	NaN	NaN
4607.604	NaN	NaN	NaN	NaN
4611.601	NaN	NaN	NaN	NaN
4615.602	NaN	NaN	NaN	NaN
4619.558	NaN	NaN	NaN	NaN
4623.498	NaN	NaN	NaN	NaN
4627.605	NaN	NaN	NaN	NaN
4631.603	NaN	NaN	NaN	NaN
4635.556	NaN	NaN	NaN	NaN
4639.498	NaN	NaN	NaN	NaN
4643.602	NaN	NaN	NaN	NaN
4647.564	NaN	NaN	NaN	NaN
4651.603	NaN	NaN	NaN	NaN
4655.502	NaN	NaN	NaN	NaN
4659.478	NaN	NaN	NaN	NaN
4663.477	NaN	NaN	NaN	NaN
4667.459	NaN	NaN	NaN	NaN
4671.604	NaN	NaN	NaN	NaN
4675.478	NaN	NaN	NaN	NaN
4679.479	NaN	NaN	NaN	NaN
4683.477	5.14264	14.90783	NaN	NaN
4687.469	5.14525	14.85092	NaN	NaN
4691.478	4.90336	14.97285	NaN	NaN
4695.479	5.30564	14.87292	NaN	NaN
4699.480	5.46133	14.97093	NaN	NaN
4703.500	5.22232	15.00015	NaN	NaN
4707.476	5.08611	15.00470	NaN	NaN
4711.471	4.90319	15.02443	NaN	NaN
4715.479	4.78126	14.98931	NaN	NaN
4719.500	4.71193	14.94365	NaN	NaN
4723.481	5.32139	14.79055	NaN	NaN
4727.481	5.12092	14.61866	NaN	NaN
4731.480	5.30685	14.62943	NaN	NaN
4735.501	5.15943	14.85641	NaN	NaN
4739.479	5.09185	14.86806	NaN	NaN
4743.478	5.03469	14.76413	NaN	NaN
4747.480	4.97034	14.81444	NaN	NaN
4751.499	5.02282	14.71123	NaN	NaN
4755.482	NaN	NaN	NaN	NaN
4759.477	NaN	NaN	NaN	NaN
4763.479	NaN	NaN	NaN	NaN
4767.503	NaN	NaN	NaN	NaN
4771.481	5.17147	14.92158	NaN	NaN
4775.480	5.09350	14.97655	NaN	NaN
4779.481	5.10339	14.96221	NaN	NaN
4783.499	NaN	NaN	NaN	NaN
4787.479	5.00984	14.95719	NaN	NaN
4791.470	4.93935	14.96426	NaN	NaN
4795.470	5.00824	14.95902	NaN	NaN
4799.501	5.11039	14.73238	NaN	NaN
4803.480	5.23327	14.67318	NaN	NaN
4807.480	5.29135	14.72483	NaN	NaN
4811.480	5.43438	14.59118	NaN	NaN
4815.504	5.42488	14.73131	NaN	NaN
4819.483	5.53178	14.65404	NaN	NaN
4823.480	5.57608	14.69705	NaN	NaN
4827.488	5.76563	14.67376	NaN	NaN
4831.504	5.77106	14.63128	NaN	NaN
4835.447	5.71141	14.65647	NaN	NaN
4839.481	5.71787	14.71686	NaN	NaN
4843.485	5.77612	14.69553	NaN	NaN
4847.501	5.72576	14.81550	NaN	NaN
4851.482	5.74637	14.71186	NaN	NaN
4855.487	NaN	NaN	NaN	NaN
4859.482	5.60693	14.83196	NaN	NaN
4863.502	5.68177	14.70160	NaN	NaN
4867.481	5.64688	14.71996	NaN	NaN
4871.481	5.60111	14.83845	NaN	NaN
4875.463	4.94374	14.91637	NaN	NaN
4879.505	NaN	NaN	NaN	NaN
4883.482	NaN	NaN	NaN	NaN
4887.437	NaN	NaN	NaN	NaN
4891.483	NaN	NaN	NaN	NaN
4895.474	NaN	NaN	NaN	NaN
4899.482	NaN	NaN	NaN	NaN
4903.484	NaN	NaN	NaN	NaN
4907.483	NaN	NaN	NaN	NaN
4911.505	NaN	NaN	NaN	NaN
4915.480	NaN	NaN	NaN	NaN
4919.477	NaN	NaN	NaN	NaN
4923.483	NaN	NaN	NaN	NaN
4927.504	NaN	NaN	NaN	NaN
4931.438	NaN	NaN	NaN	NaN
4935.485	NaN	NaN	NaN	NaN
4939.483	NaN	NaN	NaN	NaN
4943.503	NaN	NaN	NaN	NaN
4947.438	NaN	NaN	NaN	NaN
4951.439	NaN	NaN	NaN	NaN
4955.488	NaN	NaN	NaN	NaN
4959.478	NaN	NaN	NaN	NaN
4963.484	NaN	NaN	NaN	NaN
4967.483	NaN	NaN	NaN	NaN
4971.483	NaN	NaN	NaN	NaN
4975.504	NaN	NaN	NaN	NaN
4979.485	NaN	NaN	NaN	NaN
4983.484	NaN	NaN	NaN	NaN
4987.484	NaN	NaN	NaN	NaN
4991.504	NaN	NaN	NaN	NaN
4995.486	NaN	NaN	NaN	NaN
4999.473	NaN	NaN	NaN	NaN
5003.486	NaN	NaN	NaN	NaN
5007.506	NaN	NaN	NaN	NaN
5011.487	NaN	NaN	NaN	NaN
5015.463	NaN	NaN	NaN	NaN
5019.486	NaN	NaN	NaN	NaN
5023.505	NaN	NaN	NaN	NaN
5027.485	NaN	NaN	NaN	NaN
5031.485	NaN	NaN	NaN	NaN
5035.488	NaN	NaN	NaN	NaN
5039.506	NaN	NaN	NaN	NaN
5043.487	NaN	NaN	NaN	NaN
5047.486	NaN	NaN	NaN	NaN
5051.485	NaN	NaN	NaN	NaN
5055.512	NaN	NaN	NaN	NaN
5059.487	NaN	NaN	NaN	NaN
5063.485	NaN	NaN	NaN	NaN
5067.486	NaN	NaN	NaN	NaN
5071.484	NaN	NaN	NaN	NaN
5075.490	NaN	NaN	NaN	NaN
5079.484	NaN	NaN	NaN	NaN
5083.442	NaN	NaN	NaN	NaN
5087.485	NaN	NaN	NaN	NaN
5091.488	NaN	NaN	NaN	NaN
5095.486	NaN	NaN	NaN	NaN
5099.487	NaN	NaN	NaN	NaN
5103.488	NaN	NaN	NaN	NaN
5107.488	NaN	NaN	NaN	NaN
5111.488	NaN	NaN	NaN	NaN
5115.468	NaN	NaN	NaN	NaN
5119.491	-2.46553	13.74308	NaN	NaN
5123.486	-3.14211	11.52139	-2.05891	14.19735
5127.480	-2.89638	9.24549	-2.98161	11.32048
5131.456	-2.83422	8.04035	-2.57808	7.33598
5135.444	-2.73947	6.19108	-2.88344	6.79051
5139.489	-2.50506	6.03948	-2.02820	4.39399
5143.489	-2.64376	3.76643	-1.94129	4.09176
5147.487	-2.58786	2.57805	-1.67043	1.81204
5151.488	-2.28670	2.51563	-1.62143	-0.07395
5155.489	-2.26941	1.82176	-1.91058	-0.82855
5159.491	-2.09304	1.56967	-2.10528	-1.23455
5163.489	-2.70901	0.51486	-1.79792	-1.47811
5167.467	-2.52892	-0.53980	-1.53329	-1.78298
5171.488	-2.43838	-0.18518	-1.71605	-1.82535
5175.489	-2.40518	-0.23824	-1.72691	-1.86345
5179.488	-2.24413	-0.43804	-1.67534	-1.86526
5183.492	-2.81585	0.11414	-1.80070	-1.83380
5187.491	-2.47920	0.19436	-1.85440	-1.84429
5191.489	-2.41425	-0.42128	-2.01786	-1.85776
5195.490	-2.67073	-0.15295	-2.00319	-1.89595
5199.479	-2.55061	-0.37005	-2.02126	-1.96891
5203.491	-2.85281	-0.29720	-1.69299	-2.00118
5207.479	-2.76468	-0.40799	-1.71947	-1.96195
5211.446	-2.69522	-0.35609	-1.59135	-1.95575
5215.489	-2.72246	-0.67684	-1.59539	-1.93771
5219.491	-2.71704	-0.53553	-1.50683	-1.93328
5223.491	-2.87700	-0.63295	-1.16396	-1.95568
5227.489	-2.79706	-0.56961	-1.48481	-1.86102
5231.490	-2.79260	-0.57118	-1.38622	-1.85494
5235.492	-2.72102	-0.52721	-1.26780	-1.85580
5239.491	-2.61545	-0.48042	-1.37218	-1.69353
5243.493	-2.43645	-0.42460	-1.26671	-1.51085
5247.489	-2.33973	-0.37165	-1.29680	-1.50031
5251.456	-2.31753	-0.38350	-1.14111	-1.41549
5255.492	-2.08743	-0.18105	-1.45527	-1.57476
5259.493	-2.20508	-0.10193	-1.35068	-1.55179
5263.488	-2.27689	0.12921	-1.50924	-1.63943
5267.451	-2.29550	-0.08457	-1.47432	-1.56839
5271.490	-2.44303	0.11172	-1.27353	-1.70308
5275.491	-2.53545	0.00881	-1.56352	-1.70141
5279.491	-2.52815	0.04262	-1.50656	-1.74843
5283.490	-2.53815	-0.07601	-1.39869	-1.83952
5287.490	-2.72261	0.04691	-1.37258	-1.75752
5291.490	-2.58388	0.07005	-1.34242	-1.77821
5295.492	-2.76728	-0.27612	-1.21876	-1.77847
5299.491	-2.68757	-0.24742	-1.24002	-1.64574
5303.491	-2.90908	-0.18022	-1.31808	-1.44330
5307.492	-2.90995	-0.22246	-1.22449	-1.37361
5311.493	-3.25369	-0.09725	-1.12923	-1.45710
5315.492	-3.06419	-0.11121	-1.17096	-1.61051
5319.492	-2.77832	-0.09268	-1.28775	-1.47800
5323.491	-2.63071	-0.25860	-1.92845	-1.53332
5327.498	-2.41687	-0.24440	-1.64501	-1.59137
5331.485	-2.37005	-0.42308	-2.20384	-1.55958
5335.487	-2.24592	-0.46240	-2.72803	-1.36735
5339.494	-2.43313	-0.25812	-1.74814	-1.42037
5343.496	-2.39391	-0.29284	-2.01072	-1.10785
5347.494	-2.32791	-0.17392	-1.90108	-1.05931
5351.495	-2.27996	0.48123	-2.17090	-0.90071
5355.495	-2.38942	0.23658	-1.84000	-1.36964
5359.496	-2.35799	0.51169	-1.17639	-1.28926
5363.493	-2.40288	0.53444	-1.65736	-1.30622
5367.496	-2.60228	-0.00027	-1.81964	-1.23012
5371.495	-2.30149	0.28270	-2.27949	-0.96520
5375.449	-2.44006	0.45231	-1.78248	-0.81093
5379.492	-2.44175	0.24156	-1.86684	-0.78598
5383.492	-2.54353	0.19852	-1.94617	-0.91533
5387.451	-2.54237	0.36589	-2.20946	-0.96384
5391.392	-2.47350	0.33497	-1.74806	-0.82788
5395.490	-2.50675	0.29969	-1.75674	-0.85343
5399.494	-2.53117	0.08532	-1.14709	-0.93031
5403.494	-2.64255	0.05990	-1.66314	-0.97321
5407.494	-2.64619	0.14774	-1.94419	-0.85892
5411.496	-2.71780	0.12242	-2.12570	-0.87546
5415.483	-2.47239	0.11919	-2.21021	-1.03749
5419.484	-2.52951	0.13331	-2.45473	-0.99149
5423.389	-2.74331	0.15200	-1.88891	-1.69618
5427.495	-2.72038	0.25903	-1.93874	-2.00406
5431.495	-2.94275	0.37887	-1.56191	-1.52268
5435.495	-2.99151	0.52808	-1.54718	-1.46934
5439.391	-2.59943	0.62367	-1.68357	-1.38075
5443.494	-2.35687	0.66209	-1.68290	-1.63966
5447.494	-2.78909	0.68822	-1.95936	-1.33142
5451.496	-3.06286	0.65915	-2.12151	-1.32858
5455.391	-3.22267	0.73785	-2.35781	-1.86257
5459.464	-2.83048	0.61310	-2.22327	-1.47306
5463.495	-3.15194	0.63031	-1.81575	-2.31087
5467.496	-2.81296	0.04482	-1.39299	-1.53759
5471.498	-3.18796	0.35382	-1.60972	-1.45170
5475.498	-2.35593	0.38769	-1.42350	-1.38591
5479.494	-2.58328	0.50307	-1.42513	-1.67664
5483.497	-2.43194	0.14896	-1.63760	-1.38994
5487.391	-2.69274	0.20905	-1.69438	-1.27936
5491.495	-3.06098	0.26268	-1.80355	-1.12611
5495.496	-2.88133	0.26855	-2.35380	-1.16140
5499.477	-2.76676	0.26061	-1.88772	-0.99253
5503.500	-2.81612	0.27395	-1.74881	-1.01972
5507.495	-2.58061	0.32243	-1.52280	-0.89597
5511.496	-2.83865	0.41094	-1.56727	-0.77376
5515.467	-2.51502	0.37456	-1.41134	-1.11714
5519.393	-2.56282	0.40920	-1.61647	-1.13885
5523.497	-2.58155	0.37223	-2.12840	-0.81404
5527.497	-2.79956	0.37539	-2.58702	-0.86197
5531.497	-3.03224	0.44940	-2.46818	-1.11428
5535.501	-2.98010	0.50094	-1.88075	-1.13025
5539.494	-2.80414	0.44815	-1.62222	-0.96290
5543.489	-2.69507	0.50181	-1.48816	-0.97354
5547.496	-2.90527	0.46603	-1.38255	-1.39048
5551.500	-2.81360	0.41862	-1.24749	-1.43979
5555.498	-2.09043	0.41763	-1.36814	-1.27171
5559.503	-2.18047	0.41601	-2.21645	-1.03532
5563.496	-2.56030	0.35193	-2.58234	-1.28405
5567.396	-2.80818	0.31339	-2.66739	-1.13601
5571.498	-3.18284	0.32132	-2.59529	-1.28096
5575.501	-3.51122	0.30517	-2.66845	-1.63787
5579.496	-3.69780	0.28291	-2.40739	-1.84551
5583.464	-3.03781	0.32985	-2.02473	-1.59614
5587.499	-3.23546	0.41511	-1.98735	-1.52411
5591.498	-2.83573	0.44549	-1.82524	-1.64569
5595.496	-2.30201	0.46419	-2.07132	-1.64624
5599.496	-2.28254	0.40469	-1.86744	-1.35651
5603.498	-2.38596	0.51312	-1.77836	-1.51333
5607.498	-2.66659	0.64691	-1.60918	-1.55533
5611.499	-2.90510	0.69351	-1.89040	-1.41579
5615.498	-3.24934	0.84055	-2.21031	-1.32746
5619.500	-3.09376	0.94211	-1.91677	-1.10175
5623.485	-3.17381	0.91421	-1.96888	-0.98802
5627.499	-3.31403	1.09869	-2.21239	-0.83927
5631.455	-2.85175	0.94415	-2.02941	-0.97231
5635.498	-3.06323	0.98185	-2.02458	-0.91440
5639.499	-3.29043	0.94783	-2.11876	-0.84796
5643.500	-3.29844	0.98731	-2.15670	-0.88728
5647.364	-3.36122	0.99216	-2.26145	-0.91393
5651.501	-3.36997	1.03651	-2.31914	-0.73919
5655.501	-3.09522	0.94360	-1.98284	-0.75025
5659.506	-2.94265	0.88766	-1.99399	-0.77361
5663.502	-2.68410	0.92265	-1.59145	-0.77559
5667.465	-2.56622	0.88362	-1.52888	-0.79320
5671.501	-2.81612	0.81312	-1.40370	-0.86472
5675.501	-2.41125	0.74219	-1.42692	-1.01581
5679.346	-2.26190	0.82466	-1.42315	-1.13610
5683.376	-2.41487	0.81973	-1.08512	-1.04520
5687.384	-2.44336	0.75240	-1.08118	-1.08452
5691.376	-2.48634	0.62122	-1.37216	-1.06145
5695.397	-2.58700	0.55566	-1.47890	-1.05443
5699.391	-2.89039	0.52952	-1.57987	-1.13073
5703.376	-3.39695	0.44939	-1.83955	-1.17390
5707.377	-3.72533	0.49384	-2.15713	-1.14421
5711.386	-3.57839	0.56231	-2.00631	-1.20131
5715.376	-2.44269	0.42100	-2.08270	-1.24323
5719.376	-2.78651	0.41111	-2.17413	-1.19230
5723.376	-3.23967	0.33105	-1.86315	-1.14668
5727.396	-3.47480	0.23687	-1.81704	-1.12431
5731.376	-2.87170	0.23090	-1.90891	-1.09858
5735.376	-2.96953	0.17249	-1.72865	-1.06917
5739.376	-2.30130	0.14880	-2.03124	-1.04361
5743.398	-2.16934	0.28293	-1.94129	-1.09146
5747.378	-2.32793	0.36560	-1.86275	-1.06095
5751.379	-2.20897	0.46112	-1.95847	-1.07204
5755.347	-2.30474	0.64223	-1.94731	-1.07242
5759.397	-2.58014	0.87408	-1.99602	-0.99875
5763.379	-2.85529	0.92324	-1.88536	-1.07762
5767.333	-2.67583	0.78175	-2.07318	-1.22003
5771.378	-2.64579	0.40852	-2.26658	-1.27532
5775.399	-2.65817	0.67432	-2.23050	-1.28907
5779.380	-2.85385	0.59445	-2.20322	-1.21045
5783.377	-2.86831	0.72745	-2.27107	-1.36301
5787.379	-2.99265	0.69581	-2.24076	-1.39183
5791.396	-3.03596	0.83725	-2.39193	-1.44820
5795.377	-3.05100	0.58715	-2.41990	-1.42334
5799.374	-3.10928	0.64267	-2.41824	-1.49579
5803.379	-3.12576	0.48943	-2.46441	-1.58038
5807.398	-3.15342	0.50379	-2.40617	-1.54728
5811.375	-3.12269	0.40880	-2.55928	-1.51083
5815.375	-3.23888	0.52890	-2.52394	-1.47436
5819.331	-3.24838	1.01613	-2.44757	-1.40936
5823.368	-3.15812	0.77883	-2.42829	-1.39628
5827.376	-3.12744	0.74147	-2.40771	-1.47414
5831.380	-3.07642	0.90321	-2.46734	-1.37741
5835.381	-2.98369	0.76499	-2.43848	-1.34580
5839.400	-2.91302	0.68343	-2.38494	-1.32606
5843.380	-2.84648	0.66014	-2.39106	-1.20865
5847.378	-2.66152	0.64220	-2.32667	-1.22657
5851.378	-2.52716	0.60017	-2.33893	-1.23118
5855.402	-2.28799	0.48076	-2.23070	-1.25214
5859.379	-2.34845	0.48801	-2.18560	-1.42191
5863.381	-2.15705	0.33808	-2.18580	-1.48521
5867.379	-2.39017	0.26702	-2.15879	-1.53802
