time (ms)	lx (deg)	ly (deg)	rx (deg)	ry (deg)
0.000	-2.09809	-0.47640	-0.58208	-2.70194
4.003	-1.92865	-0.50655	-0.67218	-2.69587
8.008	-1.97808	-0.22174	-0.90235	-2.80447
12.008	-2.18228	-0.35230	-1.26086	-2.53783
16.007	-2.05055	-0.48188	-0.84292	-2.64965
20.007	-2.21821	-0.75786	-0.12781	-2.69476
24.007	-2.05730	-0.45104	-0.73992	-2.68852
28.006	-1.87817	-0.44684	-1.22923	-2.48775
32.007	-2.07412	-0.02198	-1.26128	-2.57314
36.008	-2.08743	-0.67683	-1.14496	-2.35182
40.009	-2.09546	-0.55809	-0.99789	-2.48889
43.984	-2.11229	-0.54783	-0.94477	-2.86853
48.005	-2.19685	-0.56804	-0.27178	-2.79348
51.963	-2.19569	-0.73769	-0.20072	-2.72594
55.999	-2.11603	-0.61676	-1.09115	-2.52576
60.007	-1.82891	-0.49928	-1.15002	-2.53335
64.008	-1.55487	-0.32394	-1.12613	-2.46728
68.008	-1.77062	-0.51745	-1.15411	-2.48898
72.006	-1.40323	-0.53582	-1.22082	-2.16108
76.008	-1.62626	-0.42407	-1.11469	-2.14906
80.009	-1.51214	-0.17627	-1.21571	-1.84226
84.008	-1.54009	-0.20823	-1.21861	-1.53717
87.998	-1.48716	-0.08811	-1.26651	-1.53203
91.964	-1.41526	-0.13556	-1.18237	-1.27170
96.011	-1.39175	0.05771	-1.18805	-1.33216
100.009	-1.39763	0.46503	-1.15712	-1.45838
104.011	-1.43684	0.56631	-1.13786	-1.54444
108.008	-1.40214	1.43203	-0.99236	-1.11517
112.006	-1.35090	1.11808	-0.96140	-1.12072
116.010	-1.37997	1.12703	-0.99134	-1.19894
120.011	-1.40380	1.30935	-0.97943	-1.18670
124.009	-1.51072	1.13151	-0.87356	-1.04288
127.974	-1.78173	1.01412	-0.80704	-1.09652
132.009	-2.46384	1.02459	-0.25634	-1.10020
136.009	-2.19006	1.19790	-0.68186	-0.94330
140.011	-1.77772	1.31257	-0.76843	-1.15187
144.012	-1.37173	1.16136	-0.79583	-1.12879
148.009	-1.11951	1.02991	-0.91004	-0.85606
152.016	-1.34343	0.85290	-0.98445	-0.89509
156.010	-1.40767	0.88700	-0.76588	-0.89988
160.010	-2.06540	0.93980	-0.30168	-1.06477
164.012	-2.54994	0.98923	-0.31580	-1.07910
168.010	-1.72823	1.04471	-1.01516	-1.24617
171.969	-1.12417	0.78034	-1.19505	-1.09443
176.012	-1.28375	0.91680	-1.23590	-0.89066
180.012	-1.27264	0.79038	-0.94385	-1.10580
184.010	-1.90616	0.73986	-0.15260	-1.15918
188.011	-2.50831	0.70312	-1.38041	-1.13741
192.002	-1.80139	0.94958	-1.40142	-1.12759
196.010	-1.49589	0.86151	-1.36149	-1.19995
200.014	-1.35586	0.83186	-0.82210	-1.24959
204.014	-1.67804	0.78639	-0.28644	-1.02528
208.009	-2.48111	0.78681	-1.20522	-1.18030
212.003	-1.72619	0.87688	-1.41866	-1.13802
216.011	-0.98057	0.88609	-0.85935	-1.18381
220.012	-1.51407	0.80808	-0.02201	-1.25496
224.015	-1.91377	0.82899	-0.68833	-1.25730
228.010	-2.21065	0.87318	-1.21241	-1.32018
232.011	-2.04294	0.90421	-1.07741	-1.50378
235.966	-1.44808	0.75997	-0.62139	-1.16770
240.013	-1.31967	0.86813	-0.61816	-1.52040
244.014	-1.98455	0.89185	-0.99122	-1.40689
248.011	-2.09933	0.80876	-1.03106	-1.96185
251.984	-1.77092	0.90462	-0.54049	-1.58694
256.011	-1.48362	0.94546	-0.44760	-1.44103
260.012	-1.63350	0.96170	-1.05428	-1.15104
264.013	-1.94759	0.87166	-1.06143	-1.76696
268.013	-1.95482	1.06819	-0.20676	-1.75878
272.013	-1.67196	1.04832	-0.28344	-1.39521
276.012	-1.41606	1.11919	-0.59389	-1.57505
279.910	-1.96236	1.11074	-1.23198	-1.32658
284.015	-1.94312	0.97132	-0.57081	-1.43271
288.013	-1.65327	0.35368	-0.19380	-1.31344
292.001	-1.53066	1.16721	-0.75216	-1.23262
296.014	-2.20994	1.17137	-1.38451	-0.98660
300.012	-2.17601	1.04995	-0.48527	-1.19677
304.015	-1.59122	1.02072	-0.76528	-1.03300
308.015	-1.54944	0.38661	-1.01814	-1.08027
312.014	-1.45388	0.87007	-1.01094	-1.07458
316.014	-2.14669	0.60165	-1.10485	-1.20550
320.015	-1.19854	0.24804	-0.05457	-1.06990
324.013	-1.18222	-0.07796	-0.21445	-1.07755
328.018	-1.38230	-0.04792	-1.21648	-1.06065
332.014	-2.29101	0.35719	-1.01538	-2.29581
335.979	-1.35502	0.21613	-0.73201	-2.75910
340.014	-1.20864	-0.02122	0.23616	-1.57741
344.018	-1.19021	0.13639	-0.01367	-1.83905
348.014	-1.80970	0.17649	-0.70771	-1.73654
352.014	-2.08201	0.34453	-0.75940	-1.42006
356.014	-0.91287	0.25986	-0.81615	-1.19420
360.016	-0.83238	0.22041	-0.45108	-1.81355
363.970	-1.30585	0.47083	-0.35839	-1.99881
368.014	-1.94612	0.61717	-1.01987	-1.12899
372.016	-2.04205	0.64355	-0.78374	-1.74560
375.999	-0.81307	0.94302	-0.07418	-2.01662
380.015	-1.03287	1.20821	-0.49768	-0.99331
384.017	-1.29291	0.88496	-0.45711	-1.93001
388.017	-1.50787	0.86794	-0.52103	-1.96928
391.972	-1.87012	0.86040	-0.77005	-1.79867
396.017	-1.30201	0.06770	-0.60166	-1.59097
400.015	-1.15421	0.06027	-0.80960	-1.86592
404.016	-1.46901	0.16124	-0.67873	-1.32937
407.912	-1.46936	0.21050	-1.05061	-0.85448
412.018	-1.98772	0.58281	-1.06354	-0.42573
416.008	-1.50589	0.17724	-1.00045	-1.70533
420.005	-1.20236	0.24140	0.17082	-1.29822
424.018	-1.26999	0.21400	-0.53083	-1.41933
428.018	-1.14511	0.19421	-0.97407	-1.02348
432.017	-1.42419	0.12766	-1.07004	-1.48211
436.029	-1.51593	0.14320	-1.01139	-1.90952
440.016	-1.41432	0.21374	-0.93805	-1.93912
444.024	-1.74367	0.24942	-0.85942	-2.15552
448.015	-1.49188	0.29183	-0.71846	-2.10150
452.018	-1.19956	0.25231	-0.08890	-1.52334
456.019	-1.15263	0.21734	-0.17893	-1.41559
459.988	-1.28400	0.24075	-0.53314	-1.61221
464.017	-1.32867	0.17554	-0.85888	-1.47441
468.017	-1.31783	0.17832	-0.98003	-1.60969
471.915	-1.60618	0.15435	-0.86803	-1.71882
476.017	-1.80380	-0.12056	-1.19467	-1.69177
480.018	-1.78076	0.16315	-1.67722	-1.54195
483.977	-1.70953	-0.03592	-0.05572	-1.54534
487.913	-1.06463	-0.14576	-0.14873	-1.56915
492.018	-1.24176	-0.20190	-0.29719	-1.47929
495.974	-1.35147	-0.06176	-0.67900	-1.51452
500.020	-1.44031	0.28033	-0.75099	-1.59181
503.882	-1.33991	0.24534	-1.12658	-1.57496
508.019	-1.55078	0.44398	-1.27755	-1.45179
512.018	-1.54589	0.40759	-1.14471	-1.37382
515.892	-1.89746	0.40628	-1.12551	-1.41904
519.885	-1.75101	0.44175	-1.22844	-1.43880
523.894	-2.00294	0.42567	-1.44870	-1.43753
527.894	-1.57292	0.40853	-1.67655	-1.48978
531.894	-1.52464	0.44764	-1.92612	-1.45443
535.916	-1.57039	0.56556	-0.74173	-1.46290
539.897	-1.46172	0.58370	-0.63811	-1.32141
543.896	-1.33604	0.67648	-0.47341	-1.23065
547.870	-1.29630	0.75764	-0.50637	-1.28071
551.915	-1.17542	0.76810	-0.49180	-1.09550
555.894	-1.29343	0.78066	-0.40390	-1.25351
559.894	-1.48384	0.69511	-0.65250	-1.19542
563.849	-1.39979	0.84883	-0.64032	-0.91593
567.892	-1.51474	0.88822	-0.84540	-0.88553
571.895	-1.67630	0.83136	-0.82523	-0.86646
575.894	-1.63244	0.93337	-0.78270	-0.77619
579.893	-1.80278	0.95474	-0.68439	-0.62558
583.914	-2.07070	0.90561	-0.73027	-0.59954
587.882	-2.39510	0.90568	-0.84501	-0.60906
591.848	-2.25836	0.81139	-0.91433	-0.58083
595.895	-2.06810	0.78259	-1.02097	-0.70226
599.916	-2.07576	0.76222	-1.05391	-0.74598
603.896	-2.24797	0.71224	-1.08162	-0.72620
607.895	-2.24222	0.61182	-0.91746	-0.81961
611.893	-2.29656	0.51956	-0.81999	-0.82222
615.914	-2.09874	0.27936	-0.79077	-0.79266
619.896	-1.99359	0.06663	-0.79349	-0.82433
623.898	-1.89268	0.19657	-0.76702	-0.82995
627.897	-1.76470	0.03860	-0.68625	-0.90924
631.916	-1.55598	0.01761	-0.91483	-0.88194
635.898	-1.48776	0.04106	-1.06964	-0.85743
639.897	-1.37677	-0.00395	-1.19830	-0.82143
643.895	-1.29603	0.00465	-0.92654	-0.76911
647.925	-1.11708	-0.04276	-0.86297	-0.82385
651.895	-1.09639	0.00261	-0.84669	-0.70379
655.896	-0.99042	-0.03921	-0.88160	-0.65358
659.896	-0.98382	0.03759	-0.94554	-0.54316
663.917	-0.93083	0.08005	-0.93790	-0.74300
667.896	-0.85622	0.14058	-0.97685	-0.64044
671.897	-0.80275	0.18799	-0.96194	-0.58164
675.897	-0.77007	0.25128	-0.86148	-0.61654
679.918	-0.75804	0.33121	-0.79176	-0.69163
683.897	-0.73692	0.38433	-0.73516	-0.74366
687.897	-0.73121	0.45847	-0.69650	-0.77554
691.896	-0.81419	0.42075	-0.61595	-0.75977
695.918	-0.87126	0.48362	-0.55421	-0.79071
699.897	-1.00782	0.40356	-0.48676	-0.87670
703.852	-0.97777	0.34920	-0.37035	-0.82576
707.900	-0.96678	0.41054	-0.30136	-0.80805
711.920	-0.99941	0.35807	-0.25170	-0.76331
715.895	-1.11591	0.37105	-0.19879	-0.78419
719.899	-1.09678	0.35540	-0.09756	-0.85462
723.898	-1.22816	-0.14198	-0.12178	-0.91097
727.924	-1.38957	-0.10026	-0.10947	-0.94545
731.898	-1.41338	-0.23654	-0.10091	-2.51126
735.898	-1.51772	-0.25648	-0.09483	-2.55431
739.901	-1.57801	-0.27251	-0.06182	-2.73964
743.919	-1.61706	-0.35018	-0.02301	-2.67396
747.901	-1.82170	-0.16295	-0.04561	-2.67882
751.899	-1.82366	-0.26866	-0.03058	-2.51074
755.877	-1.87403	-0.12872	0.03018	-2.55389
759.866	-1.93797	-0.15693	0.00767	-2.57232
763.898	-1.97329	-0.20213	-0.03283	-2.71978
767.898	-2.00425	-0.15586	-0.11922	-2.60364
771.898	-2.01813	-0.03790	-0.22773	-2.63005
775.920	-2.03558	0.08227	-0.32861	-2.65158
779.899	-2.04946	0.11605	-0.44244	-2.59451
783.898	-2.04237	0.16720	-0.48443	-2.60241
787.899	-2.03814	0.20420	-0.57424	-2.55538
791.922	-1.98016	0.19920	-0.79379	-2.47975
795.900	-1.85142	0.21289	-0.88835	-2.38167
799.899	-1.74266	0.18054	-0.91949	-2.36645
803.899	-1.70789	0.18909	-0.99792	-1.98480
807.918	-1.65656	0.22129	-1.09137	-1.74589
811.900	-1.49555	0.39712	-1.10284	-1.90530
815.900	-1.54825	0.40988	-1.03379	-1.36116
819.900	-1.43275	0.39435	-1.03580	-1.30439
823.920	-1.32312	0.45049	-1.01206	-0.84438
827.899	-1.36350	0.49839	-1.01757	-0.59649
831.902	-1.30766	0.50601	-0.89887	-0.48312
835.901	-1.30122	0.55514	-0.86213	-0.61850
839.922	-1.27512	0.66926	-0.78223	-0.48117
843.903	-1.41420	0.78532	-0.70774	-0.65345
847.904	-1.43498	0.79393	-0.65131	-0.66581
851.901	-1.47419	0.83100	-0.64578	-0.61687
855.923	-1.54624	0.84964	-0.59945	-0.45289
859.902	-1.52367	0.84667	-0.58200	-0.50360
863.899	-1.59792	0.86807	-0.53825	-0.46013
867.905	-1.58768	0.83192	-0.53123	-0.51134
871.922	-1.56040	0.84172	-0.50056	-0.65991
875.902	-1.62755	0.76855	-0.53314	-0.79571
879.881	-1.66765	0.50838	-0.54538	-0.95872
883.901	-1.69996	0.61495	-0.50443	-1.03067
887.920	-1.66138	0.41987	-0.58734	-1.09658
891.901	-1.64692	0.31150	-0.64407	-1.19430
895.902	-1.62138	0.12258	-0.57952	-1.25246
899.901	-1.59405	0.01699	-0.60568	-1.30210
903.918	-1.60920	0.28538	-0.57640	-1.28864
907.902	-1.59670	0.18910	-0.69779	-1.43649
911.901	-1.53733	0.13898	-0.79952	-1.47381
915.903	-1.51092	0.11290	-0.85922	-1.50177
919.903	-1.45767	0.11057	-0.84853	-1.55736
923.866	-1.31228	0.16068	-0.77814	-1.54167
927.857	-1.36556	0.10737	-0.74121	-1.55557
931.859	-1.26525	0.07935	-0.69243	-1.53460
935.892	-1.45616	-0.04884	-0.63342	-1.52461
939.903	-1.47074	0.02807	-0.69886	-1.45291
943.902	-1.52402	0.12472	-0.69747	-1.40317
947.906	-1.64357	0.16724	-0.75139	-1.30082
951.905	-1.88953	0.40345	-0.75657	-1.10267
955.904	-1.84639	0.41081	-0.73960	-0.76867
959.902	-1.93073	0.53034	-0.69439	-0.54931
963.881	-1.90393	0.41186	-0.61523	-0.86791
967.871	-1.90435	0.34310	-0.50153	-1.02376
971.903	-1.96819	0.30089	-0.58781	-0.96940
975.904	-1.99570	0.30498	-0.47567	-1.15010
979.902	-1.97852	0.46849	-0.42790	-1.32737
983.921	-2.03868	0.49107	-0.21924	-1.39134
987.903	-2.04287	0.61100	-0.32722	-1.33915
991.903	-2.02549	0.64565	-0.26500	-1.45735
995.860	-1.95641	0.68851	-0.22758	-1.38312
999.906	-1.92971	0.79231	-0.12987	-1.17709
1003.893	-1.75706	0.86937	-0.09647	-1.08995
1007.893	-1.50100	1.13321	-0.11175	-1.16762
1011.903	-1.17857	1.04365	-0.02638	-1.15068
1015.905	-1.19904	1.31385	0.00797	-0.94232
1019.905	-1.03769	1.58178	0.00650	-0.86772
1023.904	-0.53456	1.99623	-0.02817	-0.78789
1027.906	-0.85347	1.31717	-0.08272	-0.78245
1031.907	-0.94790	1.43303	-0.07249	-0.65567
1035.905	-0.91510	1.99187	-0.16481	-0.48373
1039.907	-0.84498	1.74639	-0.22976	-0.73052
1043.905	-0.91872	2.00098	-0.29084	-0.90032
1047.900	-1.17009	1.55403	-0.42768	-0.97315
1051.905	-1.00020	0.60538	-0.32682	-0.99596
1055.907	-0.94070	0.95362	-0.50068	-0.95088
1059.906	-1.08004	1.16523	-0.56466	-1.20495
1063.908	-1.26014	1.07290	-0.66347	-1.15138
1067.906	-1.57024	1.26625	-0.66245	-1.13245
1071.905	-1.85494	1.49713	-0.70804	-0.73092
1075.910	-1.60536	1.00363	-0.84352	-0.29975
1079.898	-1.63943	0.69869	-0.91783	0.07653
1083.906	-1.78781	0.37374	-0.79687	-0.58284
1087.886	-1.78205	0.58899	-1.03074	-1.22279
1091.903	-1.37600	1.14909	-4.28510	2.55834
1095.864	-1.67479	0.78348	-6.42489	2.76673
1099.906	-1.38369	1.22931	-6.73280	2.80956
1103.907	-1.55154	1.37607	-1.34405	3.02217
1107.905	-1.74888	1.32408	-1.54735	3.24652
1111.895	-1.81344	1.21920	-1.70660	2.95577
1115.908	-1.92411	1.00363	-1.70760	2.84198
1119.907	-2.23794	0.95257	-4.83770	7.69880
1123.907	-1.71541	1.31162	-5.41145	7.67757
1127.907	-1.65118	1.18514	-4.27304	7.68380
1131.871	-1.78106	1.32776	-4.55586	7.50010
1135.906	-1.41722	1.21539	-6.55026	7.36614
1139.907	-1.50123	1.16842	-6.85505	6.96616
1143.898	-1.47923	0.78810	-4.14223	7.12368
1147.912	-1.28926	0.93468	-4.31941	6.83874
1151.910	-1.58589	0.95415	-4.51006	6.92812
1155.907	-1.48493	0.87982	-2.14077	6.84788
1159.894	-1.44746	0.85892	-2.75395	6.71323
1163.907	-1.48384	0.73115	-3.81881	6.83662
1167.908	-1.58478	0.86286	-3.98368	6.73703
1171.886	-1.58735	0.94437	-6.57573	6.62384
1175.804	-1.48647	1.06513	-6.70690	6.79086
1179.910	-1.53104	1.24229	-3.59352	6.94577
1183.907	-1.52231	1.18390	-3.91758	7.24923
1187.907	-1.66986	0.82456	-4.12184	7.31211
1191.805	-1.57677	0.80957	-2.81385	7.61887
1195.905	-1.65391	0.78314	-2.82390	7.67339
1199.907	-1.66016	1.02419	-3.56813	7.86414
1203.907	-1.62671	1.43453	-6.21899	7.41702
1207.805	-1.53200	1.48206	-3.19100	7.85386
1211.896	-1.56169	1.47988	-3.24635	8.23571
1215.909	-1.57344	0.94740	-3.51819	8.73764
1219.909	-1.66876	1.33501	-4.52802	9.16318
1223.911	-1.67831	1.33269	-3.15931	9.22670
1227.912	-1.57391	1.34729	-3.07040	9.42070
1231.910	-1.39907	1.67892	-2.97500	9.23871
1235.907	-1.59487	1.62010	-5.39736	9.35445
1239.910	-1.56174	1.69582	-6.00155	9.21076
1243.909	-1.33014	1.82776	-3.04474	9.49810
1247.915	-1.84542	1.81043	-4.06394	9.92136
1251.910	-2.26140	1.68643	-0.37556	-2.03705
1255.911	-2.36301	1.20510	-0.75523	-2.93968
1259.913	-1.56114	1.64626	-0.64466	-2.14841
1263.910	-1.15717	1.76089	-0.63114	-1.66889
1267.911	2.89440	-5.70286	0.81811	-0.47232
1271.805	-1.81520	1.52417	1.00945	-2.17960
1275.911	0.09292	1.91813	-0.85560	-2.24573
1279.909	-1.80846	-1.97364	-1.22995	-1.10013
1283.911	-5.57837	1.96150	-0.80201	2.83535
1287.806	NaN	NaN	NaN	NaN
1291.902	NaN	NaN	NaN	NaN
1295.895	NaN	NaN	NaN	NaN
1299.907	NaN	NaN	NaN	NaN
1303.909	NaN	NaN	NaN	NaN
1307.910	NaN	NaN	NaN	NaN
1311.865	NaN	NaN	NaN	NaN
1315.910	NaN	NaN	NaN	NaN
1319.909	NaN	NaN	NaN	NaN
1323.908	NaN	NaN	NaN	NaN
1327.867	NaN	NaN	NaN	NaN
1331.912	NaN	NaN	NaN	NaN
1335.909	NaN	NaN	NaN	NaN
1339.906	NaN	NaN	NaN	NaN
1343.869	NaN	NaN	NaN	NaN
1347.912	NaN	NaN	NaN	NaN
1351.912	-10.84396	14.97887	NaN	NaN
1355.911	-7.46580	4.32849	-9.39774	11.54243
1359.912	-6.07243	1.22974	-8.14045	13.14550
1363.870	-5.91938	1.96890	-5.19106	-4.41540
1367.806	-6.51491	-1.18089	-5.72618	-3.95239
1371.913	-3.89271	-1.36830	-7.57434	-3.77912
1375.915	-1.71588	-1.17155	-7.63286	-2.66997
1379.891	-1.01491	-1.05615	-8.50605	-2.12493
1383.915	-1.54378	-1.21304	-7.96064	-2.74977
1387.914	-4.89414	-1.17770	-8.61341	-3.31264
1391.913	-3.50356	-0.97939	-1.00950	-3.85360
1395.913	-1.26765	-0.65116	-6.38864	-3.84720
1399.809	-4.48093	0.81521	-5.52561	-3.53648
1403.914	-4.69645	0.33087	-6.78997	-3.78941
1407.914	-4.66842	-0.73449	-5.68883	-3.61450
1411.915	-4.56008	-0.74763	-4.32242	-3.66239
1415.820	-4.56905	-0.62361	-4.18156	-3.57516
1419.909	-4.67621	-0.40188	-4.48305	-3.53625
1423.868	-4.88064	-0.59672	-5.14525	-3.46151
1427.913	-4.86118	-0.27513	-5.18545	-3.50947
1431.813	-4.93635	-0.31575	-4.89929	-3.54328
1435.913	-5.13668	-0.25266	-4.71338	-3.64104
1439.915	-5.06646	-0.03777	-4.81034	-3.61372
1443.914	-5.24555	-0.04709	-4.84570	-3.44804
1447.812	-5.16327	-0.25058	-4.85517	-3.56442
1451.915	-5.19766	-0.23339	-4.80665	-3.57753
1455.916	-5.24794	-0.33982	-4.92531	-3.67679
1459.915	-5.27784	-0.26941	-5.06077	-3.69107
1463.916	-5.21813	-0.44181	-5.02152	-3.80344
1467.915	-5.23032	-0.50646	-5.07333	-3.91116
1471.915	-5.24742	-0.33066	-5.12957	-3.96141
1475.915	-5.02381	-0.53457	-5.24407	-4.06697
1479.918	-5.17341	-0.47018	-5.28741	-4.04882
1483.916	-4.94955	-0.59208	-5.31012	-4.05859
1487.918	-4.96366	-0.62863	-5.40353	-4.09251
1491.871	-4.82952	-0.76779	-5.35773	-4.10972
1495.810	-4.85628	-0.81861	-5.49151	-4.10503
1499.917	-4.74794	-0.89207	-5.45390	-3.56376
1503.897	-4.77113	-0.87491	-5.52654	-3.83138
1507.916	-4.69157	-0.92351	-5.50048	-3.55185
1511.814	-4.64110	-1.08143	-5.51907	-3.55120
1515.917	-4.64056	-1.15164	-5.32791	-3.33395
1519.916	-4.79916	-1.28647	-5.33133	-2.97543
1523.917	-4.84159	-1.22746	-5.22579	-3.00962
1527.917	-5.25261	-0.97166	-5.29221	-2.92021
1531.915	-5.48578	-1.42295	-6.56556	-2.84538
1535.792	-7.66087	-1.21274	-7.72627	-3.14820
1539.791	-7.93050	-1.23617	-9.18318	-2.82142
1543.781	-8.49653	-1.49735	-9.43711	-2.97084
1547.793	-9.39426	-2.31755	-9.89641	-2.99455
1551.773	-10.74669	-2.44478	-9.69583	-3.48260
1555.790	-10.93394	-1.72208	-10.56601	-4.87050
1559.782	-10.68173	-1.74361	-11.00816	-5.10538
1563.793	-10.67483	-1.77131	-10.98434	-4.93438
1567.791	-10.46025	-1.98648	-10.88130	-5.03265
1571.790	-10.69779	-1.87950	-10.82234	-5.15808
1575.780	-10.49116	-1.87479	-10.61449	-4.94565
1579.792	-10.57181	-1.92396	-10.79353	-5.08408
1583.792	-10.47002	-2.02061	-10.64981	-5.10219
1587.793	-10.60088	-1.99957	-10.70550	-5.14510
1591.805	-10.65568	-1.95729	-10.76475	-5.07410
1595.778	-10.58865	-1.96467	-10.71588	-5.12264
1599.793	-10.67301	-2.06071	-10.70883	-5.05973
1603.791	-10.70986	-2.10689	-10.66843	-5.01113
1607.790	-10.86416	-2.48202	-10.60243	-4.91129
1611.749	-11.02366	-2.81777	-10.56006	-4.93854
1615.794	-11.10089	-3.13864	-10.49539	-4.83273
1619.795	-11.34766	-3.25277	-10.50309	-4.71913
1623.812	-11.43586	-3.08125	-10.47333	-4.62455
1627.796	-11.50234	-3.11615	-10.41424	-4.50249
1631.792	-11.37150	-3.28200	-10.35114	-4.33646
1635.794	-11.41647	-3.22637	-10.46371	-4.30023
1639.790	-11.30109	-3.32584	-10.49630	-4.15111
1643.793	-11.30252	-3.17521	-10.57857	-4.18725
1647.793	-11.35029	-3.34785	-10.41957	-4.21708
1651.797	-11.28357	-3.37138	-10.41352	-4.24125
1655.782	-11.18291	-3.19293	-10.40329	-4.32483
1659.793	-11.16593	-3.15248	-10.30069	-4.40767
1663.793	-11.12242	-3.02108	-10.23889	-4.48898
1667.792	-11.06683	-3.01358	-10.11464	-4.53594
1671.785	-10.99327	-2.80621	-10.16348	-4.56111
1675.793	-11.29118	-2.79265	-10.03354	-4.48766
1679.794	-11.27844	-2.93323	-10.00057	-4.60234
1683.795	-11.23086	-3.19682	-9.96097	-4.60642
1687.787	-11.27510	-3.51062	-9.92247	-4.60069
1691.796	-11.24858	-3.57856	-9.88653	-4.61505
1695.797	-11.37469	-3.58179	-9.85729	-4.60444
1699.795	-11.48187	-3.77261	-9.80207	-4.50985
1703.783	-11.48408	-4.02149	-9.79055	-4.41426
1707.796	-11.49274	-4.09362	-9.78233	-4.35983
1711.798	-11.49297	-4.07959	-9.76854	-4.29023
1715.785	-11.52321	-4.12033	-9.72395	-4.21081
1719.787	-11.43457	-4.04815	-9.69026	-4.17471
1723.798	-11.38423	-4.12843	-9.67456	-4.13575
1727.797	-11.26870	-4.08939	-9.65387	-4.05345
1731.795	-11.21627	-4.17902	-9.63211	-4.00061
1735.791	-11.21071	-4.14540	-9.61136	-3.94751
1739.796	-11.05921	-3.99133	-9.52874	-3.88427
1743.797	-10.97865	-3.99995	-9.53342	-3.82879
1747.795	-10.96208	-3.94700	-9.49610	-3.80754
1751.789	-10.87393	-3.93136	-9.45935	-3.77134
1755.802	-10.81432	-3.84728	-9.44409	-3.71942
1759.765	-10.79068	-3.70436	-9.41501	-3.72442
1763.798	-10.78245	-3.68183	-9.41040	-3.69427
1767.819	-10.81121	-3.60439	-9.41095	-3.68884
1771.795	-10.85392	-3.80343	-9.37416	-3.69214
1775.797	-10.91669	-3.69478	-9.35703	-3.77003
1779.796	-11.01790	-3.70333	-9.33294	-3.90848
1783.753	-11.23482	-3.91657	-9.34118	-4.06634
1787.797	-11.31056	-4.15989	-9.32009	-4.10579
1791.822	-11.36367	-3.90449	-9.37786	-4.22436
1795.797	-11.34502	-3.64060	-9.68763	-4.33048
1799.787	-11.44377	-3.88785	-9.87550	-4.40909
1803.797	-11.46428	-4.10690	-10.18793	-4.54295
1807.797	-11.49774	-4.03380	-10.16514	-4.47686
1811.797	-11.52226	-4.08137	-10.09441	-4.56267
1815.822	-11.55683	-4.05805	-10.36896	-4.58816
1819.799	-11.59151	-4.25424	-10.41273	-4.62418
1823.797	-11.61199	-4.32117	-10.54485	-4.62130
1827.799	-11.58175	-4.32508	-10.54145	-4.66678
1831.796	-11.53444	-4.33750	-10.62526	-4.64998
1835.802	-11.53744	-4.30571	-10.51168	-4.60742
1839.797	-11.52226	-4.23866	-10.50311	-4.50415
1843.799	-11.47839	-4.19259	-10.45195	-4.50312
1847.817	-11.45117	-3.67805	-10.45128	-4.47500
1851.804	-11.28028	-3.36812	-10.46179	-4.45416
1855.797	-11.26397	-3.12045	-10.38490	-4.39913
1859.798	-11.21097	-3.60585	-10.07540	-4.38275
1863.816	-11.15570	-3.32880	-10.23149	-4.27782
1867.799	-11.15448	-3.51660	-10.17485	-4.30156
1871.798	-11.20328	-3.45359	-10.17731	-4.25748
1875.799	-11.31946	-3.38903	-10.14732	-4.24173
1879.819	-11.36038	-3.45142	-10.10458	-4.28798
1883.774	-11.28159	-3.38654	-10.16067	-4.56176
1887.800	-11.29097	-3.48743	-10.15557	-4.39885
1891.790	-11.04147	-3.37446	-9.99561	-4.40156
1895.797	-11.02600	-3.25202	-9.87008	-4.30484
1899.799	-10.97975	-3.33016	-9.86023	-4.42543
1903.799	-10.92169	-3.46566	-10.01657	-4.34187
1907.800	-11.14698	-3.53534	-9.92533	-4.45236
1911.822	-11.29641	-3.32092	-9.97243	-4.41457
1915.799	-10.64130	-3.36869	-9.94472	-4.34747
1919.803	-10.41842	-3.41036	-9.63247	-4.59882
1923.799	-7.28764	-2.96765	-9.07044	-4.05206
1927.819	-5.90384	-2.97717	-6.69422	-3.96596
1931.801	-5.55032	-1.82722	-5.82221	-2.64403
1935.800	-1.98204	-3.12668	-2.72360	-2.84830
1939.800	0.02263	-2.74780	-2.28618	-2.11160
1943.791	0.25470	-2.37916	0.27771	-2.41649
1947.801	3.75506	-2.55757	2.23635	-2.70937
1951.800	4.40266	-2.31174	2.64413	-2.85218
1955.801	5.71893	-2.35035	4.19255	-3.11451
1959.803	6.84854	-2.19792	7.49917	-4.02017
1963.801	8.84520	-2.98288	7.90214	-3.78198
1967.800	10.33353	-3.07981	9.17087	-4.00977
1971.802	10.51791	-3.84450	10.70006	-4.37692
1975.794	11.87674	-3.93794	11.09750	-4.01571
1979.802	12.72990	-4.28560	11.45596	-4.10661
1983.800	12.63145	-4.30871	12.08243	-4.02029
1987.984	12.41495	-4.35939	12.39719	-4.12027
1991.797	12.56886	-4.35444	11.95330	-4.11826
1995.792	12.38346	-4.33284	11.96610	-4.20340
1999.802	12.40474	-4.32785	12.01343	-4.30692
2003.801	12.43405	-4.34177	12.01167	-4.30620
2007.734	12.55611	-4.40098	12.07479	-4.36905
2011.796	12.46408	-4.55150	12.06942	-4.46020
2015.803	12.36113	-4.59936	12.12293	-4.43678
2019.801	12.17397	-4.97668	12.25315	-4.51768
2023.803	12.07139	-5.14428	12.33425	-4.65031
2027.802	11.85114	-4.82809	12.44619	-4.67147
2031.803	11.83258	-4.80635	12.52381	-4.75399
2035.802	11.55233	-5.24687	12.32672	-4.83286
2039.801	11.09704	-4.72612	12.22149	-5.00884
2043.806	11.09081	-4.73588	12.15531	-5.00377
2047.808	11.14345	-4.59492	12.10457	-5.05691
2051.807	11.31829	-4.42967	12.13489	-5.06085
2055.805	11.05493	-4.24311	12.10834	-5.07596
2059.803	11.06205	-4.08096	12.07631	-5.09867
2063.802	10.97987	-3.79762	12.01530	-5.11161
2067.803	10.99810	-3.66265	11.80103	-5.13249
2071.804	10.90614	-3.37872	11.84931	-5.16968
2075.803	10.99709	-3.41519	11.77915	-5.17240
2079.804	11.04833	-3.17453	11.66201	-5.13359
2083.804	11.04140	-3.33299	11.74732	-5.11201
2087.803	11.14350	-3.26408	11.77663	-5.10133
2091.823	11.12309	-3.34169	11.81952	-5.09197
2095.800	11.10046	-3.42111	11.84727	-5.13674
2099.804	11.04938	-3.33387	11.99149	-5.14703
2103.801	11.05003	-3.32575	11.91818	-5.12265
2107.802	10.97640	-3.23727	12.00868	-5.10053
2111.760	10.96966	-3.27773	11.53253	-4.72250
2115.805	10.96284	-3.31224	11.36968	-4.29874
2119.794	10.77758	-3.33750	11.48215	-4.42923
2123.805	10.68132	-3.94230	11.62563	-4.35339
2127.807	10.64933	-3.83673	11.45498	-4.45045
2131.805	10.61226	-4.04061	11.52996	-4.27150
2135.795	10.62087	-4.18825	11.64523	-4.45661
2139.805	10.59354	-4.29281	11.63399	-4.43153
2143.805	10.66309	-4.38161	11.69812	-4.48907
2147.805	10.62725	-4.20874	11.63720	-4.64618
2151.803	10.66251	-4.14918	11.68648	-4.86567
2155.804	10.60193	-3.58340	11.76661	-4.72212
2159.805	10.57498	-3.64025	11.91845	-4.84045
2163.805	10.68631	-4.09619	11.77734	-5.02027
2167.795	10.80637	-3.54452	11.83512	-4.84395
2171.807	10.87611	-3.26210	11.91277	-4.89534
2175.761	10.96925	-1.92488	11.98835	-4.63366
2179.804	12.48684	-1.22395	13.73648	-4.91734
2183.806	13.77293	-3.28369	12.34920	-2.93790
2187.807	15.41139	-3.55791	13.93843	-4.30047
2191.832	15.75398	-3.46179	15.26674	-4.01936
2195.806	15.87846	-3.33615	15.51304	-3.64057
2199.702	16.29831	-3.32090	15.64190	-3.62624
2203.807	16.09155	-3.52840	15.86459	-3.43902
2207.805	16.05372	-3.16733	15.96268	-3.39516
2211.807	16.06637	-3.08900	16.02018	-3.34137
2215.704	16.12820	-3.07030	16.06240	-3.29849
2219.803	16.14893	-2.98082	16.07313	-3.19211
2223.805	15.72695	-2.81058	16.18828	-3.26141
2227.808	15.86564	-2.85409	16.28363	-3.26892
2231.704	15.81633	-2.72720	16.47482	-3.25814
2235.809	15.86817	-2.69104	16.60401	-3.20543
2239.809	15.83811	-2.57729	16.68261	-3.21048
2243.809	15.97340	-2.49485	16.58767	-3.23863
2247.798	16.01399	-2.44631	16.58402	-3.28807
2251.812	16.04233	-2.32826	16.69142	-3.44757
2255.813	15.90213	-2.27888	16.82231	-3.76962
2259.808	15.90614	-2.21088	16.92510	-3.72288
2263.798	15.84394	-2.10564	16.99497	-3.95396
2267.808	15.73003	-2.14036	16.99799	-4.01226
2271.805	15.70629	-2.10793	17.05696	-4.06847
2275.807	15.64445	-2.11851	16.88514	-4.17453
2279.709	15.31272	-2.04668	16.86146	-4.20599
2283.808	15.07836	-2.03318	16.43937	-3.36694
2287.807	15.00660	-2.00917	16.47892	-3.46783
2291.808	14.96944	-1.99296	16.36206	-3.48492
2295.700	15.14079	-2.01272	16.64530	-3.47993
2299.786	15.09997	-2.02035	16.25370	-3.84697
2303.809	15.10087	-2.04619	15.89781	-3.46641
2307.808	15.14375	-2.08217	15.97691	-3.50182
2311.707	15.26656	-2.05996	15.71048	-2.94951
2315.809	15.46809	-2.06790	15.72251	-2.79549
2319.808	15.44395	-2.06426	15.74405	-2.86692
2323.808	15.56263	-2.08055	15.65347	-3.20230
2327.706	15.52845	-2.06108	15.59197	-3.26759
2331.810	15.61681	-1.99303	15.57385	-3.32084
2335.811	15.55234	-2.04312	15.43671	-3.43506
2339.799	15.61617	-2.10035	15.47402	-3.38648
2343.708	15.36474	-1.92256	15.44979	-3.45606
2347.810	15.36622	-1.84897	15.47298	-3.59431
2351.809	15.31574	-1.70879	15.51889	-3.58712
2355.814	15.33266	-1.79415	15.46208	-3.55974
2359.678	15.38359	-1.92724	16.35392	-3.78256
2363.812	15.25792	-1.62073	17.12652	-3.89342
2367.810	15.24443	-1.53534	16.53783	-3.56165
2371.813	15.26067	-1.50793	17.17834	-3.39147
2375.841	15.29376	-1.43572	16.90261	-3.37940
2379.809	15.36015	-1.36172	16.66995	-3.21204
2383.779	15.50483	-1.39619	16.55290	-3.25899
2387.809	15.60724	-1.40255	16.70859	-2.97058
2391.704	15.69068	-1.40702	16.77188	-2.98969
2395.809	15.83834	-1.40022	16.89555	-2.86767
2399.810	15.94761	-1.43375	16.84421	-2.85533
2403.811	16.10660	-1.40144	16.88334	-2.79423
2407.706	16.11066	-1.39788	16.85798	-2.76561
2411.812	16.17393	-1.43331	16.90604	-2.74669
2415.811	16.30915	-1.48726	16.86496	-2.81744
2419.813	16.36325	-1.48232	16.88475	-2.74669
2423.710	16.45562	-1.51539	16.95345	-2.94406
2427.806	16.41978	-1.48420	17.02204	-3.16338
2431.812	16.52257	-1.47628	17.05136	-3.23637
2435.812	16.50377	-1.50594	17.09832	-2.84702
2439.709	16.61871	-1.54193	17.18888	-2.94809
2443.811	16.42763	-1.43531	17.24847	-3.03786
2447.813	13.89166	1.81099	17.13871	-2.81987
2451.812	14.26002	0.20668	17.01975	-2.76931
2455.710	16.76929	0.53393	16.89602	-3.11100
2459.814	17.84986	1.58952	17.18106	-2.96640
2463.815	18.89650	3.37519	17.14826	-2.68494
2467.776	19.19977	7.00591	20.88151	-3.06261
2471.817	NaN	NaN	17.04518	-1.81130
2475.813	10.58853	10.52368	15.23505	1.03332
2479.812	NaN	NaN	NaN	NaN
2483.812	NaN	NaN	NaN	NaN
2487.712	NaN	NaN	NaN	NaN
2491.807	NaN	NaN	NaN	NaN
2495.767	NaN	NaN	NaN	NaN
2499.814	NaN	NaN	NaN	NaN
2503.817	NaN	NaN	NaN	NaN
2507.790	NaN	NaN	NaN	NaN
2511.769	NaN	NaN	NaN	NaN
2515.814	NaN	NaN	NaN	NaN
2519.813	NaN	NaN	NaN	NaN
2523.708	NaN	NaN	NaN	NaN
2527.768	NaN	NaN	NaN	NaN
2531.812	NaN	NaN	NaN	NaN
2535.815	NaN	NaN	NaN	NaN
2539.711	-18.40488	5.74570	NaN	NaN
2543.772	-12.65930	0.37776	NaN	NaN
2547.816	-14.48488	3.43688	NaN	NaN
2551.770	-15.76419	6.03579	-17.75152	9.29147
2555.679	-16.05305	6.15125	-19.99306	-12.07747
2559.689	-16.10491	7.30799	-17.63612	12.49874
2563.691	-14.37301	7.03499	-17.61662	10.17042
2567.690	-14.57274	6.36006	-18.16511	8.54033
2571.646	-14.86435	5.74066	-18.04864	8.27639
2575.690	-14.84181	6.07279	-17.80809	5.50035
2579.691	-14.64766	5.66432	-17.69797	5.57436
2583.689	-14.84661	5.51514	-17.68261	6.65216
2587.681	-15.30649	5.56926	-17.19137	5.94146
2591.692	-15.41497	5.63705	-16.86094	5.65338
2595.671	-15.09321	5.49899	-16.17455	4.87179
2599.686	-15.08926	5.45057	-15.57636	3.85542
2603.679	-14.74005	5.51390	-15.43044	3.84185
2607.689	-14.90962	5.47016	-15.18331	4.19774
2611.687	-14.96019	5.50837	-15.17577	4.66476
2615.691	-15.03191	5.69311	-15.17059	5.13685
2619.681	-15.03962	6.03155	-14.93103	5.05598
2623.691	-15.03499	5.53261	-15.02360	4.29307
2627.689	-14.71199	5.90088	-15.09485	4.80107
2631.692	-14.85496	5.88690	-15.18939	4.82663
2635.678	-14.67154	6.07620	-15.22225	4.29882
2639.686	-14.73859	6.07599	-15.30450	4.21438
2643.691	-14.70105	5.86435	-15.35399	4.15990
2647.692	-14.77939	5.75227	-15.20302	4.45815
2651.682	-14.84867	5.97627	-15.10614	4.07495
2655.690	-14.86163	5.83673	-15.05075	4.13971
2659.692	-14.88788	5.91143	-15.22412	4.41766
2663.692	-14.88491	5.79708	-15.27767	4.44451
2667.688	-14.90663	5.83457	-15.19140	4.36792
2671.654	-14.91935	5.71432	-15.16752	4.54616
2675.649	-14.95153	5.77374	-15.12779	4.65064
2679.667	-14.89991	5.60794	-15.12819	4.87425
2683.682	-14.92454	5.61222	-15.09298	4.32954
2687.692	-14.93900	5.60743	-15.08481	4.32467
2691.719	-14.94734	5.63170	-15.07690	4.31083
2695.694	-14.91845	5.63994	-15.02839	4.54385
2699.685	-14.93087	5.65020	-15.00058	4.54125
2703.691	-14.92090	5.65919	-14.93066	4.55589
2707.691	-14.91919	5.68149	-14.89056	4.70862
2711.692	-14.92829	5.69266	-14.87132	4.63312
2715.683	-14.95721	5.81926	-14.88600	4.83647
2719.683	-14.96930	5.82982	-14.77851	4.61844
2723.683	-15.01809	5.93560	-14.81630	4.75990
2727.695	-15.07843	6.04851	-14.71134	4.65180
2731.682	-15.09881	6.14856	-14.66139	4.69740
2735.692	-15.10945	6.21588	-14.61208	4.81205
2739.695	-15.13952	6.38549	-14.60934	4.87129
2743.694	-15.15649	6.48199	-14.60267	4.92446
2747.690	-15.17394	6.57584	-14.60316	5.06023
2751.693	-15.24623	6.57273	-14.58943	4.79841
2755.695	-15.31507	5.43209	-14.74592	4.28291
2759.695	-15.34116	4.95177	-15.54607	4.24202
2763.684	-15.38327	4.75020	-15.47872	3.23500
2767.692	-15.39545	4.05325	-15.49289	0.39829
2771.693	-15.46618	3.21164	-15.67430	0.25348
2775.696	-15.52225	2.94114	-15.54658	0.20840
2779.691	-15.65476	2.78448	-15.79374	0.16984
2783.694	-15.70770	2.62609	-15.75911	0.31900
2787.695	-15.77662	2.68376	-15.29706	0.20266
2791.696	-15.84785	2.64131	-15.00795	0.89029
2795.717	-15.88489	2.62008	-15.15145	0.93393
2799.696	-15.91436	2.53899	-14.71273	0.85573
2803.678	-15.96211	2.44517	-15.24852	0.98160
2807.690	-16.11492	2.50590	-15.47678	0.92712
2811.683	-16.11746	2.44849	-15.15832	0.81389
2815.669	-16.17191	2.35984	-15.43505	0.79885
2819.693	-16.22652	2.66690	-15.57387	0.87815
2823.695	-16.18295	2.60683	-16.18698	0.90540
2827.715	-16.22238	2.59017	-16.08669	0.39273
2831.697	-16.20627	2.86165	-15.41222	0.77712
2835.695	-16.20272	2.79638	-15.52778	0.94678
2839.696	-16.19132	2.60163	-15.73736	1.27974
2843.683	-16.14835	2.40370	-16.04661	1.09992
2847.695	-16.16651	2.31766	-16.03701	0.77531
2851.694	-16.15003	2.56320	-16.19068	0.69487
2855.696	-16.12845	2.81531	-16.13587	0.83714
2859.693	-16.10055	2.60756	-16.23720	0.64936
2863.697	-16.04991	2.57379	-16.04207	1.15666
2867.697	-16.04148	2.87084	-16.05764	1.30172
2871.696	-16.02499	2.80710	-16.17260	0.72183
2875.694	-16.01757	2.69213	-16.23970	0.53118
2879.697	-16.00791	2.67494	-16.25420	0.21504
2883.697	-16.02979	2.60765	-16.25372	0.50185
2887.674	-16.02903	2.62406	-16.31838	0.11869
2891.700	-16.02951	2.74728	-16.30142	0.60623
2895.697	-16.01463	2.76776	-16.24455	0.43882
2899.697	-16.02486	2.71479	-16.27092	0.34635
2903.698	-16.04595	2.66964	-16.24940	0.42986
2907.696	-16.08204	2.66784	-16.29042	0.42154
2911.709	-16.11240	2.61503	-16.33496	0.50350
2915.697	-16.13134	2.59529	-16.32083	0.53062
2919.697	-16.15016	2.54250	-16.30071	0.50187
2923.688	-16.19178	2.49321	-16.30798	0.57017
2927.698	-16.21194	2.46640	-16.30373	0.55552
2931.687	-16.24260	2.50776	-16.24313	0.59813
2935.696	-16.25827	2.49842	-16.19572	0.67033
2939.695	-16.26193	2.48756	-16.20293	0.79422
2943.697	-16.24812	2.51995	-16.18279	0.95845
2947.698	-16.21966	2.63197	-16.16145	1.17649
2951.698	-16.25932	2.72377	-16.12245	0.99003
2955.689	-16.32858	2.84952	-16.05881	1.23977
2959.702	-16.33966	2.96207	-16.06745	0.82829
2963.700	-16.30247	2.65849	-16.08548	1.00170
2967.697	-16.33772	2.77005	-16.01828	1.13749
2971.687	-16.22448	2.94151	-15.98012	0.98100
2975.700	-16.13979	3.20199	-15.93295	1.41133
2979.699	-15.60696	3.35568	-14.73543	2.46211
2983.658	-14.91444	5.55393	-14.23412	2.49713
2987.696	-14.97513	5.78965	-13.63885	6.01176
2991.700	-15.15603	8.44011	-13.74097	7.62821
2995.660	-14.45179	8.85288	-13.56216	8.39691
2999.702	-13.61748	9.03845	-13.26293	8.67159
3003.689	-13.25980	9.13645	-13.00629	10.02342
3007.699	-13.15633	9.08636	-12.87718	10.75574
3011.682	-13.07860	9.09574	-12.92903	10.53425
3015.696	-13.09574	9.21312	-12.67428	10.38665
3019.719	-13.26394	9.34540	-12.44306	10.61013
3023.698	-13.20759	9.59971	-12.37910	10.72772
3027.700	-13.24856	9.82781	-12.34361	11.50628
3031.700	-13.23100	10.06079	-12.34155	11.47429
3035.699	-13.25094	10.09028	-12.37143	11.62863
3039.700	-13.25249	10.34935	-12.35029	11.97145
3043.700	-13.33605	10.36947	-12.37958	11.76889
3047.699	-13.40243	10.45376	-12.42680	11.91656
3051.699	-13.45491	10.53571	-12.34136	12.05424
3055.693	-13.56352	10.58969	-12.33939	12.05721
3059.705	-13.62305	10.58573	-12.39823	12.07293
3063.700	-13.44151	10.62206	-12.45120	12.11325
3067.698	-13.40704	10.59507	-12.49956	12.13184
3071.701	-13.29937	10.55891	-12.57209	12.15622
3075.700	-13.52562	10.51837	-12.55547	10.82223
3079.699	-13.35261	10.45987	-12.52679	9.73952
3083.705	-13.42263	10.39202	-12.53462	9.76190
3087.703	-13.54054	10.32555	-12.52693	9.63014
3091.703	-13.51189	10.26426	-12.51825	10.58207
3095.679	-13.51379	10.20347	-12.61247	10.49127
3099.704	-13.59952	10.13774	-12.68314	10.96342
3103.703	-13.47019	10.05537	-12.72900	11.09382
3107.702	-13.51335	9.92350	-12.89940	10.74302
3111.699	-13.55571	9.83704	-12.95452	10.78102
3115.704	-13.56990	9.82758	-13.07573	11.00074
3119.702	-13.58500	9.71265	-13.03275	11.25917
3123.700	-13.75025	9.70759	-12.95070	11.35699
3127.701	-13.72388	9.67772	-12.96331	11.57357
3131.703	-13.62800	9.81330	-12.99908	11.28458
3135.683	-13.58819	9.85244	-13.04238	11.36761
3139.692	-13.61208	9.85313	-13.03039	11.05710
3143.701	-13.70575	10.08270	-13.07997	10.73100
3147.693	-13.82141	10.01491	-13.04897	11.07884
3151.683	-13.78146	9.89035	-12.98699	10.98623
3155.702	-13.89910	9.87025	-12.99015	10.79643
3159.707	-13.99178	9.61208	-12.98930	10.38740
3163.704	-14.04374	9.72564	-12.97005	10.45897
3167.702	-13.92786	9.65183	-13.03317	10.14591
3171.705	-13.88296	9.75754	-13.06044	10.58705
3175.701	-13.86670	10.02659	-13.14324	10.21934
3179.659	-13.92089	9.97505	-13.13277	9.44661
3183.704	-13.97423	9.98135	-13.14174	8.97516
3187.704	-13.94586	9.84835	-13.17332	9.05804
3191.703	-13.92844	9.82311	-13.19816	9.39846
3195.706	-13.87522	9.49649	-13.11676	10.10924
3199.703	-13.85683	9.37421	-13.15369	10.03428
3203.705	-13.86963	9.20439	-13.06497	10.78652
3207.704	-13.78717	9.16317	-13.12754	10.99408
3211.706	-13.80217	9.29592	-13.01432	9.96259
3215.704	-13.88593	9.18079	-12.99840	9.88996
3219.687	-13.91680	9.24670	-13.02813	10.09902
3223.716	-13.89971	9.36384	-12.91291	9.49877
3227.600	-13.90628	9.52710	-12.97533	9.53671
3231.705	-13.94918	9.49173	-12.97886	10.31024
3235.706	-13.95044	9.49714	-13.07142	10.62115
3239.707	-13.88925	9.89307	-13.04073	10.01102
3243.706	-13.85739	9.88286	-12.99809	9.80028
3247.704	-13.92765	10.05177	-13.05091	9.50681
3251.703	-13.99545	10.08835	-13.10043	9.58235
3255.706	-13.97755	9.95277	-13.08884	9.69025
3259.709	-13.99006	10.02275	-13.00806	9.77815
3263.700	-13.92430	9.98824	-12.98982	9.85460
3267.704	-13.95853	9.85917	-13.07886	10.19233
3271.705	-13.87534	9.81155	-13.07674	10.02766
3275.706	-13.89648	9.64823	-13.04073	10.24107
3279.706	-13.83402	9.36144	-12.96517	10.03401
3283.705	-13.88277	9.25619	-12.96628	10.04388
3287.705	-13.94055	9.25688	-12.96343	9.93191
3291.706	-13.93052	9.23613	-12.98237	10.08331
3295.709	-13.88862	9.59990	-12.97377	10.30728
3299.707	-13.84729	9.82316	-13.02629	10.29006
3303.683	-13.81825	9.91067	-13.22443	11.12246
3307.598	-13.75507	9.81005	-13.07561	10.23014
3311.707	-13.21037	9.52343	-12.93007	10.57564
3315.707	-11.71032	9.48062	-12.17710	9.49411
3319.706	-8.60359	7.24797	-10.60097	10.15226
3323.706	-8.41859	6.63651	-10.42641	7.64230
3327.706	-8.24589	5.63108	-8.63260	5.44706
3331.706	-5.96090	3.21094	-8.58709	4.74598
3335.706	-6.03113	3.39424	-5.96468	1.47795
3339.707	-5.31413	3.04603	-5.06991	0.83985
3343.706	-3.02123	1.36040	-4.78644	0.45577
3347.695	-3.14310	0.23018	-4.71257	0.13123
3351.705	-3.31959	-0.02964	-4.40322	-0.34688
3355.706	-3.81610	-0.24816	-3.19415	-1.76122
3359.662	-4.17270	-0.40255	-3.31066	-1.88738
3363.709	-4.04866	-0.42531	-3.07615	-1.74694
3367.707	-3.76673	-0.53334	-3.09107	-1.65660
3371.707	-3.59127	-0.57986	-3.02950	-1.81777
3375.661	-3.46998	-0.69769	-3.02227	-1.73297
3379.710	-3.80031	-0.68975	-3.08891	-1.71387
3383.707	-3.64677	-0.66837	-3.27875	-1.81793
3387.709	-4.19020	-0.66422	-3.06414	-1.81451
3391.706	-3.88846	-0.54888	-3.04529	-1.83752
3395.710	-3.97076	-0.51690	-3.02969	-1.78380
3399.708	-3.91501	-0.46272	-3.11247	-1.92978
3403.708	-3.85857	-0.70145	-3.13454	-2.40830
3407.708	-3.76759	-0.61731	-3.18836	-2.42727
3411.710	-4.24134	-0.41319	-3.35219	-2.85642
3415.708	-4.51457	-0.72915	-3.55276	-2.73787
3419.709	-4.67488	-0.63613	-3.49767	-2.49533
3423.711	-4.44242	-0.63314	-3.55105	-2.54687
3427.709	-4.34995	-0.78386	-3.51958	-2.34405
3431.707	-4.58257	-0.63826	-3.62904	-2.34292
3435.710	-4.52873	-0.80527	-3.83181	-2.33818
3439.708	-4.57327	-0.81136	-3.67435	-2.43079
3443.709	-4.45059	-0.87233	-3.85306	-2.20123
3447.710	-4.61682	-0.94095	-3.79008	-2.39359
3451.709	-4.65972	-0.84506	-3.73127	-2.43652
3455.709	-4.63765	-0.80755	-3.65767	-2.36469
3459.709	-4.69768	-0.83697	-3.37059	-2.41774
3463.713	-4.59771	-0.67176	-3.69059	-2.45738
3467.608	-4.55825	-0.42406	-3.77169	-2.53597
3471.710	-4.55391	-0.30807	-3.81125	-2.62887
3475.708	-4.46830	-0.15149	-3.77068	-2.60111
3479.712	-4.42101	-0.38939	-3.65512	-2.64888
3483.711	-4.41238	-0.19850	-3.68258	-2.68938
3487.710	-4.35738	-0.24700	-3.66295	-2.68598
3491.666	-4.25324	-0.18737	-3.62390	-2.63997
3495.711	-4.21829	-0.20621	-3.70099	-2.55855
3499.712	-4.06747	-0.31493	-3.66387	-2.56031
3503.710	-4.10068	-0.47629	-3.72556	-2.57610
3507.710	-4.06204	-0.55771	-3.59538	-2.55474
3511.688	-4.00287	-0.66145	-3.53500	-2.69425
3515.602	-4.00117	-0.42844	-3.90615	-2.46787
3519.713	-4.11634	-0.44278	-3.80888	-2.44336
3523.711	-4.53894	-0.45105	-3.84683	-2.37375
3527.712	-4.50439	-0.44037	-3.85975	-2.20648
3531.711	-4.34090	-0.48868	-3.80342	-2.21643
3535.711	-4.31262	-0.45765	-3.70052	-2.13575
3539.720	-4.32412	-0.38520	-3.51312	-2.03171
3543.711	-4.23698	-0.33658	-3.25129	-1.95148
3547.713	-4.33503	-0.25940	-3.33223	-1.74440
3551.714	-4.34371	-0.21182	-3.47663	-1.83884
3555.712	-4.21908	-0.17736	-3.79976	-2.20607
3559.711	-4.23268	-0.24154	-3.72875	-2.10334
3563.713	-4.06426	-0.24286	-3.86012	-2.37671
3567.711	-4.26790	-0.33304	-3.76547	-2.21185
3571.712	-4.05485	-0.40818	-3.46120	-2.31690
3575.588	-4.26109	-0.28636	-4.17749	-2.37401
3579.608	-4.34815	-0.29810	-3.95468	-2.38097
3583.587	-4.40838	-0.22531	-3.84987	-2.22896
3587.586	-4.49891	-0.09986	-3.85372	-2.07043
3591.587	-4.44985	-0.10475	-4.09718	-2.37427
3595.610	-4.82920	-0.27306	-3.82183	-2.08199
3599.563	-4.80285	0.28248	-4.08713	-1.88409
3603.588	-5.23600	1.28682	-7.25479	-1.17942
3607.586	-8.72394	3.59577	-7.89875	0.90614
3611.608	-10.88824	4.78601	-10.79895	2.55267
3615.589	-11.75541	7.15734	-11.22227	3.89949
3619.590	-12.77799	7.13990	-13.82564	6.24048
3623.588	-14.36281	6.48752	-14.11131	6.64562
3627.610	-15.09738	6.70741	-14.67983	6.81635
3631.590	-15.10186	6.78613	-15.01221	7.16346
3635.589	-14.85380	6.73495	-15.03950	8.06686
3639.581	-15.15873	6.83254	-15.05716	7.25582
3643.610	-15.08370	6.80797	-14.90832	7.93570
3647.588	-15.16983	7.55256	-15.21247	6.25055
3651.589	-15.29554	7.04124	-15.43425	6.92283
3655.587	-15.27402	7.11564	-15.49356	7.25153
3659.578	-15.36082	7.02481	-15.78106	6.67604
3663.591	-15.29981	6.98486	-15.66484	6.87599
3667.589	-15.24420	7.06470	-15.46367	6.69926
3671.588	-15.41160	6.93168	-15.47893	6.89997
3675.613	-15.44119	6.94118	-15.28887	6.51266
3679.591	-15.36811	6.85058	-15.31397	6.57446
3683.561	-15.43485	6.89930	-15.25931	6.77918
3687.588	-15.52868	7.01612	-15.03161	6.88956
3691.614	-15.54347	7.02371	-14.91437	6.82610
3695.591	-15.38131	7.07776	-14.94762	7.01324
3699.589	-15.31861	7.21538	-14.94282	7.77190
3703.590	-15.18247	7.30029	-14.97798	7.99725
3707.610	-15.56719	6.91085	-14.92607	7.89167
3711.592	-15.70869	6.76385	-14.95871	7.45519
3715.589	-15.61520	7.14499	-14.99547	6.34556
3719.590	-15.53999	6.98741	-15.09946	6.19350
3723.546	-15.48218	7.11228	-15.10004	6.37814
3727.587	-15.34787	7.04075	-15.06153	6.41791
3731.591	-15.08706	7.33887	-15.04466	6.64036
3735.592	-14.99049	7.31690	-15.02790	6.61703
3739.584	-14.86704	7.41694	-14.95802	7.00250
3743.593	-14.93450	7.39131	-14.68524	7.13207
3747.592	-15.25750	6.67267	-14.36716	7.09034
3751.591	-15.09037	6.41226	-14.53523	7.07561
3755.615	-14.96202	6.61616	-14.50690	6.94041
3759.593	-14.95735	7.26014	-14.50937	7.05023
3763.592	-15.05406	7.43964	-14.88071	5.87662
3767.591	-14.96608	7.58865	-14.84615	6.39664
3771.611	-15.02726	7.58615	-14.87656	6.84587
3775.592	-15.05010	7.85101	-14.90616	6.88594
3779.592	-15.06503	7.81100	-14.96258	7.23353
3783.591	-15.26642	7.63833	-15.16241	7.23397
3787.612	-15.27289	7.75155	-14.98069	7.18109
3791.591	-15.50066	6.95490	-14.89492	7.03503
3795.591	-15.51140	7.08948	-14.85760	7.14745
3799.592	-15.49276	7.18536	-14.76198	7.21084
3803.615	-15.42320	7.01189	-14.54997	7.07273
3807.570	-15.34596	6.96992	-14.44108	7.15991
3811.593	-15.27289	6.95722	-14.54635	7.32285
3815.592	-15.21178	6.90808	-14.58199	7.46261
3819.616	-15.17219	7.09434	-14.49858	8.06036
3823.594	-15.15975	7.42067	-14.60783	7.34782
3827.592	-15.09520	7.41413	-14.66190	7.39377
3831.594	-15.14088	7.97463	-14.54800	7.32133
3835.615	-15.11320	7.77522	-14.49006	7.26291
3839.592	-15.13061	7.93442	-14.47701	7.11811
3843.595	-15.08440	7.71400	-14.39485	7.09644
3847.588	-15.04892	7.55695	-14.59551	7.21412
3851.613	-15.11234	7.16251	-14.73165	7.11855
3855.593	-15.15878	6.78501	-14.90600	7.07079
3859.549	-15.18460	6.69469	-14.97131	7.16618
3863.599	-15.13677	6.58118	-15.08597	7.23261
3867.616	-15.17790	6.89547	-15.00014	7.27458
3871.593	-15.07512	6.93839	-14.86017	7.17098
3875.594	-15.00274	7.59116	-14.48146	7.41369
3879.593	-14.92222	7.92125	-14.29832	6.81435
3883.616	-14.75904	8.47146	-14.13358	7.39320
3887.594	-14.37881	9.13346	-13.43852	8.99094
3891.561	-14.32859	9.20690	-13.47862	11.32813
3895.593	-13.94759	9.32531	-13.33382	11.47200
3899.616	-14.09990	9.57030	-13.63149	9.69144
3903.595	-13.97419	9.48131	-13.43637	9.51259
3907.593	-13.97468	9.59531	-13.56718	10.00751
3911.596	-14.01963	9.57716	-13.62798	10.35807
3915.615	-13.98487	10.06506	-13.67471	9.85694
3919.593	-13.88630	10.00260	-13.61457	9.81891
3923.550	-13.82391	10.24926	-13.68047	9.93698
3927.596	-13.70188	10.24351	-13.62118	9.63818
3931.603	-13.72102	10.41358	-13.66390	9.67845
3935.593	-13.78028	10.31088	-13.76902	9.45207
3939.598	-13.75746	10.30514	-13.75420	9.40822
3943.597	-13.83086	10.05663	-13.75629	9.83193
3947.614	-13.97199	10.41000	-13.91799	9.93849
3951.596	-13.89739	10.41931	-13.87351	9.76114
3955.596	-14.02954	10.47526	-13.94413	9.62364
3959.597	-13.95570	10.48365	-13.84607	10.06087
3963.616	-13.95353	10.42640	-13.86656	10.10198
3967.598	-14.01204	10.33552	-13.79374	11.58524
3971.600	-13.98711	10.18166	-13.72910	10.61016
3975.595	-14.04292	10.07719	-13.69146	10.70248
3979.616	-14.03180	10.10232	-13.59483	10.76425
3983.595	-14.01461	10.08696	-13.57574	10.89121
3987.956	-14.01723	10.10071	-13.46287	10.67853
3992.787	-14.08311	9.80488	-13.46153	11.04891
3995.555	-14.08279	9.61255	-13.38588	10.90082
3999.550	-14.08647	9.64163	-13.36732	11.01576
4003.597	-14.07856	9.59398	-13.40396	11.14653
4007.597	-14.14322	9.46098	-13.42613	11.39172
4011.618	-14.18449	9.49114	-13.40835	11.14508
4015.574	-14.29387	9.50727	-13.62357	10.34501
4019.597	-14.18722	9.37278	-13.62695	10.25537
4023.597	-14.19221	9.39846	-13.63452	10.70645
4027.619	-14.26513	9.35029	-13.78433	9.87814
4031.597	-14.21817	9.31732	-13.78534	9.88166
4035.598	-14.25168	9.34129	-13.84878	9.74899
4039.598	-14.28438	9.49445	-13.83865	9.74317
4043.617	-14.21358	9.54634	-13.86345	9.64675
4047.599	-14.01685	9.49497	-13.86654	9.54748
4051.570	-14.02407	9.44783	-13.94560	9.72719
4055.554	-14.00200	9.58547	-13.98139	9.91646
4059.599	-14.13815	9.75388	-14.02524	9.55726
4063.599	-14.28606	9.67656	-14.02804	9.41527
4067.600	-14.12667	9.58257	-14.15752	9.53493
4071.603	-14.07968	9.60731	-14.07632	9.45742
4075.599	-14.08458	9.86975	-13.99660	9.98127
4079.553	-14.21481	9.83944	-13.96776	9.52281
4083.598	-14.39501	9.86370	-14.12665	9.65725
4087.598	-14.26690	9.57699	-14.16002	9.68258
4091.554	-14.05537	9.79778	-14.09957	9.78266
4095.601	-14.15248	9.88438	-14.01300	9.70647
4099.569	-14.18076	10.05915	-13.89227	10.50123
4103.598	-14.16819	9.99986	-13.96108	11.17838
4107.600	-14.02739	9.66507	-13.83526	10.11622
4111.595	-13.95460	9.85871	-13.93520	10.89271
4115.599	-13.95916	9.55184	-13.88193	9.83519
4119.601	-13.97966	9.67740	-13.98195	9.81999
4123.600	-14.00080	10.10787	-13.93281	9.92640
4127.598	-13.91640	9.74993	-13.87599	9.85939
4131.599	-14.06408	9.67908	-13.86060	11.11537
4135.600	-14.00363	9.69098	-13.62017	9.91367
4139.580	-13.90195	9.85894	-13.79206	10.20660
4143.597	-13.80175	9.94727	-13.94483	9.93207
4147.599	-13.78635	9.71346	-13.95135	9.91244
4151.604	-13.87545	9.85885	-14.00872	10.10783
4155.600	-14.14401	9.83457	-13.83084	10.44571
4159.601	-13.89058	10.50485	-13.88586	10.67565
4163.600	-13.99328	10.18870	-13.72130	10.08495
4167.604	-14.06794	9.97343	-13.75266	9.36138
4171.602	-14.05782	9.88462	-13.83996	8.84614
4175.576	-13.84240	10.05696	-13.76987	10.14065
4179.602	-13.84006	10.14767	-13.72460	10.94732
4183.564	-13.92215	10.01692	-13.75310	10.65311
4187.564	-14.04456	9.93620	-13.85800	10.76897
4191.601	-14.16658	9.97617	-13.98515	10.66490
4195.598	-14.04267	10.29658	-13.93424	10.64748
4199.602	-14.08484	10.46581	-14.05014	10.84109
4203.600	-14.11668	10.20393	-14.09630	10.60582
4207.601	-14.24779	10.05810	-13.95820	11.15682
4211.601	-14.21843	9.86693	-14.07443	11.33138
4215.601	-14.19018	9.80057	-14.05771	11.12106
4219.565	-14.04554	10.05766	-14.21547	11.19172
4223.602	-14.02305	10.13415	-14.19804	10.80941
4227.603	-13.88848	10.11075	-14.19340	10.25663
4231.601	-13.97089	9.99317	-14.13162	10.97697
4235.602	-13.95245	9.93710	-13.87943	10.96660
4239.603	-13.90300	9.88444	-13.98197	11.09787
4243.601	-13.71673	9.80421	-13.96040	9.72105
4247.604	-13.71299	9.60524	-13.86207	10.27537
4251.605	-13.69397	9.49997	-13.76600	11.14117
4255.601	-13.75844	9.54978	-13.77563	10.99719
4259.603	-13.64455	9.81807	-13.77080	11.28813
4263.593	-13.63189	9.94353	-13.82244	11.14819
4267.607	-13.58749	9.88735	-13.88369	10.90866
4271.603	-13.64731	10.13114	-13.75821	10.93969
4275.603	-13.62830	9.95872	-13.80400	9.84685
4279.603	-13.57084	10.25060	-13.81450	10.79423
4283.603	-13.44754	10.04847	-13.83636	10.35682
4287.603	-13.57487	9.94801	-13.84343	10.73661
4291.602	-13.59591	10.12764	-13.85861	10.75791
4295.603	-13.66876	10.19357	-13.85774	10.47048
4299.601	-13.80173	10.31692	-13.84008	9.84690
4303.605	-13.60564	10.08605	-13.86518	9.86387
4307.572	-13.67902	9.83944	-13.88684	10.36736
4311.601	-13.78447	9.86661	-13.89189	10.68044
4315.604	-13.97054	9.80735	-13.83430	9.67063
4319.603	-13.83259	9.78096	-13.93838	10.58082
4323.603	-14.00478	9.69965	-13.86804	9.54510
4327.603	-14.04084	9.85304	-13.89503	9.78782
4331.603	-13.98847	9.63917	-13.99213	10.62208
4335.604	-13.86322	9.73117	-14.10149	10.63859
4339.605	-13.87337	9.55886	-13.96863	10.34277
4343.604	-13.89914	9.61235	-13.98333	9.54009
4347.588	-13.97454	9.58859	-13.99202	9.30360
4351.600	-13.85704	9.62321	-14.03019	10.73283
4355.606	-13.85370	9.75455	-14.04302	10.23954
4359.560	-13.76081	9.64956	-14.02503	10.48355
4363.503	-14.21516	8.73951	-14.12217	9.74927
4367.560	-14.52863	8.48148	-14.84183	9.28432
4371.607	-14.51414	7.23732	-15.36735	5.15224
4375.606	-14.73697	6.30246	-14.71250	5.99542
4379.609	-14.67959	6.22727	-14.81500	5.16984
4383.609	-15.00744	6.27063	-15.34072	5.00520
4387.607	-15.25806	6.16894	-15.64623	4.79265
4391.604	-15.24251	5.95052	-15.99555	3.67552
4395.606	-15.33987	5.53344	-16.17150	4.31976
4399.605	-15.58727	5.72294	-15.56828	3.61578
4403.608	-15.49444	5.58277	-16.25690	3.87636
4407.605	-15.42249	5.60690	-15.51064	3.59022
4411.503	-15.47837	5.65903	-15.90605	4.15376
4415.607	-15.65723	5.82111	-15.78954	4.28391
4419.605	-15.63479	5.31853	-15.70765	3.87389
4423.583	-15.68486	5.36465	-16.12131	4.09612
4427.608	-15.74189	5.19497	-15.53543	4.21965
4431.587	-15.54301	5.25833	-16.02568	4.62639
4435.602	-15.64814	5.33925	-15.36666	4.24492
4439.607	-15.78538	5.76110	-15.60410	3.95474
4443.608	-15.52504	5.27013	-15.70344	4.48546
4447.608	-15.63573	5.39982	-15.64763	4.82612
4451.606	-15.54437	5.18973	-15.54094	4.45804
4455.609	-15.65193	5.09355	-15.38034	4.78070
4459.610	-15.84580	5.50268	-15.50345	4.73157
4463.607	-15.70485	5.18504	-15.71605	4.77266
4467.612	-15.80804	5.22285	-15.44697	4.63569
4471.595	-15.67418	4.68669	-15.51536	4.66673
4475.509	-15.79464	5.11975	-15.47286	4.62098
4479.608	-16.16369	5.02194	-15.58209	4.87462
4483.609	-15.87400	5.01354	-15.49246	4.59680
4487.609	-15.96124	5.09378	-15.54200	4.30665
4491.573	-15.89113	4.88678	-15.42087	4.16081
4495.607	-16.15538	4.90602	-15.41923	4.29448
4499.607	-15.88068	5.21421	-15.43867	4.17249
4503.608	-15.90095	5.19863	-15.34649	4.11645
4507.610	-15.86688	4.91548	-15.42433	4.67058
4511.609	-15.97347	4.98713	-15.34640	4.17805
4515.576	-15.84725	5.23756	-15.35369	4.12341
4519.606	-15.77793	5.45770	-15.32216	4.80642
4523.609	-15.70512	5.10312	-15.30173	5.21998
4527.611	-15.90355	5.15573	-15.21767	4.16579
4531.608	-15.73851	5.31838	-15.28099	4.77701
4535.609	-15.78065	5.20817	-15.29785	4.23297
4539.609	-15.69719	4.89478	-15.32343	4.86785
4543.609	-15.66001	5.11723	-15.31367	4.58862
4547.607	-15.79839	5.32476	-15.41628	4.45858
4551.611	-15.73989	5.42361	-15.39225	4.30330
4555.593	-15.80742	5.44933	-15.41215	4.27092
4559.604	-15.69054	5.16543	-15.39075	4.38882
4563.610	-15.77853	5.34664	-15.39827	4.70436
4567.614	-15.89887	5.49504	-15.42742	4.31596
4571.610	-15.88213	5.37754	-15.47028	5.21780
4575.611	-15.92455	5.45049	-15.47035	4.28480
4579.611	-15.98032	5.37052	-15.50271	4.26392
4583.610	-15.95477	5.53589	-15.44296	4.13247
4587.612	-15.99998	5.56702	-15.46032	4.35666
4591.611	-15.97812	5.64133	-15.31844	4.42750
4595.613	-15.97879	5.60696	-15.41753	5.04292
4599.488	-16.27508	5.58868	-16.29143	5.62000
4603.506	-16.31763	6.28151	-16.11574	7.83735
4607.443	-16.14155	5.59368	-16.72806	7.48740
4611.441	-16.41302	5.41850	-15.71607	8.64542
4615.486	-17.09422	7.96204	-19.99337	-12.07745
4619.476	-16.00610	5.41441	-19.99355	-12.07744
4623.486	-16.31345	11.45019	-19.99361	-12.07743
4627.486	-19.98745	-12.07789	-19.99363	-12.07743
4631.487	-19.99063	-12.07765	-19.99366	-12.07743
4635.485	-19.99171	-12.07757	-19.99366	-12.07743
4639.589	-19.99223	-12.07753	-19.99368	-12.07743
4643.486	-19.99258	-12.07751	-19.99370	-12.07743
4647.441	-19.99280	-12.07749	-19.99370	-12.07743
4651.486	-19.99296	-12.07748	NaN	NaN
4655.486	-19.99309	-12.07747	NaN	NaN
4659.486	NaN	NaN	NaN	NaN
4663.440	NaN	NaN	NaN	NaN
4667.487	NaN	NaN	NaN	NaN
4671.489	NaN	NaN	NaN	NaN
4675.442	NaN	NaN	NaN	NaN
4679.446	NaN	NaN	NaN	NaN
4683.486	NaN	NaN	NaN	NaN
4687.453	NaN	NaN	NaN	NaN
4691.443	-19.91823	3.21220	NaN	NaN
4695.488	-19.41337	7.63509	NaN	NaN
4699.489	-19.93016	-12.08215	NaN	NaN
4703.487	-8.95695	-0.91142	NaN	NaN
4707.487	-16.35872	5.37484	NaN	NaN
4711.487	-16.47128	5.76899	-16.56791	13.51775
4715.507	-16.93657	5.91626	-17.10762	11.42068
4719.487	-16.76868	6.34650	-18.12060	10.05455
4723.488	-16.38221	6.31763	-17.55955	9.42765
4727.469	-16.40665	6.30547	-17.11489	9.36206
4731.463	-15.53260	6.34726	-17.06950	9.33336
4735.488	-16.77718	5.61513	-17.19979	9.28423
4739.490	-16.35335	5.51043	-17.82982	8.83061
4743.486	-16.83641	4.72834	-17.81583	7.40312
4747.487	-16.46222	4.33041	-18.63320	5.79496
4751.487	-15.93428	5.62833	-18.20890	4.05445
4755.489	-15.51730	6.18693	-17.46504	4.42148
4759.487	-15.49195	6.09803	-17.10394	4.37181
4763.510	-15.57168	5.98728	-16.75732	4.18704
4767.487	-15.73357	6.03497	-16.46035	4.30434
4771.483	-15.84564	5.78542	-16.17812	3.79413
4775.488	-15.99560	5.83213	-16.17514	4.10860
4779.487	-15.92556	5.70235	-16.38525	3.89506
4783.479	-15.82318	5.70493	-16.23748	4.10842
4787.489	-15.66033	5.45350	-16.08887	4.46357
4791.488	-15.69505	5.64047	-15.85239	4.10956
4795.511	-15.71915	5.78749	-16.00367	4.33839
4799.489	-15.85685	5.80751	-15.95482	4.27775
4803.493	-15.89508	5.67148	-15.89209	4.56732
4807.489	-15.78315	5.66535	-15.73665	4.57992
4811.509	-15.71004	5.72471	-15.53045	4.14037
4815.490	-15.80103	5.84886	-15.13450	3.87197
4819.490	-15.77862	5.87011	-15.66841	5.07890
4823.489	-15.67669	5.83576	-15.25392	4.65961
4827.511	-15.69127	5.88350	-15.22493	4.01952
4831.490	-15.82671	6.03669	-15.46401	4.29886
4835.490	-15.87168	5.85797	-15.30411	4.47133
4839.490	-15.75607	5.88067	-15.29762	4.97149
4843.510	-15.77398	6.03392	-15.21691	5.47748
4847.490	-15.79124	5.99224	-14.74869	5.54042
4851.476	-15.86603	5.90739	-15.02066	5.31725
4855.490	-15.84771	5.86800	-15.15041	5.86662
4859.511	-15.88016	5.79177	-14.90730	5.30385
4863.489	-15.80268	5.68332	-15.19306	5.82926
4867.492	-15.82887	5.73672	-14.93348	5.48229
4871.492	-15.85375	5.88048	-14.59047	5.73245
4875.512	-15.74734	5.64448	-14.94025	6.46294
4879.491	-15.63808	5.81599	-14.61531	6.04555
4883.491	-15.77727	5.96154	-14.92846	5.64563
4887.494	-15.52006	5.93360	-14.63520	6.55898
4891.509	-15.36297	5.98929	-14.72636	6.55840
4895.459	-15.51771	6.03458	-14.76765	6.89180
4899.491	-15.52836	5.43995	-14.45972	6.25163
4903.491	-15.59209	5.99270	-15.68704	5.28748
4907.514	-15.77267	5.76446	-14.71384	4.97049
4911.493	-15.55637	5.38071	-14.72185	6.21969
4915.492	-15.93210	5.73971	-14.60253	6.20482
4919.493	-15.66795	5.81908	-14.74746	6.02187
4923.479	-15.56924	5.83298	-14.90461	5.32954
4927.448	-15.71789	5.85303	-14.85966	5.49092
4931.494	-15.49476	5.61217	-14.60142	6.19518
4935.475	-15.84116	5.78510	-14.73773	5.76191
4939.492	-15.61364	5.77042	-14.83905	5.49977
4943.494	-15.72605	5.86816	-14.90614	6.18053
4947.496	-15.69737	5.81962	-14.71670	5.67601
4951.494	-15.44080	5.70167	-14.81242	5.28469
4955.515	-15.67234	5.91309	-15.00489	5.10431
4959.493	-15.46173	5.77266	-15.05772	5.68404
4963.493	-15.47777	5.86244	-14.89441	5.10182
4967.492	-15.50055	5.80194	-15.02330	5.25234
4971.518	-15.46789	5.82684	-15.26848	5.59831
4975.490	-15.47658	5.81157	-15.25168	5.09269
4979.489	-15.45078	5.84592	-15.14641	5.15532
4983.495	-15.49280	5.88520	-15.12321	5.33413
4987.515	-15.36345	5.75680	-15.33566	5.58606
4991.468	-15.49135	5.90739	-15.31722	5.02761
4995.450	-15.37427	5.91779	-15.23909	5.11568
4999.496	-15.38906	5.90590	-15.21479	5.36846
5003.514	-15.39910	5.95885	-15.33040	5.14254
5007.494	-15.20365	5.88224	-15.20256	5.48130
5011.495	-15.42629	6.08719	-15.21924	6.08236
5015.495	-15.15656	6.13158	-14.89393	5.94849
5019.486	-15.18795	6.20769	-14.95802	5.40977
5023.495	-15.04566	6.17807	-14.75168	6.37798
5027.495	-14.96879	6.05067	-14.91685	7.11044
5031.495	-15.20813	6.04927	-14.89678	5.60179
5035.495	-15.14951	6.02399	-14.83835	5.48377
5039.494	-15.08745	5.94515	-15.07931	5.67726
5043.494	-15.59927	5.81635	-14.92097	5.25088
5047.494	-15.28686	5.61838	-15.14273	5.26589
5051.515	-15.46706	5.87083	-14.90347	4.38460
5055.495	-15.55538	5.86663	-15.71936	5.17160
5059.494	-15.28330	5.73708	-15.23027	4.96620
5063.451	-15.16782	5.79835	-15.25711	5.10069
5067.496	-15.39356	5.93334	-15.29870	4.98586
5071.498	-15.25688	5.89542	-15.16273	4.99580
5075.496	-15.14636	5.91831	-15.43217	5.42514
5079.495	-15.70149	5.64351	-15.04297	5.16865
5083.496	-14.96643	5.84405	-15.18305	4.85887
5087.495	-15.11752	6.02648	-14.65240	5.01946
5091.495	-13.10389	6.33739	-14.30347	5.58582
5095.498	-12.20162	6.61672	-13.54220	6.33568
5099.498	-12.34110	7.69729	-12.89600	7.58559
5103.495	-12.49001	8.00430	-12.56843	9.44062
5107.496	-12.69235	7.58109	-12.03940	8.76583
5111.496	-12.42969	7.33264	-12.32681	9.63872
5115.489	-12.41944	7.89001	-12.08148	9.67180
5119.498	-12.44169	8.16887	-12.21094	9.09249
5123.497	-12.49297	8.29988	-12.32561	9.38879
5127.498	-12.42931	8.61129	-12.29159	9.01630
5131.497	-12.62128	9.03387	-12.26872	9.11503
5135.499	-12.48329	8.93011	-12.12442	8.55357
5139.499	-12.40470	8.56326	-12.33153	8.83326
5143.497	-12.56888	8.92613	-12.49417	8.89896
5147.497	-12.49325	8.66960	-12.44538	8.82776
5151.502	-12.44922	8.65073	-12.52305	8.77188
5155.498	-12.50969	8.35101	-12.53244	8.97145
5159.499	-12.54571	8.65132	-12.41944	8.82728
5163.497	-12.59914	8.60605	-12.60004	8.75193
5167.498	-12.63466	8.61475	-12.61561	9.11858
5171.502	-12.61190	8.48333	-12.48147	8.90384
5175.476	-12.50266	8.34434	-12.44323	9.20002
5179.501	-12.54247	8.43227	-12.36708	9.24757
5183.496	-12.80098	8.73546	-12.47189	9.24481
5187.491	-12.64612	8.71799	-12.34408	9.37819
5191.497	-12.69178	8.42887	-12.45942	9.51540
5195.499	-12.85921	8.55839	-12.50628	9.10981
5199.495	-12.71129	8.55783	-12.46133	8.94970
5203.454	-12.99722	8.24889	-12.37247	9.11873
5207.500	-12.86126	8.55946	-12.57938	8.77366
5211.497	-12.05813	8.18443	-12.14039	8.49302
5215.499	-10.28395	7.47106	-11.63328	8.52020
5219.499	-9.11658	5.09626	-10.39045	4.76659
5223.500	-7.72805	2.69956	-9.62712	2.09306
5227.479	-7.50532	1.70521	-7.52879	0.37415
5231.499	-7.43017	0.37409	-7.44635	-0.97615
5235.500	-6.52865	-0.00190	-7.07251	-1.45022
5239.501	-4.62712	-0.62099	-5.60155	-2.07724
5243.499	-4.42669	-1.09846	-3.40551	-2.47071
5247.501	-3.89992	-1.99284	-3.80844	-3.48522
5251.499	-3.96849	-1.57431	-3.75116	-3.41427
5255.500	-4.00798	-1.23861	-3.58440	-3.01865
5259.501	-3.82815	-1.72398	-3.58910	-3.05536
5263.501	-4.37754	-2.06340	-3.54608	-3.00221
5267.486	-4.74666	-2.13500	-3.33319	-3.29173
5271.494	-4.30203	-2.36472	-3.22562	-3.38903
5275.500	-4.52298	-2.12232	-3.36841	-3.48489
5279.500	-4.62749	-2.02200	-3.40007	-3.49476
5283.499	-4.57763	-2.19641	-3.39357	-3.63279
5287.500	-4.13900	-2.36766	-3.26970	-3.82359
5291.500	-4.30569	-2.51623	-3.34502	-3.55328
5295.501	-4.60020	-2.32892	-3.62714	-3.61188
5299.500	-5.13168	-2.15813	-3.71164	-3.72516
5303.503	-5.07476	-2.11428	-3.53352	-3.91567
5307.502	-4.84859	-2.08295	-3.62840	-3.90169
5311.466	-4.89988	-1.96635	-4.18050	-3.89755
5315.501	-4.76497	-1.90275	-3.88087	-3.95853
5319.502	-4.59748	-1.61688	-3.84367	-3.89360
5323.501	-4.67720	-2.01263	-3.88129	-3.89042
5327.501	-4.85711	-1.58856	-3.76129	-4.04075
5331.501	-4.88877	-1.75814	-4.02275	-3.97142
5335.501	-4.68654	-1.80567	-4.00092	-4.02434
5339.502	-4.93157	-1.83784	-3.98845	-4.01570
5343.502	-4.85458	-2.00202	-3.95414	-3.93065
5347.504	-4.76911	-2.16520	-4.33046	-3.83755
5351.483	-4.88661	-1.95596	-4.11915	-3.81303
5355.399	-4.74198	-1.81861	-4.03697	-3.83351
5359.457	-4.99497	-1.97495	-4.04026	-3.78900
5363.504	-4.82269	-2.06933	-4.26235	-3.68827
5367.503	-4.67897	-2.07300	-4.27817	-3.61243
5371.504	-4.43169	-2.01616	-4.10624	-3.66133
5375.456	-4.43236	-2.10061	-4.02100	-3.50728
5379.503	-4.05391	-2.11698	-4.04478	-3.38225
5383.503	-4.54535	-2.09788	-4.09942	-3.23838
5387.505	-4.02379	-2.06245	-4.01127	-2.97269
5391.501	-3.91464	-1.93610	-3.94154	-3.15303
5395.502	-4.43682	-2.40483	-3.94147	-3.23095
5399.503	-4.52012	-2.38727	-4.07537	-3.15249
5403.504	-4.34731	-2.28861	-4.69347	-3.20368
5407.503	-4.28523	-2.11037	-4.56654	-3.20934
5411.505	-4.23668	-1.95424	-4.50360	-3.14037
5415.502	-4.28621	-1.99304	-4.14379	-3.12321
5419.504	-4.43179	-1.89624	-4.46773	-3.05148
5423.503	-4.57147	-2.19499	-4.16660	-3.09445
5427.477	-4.73234	-2.28677	-4.20368	-3.23879
5431.506	-4.77939	-2.24360	-4.13838	-3.26520
5435.479	-4.85566	-2.27276	-4.54207	-3.19669
5439.506	-4.85955	-2.32192	-4.44055	-3.32354
5443.505	-4.87641	-2.19450	-4.63622	-3.33985
5447.505	-4.82042	-2.09896	-4.34430	-3.59721
5451.507	-4.77357	-2.18838	-4.54910	-3.66601
5455.506	-4.86049	-2.09434	-4.37127	-3.61828
5459.506	-4.89380	-2.11879	-4.41191	-3.75201
5463.507	-4.88340	-2.15635	-4.47607	-3.74280
5467.506	-4.89062	-2.08275	-4.59830	-3.80316
5471.516	-4.90075	-2.07011	-4.63033	-3.89412
5475.507	-4.85859	-2.00453	-4.53554	-3.83397
5479.494	-4.87966	-1.95946	-4.48626	-3.91063
5483.505	-4.76914	-1.95948	-4.55181	-3.96272
5487.505	-4.75566	-1.94196	-4.50412	-3.94333
5491.506	-4.72396	-1.96904	-4.55162	-3.86992
5495.460	-4.79142	-1.91062	-4.55551	-3.82963
5499.402	-4.81954	-2.10767	-4.54661	-3.78837
5503.504	-4.84723	-2.06476	-4.51519	-3.63347
5507.506	-4.87170	-2.20376	-4.53001	-3.44155
5511.507	-4.85339	-2.22723	-4.47321	-3.19252
5515.402	-4.87010	-2.37965	-4.40478	-2.87183
5519.469	-4.84144	-2.43262	-4.44499	-3.10357
5523.507	-4.77813	-2.38968	-4.34203	-3.14620
5527.506	-4.82432	-2.38984	-4.32984	-3.34690
5531.507	-4.85795	-2.57377	-4.39624	-3.28225
5535.507	-4.97295	-2.54622	-4.41203	-3.27154
5539.507	-5.00893	-2.59527	-4.43515	-3.05727
5543.507	-4.99948	-2.57008	-4.45007	-2.89926
5547.508	-5.13882	-2.53366	-4.26215	-2.67296
5551.504	-5.21875	-2.50225	-4.10969	-2.79685
5555.506	-4.93519	-2.51340	-4.13204	-3.47825
5559.506	-5.23937	-2.59478	-4.49048	-3.36050
5563.509	-5.23357	-2.50246	-4.53704	-3.19449
5567.508	-5.26834	-2.63288	-4.37098	-3.05548
5571.509	-5.03218	-2.63828	-3.86212	-3.33670
5575.509	-4.95413	-2.54634	-3.87640	-3.26990
5579.510	-4.87899	-2.63845	-4.05228	-2.97956
5583.506	-4.85867	-2.48589	-3.85313	-3.01507
5587.506	-5.02007	-2.27685	-3.69766	-2.73066
5591.507	-5.11487	-2.50407	-3.90602	-2.90267
5595.510	-5.31627	-2.46042	-3.65003	-3.16479
5599.503	-5.54171	-2.45962	-3.93082	-3.02547
5603.500	-5.05265	-2.63103	-4.07483	-2.83967
5607.507	-4.80625	-2.85240	-4.30633	-2.86726
5611.465	-4.53171	-4.94908	-4.34408	-3.04326
5615.508	-4.48165	-4.87737	-4.33226	-3.18860
5619.385	-4.56720	-4.15891	-4.58693	-3.12902
5623.383	-4.88289	-2.30419	-4.69302	-3.16006
5627.403	-5.26029	-2.11336	-4.15292	-3.35987
5631.385	-5.32210	-1.93908	-4.26188	-3.47303
5635.384	-5.29364	-1.90492	-4.48784	-3.33822
5639.382	-7.07454	-3.00295	-4.63297	-3.37472
5643.374	-7.21371	-3.33192	-4.59719	-3.39794
5647.365	-6.67458	-3.75337	-4.74533	-3.41267
5651.380	-7.11083	-3.67472	-4.63933	-3.43547
5655.383	-7.12017	-3.94277	-4.71570	-3.39098
5659.377	-5.58098	-3.41075	-4.56762	-3.27312
5663.384	-4.00660	-6.25030	-4.39999	-3.14850
5667.384	-4.00393	-6.00610	-4.19514	-2.92413
5671.386	-3.78002	-6.24969	-4.10698	-2.96493
5675.346	-3.63549	-6.56191	-3.93655	-3.04975
5679.387	-6.31007	-7.02722	-3.73868	-3.05431
5683.387	-6.34290	-7.42312	-3.54237	-3.17820
5687.384	-5.84824	-8.23061	-3.68626	-3.17611
5691.408	-5.88230	-8.60015	-3.68016	-3.31480
5695.385	-5.92636	-8.93807	-3.47272	-3.13343
5699.383	-5.91550	-5.33702	-3.40643	-3.14967
5703.384	-6.00177	-5.70873	-3.39963	-3.00757
5707.375	-5.99640	-5.71933	-3.27477	-3.08098
5711.386	-5.99181	-5.74113	-3.35553	-2.81011
5715.384	-6.02428	-6.28376	-3.39614	-2.92515
5719.384	-5.96173	-6.49598	-3.51419	-2.88550
5723.377	-5.83586	-6.96703	-3.60608	-2.85142
5727.385	-5.84404	-6.86966	-3.70791	-3.00790
5731.386	-5.80093	-7.26108	-3.67694	-2.93767
5735.384	-5.13003	-7.22327	-3.72454	-2.94105
5739.362	-4.83230	-7.43886	-3.63495	-2.87748
5743.387	-4.47121	-7.39469	-3.64291	-2.90558
5747.386	-4.25734	-7.64596	-3.46607	-2.94050
5751.386	-4.13066	-7.68796	-3.59703	-3.08899
5755.374	-4.03596	-7.81558	-3.39881	-3.09919
5759.387	-3.80438	-7.85190	-3.35308	-3.12105
5763.386	-3.87154	-7.81090	-3.51125	-3.13822
5767.389	-4.12594	-7.85456	-3.40378	-3.16390
5771.384	-3.94478	-7.93701	-3.25800	-3.17206
5775.381	-3.94797	-7.95607	-3.15223	-3.19480
5779.386	-3.88915	-7.96399	-3.17774	-3.10819
5783.386	-3.85577	-7.94504	-3.10245	-3.12732
5787.376	-3.79821	-7.95199	-3.11846	-3.05473
5791.387	-3.69064	-7.90960	-3.13489	-2.96400
5795.390	-3.56012	-7.67612	-3.23692	-3.10532
5799.386	-4.02248	-7.71666	-3.18150	-3.08465
5803.407	-4.15253	-7.60775	-3.29869	-2.98458
5807.389	-4.18716	-7.52072	-3.29792	-2.98893
5811.388	-3.89135	-7.32614	-3.28526	-2.99345
5815.356	-4.25043	-7.32991	-3.45561	-3.02258
5819.382	-4.06068	-7.29686	-3.49334	-2.96038
5823.387	-8.08003	-7.31464	-3.57011	-2.96837
5827.388	-7.05562	-3.02329	-3.64536	-2.89964
5831.387	-4.56119	-1.79497	-3.74797	-2.95240
5835.385	-4.91570	-2.82114	-3.83307	-2.97703
5839.388	-4.49287	-3.01064	-3.78089	-2.97578
5843.390	-4.33809	-2.09526	-3.73581	-2.96819
5847.387	-3.42715	-2.18721	-3.28316	-2.68691
5851.380	-0.17352	-2.23925	-0.32913	-2.72514
5855.374	1.07014	-2.74333	-0.25711	-2.80462
5859.347	4.86108	-3.58669	1.55879	-2.75072
5863.389	1.44465	-2.08746	2.43706	-2.51033
5867.377	-1.47704	-3.54986	4.43256	-2.52213
5871.388	16.12729	-1.25991	4.60340	-5.23529
5875.394	12.44758	5.19328	14.97618	-1.81164
5879.389	NaN	NaN	16.32974	-2.31078
5883.409	NaN	NaN	14.60074	-2.87465
5887.389	NaN	NaN	NaN	NaN
5891.344	NaN	NaN	NaN	NaN
5895.390	NaN	NaN	NaN	NaN
5899.352	NaN	NaN	NaN	NaN
5903.388	NaN	NaN	NaN	NaN
5907.421	NaN	NaN	NaN	NaN
5911.346	NaN	NaN	NaN	NaN
5915.391	NaN	NaN	NaN	NaN
5919.391	NaN	NaN	NaN	NaN
5923.422	NaN	NaN	NaN	NaN
5927.347	NaN	NaN	NaN	NaN
5931.392	NaN	NaN	NaN	NaN
5935.390	NaN	NaN	NaN	NaN
5939.337	NaN	NaN	NaN	NaN
5943.357	NaN	NaN	22.02017	3.07552
5947.392	NaN	NaN	NaN	NaN
5951.389	NaN	NaN	21.76186	2.77870
5955.388	20.46575	-0.32206	21.78469	3.99538
5959.390	20.52435	1.90995	22.79849	2.42531
5963.412	23.44783	1.95123	22.06723	-0.19595
5967.389	23.20655	1.87826	20.35815	-0.47658
5971.391	22.87593	0.00131	20.39344	-2.80733
5975.395	21.74991	-0.58610	17.76505	-2.67049
5979.389	20.35497	-1.51389	15.73817	-2.76676
5983.380	20.60924	-1.89558	14.71022	-3.03571
5987.391	8.26531	-4.50287	14.23587	-3.72263
5991.391	18.74695	-3.79151	14.13736	-3.70816
5995.383	15.73525	-4.37692	14.07753	-3.49503
5999.394	14.22818	-4.42172	14.00884	-3.52586
6003.392	14.46019	-4.44615	14.06168	-3.58242
6007.392	14.22972	-4.44255	14.16331	-3.63355
6011.387	14.55783	-4.48429	14.20810	-3.83598
6015.393	14.41317	-4.45429	14.07844	-3.60655
6019.392	14.34434	-4.30032	13.90104	-3.56632
6023.361	14.40349	-3.89715	14.01323	-3.64110
6027.358	14.34450	-4.22234	13.88633	-3.43121
6031.392	14.30487	-4.12546	13.71828	-3.29761
6035.392	14.33637	-4.09468	13.51398	-3.33455
6039.392	14.41569	-4.16221	13.63152	-3.25735
6043.381	14.43975	-4.12858	13.61612	-3.31341
6047.393	14.34778	-3.97537	13.73645	-3.34836
6051.393	14.18773	-3.81210	13.70462	-3.42005
6055.394	14.00627	-3.78341	13.80367	-3.59194
6059.390	13.84298	-3.91081	13.98293	-3.85903
6063.375	14.09201	-3.80588	13.95093	-3.99722
6067.390	13.77115	-3.71527	13.97657	-4.10288
6071.393	13.61075	-3.21279	13.88511	-3.84291
6075.385	13.51947	-2.74963	13.67878	-4.04534
6079.394	13.37975	-3.11247	13.54183	-3.60372
6083.393	13.38860	-3.02669	13.34839	-3.69362
6087.393	13.43510	-2.95804	13.49528	-3.83058
6091.403	13.39743	-3.03981	13.48695	-3.88618
6095.395	13.46533	-3.09460	13.52656	-4.04529
6099.398	13.50804	-2.98126	13.75654	-4.07683
6103.396	13.63552	-3.13719	13.79269	-4.08346
6107.384	13.35790	-3.38305	13.78794	-4.31280
6111.394	13.34629	-2.91828	13.97697	-4.54868
6115.390	13.19442	-2.89735	14.19825	-4.75011
6119.396	13.39102	-2.93245	14.33376	-4.89455
6123.383	13.14906	-2.82783	14.42225	-5.01236
6127.394	13.15936	-2.95773	14.40463	-4.73200
6131.394	13.16830	-2.88281	13.75336	-4.39054
6135.393	13.04982	-2.98782	13.36772	-3.79951
6139.390	12.93901	-3.21428	13.44261	-3.58533
6143.395	12.87846	-3.22829	13.79978	-3.56515
6147.394	13.00999	-3.15331	14.30522	-4.16553
6151.396	13.39111	-3.14214	14.29343	-4.14546
6155.383	14.18701	-3.07504	14.68431	-3.94294
6159.395	13.84675	-3.03600	14.99412	-3.84537
6163.393	13.57614	-2.79484	15.20764	-3.86715
6167.394	13.58174	-2.86284	14.69295	-3.63023
6171.354	13.69062	-2.44301	14.81934	-3.49130
6175.396	13.80875	-2.72426	14.55258	-3.35070
6179.397	14.07499	-2.71160	14.22521	-3.16096
6183.399	13.67250	-2.67077	14.41808	-3.05391
6187.386	13.91140	-2.65837	14.49674	-3.00888
6191.389	14.04661	-2.42279	14.76407	-2.96895
6195.397	14.06861	-2.41062	14.48776	-3.25341
6199.396	14.10606	-2.31623	14.53802	-3.31386
6203.388	14.02702	-2.17101	14.69801	-3.31169
6207.398	13.72306	-2.24911	15.01415	-3.49747
6211.398	13.89634	-2.06363	14.61206	-3.60257
6215.397	13.87470	-2.12687	14.50046	-3.44565
6219.386	13.97115	-1.95186	14.80897	-3.32753
6223.400	14.22566	-1.95974	14.81393	-3.54064
6227.396	13.88832	-2.10521	14.57290	-3.63073
6231.367	13.77474	-2.17263	13.98120	-3.07567
6235.291	13.90565	-2.44269	14.36194	-3.34822
6239.396	14.13363	-2.34128	14.49055	-3.68692
6243.398	13.81635	-1.93884	14.84948	-3.66832
6247.396	13.85016	-1.87540	15.08493	-3.71402
6251.394	13.68476	-1.90149	14.94470	-3.50872
6255.397	13.69575	-2.02424	14.99236	-3.55402
6259.398	13.57757	-2.19177	14.67084	-3.15730
6263.398	13.64570	-2.40720	14.84197	-3.17803
6267.388	13.68338	-2.31337	14.63207	-3.27964
6271.397	13.78759	-2.39440	14.72657	-3.78830
6275.397	13.66440	-1.80240	14.94576	-3.96546
6279.398	13.51694	-1.73272	14.97416	-3.53239
6283.388	13.42657	-1.17677	15.02388	-3.30919
6287.399	13.30425	-1.52701	14.79083	-3.33392
6291.398	13.55191	-1.34874	15.02392	-3.94269
6295.399	13.75205	-1.25870	14.52665	-3.08433
6299.400	12.90718	-0.71100	13.81354	-2.38881
6303.399	9.88894	1.82263	9.75557	-0.21269
6307.400	8.57005	2.89572	6.12695	2.12804
6311.400	6.09974	4.55652	3.16406	2.30994
6315.293	2.46498	4.85776	1.78349	2.36821
6319.398	0.96326	5.96344	-1.89159	3.17479
6323.399	-2.07105	5.78164	-3.63100	3.39244
6327.399	-2.77015	5.79836	-5.84738	5.06298
6331.297	-5.79079	6.02361	-7.80109	4.26202
6335.398	-7.18152	6.43434	-8.36686	5.44530
6339.399	-9.10959	6.82740	-10.84101	5.31577
6343.400	-10.62188	7.09511	-11.99255	5.24611
6347.399	-11.83129	6.82300	-12.90805	6.94601
6351.400	-12.58916	6.66753	-14.23897	5.88852
6355.377	-14.05761	6.74950	-16.07675	6.25112
6359.401	-14.99366	6.68797	-16.37382	6.03807
6363.297	-15.22856	6.73226	-16.82763	6.39902
6367.402	-15.28028	7.01852	-16.68585	6.66739
6371.400	-15.25804	7.08555	-16.61637	6.59841
6375.353	-15.14724	7.08352	-16.11224	6.70400
6379.292	-15.19609	7.25164	-15.97473	6.85975
6383.403	-15.18636	7.11694	-16.09460	7.22356
6387.401	-15.04732	7.09431	-16.09240	7.27575
6391.402	-15.00366	7.13465	-16.20885	7.46168
6395.388	-14.99005	7.23139	-15.91744	7.05064
6399.399	-15.01293	7.27177	-15.77449	7.23327
6403.400	-14.97479	7.32201	-15.58622	7.24145
6407.401	-14.91302	7.40489	-15.38703	7.07304
6411.407	-14.97685	7.25066	-15.30868	7.22503
6415.402	-15.00241	7.20787	-15.20510	7.20449
6419.400	-15.01008	7.18302	-14.99623	7.08864
6423.399	-15.01080	7.11563	-14.89610	6.81055
6427.295	-15.04573	7.09545	-14.84737	6.98761
6431.405	-15.08812	7.04746	-14.82527	6.96564
6435.408	-15.07778	7.03111	-14.78069	6.85371
6439.399	-15.11255	7.06022	-14.74302	6.82537
6443.283	-15.10802	6.95312	-14.68422	6.71348
6447.401	-15.11880	6.97284	-14.63841	6.70352
6451.401	-15.12411	6.89501	-14.61538	6.62287
6455.402	-15.15089	6.96194	-14.58317	6.66256
6459.403	-15.12081	7.09260	-14.56820	6.49762
6463.401	-15.11248	7.04638	-14.54607	6.42308
6467.402	-15.13237	7.03315	-14.54465	6.33851
6471.403	-15.11278	6.98180	-14.54172	6.12442
6475.405	-15.10098	6.99920	-14.60112	6.34243
6479.388	-15.11505	7.04355	-14.71531	6.52766
6483.400	-15.10101	7.08090	-14.68919	6.32069
6487.401	-15.12287	7.12522	-14.72202	6.34325
6491.403	-15.11782	7.07991	-14.77860	6.31368
6495.358	-15.11049	7.11902	-14.88081	6.61245
6499.403	-15.09043	7.08845	-14.90081	6.39731
6503.403	-15.09485	6.96650	-14.94108	6.61327
6507.403	-15.08775	6.98836	-14.94697	6.89115
6511.403	-15.05431	7.04902	-14.97233	6.99499
6515.404	-15.07130	6.96467	-14.96015	7.15195
6519.403	-15.08437	6.72479	-14.92445	7.45599
6523.403	-15.09650	6.73806	-14.88642	6.89440
6527.404	-15.11829	6.86491	-14.86073	6.94092
6531.404	-15.11676	6.76527	-14.84267	7.08613
6535.404	-15.12317	6.85664	-14.78094	7.28997
6539.309	-15.11306	6.87506	-14.71027	7.33095
6543.403	-15.09633	6.86739	-14.67386	7.34636
6547.359	-15.09916	6.62684	-14.76904	7.62610
6551.404	-15.12634	6.70348	-14.86300	6.50403
6555.404	-15.12941	5.93942	-15.91587	4.60639
6559.405	-15.25337	3.80405	-16.96807	3.37084
6563.380	-15.32350	3.06493	-16.66770	1.38895
6567.404	-15.39808	2.69547	-16.44350	0.80366
6571.404	-15.41697	2.94187	-16.34583	0.58995
6575.405	-15.50711	3.06325	-16.42001	1.07267
6579.409	-15.75617	3.17862	-16.21975	1.27015
6583.405	-16.16472	2.75649	-16.07285	1.39624
6587.405	-16.15101	3.02732	-16.15019	1.68702
6591.406	-16.06708	3.21554	-16.39434	0.52456
6595.407	-16.24439	2.79512	-16.54410	0.83709
6599.408	-16.48755	2.92788	-16.50989	1.13607
6603.302	-16.27618	2.76036	-16.45818	1.67491
6607.396	-16.21675	3.08154	-16.36937	1.82591
6611.360	-16.13516	2.96672	-16.74451	0.62887
6615.405	-16.28791	2.75191	-16.67469	0.80874
6619.303	-16.16296	2.70191	-16.56424	1.37391
6623.405	-16.08433	2.84342	-16.52503	1.79741
6627.407	-16.25749	2.30999	-16.37887	2.15628
6631.405	-16.18402	2.48316	-16.73839	0.50966
6635.303	-16.08834	2.83898	-16.62507	1.34242
6639.408	-15.92820	3.10252	-16.70208	2.05943
6643.283	-16.10342	2.13246	-16.52065	2.15059
6647.282	-16.04464	2.30182	-16.51714	2.26049
6651.302	-15.91649	2.54963	-16.65225	1.04325
6655.276	-15.88895	2.87073	-16.60700	0.63589
6659.282	-16.07168	2.69634	-16.44768	0.64707
6663.282	-16.11460	2.54095	-16.28160	1.19012
6667.270	-16.20091	2.43009	-16.13748	1.31601
6671.285	-16.18162	2.72370	-16.22444	2.20646
6675.237	-16.16605	3.03347	-16.14801	2.44718
6679.305	-16.28830	2.82331	-16.00888	2.28637
6683.303	-16.20984	3.00058	-16.17127	1.44690
6687.283	-16.14194	3.08925	-16.11407	2.37780
6691.278	-16.25731	3.24805	-16.14112	1.88390
6695.279	-16.22849	2.77416	-16.05090	1.81755
6699.271	-16.36921	2.52884	-15.95787	1.80250
6703.281	-16.33610	2.44290	-16.01670	0.48922
6707.283	-16.35205	2.61742	-16.11249	0.72988
6711.282	-16.31637	2.70544	-16.20492	1.02710
6715.280	-16.29914	2.90364	-16.23855	0.81276
6719.282	-16.31461	2.78263	-16.28962	1.58346
6723.282	-16.30165	2.67376	-16.38081	1.35151
6727.284	-16.37058	2.79451	-16.37010	1.43869
6731.302	-16.37017	2.82870	-16.34302	1.27500
6735.260	-16.32437	2.69596	-16.26239	0.62748
6739.285	-16.22995	2.73825	-16.26298	0.92258
6743.285	-16.12884	2.77856	-16.16939	0.65720
6747.302	-16.13929	2.82416	-15.95885	0.75225
6751.239	-16.20583	2.97794	-15.65960	0.57159
6755.284	-16.33304	3.00764	-16.24434	0.82201
6759.285	-16.37152	3.06851	-16.29685	0.87783
6763.275	-16.35308	3.06193	-16.32638	0.84341
6767.282	-16.29632	3.12274	-16.33331	0.92404
6771.284	-16.28661	3.07662	-16.03893	0.65424
6775.270	-16.18819	3.03075	-16.02165	0.70297
6779.274	-16.16658	2.94897	-15.97216	0.65207
6783.284	-16.26285	2.97208	-16.18865	0.71889
6787.284	-16.24818	2.94473	-16.13297	0.72849
6791.282	-16.19521	2.88282	-16.40235	0.72547
6795.306	-16.25569	2.87497	-16.45334	0.99177
6799.284	-16.46368	2.90990	-16.45841	1.10348
6803.284	-16.44478	2.84450	-16.54052	0.92591
6807.285	-16.40027	2.85073	-16.57440	0.92525
6811.276	-16.46797	2.80966	-16.50895	0.90467
6815.285	-16.24068	2.78423	-16.29859	0.86163
6819.253	-16.26717	3.05266	-16.41400	1.07366
6823.286	-14.48004	3.44921	-16.13578	1.41694
6827.283	-14.37589	3.32939	-13.89402	1.61329
6831.286	-12.59486	2.92252	-13.86579	0.97280
6835.285	-11.81282	3.30851	-13.23064	1.05733
6839.286	-8.87980	2.96068	-10.89097	0.84267
6843.307	-8.09248	2.01958	-9.83103	0.45608
6847.286	-7.12569	0.76909	-9.01118	-0.99593
6851.286	-6.75108	-0.27820	-6.91845	-0.95467
6855.288	-5.27018	-0.30752	-6.38511	-1.59553
6859.246	-5.61077	1.35773	-4.50979	-1.56378
6863.282	-5.36996	1.47614	-4.31714	-1.60088
6867.287	-5.46817	0.76274	-4.08118	-1.45548
6871.285	-5.77821	0.32162	-4.16517	-1.47229
6875.276	-5.73033	0.28777	-4.27575	-1.51673
6879.285	-5.72065	0.27264	-4.33831	-1.68840
6883.287	-5.67737	-0.05514	-4.27296	-1.88412
6887.286	-5.81167	-0.16939	-4.20728	-1.98775
6891.277	-5.76539	-0.26679	-4.21350	-2.10272
6895.285	-5.92736	-0.19064	-4.17704	-2.19768
6899.283	-5.96127	-0.37561	-4.24332	-2.29585
6903.280	-6.14636	-0.52411	-4.20220	-2.25401
6907.276	-6.14555	-0.22752	-4.30820	-2.21272
6911.287	-6.19125	-0.30747	-4.32782	-2.24676
6915.287	-6.29477	-0.34532	-4.31807	-2.40318
6919.288	-6.36731	-0.45565	-4.32143	-2.32154
6923.276	-6.33792	-0.43316	-4.20671	-2.40177
6927.243	-6.26905	-0.40889	-4.10792	-2.45544
6931.269	-6.32792	-0.44608	-4.16268	-2.49191
6935.290	-6.20521	-0.36040	-4.12256	-2.42524
6939.243	-6.04399	-0.34187	-4.21535	-2.40944
6943.288	-5.71701	-0.34282	-4.20615	-2.36147
6947.287	-5.82808	-0.31748	-4.35452	-2.42632
6951.288	-6.21791	-0.29295	-4.52007	-2.46907
6955.245	-6.30941	-0.26455	-4.43734	-2.57243
6959.287	-6.00474	-0.24139	-4.67660	-2.58263
6963.289	-6.04301	-0.34294	-4.74922	-2.42249
6967.288	-6.69290	-0.29978	-4.45392	-2.52114
6971.314	-6.24909	-0.23553	-4.40310	-2.41619
6975.289	-6.14234	-0.09371	-5.01088	-2.40598
6979.290	-6.80254	0.04572	-4.70325	-2.22784
6983.283	-6.61437	-0.20742	-6.48365	-1.57533
6987.245	-4.62436	0.77758	-8.46721	0.42382
6991.289	-3.45616	2.86064	-7.41473	0.04187
6995.245	-9.14135	7.97544	-4.29278	4.81635
6999.288	19.68898	12.60708	NaN	NaN
7003.308	NaN	NaN	NaN	NaN
7007.289	NaN	NaN	NaN	NaN
7011.288	NaN	NaN	NaN	NaN
7015.288	NaN	NaN	NaN	NaN
7019.288	NaN	NaN	NaN	NaN
7023.289	NaN	NaN	NaN	NaN
7027.280	NaN	NaN	NaN	NaN
7031.246	NaN	NaN	NaN	NaN
7035.291	NaN	NaN	NaN	NaN
7039.292	NaN	NaN	NaN	NaN
7043.294	NaN	NaN	NaN	NaN
7047.248	NaN	NaN	NaN	NaN
7051.291	NaN	NaN	NaN	NaN
7055.271	NaN	NaN	11.27350	14.23855
7059.291	NaN	NaN	20.90386	8.78398
7063.291	NaN	NaN	18.99747	1.92153
7067.268	1.85194	3.94450	13.59675	-1.49216
7071.287	14.85414	5.39539	8.49068	-1.38616
7075.291	-3.95352	6.98720	5.60907	-2.00517
7079.291	0.82017	1.49553	5.31024	-2.54739
7083.295	2.15735	-1.73433	3.33574	-3.23917
7087.302	3.44137	-2.68920	1.88593	-3.82200
7091.281	3.66103	-2.07628	3.30171	-3.88686
7095.291	3.93433	-2.26072	5.54585	-3.87398
7099.292	2.31512	-2.35169	5.42911	-3.81674
7103.291	1.21075	-2.25111	5.77524	-3.33655
7107.279	4.33532	-1.94178	5.38194	-3.70037
7111.285	3.96318	-1.73770	5.49901	-3.13872
7115.246	4.64783	-1.91097	5.52047	-3.26894
7119.246	4.49351	-1.77373	5.74935	-3.33658
7123.281	4.65917	-1.96452	5.86921	-3.77792
7127.291	4.89538	-2.14828	5.70374	-3.82808
7131.292	5.79241	-2.16486	5.70443	-3.43767
7135.293	5.44874	-2.32612	6.00779	-3.54094
7139.280	5.85657	-2.39989	6.03533	-3.84517
7143.293	5.54717	-2.41415	6.10620	-3.83355
7147.292	5.38843	-2.60743	6.11692	-3.74691
7151.264	5.71392	-2.48441	6.16017	-4.10701
7155.257	5.55590	-2.33214	5.81346	-4.14881
7159.293	5.39177	-2.43367	5.67909	-3.89210
7163.294	5.55398	-2.48075	5.66600	-3.89024
7167.294	5.48868	-2.46836	5.89478	-3.96764
7171.250	5.37800	-2.50405	5.98673	-3.88702
7175.290	5.12417	-2.50450	5.75396	-3.90638
7179.296	5.12836	-2.57520	5.64511	-3.91586
7183.297	4.67680	-2.31344	6.05427	-3.86700
7187.291	4.94260	-2.07445	6.04323	-3.89965
7191.279	5.09190	-2.03346	5.87543	-3.85401
7195.295	4.81394	-2.03991	6.22557	-4.04189
7199.292	4.73724	-1.99455	6.00501	-4.09236
7203.282	4.92654	-2.17144	6.18689	-4.05008
7207.294	4.98507	-2.22487	6.35952	-3.98541
7211.294	5.20920	-1.99619	6.34052	-3.96363
7215.293	5.05801	-1.98469	6.13942	-4.00095
7219.290	5.11598	-1.97611	5.95285	-3.93068
7223.293	5.17006	-1.93889	5.62601	-3.96110
7227.296	5.13370	-1.98431	5.07065	-3.87082
7231.296	5.10115	-2.02352	5.19704	-3.90513
7235.284	5.15901	-2.12329	5.12957	-3.85324
7239.297	5.16172	-2.08799	5.85475	-3.94771
7243.293	5.22365	-2.12085	5.56868	-3.85898
7247.294	5.26760	-2.13908	5.75912	-3.86232
7251.285	5.28173	-2.14529	5.82781	-3.82821
7255.295	5.31379	-2.15340	5.72038	-3.70628
7259.296	5.45250	-2.18648	5.64181	-3.69846
7263.295	5.54941	-2.21833	5.80558	-3.66707
7267.286	5.20578	-2.17241	5.86664	-3.63341
7271.294	5.06225	-1.88116	5.91769	-3.69696
7275.295	4.97859	-1.77702	6.01704	-3.70429
7279.292	4.70202	-1.55697	6.03393	-3.77740
7283.297	4.68341	-1.73795	6.08497	-3.75254
7287.296	4.75711	-1.45106	6.16255	-3.74024
7291.307	4.66023	-1.66019	6.18819	-3.76731
7295.296	4.45089	-1.51823	5.97028	-3.72885
7299.293	4.46630	-1.52597	6.00177	-3.79465
7303.296	4.66751	-1.56875	5.91909	-3.84249
7307.296	4.54760	-1.52565	5.91135	-3.86427
7311.296	4.57734	-1.53351	5.97865	-3.92471
7315.285	4.60530	-1.61057	5.98162	-4.00669
7319.287	4.72391	-1.71051	5.75040	-3.99469
7323.295	4.73172	-1.90059	5.74625	-4.05451
7327.295	4.75359	-2.02619	5.69571	-4.04409
7331.284	4.87921	-2.09673	5.72738	-4.06453
7335.295	4.82942	-2.19176	5.70325	-4.10057
7339.296	4.92891	-2.13225	5.69374	-4.14617
7343.297	5.00970	-2.18860	5.75443	-4.18210
7347.192	5.14338	-2.19047	5.93618	-4.25155
7351.298	5.03415	-2.24852	6.04961	-4.30967
7355.296	4.94132	-2.37650	6.93503	-4.33796
7359.296	4.72349	-2.35848	6.71789	-4.28571
7363.290	4.45819	-2.31313	6.44699	-4.38512
7367.297	4.74944	-2.26456	6.43937	-4.36792
7371.297	4.49837	-2.24694	6.89008	-4.49929
7375.251	4.58190	-2.18823	6.73111	-4.47205
7379.192	4.98768	-2.20785	6.68139	-4.46677
7383.300	5.07134	-2.20025	6.75845	-4.41276
7387.300	4.88532	-2.17158	6.80732	-4.37280
7391.306	5.04698	-2.16954	6.79273	-4.41802
7395.199	4.86778	-2.08430	6.69172	-4.35926
7399.284	5.03541	-2.02331	6.67280	-4.30265
7403.298	5.01159	-1.97727	6.64988	-4.49411
7407.298	5.19352	-1.99063	6.50511	-4.48774
7411.194	5.13552	-1.98295	6.45640	-4.48024
7415.298	5.27700	-1.97954	6.38969	-4.46129
7419.298	5.20797	-1.87552	6.34800	-4.46548
7423.299	5.18414	-1.87574	6.41364	-4.49272
7427.166	4.83117	-1.85842	6.32515	-4.52709
7431.294	4.68775	-1.82964	6.23491	-4.55031
7435.301	4.55487	-1.84183	6.22738	-4.57629
7439.298	4.46717	-1.84163	6.27589	-4.61065
7443.195	4.39471	-1.89495	6.32130	-4.64450
7447.299	4.32733	-1.93512	6.38518	-4.67579
7451.298	4.68740	-2.06924	6.20467	-4.58361
7455.253	4.53080	-2.02396	5.97757	-4.19912
7459.299	5.29723	-2.30775	5.98015	-4.59067
7463.299	5.16930	-4.33803	6.16689	-5.60108
7467.299	4.82062	-4.68029	6.45422	-6.64375
7471.300	4.87756	-5.04220	7.21208	-7.79716
7475.195	5.48708	-6.20448	7.53776	-7.65654
7479.301	5.39106	-6.70237	7.38849	-7.45883
7483.280	5.46706	-6.72251	7.26788	-7.69749
7487.303	5.47082	-6.45217	7.73972	-7.94703
7491.195	5.63193	-6.60796	7.65110	-8.08289
7495.301	5.72996	-6.47299	7.76879	-8.04281
7499.301	5.79049	-6.23871	7.79649	-8.07272
7503.300	5.80491	-6.19922	7.81644	-8.02829
7507.254	5.93669	-6.21540	7.80097	-8.01219
7511.299	5.92650	-6.13260	7.86474	-8.10135
7515.301	6.03128	-6.10734	7.84832	-8.05865
7519.301	6.02207	-6.11057	7.81317	-8.07978
7523.197	6.09675	-6.44390	7.83166	-8.08071
7527.301	6.19866	-6.52770	7.84822	-8.05870
7531.301	6.21627	-6.60598	7.79381	-7.98794
7535.299	3.14065	-6.26893	7.73996	-7.86804
7539.199	3.18249	-6.24198	7.69100	-7.84356
7543.301	3.28585	-6.23579	7.67540	-7.81591
7547.301	3.24719	-6.18858	7.64756	-7.77273
7551.300	3.29110	-6.29456	7.62974	-7.74343
7555.197	3.22289	-6.13357	7.56444	-7.73155
7559.302	3.21164	-6.12206	7.55432	-7.72172
7563.302	3.19598	-6.05084	7.49590	-7.70741
7567.280	3.18113	-5.76640	7.55891	-7.72531
7571.190	3.14632	-5.85072	7.57325	-7.73174
7575.301	3.95683	-4.90775	7.50522	-7.73707
7579.304	3.94611	-4.94041	7.62511	-7.78989
7583.301	4.46090	-4.67105	7.65593	-7.81631
7587.200	4.48660	-4.73825	7.77035	-7.76833
7591.286	4.55186	-4.68314	7.73948	-7.67005
7595.305	4.60942	-4.63456	7.82224	-7.69241
7599.304	4.63427	-4.58516	7.89900	-7.62672
7603.199	4.71868	-4.55928	7.88497	-7.56224
7607.294	4.75524	-4.60083	7.96865	-7.53010
7611.258	4.74664	-4.61178	7.98527	-7.50310
7615.305	4.74866	-4.55781	7.99401	-7.41739
7619.197	4.74447	-4.59792	8.03888	-7.41133
7623.303	4.75758	-4.62177	8.00452	-7.32807
7627.302	4.77111	-4.70623	7.98634	-7.27641
7631.304	4.75943	-4.74888	7.95287	-7.25295
7635.197	4.75156	-4.79018	7.94689	-7.31170
7639.303	4.74422	-4.82724	7.98632	-7.31885
7643.304	4.73606	-4.90789	7.93467	-7.31589
7647.305	4.71412	-4.93339	7.96889	-7.33020
7651.202	4.69115	-5.01368	7.79668	-7.26959
7655.304	4.69751	-4.87283	7.55479	-7.06101
7659.303	4.64803	-5.22072	7.29560	-6.78760
7663.181	3.49720	-4.45049	3.68231	-5.95818
7667.169	2.44816	-4.20506	1.55296	-6.05612
7671.180	-0.24708	-4.06793	0.61223	-6.22411
7675.181	-0.98534	-4.44709	-1.49411	-5.79721
7679.180	-2.41098	-3.78534	-2.85871	-5.86790
7683.169	-3.92596	-3.81290	-3.10970	-5.85395
7687.183	-5.83655	-3.50189	-4.95364	-5.62776
7691.208	-7.18425	-4.19833	-5.31772	-5.52683
7695.171	-7.34877	-3.57102	-5.41866	-5.37373
7699.169	-7.38827	-3.47994	-5.47309	-5.37428
7703.183	-7.62528	-4.25032	-5.34412	-5.28143
7707.179	-7.82360	-4.25594	-5.25114	-5.28894
7711.181	-7.85042	-4.80050	-5.20447	-5.26283
7715.178	-8.04567	-4.95380	-5.07427	-5.24537
7719.181	-5.92545	-4.59602	-4.90006	-5.23681
7723.182	-5.94035	-4.79227	-5.00913	-5.20684
7727.180	-5.90190	-4.83479	-4.63984	-5.18150
7731.172	-5.82071	-4.75598	-4.42326	-5.28727
7735.183	-5.78150	-4.75557	-4.16231	-5.39719
7739.149	-5.70404	-4.75720	-4.14949	-5.47182
7743.179	-5.68632	-4.82445	-4.05498	-5.47102
7747.202	-5.68172	-4.76701	-4.07957	-5.52859
7751.181	-5.70180	-4.80893	-4.05162	-5.51685
7755.181	-5.68937	-4.67947	-3.99408	-5.57637
7759.181	-5.71699	-4.66308	-3.95283	-5.60122
7763.177	-5.70701	-4.65486	-3.94508	-5.65188
7767.180	-5.73760	-4.69194	-3.89943	-5.66382
7771.180	-5.72050	-4.64087	-3.92077	-5.70656
7775.182	-5.72099	-4.68279	-3.91309	-5.74650
7779.172	-5.75200	-4.70941	-3.92154	-5.75363
7783.178	-5.78885	-4.73624	-3.94327	-5.78043
7787.184	-5.81609	-4.88491	-3.96558	-5.82054
7791.166	-5.78777	-4.69025	-3.95021	-5.85840
7795.140	-5.80378	-3.49466	-3.96664	-5.86697
7799.179	-5.86418	-3.33070	-3.99213	-5.91827
7803.182	-5.85617	-3.17806	-3.98827	-5.96725
7807.183	-5.89412	-3.97395	-3.88883	-5.97448
7811.172	-5.64916	-4.40452	-3.77451	-5.75869
7815.186	-6.61129	-4.05643	-4.32703	-5.56288
7819.183	-7.18423	-4.08539	-6.49729	-5.41677
7823.182	-8.77293	-3.90632	-8.61227	-5.51232
7827.171	-10.08917	-4.17317	-9.77385	-5.49612
7831.182	-10.64954	-3.13311	-11.65442	-6.29231
7835.181	-11.06530	-4.18710	-11.89464	-6.94428
7839.182	-11.38240	-3.79952	-12.16204	-7.02676
7843.180	-11.91077	-3.86823	-12.58640	-6.99470
7847.182	-12.00106	-4.02639	-12.65271	-6.99747
7851.183	-11.84860	-3.94164	-12.69497	-7.04943
7855.182	-11.91315	-3.71015	-12.51373	-7.14254
7859.170	-11.99633	-3.71153	-12.56812	-7.15969
7863.155	-12.14105	-3.79615	-12.46110	-7.09973
7867.184	-12.23803	-3.77600	-12.37891	-7.04549
7871.182	-12.31469	-3.74075	-12.18490	-7.01355
7875.175	-12.42609	-3.81182	-12.30493	-7.03546
7879.185	-12.50593	-3.83900	-12.12087	-7.02738
7883.184	-12.53166	-3.97248	-11.98880	-7.00684
7887.187	-12.73328	-4.12187	-12.15445	-6.97347
7891.201	-12.85494	-4.35401	-11.55916	-6.13560
7895.185	-12.98664	-4.61296	-11.60580	-5.68353
7899.186	-12.93516	-4.76734	-11.61047	-5.86655
7903.180	-13.07752	-5.09755	-11.48327	-5.71766
7907.141	-13.02175	-4.57635	-11.54113	-5.68030
7911.186	-12.96317	-4.19489	-11.36155	-5.78037
7915.186	-12.91064	-4.56228	-11.28760	-6.05253
7919.187	-12.92703	-3.88695	-11.24755	-6.03941
7923.183	-12.92222	-4.48599	-11.20276	-5.89456
7927.140	-12.72431	-4.61629	-11.29741	-5.93854
7931.186	-12.55266	-4.66283	-11.25450	-5.98284
7935.185	-12.47671	-4.72439	-11.25388	-6.21593
7939.141	-12.51676	-4.87362	-11.27269	-6.10616
7943.183	-12.39364	-4.85004	-11.28565	-6.23459
7947.185	-12.40768	-4.95335	-11.34576	-6.28351
7951.186	-12.40666	-5.01380	-11.24605	-6.08704
7955.182	-12.42380	-4.94187	-11.30538	-6.06213
7959.185	-12.39861	-5.15949	-11.32863	-5.97267
7963.187	-12.50106	-5.29792	-11.38430	-5.92725
7967.184	-12.57786	-5.36963	-11.39055	-5.55199
7971.174	-12.54554	-5.40057	-11.36389	-5.42139
7975.185	-12.62419	-5.37410	-11.36816	-5.47492
7979.185	-12.67019	-5.46089	-11.38285	-5.44990
7983.186	-12.63128	-5.43893	-11.43259	-5.31653
7987.935	-12.68314	-5.39536	-11.47636	-5.35311
7991.183	-12.69785	-5.25409	-11.48947	-5.38403
7995.187	-12.64328	-5.29245	-11.48954	-5.35429
7999.186	-12.62088	-5.20767	-11.47233	-5.38652
8003.182	-12.62421	-4.75315	-11.48478	-5.37024
8007.187	-12.54129	-4.34278	-11.34752	-5.39924
8011.187	-12.56342	-4.25712	-11.27884	-5.40753
8015.188	-12.57259	-4.26172	-11.17718	-5.41513
8019.186	-12.52400	-3.79997	-11.17651	-5.39984
8023.187	-12.56382	-3.75971	-11.13294	-5.52276
8027.188	-12.53833	-3.93498	-11.22387	-5.53509
8031.150	-12.55651	-3.98913	-11.24722	-5.65959
8035.207	-12.56968	-3.91751	-11.14567	-5.69817
8039.186	-12.65011	-4.01874	-11.23745	-5.79549
8043.186	-12.68014	-4.05020	-11.23439	-5.90737
8047.146	-12.73474	-4.06356	-11.36315	-5.97143
8051.177	-12.72950	-4.47705	-11.64037	-5.97727
8055.187	-12.77218	-4.48338	-11.13305	-5.98825
8059.187	-12.72549	-4.33122	-11.27591	-5.99146
8063.188	-12.76914	-4.42683	-11.27063	-6.02878
8067.178	-12.75410	-4.50502	-11.33022	-5.95488
8071.165	-12.72719	-4.47047	-10.84963	-5.80532
8075.187	-12.74319	-4.51928	-11.06284	-5.63317
8079.188	-12.76114	-4.72244	-10.99910	-5.59372
8083.177	-12.71524	-4.52069	-10.89920	-5.61123
8087.187	-12.68635	-4.36301	-10.88860	-5.55333
8091.215	-12.66292	-4.39074	-10.96313	-5.36533
8095.189	-12.68985	-4.44563	-10.89109	-5.36087
8099.178	-12.71032	-4.52940	-11.01165	-5.38191
8103.189	-12.65399	-4.59733	-11.02576	-5.49202
8107.190	-12.70206	-4.70081	-10.91913	-5.27933
8111.144	-12.78238	-5.00017	-10.90703	-5.17441
8115.180	-12.72279	-4.67110	-10.97384	-5.14421
8119.191	-12.71179	-4.41547	-10.87503	-5.10374
8123.188	-12.64794	-4.40980	-10.87848	-5.09858
8127.190	-12.59727	-4.36368	-10.89707	-5.06277
8131.178	-12.58919	-4.43636	-11.02175	-5.00278
8135.191	-12.57923	-4.54555	-11.06564	-4.92971
8139.190	-12.58642	-4.47883	-11.13305	-4.99987
8143.191	-12.51768	-4.26075	-11.14240	-4.97626
8147.181	-12.55077	-4.26396	-11.36541	-4.92777
8151.189	-12.56247	-4.23422	-11.40918	-4.96398
8155.161	-12.47816	-4.07175	-11.36820	-4.95647
8159.189	-12.48189	-4.00320	-11.17739	-4.96202
8163.193	-12.47726	-3.98331	-11.13095	-5.08736
8167.191	-12.48149	-3.99700	-11.20944	-5.16951
8171.189	-12.49784	-3.95964	-11.24278	-5.32616
8175.188	-12.51262	-3.91743	-11.05770	-5.22971
8179.187	-12.51014	-4.01090	-10.98097	-5.26044
8183.189	-12.47920	-4.15300	-10.97169	-5.32102
8187.191	-12.47425	-4.18301	-10.95418	-5.30121
8191.220	-12.47539	-4.11785	-11.00709	-5.34783
8195.181	-12.46249	-4.17984	-10.92409	-5.43281
8199.188	-12.48353	-4.21792	-10.99664	-5.45904
8203.191	-12.50668	-4.25885	-11.06196	-5.53245
8207.191	-12.68900	-4.21678	-11.14567	-5.58717
8211.181	-12.75717	-4.20461	-11.13114	-5.59327
8215.191	-12.82132	-4.27237	-11.17797	-5.53534
8219.192	-12.71625	-4.30509	-11.22231	-5.48907
8223.190	-12.72310	-4.22340	-11.25770	-5.30134
8227.182	-12.75984	-4.37681	-11.29398	-5.08461
8231.193	-12.89852	-4.28900	-11.30166	-4.81990
8235.193	-12.84187	-4.50705	-11.25094	-4.88122
8239.193	-12.88520	-4.43994	-11.28522	-4.70569
8243.156	-12.94209	-4.35508	-11.25507	-4.97542
8247.190	-12.94768	-4.07459	-11.22465	-4.78820
8251.192	-12.88525	-4.00643	-11.19898	-4.71367
8255.191	-12.81639	-4.22903	-11.21525	-4.57340
8259.190	-12.79199	-4.19140	-11.18592	-4.42738
8263.192	-12.80546	-4.15850	-11.18525	-4.53577
8267.191	-12.74522	-4.02112	-11.06303	-4.63968
8271.192	-12.73729	-4.16364	-11.00183	-4.72365
8275.185	-12.69573	-4.00395	-11.04114	-4.69310
8279.167	-12.67922	-3.96496	-11.07482	-4.67941
8283.193	-12.70785	-3.89332	-11.06851	-4.90408
8287.192	-12.61143	-3.65078	-11.21821	-4.90577
8291.216	-12.59663	-3.82234	-11.30966	-5.11784
8295.194	-12.56621	-3.88212	-11.10591	-5.09598
8299.194	-12.59763	-3.94773	-10.61452	-4.62977
8303.194	-12.57451	-4.28509	-10.77433	-4.70906
8307.183	-12.58273	-4.13612	-10.96830	-4.69814
8311.193	-12.55491	-3.99138	-11.20832	-4.88823
8315.196	-12.51080	-3.42129	-11.61801	-4.89987
8319.179	-12.55131	-3.51000	-11.69267	-4.88860
8323.089	-12.61831	-3.43948	-11.26266	-3.54957
8327.193	-15.12664	-3.74817	-12.88204	-4.15882
8331.193	-15.49716	-2.05338	-14.73553	-2.64674
8335.195	-16.03659	-2.65158	-12.36852	-3.98646
8339.195	-13.95521	-0.74636	-12.32002	0.37014
8343.194	-12.57675	4.42433	-13.32945	3.19373
8347.194	NaN	NaN	NaN	NaN
8351.195	NaN	NaN	NaN	NaN
8355.196	NaN	NaN	NaN	NaN
8359.193	NaN	NaN	NaN	NaN
8363.151	NaN	NaN	NaN	NaN
8367.147	NaN	NaN	NaN	NaN
8371.194	NaN	NaN	NaN	NaN
8375.149	NaN	NaN	NaN	NaN
8379.194	NaN	NaN	NaN	NaN
8383.184	NaN	NaN	NaN	NaN
8387.194	NaN	NaN	NaN	NaN
8391.196	NaN	NaN	NaN	NaN
8395.195	NaN	NaN	NaN	NaN
8399.195	NaN	NaN	NaN	NaN
8403.191	NaN	NaN	NaN	NaN
8407.192	NaN	NaN	NaN	NaN
8411.195	NaN	NaN	NaN	NaN
8415.185	NaN	NaN	NaN	NaN
8419.193	NaN	NaN	NaN	NaN
8423.195	NaN	NaN	NaN	NaN
8427.196	NaN	NaN	NaN	NaN
8431.151	NaN	NaN	NaN	NaN
8435.198	NaN	NaN	NaN	NaN
8439.152	NaN	NaN	NaN	NaN
8443.198	NaN	NaN	NaN	NaN
8447.155	NaN	NaN	NaN	NaN
8451.073	NaN	NaN	5.39517	14.12474
8455.198	NaN	NaN	4.85605	14.15756
8459.197	1.99436	10.34169	6.82349	13.80668
8463.198	2.37634	6.16907	5.08520	11.03684
8467.091	1.98921	8.05056	3.48600	9.76490
8471.199	0.72273	8.21246	5.81651	13.57585
8475.197	2.60292	13.39009	6.83871	12.53288
8479.198	2.52376	13.60859	6.71862	13.45412
8483.093	3.15238	12.43732	6.10127	13.36488
8487.172	3.18529	12.15183	5.89100	13.32148
8491.209	3.14724	12.49855	3.46189	13.36005
8495.153	3.63960	12.96787	3.34722	13.04240
8499.095	4.35879	12.73959	4.29142	10.44427
8503.199	3.12356	11.82015	5.25840	10.21023
8507.197	3.75442	12.25733	5.73770	10.03918
8511.197	4.43167	11.33657	5.68885	10.17358
8515.200	4.09945	10.40795	5.42215	10.39473
8519.199	3.43558	10.06052	5.69123	8.53505
8523.199	3.46535	9.77205	5.30557	8.11048
8527.188	3.76690	9.35885	5.09143	8.16581
8531.200	4.04280	9.29544	5.28333	8.05069
8535.198	4.33890	9.05258	5.15185	8.14873
8539.165	4.61275	8.30670	5.18616	8.11492
8543.198	4.56572	8.47820	5.11132	8.38276
8547.155	4.80798	8.62379	5.09167	8.26386
8551.200	4.77547	8.99055	5.26034	8.11465
8555.202	4.47982	8.98081	5.21073	8.24178
8559.200	4.15591	8.94052	5.18532	8.22812
8563.095	4.42666	8.90575	5.10891	8.57973
8567.199	4.47504	8.70912	5.00903	8.36560
8571.169	4.35711	8.74430	4.98401	8.64391
8575.202	4.40791	8.78965	5.07178	8.57363
8579.157	4.74025	8.82488	5.39165	8.60852
8583.200	5.08995	8.91913	5.58850	8.45359
8587.074	4.78218	8.99648	5.61672	8.61414
8591.218	4.74390	9.05198	5.56217	8.39322
8595.097	4.45325	9.16705	5.25207	8.50943
8599.200	4.34638	9.25480	5.21240	8.73176
8603.200	4.25364	9.23297	5.35670	8.75238
8607.204	4.43956	9.10522	5.61342	8.84704
8611.156	4.57024	9.22278	5.38951	8.51699
8615.197	4.56148	9.27272	5.62655	8.02454
8619.199	4.82340	9.35469	5.60718	8.23442
8623.200	4.96140	9.30362	5.41342	8.17833
8627.202	4.87044	9.37417	5.39704	8.32627
8631.200	4.72381	9.40498	5.32939	8.62968
8635.201	4.47943	9.46015	5.46871	8.34975
8639.200	4.58491	9.47008	5.37583	8.56968
8643.207	4.54447	9.38160	5.42992	8.66053
8647.202	4.58545	9.13165	5.35716	8.44529
8651.199	4.56654	9.25290	5.32602	8.34481
8655.197	4.66743	9.13914	5.16913	8.56109
8659.100	4.66933	9.04373	5.00815	8.75136
8663.202	4.51203	9.19566	5.02556	8.73360
8667.201	4.58841	9.40698	5.57967	8.63668
8671.197	4.49479	9.46263	4.94925	8.30876
8675.075	4.80411	9.09236	5.52868	8.39528
8679.201	4.63787	8.98450	5.48735	8.74607
8683.204	4.53416	8.88708	5.30855	8.76570
8687.075	4.84334	8.34708	4.95992	8.32989
8691.099	4.69411	8.25912	4.90112	8.20417
8695.078	4.81520	8.42185	5.09965	6.78204
8699.069	4.84704	8.63935	5.30473	8.29238
8703.078	4.80327	9.03350	5.40393	8.77793
8707.066	4.87389	9.20692	5.33723	8.73421
8711.077	4.95147	8.82862	5.41819	8.50055
8715.077	4.91055	8.61371	5.47232	8.61926
8719.032	4.78420	8.54763	5.38417	8.89797
8723.101	4.68119	8.31779	5.31831	8.49500
8727.077	4.79156	8.31541	5.24279	8.42150
8731.079	4.72978	8.51308	5.26932	8.58155
8735.079	4.87084	8.50585	5.48066	8.44172
8739.095	4.92152	8.61263	5.49699	8.64986
8743.033	5.06442	8.70418	5.45607	8.57896
8747.080	4.97457	8.67996	5.34971	9.07520
8751.078	4.85679	8.69505	5.19069	8.52695
8755.100	4.71388	8.71210	5.27156	8.56734
8759.080	4.76897	8.56956	5.39542	8.70502
8763.077	4.73229	8.57071	5.16871	8.41883
8767.078	4.66378	8.59878	5.24407	8.43091
8771.097	4.45703	8.66774	5.25589	8.51424
8775.079	4.59756	8.63316	5.33603	8.31881
8779.082	4.96940	8.63916	5.42080	8.19997
8783.060	4.65249	8.42608	5.08865	8.32451
8787.047	4.35506	8.51875	4.54249	8.37902
8791.079	4.41808	8.23201	2.51118	8.17607
8795.079	2.50048	6.29590	1.43277	4.98354
8799.078	0.78379	5.57398	1.53696	3.33797
8803.104	0.67667	3.51067	1.31580	1.63144
8807.081	-1.48630	2.04765	1.16915	-0.02154
8811.081	-0.50183	0.94077	0.78315	0.21992
8815.080	-0.03192	-0.01618	-0.35891	-0.07271
8819.100	-0.93175	1.03055	-0.66876	-1.27024
8823.079	-1.66378	0.83765	-0.61263	-1.12345
8827.080	-2.11351	1.06717	-0.77144	-1.28636
8831.079	-2.23680	0.80782	-0.70012	-1.39130
8835.098	-2.29406	0.58707	-0.50274	-1.53543
8839.081	-1.88402	0.72050	-0.64273	-1.55403
8843.080	-1.75086	0.12404	-0.57374	-1.61317
8847.080	-1.47690	0.20004	-0.52577	-1.66758
8851.099	-1.85993	0.12587	-0.44395	-1.92222
8855.081	-1.06795	0.05829	-0.58262	-1.85181
8859.082	-1.53386	0.14807	-0.34988	-1.98539
8863.081	-1.74283	0.11331	-0.31560	-1.99721
8867.070	-2.17460	0.17881	-0.25366	-2.10750
8871.079	-2.06468	0.13601	-0.22331	-2.03333
8875.082	-2.10860	0.09618	-0.24197	-2.18058
8879.081	-2.15185	0.14757	-0.15491	-2.19595
8883.099	-2.07440	0.12692	-0.13796	-2.24032
8887.082	-1.69773	0.18336	-0.10354	-2.29260
8891.081	-1.66777	0.23008	-0.29299	-2.05695
8895.086	-2.08788	0.18657	-0.22239	-1.92706
8899.101	-2.03680	0.21093	-0.19663	-1.51457
8903.081	-2.10188	0.26873	-0.28071	-1.66383
8907.070	-2.10706	0.29699	-0.25699	-1.39844
8911.073	-2.01682	0.30806	-0.34824	-1.18139
8915.074	-1.88189	0.28332	-0.44882	-0.96664
8919.083	-1.68399	0.30668	-0.39569	-0.80974
8923.085	-1.59271	0.27721	-0.36278	-0.64514
8927.083	-1.22419	0.28624	-0.32972	-0.82085
8931.104	-0.57404	0.28011	-0.17397	-0.85345
8935.083	-1.96010	0.30539	-0.05445	-0.79644
8939.082	-2.17333	0.32119	0.24125	-0.95299
8943.084	-1.65074	0.29411	-0.15012	-0.89444
8947.103	-1.62624	0.24442	-0.14685	-0.64048
8951.047	-1.60094	0.15140	-0.06659	-0.76528
8955.083	-1.84044	0.07322	-0.15342	-0.60135
8959.085	-1.83090	0.10141	-0.17834	-0.52760
8963.104	-1.96543	0.37246	-0.05447	-0.73875
8967.082	-1.94315	0.59276	0.10652	-0.99314
8971.082	-1.49897	1.37387	-0.21395	-0.83069
8975.084	-1.73336	0.44747	-0.31143	-0.03268
8979.103	-2.12687	0.09861	0.56009	-0.79049
8983.084	-3.60736	0.43456	0.20390	-1.31515
8987.044	-2.24654	2.36803	-1.31124	-1.02187
8991.062	-2.00319	5.51905	-1.73462	-1.04903
8995.045	NaN	NaN	NaN	NaN
8999.083	5.04208	11.90320	4.39646	10.34520
9003.085	NaN	NaN	NaN	NaN
9007.084	NaN	NaN	NaN	NaN
9011.085	NaN	NaN	NaN	NaN
9015.040	NaN	NaN	NaN	NaN
9019.085	NaN	NaN	NaN	NaN
9023.086	NaN	NaN	NaN	NaN
9027.097	NaN	NaN	NaN	NaN
9031.043	NaN	NaN	NaN	NaN
9035.078	NaN	NaN	NaN	NaN
9039.082	NaN	NaN	NaN	NaN
9043.085	NaN	NaN	NaN	NaN
9047.081	NaN	NaN	NaN	NaN
9051.084	NaN	NaN	3.52811	0.45558
9055.083	NaN	NaN	1.30330	0.40401
9059.084	0.21274	9.10681	3.21597	-3.59686
9063.074	0.02395	7.94173	3.39782	-2.43542
9067.088	-3.17327	8.48401	1.27043	-0.61919
9071.085	-2.47066	4.04846	2.50127	-1.25483
9075.056	-2.16114	0.40636	1.69388	-1.32690
9079.050	-1.00127	0.35625	0.77555	-0.88863
9083.086	-0.62399	0.42392	0.11801	-0.97327
9087.086	-0.24147	0.31006	-0.11200	-0.89050
9091.086	0.06157	0.35397	-2.98190	-0.57317
9095.108	0.27371	0.23743	1.04245	-0.25123
9099.086	0.60786	0.26396	0.65248	-0.02636
9103.086	0.04197	0.30346	0.31749	0.59463
9107.087	-0.16457	0.36192	1.31573	-0.31781
9111.049	-0.28612	0.33474	1.75166	-0.90337
9115.073	0.09066	0.39003	0.74548	-0.68125
9119.074	0.12960	0.39989	0.91984	-0.18150
9123.086	0.10955	0.46069	1.32138	-0.10677
9127.109	-0.00953	0.42807	1.57148	-0.14325
9131.089	0.01437	0.37889	1.98757	-0.21114
9135.088	0.22648	0.37663	2.24899	-0.15958
9139.086	0.32268	0.46899	2.48611	-0.27959
9143.107	-0.05510	0.71134	1.55023	-0.33787
9147.088	-0.21132	1.05768	1.52808	-0.69356
9151.091	-0.07219	1.36403	1.40197	-0.00276
9155.087	0.01087	1.63821	1.22980	-0.21186
9159.076	-0.02345	1.64486	0.96822	-0.16239
9163.087	-0.07026	1.44909	0.90292	-0.07106
9167.085	-0.09490	1.59301	0.82466	-0.22451
9171.089	0.04393	1.60990	0.83736	-0.26576
9175.046	-0.01236	1.61385	0.71600	-0.14859
9179.088	-0.04499	1.64531	0.73092	-0.23428
9183.088	-0.06162	1.74300	0.79203	-0.23617
9187.088	-0.02678	1.75696	0.74111	-0.06694
9191.086	-0.00834	1.74459	0.67245	-0.07569
9195.091	-0.00030	1.71552	0.61124	-0.09174
9199.066	-0.01544	1.66435	0.62784	-0.05442
9203.085	-0.04132	1.64774	0.62620	-0.01923
9207.077	-0.06271	1.69675	0.67397	-0.02336
9211.089	-0.06544	1.69896	0.67605	-0.04619
9215.089	-0.07147	1.73858	0.75116	-0.00708
9219.089	-0.09354	1.76438	0.77047	0.06271
9223.090	-0.10026	1.81373	0.76340	0.08058
9227.092	-0.14796	1.88008	0.74481	0.14965
9231.089	-0.21418	1.96746	0.74556	0.13825
9235.091	-0.23383	0.85129	0.70905	0.21341
9239.076	-0.25393	1.19583	0.80650	0.00894
9243.081	-0.30307	0.96494	0.83858	-0.28481
9247.097	-0.31605	0.84105	0.92100	-0.25857
9251.089	-0.31459	0.77076	0.92500	-0.47360
9255.089	-0.35866	0.63637	0.92108	-0.40399
9259.090	-0.34454	0.18174	0.91463	-0.28061
9263.089	-0.36151	0.50678	1.05188	-0.76389
9267.088	-0.37030	0.74271	1.07175	-0.51952
9271.080	-0.29932	0.56231	1.18852	-0.54377
9275.093	-0.29230	0.48114	1.24580	-0.73954
9279.091	-0.28545	0.42270	1.46070	-0.74293
9283.045	-0.25373	0.42687	2.04508	-0.79198
9287.091	-0.19110	0.33377	2.09975	-0.84074
9291.088	-0.22058	0.38486	1.93727	-0.83134
9295.096	-0.18588	0.31625	2.04788	-0.82389
9299.090	-0.18891	0.34776	1.99553	-0.74173
9303.092	-0.21661	0.52969	1.82921	-0.90057
9307.090	-0.20340	0.70396	1.65294	-0.82300
9311.092	-0.03772	3.17656	0.94428	0.85175
9315.090	-0.15114	4.37189	0.77268	3.26054
9319.091	-0.40909	7.82596	0.86007	4.61411
9323.080	-0.66330	8.51544	-0.98268	9.46662
9327.080	-1.12874	11.84633	-0.97447	11.74836
9331.092	-1.22546	13.50947	NaN	NaN
9335.093	-0.95500	13.81208	NaN	NaN
9339.092	-0.49557	13.94717	NaN	NaN
9343.092	-0.41569	14.14732	NaN	NaN
9347.090	-0.08011	14.23289	NaN	NaN
9351.093	-0.13374	14.22696	NaN	NaN
9355.091	-0.45870	14.28648	NaN	NaN
9359.048	-0.35399	14.54021	NaN	NaN
9363.091	-0.32243	14.46324	NaN	NaN
9367.091	-0.33245	14.58731	NaN	NaN
9371.092	NaN	NaN	NaN	NaN
9375.065	NaN	NaN	NaN	NaN
9379.093	NaN	NaN	NaN	NaN
9383.094	NaN	NaN	NaN	NaN
9387.092	NaN	NaN	NaN	NaN
9391.093	-0.10416	14.90044	NaN	NaN
9395.093	NaN	NaN	NaN	NaN
9399.096	-0.02991	15.03653	NaN	NaN
9403.094	0.13717	14.99314	NaN	NaN
9407.073	0.64781	15.07959	NaN	NaN
9411.094	0.70173	15.13119	NaN	NaN
9415.094	0.50704	15.09406	NaN	NaN
9419.091	0.44152	15.08096	NaN	NaN
9423.094	0.25532	15.10891	NaN	NaN
9427.049	0.01782	15.06316	NaN	NaN
9431.097	-0.25229	15.06075	NaN	NaN
9435.096	-0.14384	15.03521	NaN	NaN
9439.093	0.00665	15.03356	NaN	NaN
9443.096	0.15727	15.02994	NaN	NaN
9447.089	-0.02765	15.02948	NaN	NaN
9451.086	-0.00271	15.03387	NaN	NaN
9455.095	0.28141	15.01255	NaN	NaN
9459.096	0.02708	15.03074	NaN	NaN
9463.096	-0.09748	15.05674	NaN	NaN
9467.094	-0.03023	15.02239	NaN	NaN
9471.093	-0.11339	15.04538	NaN	NaN
9475.094	-0.16720	15.06808	NaN	NaN
9479.095	0.00958	15.07509	NaN	NaN
9483.097	-0.14610	15.07022	NaN	NaN
9487.084	-0.08381	14.97638	NaN	NaN
9491.050	-0.19224	14.92338	NaN	NaN
9495.102	-0.18616	14.84900	NaN	NaN
9499.096	-0.33856	14.88966	NaN	NaN
9503.094	-0.39881	14.82312	NaN	NaN
9507.095	-0.31007	14.75320	NaN	NaN
9511.099	-0.17583	14.71494	NaN	NaN
9515.095	-0.07760	14.64396	NaN	NaN
9519.095	-0.05130	14.50396	NaN	NaN
9523.096	-0.12138	14.46114	NaN	NaN
9527.098	0.13496	14.45097	NaN	NaN
9531.095	0.15173	14.38600	NaN	NaN
9535.096	0.06815	14.37732	NaN	NaN
9539.097	-0.03690	14.46112	NaN	NaN
9543.098	-0.08577	14.33776	NaN	NaN
9547.095	-0.05132	14.35396	NaN	NaN
9551.099	-0.13389	11.69910	NaN	NaN
9555.097	0.10123	10.05348	-0.38531	13.82311
9559.099	0.08577	8.11259	-0.36635	8.84066
9563.061	-0.05668	6.89070	0.17397	6.43843
9567.099	0.28679	5.50102	0.32330	5.07300
9571.097	0.37042	3.06189	0.67278	2.45496
9575.098	0.60689	1.74333	1.65838	0.56529
9579.098	0.70032	1.66942	1.50522	0.48731
9583.097	0.85776	1.05359	1.19234	0.00328
9587.097	1.19805	0.65875	0.88612	-0.33599
9590.999	1.18249	-1.44727	0.41370	-1.31500
9595.098	1.20564	-1.20988	0.57741	-0.76142
9599.099	1.37285	-0.53093	0.99397	-1.17398
9603.096	1.26180	-0.26006	1.04927	-1.03615
9607.096	1.22065	-0.07329	1.03687	-1.71206
9611.053	1.36268	-0.54827	1.11559	-1.65403
9615.082	1.42017	-0.22472	1.14035	-1.54332
9619.099	1.50564	-0.11315	1.10383	-1.88681
9623.097	1.59559	-0.02536	1.15483	-1.66396
9627.098	1.15141	-0.00952	1.24004	-1.72150
9631.098	0.46852	-0.12079	1.15441	-1.73151
9635.100	0.32667	-0.12086	1.17086	-1.69923
9639.098	0.46845	-0.06669	1.11839	-1.72676
9643.099	0.17697	0.05892	1.07857	-1.70690
9647.098	0.38095	0.10344	0.99511	-1.66877
9651.100	0.21321	0.13846	0.96477	-1.60637
9655.095	0.26751	0.15732	0.94701	-1.50911
9659.094	0.20733	0.21313	0.85111	-1.49214
9663.101	0.21517	0.25875	0.80416	-1.41953
9667.100	0.31709	0.12496	0.77315	-1.31901
9671.102	0.96532	0.01342	0.88336	-1.31346
9675.098	1.30677	0.02136	1.11524	-1.27205
9679.101	1.26247	-0.04370	1.24272	-1.28620
9683.102	1.27559	0.00586	1.59246	-1.35643
9687.101	1.29869	-0.23116	1.81116	-1.33794
9691.101	0.98430	-0.01324	2.01845	-1.27269
9695.100	0.86778	0.09854	1.83266	-1.21358
9699.102	0.75072	-0.06095	1.91903	-1.23715
