time (ms)	lx (deg)	ly (deg)	rx (deg)	ry (deg)
0.000	-1.18817	0.48613	-0.93882	-0.46923
4.104	-1.16825	0.62073	-1.24607	-0.74575
8.104	-1.16677	0.58381	-1.20400	-0.63118
12.105	-1.12415	0.46078	-1.32793	-1.07240
16.108	-1.15456	0.65819	-1.37369	-1.01874
20.105	-1.19157	0.61223	-1.26470	-1.36562
24.073	-1.28333	0.52072	-1.35229	-1.33878
28.105	-1.40795	0.35819	-1.37364	-1.21099
32.105	-1.54567	0.58996	-1.38542	-1.29769
36.105	-1.49212	1.05199	-1.30439	-0.77604
40.105	-1.50948	0.81350	-1.23635	-1.02706
44.105	-2.31909	0.66106	-1.23873	-1.11793
48.108	-1.85953	0.41073	-1.14811	-1.31092
52.108	-1.83685	0.23232	-1.01305	-1.55516
56.105	-1.84550	0.13233	-0.67439	-1.60609
60.105	-1.59214	0.30090	-0.38191	-1.79847
64.107	-1.59474	0.33486	-0.39623	-1.75647
68.101	-1.65257	0.24794	-0.44495	-1.78133
72.105	-1.48253	0.51079	-0.52225	-1.80730
76.106	-1.50135	0.53306	-0.54319	-1.65293
80.108	-1.61183	0.42686	-0.08634	-1.73923
84.111	-1.60449	0.49340	0.02680	-1.68873
88.106	-1.58686	0.51181	0.16501	-1.76137
92.105	-1.43319	0.51291	0.23949	-1.62898
96.002	-1.53056	0.59182	0.33657	-1.82142
100.110	-1.56526	0.65527	0.28418	-2.10996
104.105	-1.56055	0.70241	0.39087	-2.22755
108.071	-1.60952	0.78448	0.43040	-2.15747
111.970	-1.69331	0.88643	0.33568	-1.94034
116.109	-1.73958	0.94370	0.40966	-1.87594
120.107	-1.78746	1.08540	0.42730	-2.02299
124.106	-1.76286	1.18405	0.38457	-2.02712
128.003	-1.82358	1.29354	0.34099	-1.90584
132.109	-1.78347	1.22786	0.35280	-1.92574
136.106	-2.17167	0.83467	0.28950	-1.78275
140.108	-2.16121	0.52209	0.26773	-1.93000
143.974	-2.55113	0.44931	0.29575	-1.78901
147.985	-2.49305	0.26660	0.26460	-1.85472
151.969	-2.22996	0.13838	0.10781	-1.79995
155.981	-2.05707	-0.22191	0.02655	-1.73652
159.995	-2.49813	-0.22797	0.03896	-1.71805
163.984	-2.29463	-0.26872	-0.17901	-1.68207
167.984	-2.43778	-0.30268	-0.16471	-1.68048
171.975	-2.56788	-0.34818	-0.29007	-1.63027
175.973	-2.65649	-0.32018	-0.35117	-1.62390
180.001	-2.47281	-0.42290	-0.36745	-1.61180
183.982	-2.56364	-0.44127	-0.46577	-1.59535
187.985	-2.39715	-0.53561	-0.45209	-1.56151
192.002	-2.41923	-0.48310	-0.46902	-1.48798
195.949	-2.20681	-0.54705	-0.44815	-1.48992
199.984	-2.51455	-0.47398	-0.48718	-1.43168
203.983	-2.43937	-0.31954	-0.47160	-1.41073
208.004	-2.50385	-0.29542	-0.47567	-1.44080
211.985	-2.44616	-0.32378	-0.44721	-1.47554
215.983	-2.47249	-0.29801	-0.37769	-1.53289
219.982	-2.40186	-0.33305	-0.27470	-1.63623
224.002	-2.45631	-0.12269	-0.25329	-1.68775
227.985	-2.27179	-0.12102	-0.28086	-1.25819
231.984	-2.43263	0.09866	-0.26719	-1.30516
235.963	-2.23967	0.03759	-0.20159	-1.47280
239.958	-2.35424	0.15828	-0.20159	-1.41774
243.950	-2.29329	0.13351	-0.16447	-1.74210
247.985	-2.28911	0.05368	-0.19186	-1.67581
251.985	-2.30452	0.21221	-0.16372	-1.48902
256.006	-2.42765	0.43143	-0.19095	-1.42683
259.985	-2.54643	0.50854	-0.22534	-1.39671
263.985	-2.71575	0.42173	-0.28525	-1.39442
267.984	-2.63990	0.43792	-0.32627	-1.32892
272.007	-2.65728	0.47700	-0.17442	-1.39609
275.980	-2.53543	0.42353	0.12620	-1.42418
279.975	-2.47301	0.43008	0.09071	-1.59607
283.984	-2.01667	0.43044	0.03355	-1.52160
288.007	-2.07398	0.33564	-0.30054	-1.43800
291.985	-1.64233	0.46113	-0.12275	-1.38847
295.945	-1.60055	0.28481	-0.19385	-1.34155
299.984	-2.42049	-0.46205	-0.25220	-1.24245
304.007	-2.20285	-0.57213	-0.31737	-1.26676
307.986	-2.33950	-0.52677	-0.49329	-1.35691
311.987	-2.08761	-0.11453	-0.58947	-1.32420
315.987	-1.93871	-0.11056	-0.36171	-1.36788
319.987	-1.86501	0.03132	-0.39648	-1.33154
323.985	-1.83404	0.21108	-0.33355	-1.34794
327.986	-2.00081	0.30948	-0.46140	-1.49980
331.986	-1.96529	0.79935	-0.37506	-1.40473
335.982	-1.75924	0.76664	-0.42882	-1.56581
339.987	-1.98378	1.26349	-0.44681	-1.52973
343.987	-1.86811	1.30969	-0.37611	-1.50699
347.989	-1.88202	1.32167	-0.40368	-1.57925
352.007	-1.90619	0.54619	-0.35687	-1.65248
355.988	-1.87646	0.52745	-0.31312	-1.74913
359.988	-1.94883	0.43381	-0.29161	-1.73293
363.985	-1.90939	-0.08561	-0.28600	-1.72436
367.965	-1.94637	-1.19406	-0.33556	-1.60518
371.987	-1.63529	-1.01055	-0.28634	-1.75857
375.987	-1.36325	-1.14206	-0.33647	-1.80975
379.987	-1.43942	-0.89114	-0.35504	-1.77852
383.985	-1.68404	-0.59618	-0.41636	-1.73876
387.990	-1.78096	-0.47642	-0.50063	-1.70970
391.987	-1.77871	-0.16109	-0.39601	-1.91116
395.990	-1.76056	-0.18772	-0.53086	-1.89797
399.944	-1.90358	-0.07207	-0.50803	-2.00187
403.953	-1.75600	0.12555	-0.47669	-1.60543
407.990	-1.94788	0.28612	-0.39303	-1.76553
411.989	-1.82549	0.50491	-0.30942	-1.64461
416.009	-1.44098	0.01423	-0.14211	-1.67348
419.988	-1.83350	0.13071	0.36643	-1.71395
423.988	-1.96137	0.17551	0.34618	-1.33148
427.990	-1.90879	0.04935	0.53667	-1.55685
432.010	-2.11656	0.06752	0.03241	-1.37889
435.990	-2.38440	0.16148	0.02320	-1.50308
439.989	-2.09502	0.01823	-0.11888	-1.34347
443.966	-2.02577	-0.08374	0.02693	-1.46178
448.011	-2.02376	-0.00738	-0.01973	-1.42284
451.990	-2.15953	0.05865	0.02432	-1.61608
455.989	-2.16015	0.12532	-0.01568	-1.66912
459.990	-1.93251	0.50054	-0.20914	-1.73080
464.010	-1.97404	0.69533	-0.48503	-1.56855
467.989	-2.08362	0.91821	-0.24180	-1.59978
471.990	-2.03890	0.94738	-0.28989	-1.59699
475.990	-2.12788	0.80418	-0.24728	-1.71985
479.993	-2.05591	0.53834	-0.18750	-1.57724
483.986	-1.96640	0.53410	-0.14898	-1.61526
487.993	-2.02178	0.48464	-0.18740	-1.49570
491.988	-2.09742	0.41773	-0.15243	-1.61551
495.991	-2.13135	0.11055	-0.25458	-1.62704
499.990	-2.09378	-0.14986	-0.28763	-1.61832
503.991	-1.76110	-0.37745	-0.24969	-1.59514
507.990	-1.91883	0.11913	-0.23530	-1.63141
511.992	-2.00314	-0.08456	-0.40259	-1.59819
515.990	-2.21687	-0.17818	-0.20487	-1.49676
519.990	-2.12444	-0.26431	0.35844	-1.53791
523.990	-1.99394	-0.29088	0.17613	-1.49428
528.025	-1.62477	-0.30825	0.47187	-1.40328
531.990	-1.87334	-0.36310	0.25426	-1.69241
535.991	-1.54926	-0.32257	0.37194	-1.61694
539.991	-1.74861	-0.20302	0.13411	-1.59224
544.012	-1.65247	-0.20733	0.06028	-1.59406
547.946	-1.65223	-0.16858	0.14831	-1.76172
551.993	-1.68751	-0.20492	0.05986	-1.68384
555.993	-1.69609	-0.21512	0.11399	-1.86936
560.012	-1.64228	-0.23925	-0.19154	-1.93227
563.993	-1.66730	-0.29560	-0.13156	-1.86757
567.991	-1.64794	-0.27052	-0.22718	-1.85788
571.981	-1.67330	-0.30650	-0.27418	-1.75011
575.988	-1.65904	-0.21766	-0.52091	-1.77803
579.999	-1.73353	-0.17876	-0.65161	-1.80919
583.991	-1.78701	-0.17577	-0.72950	-1.79035
587.995	-1.94436	0.05931	-0.91163	-1.72153
592.010	-1.96665	-0.00864	-0.92902	-2.02641
595.989	-2.06999	0.14167	-1.05004	-1.91479
599.993	-2.40749	0.34107	-1.06309	-1.75891
603.995	-2.36366	0.47304	-1.15999	-1.65969
608.020	-2.23328	0.52311	-0.74057	-1.61309
611.949	-2.09286	1.17640	-0.44095	-2.12339
615.995	-1.89228	0.89091	-0.41750	-2.12524
619.992	-2.26145	0.53487	-1.07421	-1.93966
623.993	-2.50325	0.67505	-0.77630	-2.13026
627.994	-1.77226	-1.04389	-0.68469	-2.07345
631.994	-2.11026	-1.32194	-0.29898	-1.81189
635.994	-1.99880	-1.07782	0.49076	-1.75004
639.985	-2.20674	-0.33402	0.49436	-1.72067
643.993	-2.14810	0.00564	0.86322	-1.67158
647.996	-2.18468	0.30875	0.63680	-1.74242
651.972	-1.97798	0.02044	0.80841	-1.65835
655.950	-2.09923	0.35175	0.87609	-1.61053
659.996	-1.81595	0.23019	0.56014	-1.67460
663.995	-1.77489	0.39635	0.51242	-1.54051
667.997	-1.93579	0.31915	0.52964	-1.56581
671.995	-1.80338	0.19815	0.47217	-1.57725
675.950	-1.88467	0.28317	0.62243	-1.61815
679.996	-1.91595	0.22471	0.33963	-1.66045
683.996	-1.98680	0.25398	0.06160	-1.71768
688.005	-1.95681	0.24914	0.06971	-1.78570
691.995	-1.96809	0.27350	0.03395	-1.75549
695.987	-2.05214	0.18672	-0.03189	-1.86641
699.994	-2.06746	0.05163	-0.25746	-1.89094
703.961	-2.12461	-0.00591	-0.49016	-1.83509
707.995	-2.19603	-0.13183	-0.60513	-1.77389
711.996	-2.19098	-0.56156	-0.71397	-1.83734
715.995	-2.20934	-0.84813	-0.80317	-1.81867
719.996	-2.18639	-0.60149	-0.87642	-1.88483
723.995	-2.18191	-0.78605	-0.88880	-1.87608
727.997	-2.14691	-0.51750	-0.97886	-1.93386
731.994	-2.09566	-0.64554	-1.08897	-1.92680
735.992	-1.97803	-0.81302	-1.41673	-1.75677
739.996	-1.86709	-1.11599	-1.46241	-1.83165
743.951	-1.85889	-0.98910	-1.42387	-1.38444
747.997	-2.44782	0.33788	-1.54763	-1.48585
752.000	-1.80509	0.58094	-1.15890	-1.68764
755.997	-1.48922	0.73465	-0.20651	-1.40746
759.997	-1.40564	-0.93280	0.24617	-1.68678
763.997	-0.87930	-2.81339	-0.43090	-1.96889
767.999	-2.35494	-3.64613	-0.77933	-3.04574
771.997	-5.24912	-4.45548	-1.03069	-6.07738
775.978	-4.01779	-6.20752	-1.12519	-6.01307
779.993	-6.10477	-7.11992	-0.75893	-6.11743
783.998	-6.03702	-7.76924	-0.06455	-7.07091
788.003	-4.74824	-7.60916	-0.87213	-7.28011
792.000	-6.06711	-7.68617	-0.46912	-7.26456
795.996	-0.30652	-6.02097	-0.66863	-7.29483
799.995	-3.09703	-6.82054	1.46628	-7.03303
803.997	-2.81504	-7.65716	-0.71585	-6.93476
807.998	-3.00987	-7.67445	-0.22093	-6.66317
811.998	-1.95140	-7.88484	-0.98077	-6.52041
816.001	-1.17123	-7.78311	3.30423	-7.06385
819.961	-2.72439	-7.16209	3.36488	-6.75284
823.997	-4.15305	-4.30002	-0.56630	-6.30155
827.997	-3.31489	-6.24845	-1.00997	-6.08739
831.893	-3.00660	-5.78991	-1.05113	-6.14256
835.997	-1.09296	-6.11580	-1.19529	-6.12426
839.998	-1.17989	-5.53139	-0.88850	-6.38322
843.954	-0.88036	-5.64814	-0.67925	-6.19184
847.893	-0.84133	-5.67433	-0.59153	-6.10703
852.000	-1.04677	-6.12390	-0.90240	-6.00547
856.000	-1.00568	-5.82162	-1.57498	-5.78898
859.978	-1.22055	-5.72482	-0.88845	-6.03776
864.000	-1.56218	-5.62698	-0.75913	-6.09881
868.000	-1.29633	-5.40215	-0.65781	-6.11542
872.000	-1.44381	-5.19116	-0.53101	-6.01156
875.998	-1.42729	-5.43556	-0.57913	-5.96189
879.988	-1.38639	-5.56867	-0.52113	-6.00205
883.999	-1.67008	-5.94611	-0.63732	-5.91625
888.001	-1.68947	-5.86805	-0.34042	-6.02928
892.001	-1.71208	-5.18537	0.66049	-5.98519
896.003	-1.94456	-4.90183	0.37680	-5.96056
900.000	-1.91402	-5.83831	0.85074	-6.05418
903.993	-2.02966	-5.58723	0.34779	-6.01684
907.999	-1.85814	-5.82237	-0.01360	-5.91351
911.896	-1.72560	-5.85459	-0.13131	-5.74555
915.999	-1.77526	-5.70346	-0.80521	-5.69005
920.000	-1.72832	-5.89423	-0.36826	-6.02941
923.997	-1.03258	-5.97745	-0.14538	-6.04472
927.896	-1.35010	-5.88602	0.25555	-5.96127
932.000	-1.31067	-5.88796	0.05929	-6.12241
936.003	-1.11288	-5.73551	-0.08388	-6.04405
939.955	-1.25706	-5.51983	0.08284	-6.16777
943.896	-1.06262	-5.55994	-0.24272	-6.11341
948.001	-0.95817	-5.30645	-0.31399	-6.03109
951.999	-1.11655	-5.70375	-0.42579	-6.10308
956.001	-1.26778	-5.39096	-0.28878	-6.16254
959.898	-1.39455	-5.51616	-0.33690	-6.14952
964.001	-1.53446	-5.33851	-0.53190	-6.09311
968.000	-1.73321	-5.06493	-0.52448	-5.95088
972.003	-1.94969	-5.13209	-0.54764	-6.01410
975.897	-2.13031	-5.06772	-0.66568	-6.02763
980.003	-2.21008	-5.12349	-0.56309	-6.05531
983.988	-2.34015	-5.28056	-0.63689	-5.93090
987.956	-2.37136	-5.33353	-0.69273	-5.88181
991.899	-2.37171	-5.56874	-0.86624	-5.67050
996.002	-2.50145	-5.78847	-0.63364	-5.61595
1000.002	-2.29418	-5.43584	-0.59523	-5.70996
1004.002	-2.27900	-5.87698	-0.45348	-5.62207
1007.899	-2.40099	-5.54229	-0.43931	-5.40479
1012.002	-2.34659	-5.20711	-0.49411	-5.33660
1016.002	-1.71952	-5.61803	-0.26982	-5.37295
1020.004	-0.93448	-5.51417	0.42902	-5.16104
1023.899	3.56007	-6.20691	3.90978	-4.99552
1028.002	1.19261	-4.87581	12.00780	-7.60561
1032.003	-0.42581	-6.67953	13.12338	-5.83388
1036.003	15.55400	-3.07332	14.12761	-4.38077
1040.002	14.47033	-1.64514	NaN	NaN
1043.958	NaN	NaN	NaN	NaN
1047.959	NaN	NaN	NaN	NaN
1052.000	NaN	NaN	NaN	NaN
1056.002	NaN	NaN	NaN	NaN
1060.003	NaN	NaN	NaN	NaN
1064.002	NaN	NaN	NaN	NaN
1067.978	NaN	NaN	NaN	NaN
1072.000	NaN	NaN	NaN	NaN
1076.001	NaN	NaN	NaN	NaN
1079.958	NaN	NaN	NaN	NaN
1084.002	NaN	NaN	NaN	NaN
1088.002	NaN	NaN	NaN	NaN
1092.004	NaN	NaN	NaN	NaN
1095.960	NaN	NaN	NaN	NaN
1100.004	NaN	NaN	NaN	NaN
1104.004	NaN	NaN	NaN	NaN
1108.000	NaN	NaN	NaN	NaN
1111.959	NaN	NaN	NaN	NaN
1116.005	NaN	NaN	20.57466	-6.84999
1120.005	NaN	NaN	22.59778	-8.90604
1124.002	23.52401	-13.39846	-19.99372	-12.07740
1128.004	-19.99372	-12.08095	-19.99372	-12.07740
1132.006	-19.99372	-12.08093	-19.99372	-12.07740
1136.005	5.72283	-12.65925	-19.99372	-12.07740
1140.006	5.78440	-13.09776	21.41168	-12.06978
1144.020	6.14182	-13.22793	18.66080	-12.27530
1147.911	6.99768	-13.00588	16.13132	-11.90161
1151.974	15.12536	-12.69850	14.61824	-10.51061
1156.004	13.22606	-12.58813	15.64508	-12.07552
1160.005	14.37403	-12.73894	15.43794	-11.71448
1163.903	13.05642	-12.63992	14.65995	-10.73026
1168.007	13.15534	-12.81985	14.64443	-10.56367
1172.005	13.10980	-12.49119	14.59821	-10.59398
1175.878	13.15080	-12.77139	15.08051	-10.94256
1179.868	13.03578	-12.67169	14.74372	-10.80998
1183.883	12.90190	-12.49861	14.76813	-10.82183
1187.880	12.64418	-12.18024	15.18266	-10.64709
1191.887	12.99639	-12.04034	14.92097	-10.49988
1196.008	13.29582	-11.91470	14.79157	-10.38697
1199.875	13.45963	-12.30219	14.63251	-10.34718
1203.882	12.91156	-11.91824	14.56902	-10.48603
1207.882	12.98725	-12.22303	14.71749	-10.50702
1212.009	12.63861	-12.41438	14.71454	-10.50909
1215.881	12.62679	-11.85002	14.61662	-10.43891
1219.882	12.89338	-11.69751	14.84902	-10.49975
1223.883	13.29979	-12.18380	14.67147	-10.41671
1228.011	13.05140	-12.14901	14.50960	-10.35173
1231.883	13.41796	-12.29798	14.66296	-10.30365
1235.888	13.28818	-12.54307	14.71412	-10.37470
1239.859	12.65451	-12.54411	14.74126	-10.41980
1243.868	12.72173	-12.22893	14.78166	-10.39401
1247.882	12.42723	-12.53069	14.81484	-10.35573
1251.882	12.34733	-12.60045	14.84814	-10.34971
1255.882	12.80277	-12.49750	14.88101	-10.32183
1259.873	13.05310	-12.32433	14.98972	-10.29627
1263.882	12.27777	-10.46072	12.15509	-8.76833
1267.882	10.18837	-10.03282	11.32617	-8.28820
1271.880	8.08285	-10.19725	6.13157	-6.75427
1275.874	7.20941	-10.27903	5.12060	-6.73862
1279.874	4.04878	-7.45525	1.80868	-6.06889
1283.872	1.04657	-8.90378	1.91137	-6.66312
1287.883	0.19933	-9.16050	0.32059	-6.49832
1291.904	-0.81258	-8.23495	-0.38693	-6.37849
1295.883	-0.78374	-8.05814	-0.43001	-6.02275
1299.884	-0.90788	-5.91305	0.96755	-6.27087
1303.884	-0.90279	-6.62837	0.41271	-6.39153
1307.904	-0.83821	-7.30056	0.59111	-6.51819
1311.885	-0.97606	-7.45975	0.53354	-6.56930
1315.885	-0.94460	-7.95579	1.11353	-6.58654
1319.883	-0.75203	-7.89708	0.83573	-6.60052
1323.903	-0.84456	-7.96408	1.19495	-6.55593
1327.884	-0.78124	-7.74085	0.77895	-6.25672
1331.883	-0.83029	-7.68671	0.88081	-6.46705
1335.884	-0.97043	-7.37408	0.92356	-6.60880
1339.905	-1.07875	-7.76865	0.98380	-6.79638
1343.903	-1.08783	-8.01599	1.00013	-6.77792
1347.882	-0.87217	-7.51578	1.35551	-6.83808
1351.885	-0.89016	-7.85685	1.04114	-6.40277
1355.874	-1.02293	-7.54527	1.06106	-6.59668
1359.892	-1.24133	-7.70300	1.11968	-6.78817
1363.840	-0.98695	-7.62415	1.40881	-6.81194
1367.878	-0.93011	-7.75343	1.41784	-6.79712
1371.875	-1.00489	-7.69515	1.22449	-7.05339
1375.887	-1.12784	-7.79337	1.05458	-6.59407
1379.881	-1.18924	-7.69010	0.85642	-6.75514
1383.885	-1.53654	-7.57290	0.66662	-6.78067
1387.909	-1.36707	-7.53061	0.79933	-6.86060
1391.890	-0.99524	-7.36374	1.09135	-6.79845
1395.884	-1.34780	-7.17059	0.99253	-6.81924
1399.888	-1.55546	-7.27374	1.18790	-6.99110
1403.890	-1.45869	-7.11902	0.95911	-6.96506
1407.847	-1.25416	-6.93909	1.14692	-6.84538
1411.886	-1.12668	-7.30509	1.22404	-6.87076
1415.887	-1.36447	-7.38454	1.09142	-6.90467
1419.907	-1.42856	-7.33748	1.18386	-7.01194
1423.885	-1.62415	-7.49981	0.91855	-6.99745
1427.888	-1.70288	-7.39213	0.62754	-6.97222
1431.887	-1.45941	-7.69759	1.08495	-6.91686
1435.905	-1.58579	-7.86812	1.16582	-6.90166
1439.886	-1.52635	-7.80059	1.20011	-6.87574
1443.885	-1.34666	-7.75757	1.10298	-6.88432
1447.888	-1.39063	-7.79886	1.14392	-6.86728
1451.909	-1.46157	-8.08878	1.15865	-6.91695
1455.887	-1.73713	-7.89633	1.05173	-7.00670
1459.887	-1.77248	-8.06842	0.97264	-6.92745
1463.888	-1.62537	-7.91635	0.99874	-6.98006
1467.907	-1.67995	-7.67061	0.93224	-7.01025
1471.886	-1.51370	-7.48618	1.10038	-7.01006
1475.889	-1.56580	-7.33573	1.12492	-7.06257
1479.887	-1.40547	-7.22888	1.04801	-7.11765
1483.910	-1.59601	-7.44465	1.19760	-7.21639
1487.843	-1.65701	-7.63576	1.22432	-7.26629
1491.883	-1.52412	-6.91453	1.05513	-7.26823
1495.886	-1.52032	-6.74131	0.97452	-7.24019
1499.904	-1.66316	-6.91417	0.99988	-7.27537
1503.888	-1.55777	-6.71833	0.90813	-7.12333
1507.888	-1.46313	-7.09447	1.01471	-7.12986
1511.889	-1.09728	-7.15325	1.03206	-7.15355
1515.877	-1.27363	-7.02901	0.91207	-7.17293
1519.887	-1.34725	-7.19786	1.07525	-7.23523
1523.888	-1.41628	-7.16266	1.08852	-7.12539
1527.889	-1.15875	-7.07399	0.89140	-7.12576
1531.906	-1.31721	-6.96511	0.64297	-7.07121
1535.890	-1.10889	-7.10515	0.74744	-7.12833
1539.889	-1.24047	-7.13968	0.74702	-7.11402
1543.917	-1.18867	-7.25355	0.75563	-7.05225
1547.846	-1.22005	-7.38476	0.85607	-7.05672
1551.885	-1.45016	-7.39752	0.97211	-7.02265
1555.891	-1.47275	-7.42316	0.83771	-7.02837
1559.889	-1.66423	-7.49905	0.88064	-7.13289
1563.889	-1.87936	-7.53510	0.77260	-7.05229
1567.889	-1.45462	-7.49192	0.80818	-7.09904
1571.871	-1.51844	-7.49574	0.94562	-7.21155
1575.888	-1.87617	-7.27779	1.09631	-7.36047
1579.908	-1.92005	-7.44352	1.25381	-7.33172
1583.890	-1.92114	-7.21780	1.47632	-7.44279
1587.890	-1.99706	-6.73627	1.59281	-7.32322
1591.890	-1.64987	-7.59223	1.34832	-7.29068
1595.892	-1.56553	-7.41401	1.58334	-7.44865
1599.888	-1.26073	-7.10262	1.61679	-7.53546
1603.889	-1.19155	-7.40908	1.68555	-7.40566
1607.893	-1.11956	-7.32430	1.72880	-7.49946
1611.846	-1.11432	-7.44401	1.68163	-7.33590
1615.887	-0.98177	-7.37709	1.71278	-7.39637
1619.890	-0.86009	-7.36531	1.53773	-7.39886
1623.891	-0.78990	-7.22610	1.69793	-7.30244
1627.883	-0.61843	-7.52312	1.67558	-7.31496
1631.889	-0.51939	-7.40691	1.69274	-7.39693
1635.892	-0.46095	-7.57090	1.72535	-7.39009
1639.892	-0.28624	-7.65110	1.76738	-7.39877
1643.884	-0.31362	-7.61283	1.86065	-7.39446
1647.893	-0.19832	-7.80726	1.69602	-7.42091
1651.891	-0.31925	-8.40329	1.66266	-7.42113
1655.869	-0.83657	-7.63794	1.74300	-7.46173
1659.893	-0.99526	-7.69295	1.73187	-7.47017
1663.892	-0.51570	-7.75911	1.70655	-7.39566
1667.892	-1.10326	-7.47382	1.63169	-7.44535
1671.893	-0.90790	-7.54633	1.64025	-7.44561
1675.848	-0.73310	-7.87261	1.58852	-7.42760
1679.891	-1.10338	-7.63227	1.47900	-7.40573
1683.891	-1.33681	-7.78816	1.48116	-7.41666
1687.891	-1.37724	-7.89927	1.48419	-7.41543
1691.890	-1.23288	-7.80452	1.50901	-7.41816
1695.882	-1.16922	-7.90395	1.61096	-7.53391
1699.881	-1.23000	-7.97567	1.63440	-7.59260
1703.890	-1.10147	-8.02992	1.68263	-7.47058
1707.881	-1.00032	-8.22226	1.53619	-7.45551
1711.892	-0.80875	-8.22841	1.64898	-7.50147
1715.893	-0.61699	-8.46328	1.63831	-7.45973
1719.892	-1.44321	-8.35000	1.70601	-7.48986
1723.893	-0.99836	-8.46486	1.80382	-7.46427
1727.892	-0.99750	-8.38268	1.70973	-7.44293
1731.894	-0.83870	-8.51131	1.64625	-7.34847
1735.893	-0.98859	-8.63901	1.61421	-7.15998
1739.894	-0.68613	-8.53445	1.69222	-7.27492
1743.891	-0.36807	-8.20515	1.96747	-7.31552
1747.895	-0.58069	-8.39587	1.77472	-7.23322
1751.895	-0.83121	-7.69860	1.73586	-7.23721
1755.883	-0.85622	-8.58796	1.67350	-7.10907
1759.893	-0.84193	-8.43328	1.35154	-7.22623
1763.895	-0.80925	-8.51016	1.59898	-7.28667
1767.894	-0.64794	-8.55707	2.26854	-7.33918
1771.892	-0.40941	-8.43085	1.58723	-7.20717
1775.899	-0.78287	-8.44779	1.70884	-7.18169
1779.875	-0.59799	-8.13559	1.57900	-7.20861
1783.849	-0.66953	-8.43937	1.16195	-7.21897
1787.895	-0.75536	-8.05072	1.66886	-7.18878
1791.894	-0.72938	-8.21863	2.08481	-7.23742
1795.853	-0.58860	-8.38564	1.56905	-7.13932
1799.894	-0.82885	-8.53984	1.44731	-7.25364
1803.895	-0.62739	-8.51195	1.28189	-7.26457
1807.894	-0.48932	-8.68545	1.31724	-7.20278
1811.894	-0.63533	-7.98372	1.89171	-7.21220
1815.896	-0.72146	-8.04357	1.73822	-7.32858
1819.893	-0.69077	-8.41475	1.68476	-7.20247
1823.889	-0.53644	-8.24556	1.34244	-7.28693
1827.895	-0.50180	-7.98271	2.48403	-7.24434
1831.896	1.19609	-8.51660	1.75446	-7.27094
1835.885	3.20597	-7.69485	3.54588	-7.12808
1839.896	6.47666	-8.23275	5.87786	-7.28145
1843.923	8.89829	-8.90783	6.54957	-7.38009
1847.896	8.59306	-10.63738	9.08578	-8.00675
1851.792	9.81850	-11.98922	10.29404	-8.08851
1855.898	11.92593	-12.30430	11.61385	-9.47912
1859.896	13.62174	-12.54896	12.45636	-9.87253
1863.874	13.52897	-12.33788	13.12477	-9.97848
1867.865	13.47550	-11.88559	13.60456	-10.12931
1871.897	13.45289	-12.04404	13.67850	-10.12230
1875.896	13.55691	-12.23984	13.87875	-10.18907
1879.898	13.65999	-12.38619	14.43838	-10.36525
1883.893	12.81719	-12.41703	14.74393	-10.98388
1887.897	12.96079	-11.95613	14.12681	-10.47290
1891.896	12.52421	-12.17151	14.76122	-10.60481
1895.901	12.18379	-11.85466	13.44439	-10.46317
1899.792	12.29173	-11.78587	13.81666	-10.42991
1903.897	12.18929	-11.72579	13.79452	-10.50242
1907.886	12.09334	-11.85139	14.26741	-10.61887
1911.897	11.93489	-11.59775	14.09037	-10.53414
1915.897	11.94246	-11.50500	14.28319	-10.58401
1919.897	11.99160	-11.42671	14.13503	-10.53189
1923.898	11.93900	-11.43367	14.38295	-10.39029
1927.897	11.86659	-11.44007	14.20509	-10.23749
1931.799	11.89345	-11.49455	14.02274	-10.24082
1935.897	11.80619	-11.43571	14.15440	-10.41116
1939.900	11.81484	-11.45019	14.13276	-10.37278
1943.926	11.66910	-11.26222	14.21850	-10.41462
1947.900	11.60296	-11.48441	14.22825	-10.34399
1951.898	11.68757	-11.27492	14.09784	-10.21741
1955.898	11.60892	-11.22938	13.78075	-9.97418
1959.899	11.70178	-11.28550	13.64938	-9.87406
1963.795	11.77096	-11.54467	13.72606	-9.99003
1967.898	11.72174	-11.36057	13.61661	-9.85327
1971.898	11.68743	-11.27778	13.69814	-10.02680
1975.898	11.55326	-11.41301	13.86172	-10.14013
1979.796	11.44339	-11.23283	13.62828	-10.08738
1983.900	11.04068	-11.13132	13.79770	-10.15918
1987.881	10.98894	-11.02871	13.75130	-10.09230
1991.897	11.00211	-11.02792	13.49178	-10.00640
1995.796	11.23334	-10.88318	13.38825	-9.83769
1999.899	11.19996	-10.86713	13.40934	-9.75512
2003.899	11.08005	-10.73510	13.36532	-9.85865
2007.898	11.17933	-10.59969	13.52186	-9.86412
2011.795	11.21536	-10.61290	13.50682	-9.68078
2015.898	11.09523	-10.62949	13.45219	-9.79413
2019.899	10.96504	-10.76637	13.44094	-9.65108
2023.901	10.93593	-10.87185	13.24652	-9.79327
2027.898	10.84571	-10.64637	13.22834	-9.61678
2031.892	10.99408	-10.71441	13.45526	-9.61457
2035.900	10.89841	-10.52735	13.40873	-9.55584
2039.900	11.05156	-10.60859	13.41833	-9.54576
2043.795	10.85298	-10.61182	13.91229	-9.57323
2047.901	10.84523	-10.63901	13.75509	-9.58883
2051.897	10.80817	-10.54101	13.90649	-9.63695
2055.901	10.74405	-10.57961	13.83194	-9.67689
2059.796	10.69041	-10.40062	13.65840	-9.65329
2063.902	10.65405	-10.29705	13.47291	-9.65536
2067.901	10.62217	-10.22969	13.36161	-9.61491
2071.878	10.79001	-10.31337	13.43115	-9.55771
2075.902	10.94976	-10.12243	13.37223	-9.52159
2079.902	10.94775	-10.24296	13.07617	-9.51270
2083.901	10.83194	-10.28368	12.93424	-9.50790
2087.901	10.85298	-10.16689	13.19336	-9.53641
2091.797	10.81573	-10.11941	13.10059	-9.51778
2095.906	10.74812	-10.10150	13.07893	-9.43809
2099.911	10.69913	-10.06675	13.00655	-9.39417
2103.901	10.70011	-9.99811	12.98468	-9.34654
2107.796	10.59030	-9.99171	12.97146	-9.32577
2111.889	10.53238	-9.87390	13.08338	-9.33961
2115.903	10.44585	-9.80726	13.07921	-9.35866
2119.902	10.38745	-9.72703	13.00163	-9.30919
2123.799	10.22606	-9.54478	13.07354	-9.29826
2127.902	10.12053	-9.37591	13.06362	-9.22213
2131.902	10.07793	-9.29924	12.97830	-9.12774
2135.903	10.00372	-9.25612	12.93045	-9.00706
2139.798	9.81241	-9.09477	12.72889	-8.89110
2143.879	9.94012	-8.79482	12.55212	-8.75553
2147.906	9.92492	-8.82761	12.15045	-8.67853
2151.899	9.86702	-8.87701	12.24187	-8.74458
2155.800	9.78850	-8.70491	12.54561	-8.90081
2159.903	9.78144	-8.70376	12.28875	-8.67936
2163.906	9.67480	-8.72394	12.67537	-8.76876
2167.904	9.59935	-8.73455	12.63076	-8.75165
2171.797	9.56122	-8.77183	12.62639	-8.83243
2175.901	9.61255	-8.84947	12.71894	-8.97031
2179.901	9.51742	-9.02064	12.64865	-8.92981
2183.904	9.60268	-9.36972	12.73850	-9.04742
2187.799	9.54667	-10.05198	12.68716	-9.10640
2191.904	9.53057	-9.29202	12.79517	-9.17510
2195.783	9.61455	-9.82760	12.93507	-9.27503
2199.771	9.82961	-9.30275	12.95958	-9.33186
2203.769	10.16584	-9.56530	13.10019	-9.50963
2207.780	10.11613	-9.42768	13.10892	-9.47902
2211.778	10.28104	-9.79483	13.07066	-9.48329
2215.778	10.03570	-9.59041	13.06405	-9.37221
2219.774	9.94676	-9.62539	12.98935	-9.29504
2223.779	10.03296	-9.67038	13.10410	-9.31190
2227.779	9.99344	-9.68871	13.07019	-9.28174
2231.778	10.05341	-9.60212	13.05828	-9.28713
2235.769	10.27004	-9.71943	13.03081	-9.27057
2239.735	10.50937	-9.73930	12.97629	-9.16820
2243.748	10.59188	-9.84232	12.96444	-9.20087
2247.736	10.67895	-9.91965	12.88249	-9.24167
2251.776	10.79150	-9.86841	12.89249	-9.39543
2255.780	10.73615	-9.74362	12.82479	-9.33569
2259.780	10.00574	-9.92366	12.85454	-9.43634
2263.779	10.76048	-10.02094	12.89562	-9.46082
2267.906	10.86373	-9.91056	12.85893	-9.56775
2271.779	10.60447	-10.11965	12.82328	-9.50213
2275.780	10.80812	-10.20354	12.77683	-9.43300
2279.782	10.93844	-10.21421	12.77787	-9.37836
2283.769	10.87481	-10.12968	12.68449	-9.37991
2287.783	10.86469	-9.88812	12.85036	-9.73802
2291.781	10.84307	-9.72206	12.81172	-9.73209
2295.780	10.72486	-10.01457	12.78918	-9.62140
2299.771	10.56589	-9.92564	12.87711	-9.72111
2303.778	10.64087	-10.22962	12.86027	-9.60969
2307.782	10.73076	-10.55821	12.87331	-9.50949
2311.781	10.56692	-10.72602	12.69082	-9.27605
2315.778	10.63840	-10.33374	12.94695	-9.44494
2319.783	10.64556	-10.00072	13.12929	-9.48948
2323.782	10.57121	-9.67380	13.03404	-9.59097
2327.743	10.66153	-9.48107	12.79574	-9.56582
2331.800	10.72987	-9.26002	12.54100	-9.59273
2335.781	10.69786	-9.34745	12.67019	-9.67564
2339.781	10.60474	-9.97997	12.91550	-9.77395
2343.792	10.63279	-10.74147	12.91831	-9.82998
2347.771	10.61704	-10.88239	12.89640	-9.79073
2351.783	10.63269	-10.69965	13.07078	-9.93176
2355.780	10.53955	-10.07048	13.25054	-9.94586
2359.780	10.41287	-9.53021	13.41843	-9.96158
2363.757	10.31225	-9.45892	13.24329	-9.84845
2367.760	10.22344	-9.12803	13.47331	-9.91046
2371.783	10.40961	-9.40145	13.64241	-9.88646
2375.782	10.76446	-9.61536	13.32367	-10.00890
2379.772	10.97973	-9.77770	13.24875	-9.92941
2383.782	10.83551	-9.71638	13.26857	-9.89547
2387.783	10.26713	-9.66846	13.41075	-9.95218
2391.782	10.51710	-10.12777	13.20195	-9.95691
2395.780	10.26415	-9.88635	13.06263	-9.90220
2399.781	9.90436	-10.04053	13.30313	-9.96587
2403.786	9.91741	-9.81413	13.28185	-9.94906
2407.773	9.94566	-9.80895	13.36612	-9.96682
2411.774	9.74412	-9.50898	13.31784	-9.95953
2415.784	9.98355	-9.20070	13.20661	-9.94301
2419.782	10.18567	-9.90294	13.27506	-9.86780
2423.784	10.36329	-9.76710	13.25162	-9.80970
2427.738	10.37292	-9.56371	13.19404	-9.64080
2431.783	10.58670	-9.71699	13.21592	-9.74542
2435.783	10.64647	-9.66615	13.22796	-9.80862
2439.782	10.84990	-9.82912	13.09614	-9.60004
2443.813	9.72506	-9.26116	12.84970	-9.43560
2447.784	9.92447	-8.38788	9.76044	-7.30360
2451.753	7.94657	-5.92636	8.99833	-6.33345
2455.782	5.46910	-2.99878	6.29457	-4.88882
2459.775	3.29033	-0.19043	4.05105	-2.32591
2463.784	1.77469	0.47177	1.93765	-1.54759
2467.784	-0.43688	3.29633	-0.01469	-1.46531
2471.785	-2.13547	3.62273	-1.56675	-0.33012
2475.774	-2.72630	4.59273	-2.43080	1.74709
2479.785	-2.92280	4.82551	-3.33928	4.88458
2483.785	-3.44950	5.10296	-3.66330	3.79181
2487.786	-3.75699	5.01691	-3.29669	4.19122
2491.742	-4.10182	5.07284	-3.12828	4.83990
2495.741	-4.06592	5.15030	-3.00131	4.43959
2499.785	-3.91375	5.03666	-3.06078	3.61606
2503.786	-3.93826	5.12225	-3.05541	3.37244
2507.781	-3.94732	5.03729	-3.14949	3.42782
2511.788	-3.88157	5.10437	-3.16537	3.23440
2515.786	-3.60514	5.20600	-3.64481	4.28693
2519.787	-3.18141	5.27140	-3.57973	3.21419
2523.814	-3.38127	5.41687	-2.73749	3.36451
2527.787	-3.49376	5.35354	-2.91156	4.16850
2531.787	-3.53592	5.31654	-2.90277	3.94654
2535.749	-3.75422	5.46695	-3.14169	3.95242
2539.779	-3.69412	5.43483	-2.92307	3.34466
2543.785	-3.64041	5.46197	-2.72974	3.44214
2547.745	-3.79613	5.53692	-2.90223	3.88704
2551.781	-3.37710	5.49607	-3.17618	4.28218
2555.775	-2.88992	5.58110	-2.99455	4.17755
2559.786	-3.00438	5.60484	-2.60082	4.34027
2563.786	-2.95465	5.69041	-2.74900	3.88273
2567.786	-3.39878	5.61274	-2.79872	3.46776
2571.778	-3.53891	5.57126	-2.85551	3.49704
2575.771	-3.85199	5.61545	-2.88576	3.69894
2579.789	-3.74585	5.51940	-2.85809	3.89490
2583.787	-3.77313	5.51705	-2.82920	3.63999
2587.777	-3.70759	5.43608	-3.06850	3.57940
2591.787	-3.91380	5.33418	-3.02014	3.45341
2595.788	-3.94070	4.54903	-2.94433	3.34655
2599.791	-3.92134	5.14373	-2.89143	3.22142
2603.778	-3.74466	5.32842	-2.88492	3.23727
2607.787	-3.84051	5.25182	-2.93611	3.41488
2611.745	-3.84831	4.93060	-2.92124	3.07515
2615.778	-4.36375	5.14603	-2.99925	3.28339
2619.778	-3.53310	5.16515	-2.85888	3.11640
2623.792	-3.70668	5.12277	-2.97742	3.19393
2627.743	-4.26938	5.48957	-2.88319	3.25236
2631.788	-3.87835	5.37972	-2.72753	3.03436
2635.808	-3.48741	5.24638	-2.73880	2.99532
2639.787	-4.39476	5.25853	-2.89220	3.64051
2643.787	-3.89323	5.31993	-6.59060	3.90628
2647.789	-5.69770	4.44254	-6.99900	3.28403
2651.783	-7.86013	4.98328	-10.86337	9.40713
2655.787	-8.78222	8.33455	-10.74156	11.08945
2659.788	NaN	NaN	NaN	NaN
2663.785	NaN	NaN	NaN	NaN
2667.789	NaN	NaN	NaN	NaN
2671.784	NaN	NaN	NaN	NaN
2675.790	NaN	NaN	NaN	NaN
2679.790	NaN	NaN	NaN	NaN
2683.789	NaN	NaN	NaN	NaN
2687.790	NaN	NaN	NaN	NaN
2691.788	NaN	NaN	NaN	NaN
2695.746	-16.73363	-8.60162	NaN	NaN
2699.775	-20.43919	0.25324	NaN	NaN
2703.790	-19.29578	-2.12403	NaN	NaN
2707.792	-17.02971	-1.98648	-19.91924	4.03310
2711.790	-17.31203	-2.64189	-19.78948	-6.57852
2715.791	-18.97259	-3.27600	-20.09817	-6.53971
2719.790	-8.75000	-4.35582	-19.99756	-4.64611
2723.780	-15.49041	-4.57144	-19.89153	-7.83055
2727.790	-15.87380	-5.16820	-19.30168	-8.05369
2731.792	-14.91761	-5.11340	-15.43794	-8.16887
2735.791	-14.47736	-5.75295	-14.16219	-8.23045
2739.790	-14.47508	-7.51994	-13.79335	-8.35744
2743.756	-14.56718	-7.19894	-13.60332	-8.79259
2747.791	-14.83933	-7.61995	-13.40971	-8.68759
2751.789	-14.70785	-7.43326	-13.29243	-8.71392
2755.792	-14.57246	-7.40337	-13.09951	-8.62024
2759.790	-14.53677	-7.30307	-13.09795	-8.75626
2763.792	-14.53337	-7.54572	-13.03805	-8.94410
2767.791	-14.33082	-7.67754	-12.99621	-9.04593
2771.788	-14.29969	-7.56409	-12.90932	-9.16250
2775.790	-14.17864	-7.62456	-12.88902	-9.23548
2779.795	-13.87653	-7.66035	-12.83180	-9.16668
2783.769	-13.89164	-7.67658	-12.83831	-9.20448
2787.781	-14.10478	-7.68434	-12.83154	-9.09026
2791.791	-13.94490	-7.64288	-12.80660	-8.85132
2795.795	-13.92468	-7.68445	-12.77063	-9.02154
2799.797	-13.92169	-7.68104	-12.74820	-9.04703
2803.781	-13.94808	-7.81102	-12.76227	-8.96048
2807.793	-13.88885	-7.96145	-12.71625	-8.81888
2811.794	-13.90595	-7.97873	-12.67246	-8.68423
2815.792	-13.94362	-8.14592	-12.65342	-8.67783
2819.781	-13.98639	-8.09599	-12.65278	-8.57824
2823.783	-13.98407	-8.19972	-12.68236	-8.48783
2827.784	-14.00751	-8.00228	-12.59994	-8.41505
2831.792	-13.85435	-7.98916	-12.56498	-8.19894
2835.790	-13.85512	-7.93947	-12.50075	-8.25167
2839.793	-13.83451	-7.87298	-12.38474	-8.16700
2843.793	-13.79693	-7.90495	-12.35450	-8.03927
2847.791	-13.85863	-7.85172	-12.30253	-8.09418
2851.791	-13.71938	-7.67277	-12.28315	-8.02193
2855.793	-13.69734	-7.69366	-12.33214	-7.95653
2859.795	-13.66283	-7.67118	-12.23879	-7.94545
2863.748	-13.65877	-8.17003	-12.30893	-7.86550
2867.689	-13.61176	-7.95453	-12.19877	-7.64872
2871.793	-13.53491	-8.55072	-12.10153	-7.68702
2875.794	-13.62430	-8.17256	-12.08596	-7.67742
2879.794	-13.64663	-8.69155	-12.14124	-7.60771
2883.785	-13.60854	-8.60578	-12.16671	-7.49580
2887.793	-13.56280	-8.01800	-12.16015	-7.58193
2891.794	-13.44496	-8.02935	-12.15097	-7.55540
2895.794	-13.36380	-8.47076	-12.03695	-7.54999
2899.795	-13.43834	-8.43557	-12.00578	-7.52193
2903.795	-13.54260	-8.49119	-11.81482	-7.09306
2907.780	-13.73472	-8.74501	-11.83569	-7.26555
2911.793	-13.73526	-11.34813	-11.99046	-7.85715
2915.691	-13.52571	-11.99171	-11.97479	-8.73655
2919.797	-19.99372	-11.85117	-11.60080	-9.35912
2923.793	-19.99372	-11.92197	-10.59953	-9.62635
2927.797	-19.99372	-11.95972	-10.42190	-10.36338
2931.691	-19.99372	-11.98334	-10.38430	-10.92088
2935.796	-19.99372	-11.99963	-10.51352	-10.81489
2939.796	-19.99372	-12.01158	-10.26694	-10.74909
2943.796	-19.99372	-12.02081	-10.10030	-10.64181
2947.797	-19.99372	-12.02816	-9.95745	-10.66046
2951.769	-19.99372	-12.03419	-9.93234	-10.65958
2955.795	-19.99372	-12.06152	-9.97211	-10.75640
2959.795	NaN	NaN	-9.97635	-10.80158
2963.692	NaN	NaN	-9.94773	-10.85236
2967.795	NaN	NaN	-9.89350	-10.86830
2971.794	NaN	NaN	-9.84096	-10.86388
2975.796	NaN	NaN	-9.86514	-10.82524
2979.797	NaN	NaN	-9.78462	-10.75071
2983.795	NaN	NaN	-9.75731	-10.73562
2987.751	NaN	NaN	-9.83016	-10.74308
2991.772	NaN	NaN	-9.88408	-10.73784
2995.666	NaN	NaN	-9.98555	-10.76114
2999.795	NaN	NaN	-9.94166	-10.73883
3003.798	NaN	NaN	-10.00370	-10.69091
3007.797	NaN	NaN	-9.95136	-10.57473
3011.695	NaN	NaN	-10.21870	-10.50212
3015.797	NaN	NaN	-10.09229	-10.56334
3019.797	NaN	NaN	-9.98268	-10.58143
3023.797	NaN	NaN	-9.96251	-10.59876
3027.694	NaN	NaN	-10.11750	-10.58645
3031.790	NaN	NaN	-10.07408	-10.57830
3035.786	NaN	NaN	-10.27472	-10.61810
3039.797	NaN	NaN	-10.20543	-10.62375
3043.697	NaN	NaN	-10.36423	-10.64556
3047.757	NaN	NaN	-10.31732	-10.68615
3051.798	NaN	NaN	-10.36519	-10.74577
3055.799	NaN	NaN	-10.52859	-10.77937
3059.690	NaN	NaN	-10.47009	-10.78947
3063.799	NaN	NaN	-10.58224	-10.81341
3067.798	NaN	NaN	-10.45879	-10.81068
3071.797	NaN	NaN	-10.43990	-10.83124
3075.692	NaN	NaN	-10.62073	-10.84733
3079.796	NaN	NaN	-10.38634	-10.88270
3083.796	NaN	NaN	-10.26429	-10.89716
3087.797	NaN	NaN	-10.32577	-10.92325
3091.694	NaN	NaN	-10.35111	-10.95354
3095.799	NaN	NaN	-10.18817	-10.99761
3099.798	NaN	NaN	-10.17411	-10.93503
3103.798	NaN	NaN	-10.13287	-10.98092
3107.695	NaN	NaN	-10.06119	-10.95965
3111.798	NaN	NaN	-9.98273	-10.99526
3115.780	NaN	NaN	-9.72214	-10.98275
3119.800	NaN	NaN	-9.90354	-11.01343
3123.647	NaN	NaN	-9.47768	-10.99554
3127.799	NaN	NaN	-9.67394	-10.99730
3131.800	NaN	NaN	-9.56607	-10.96098
3135.799	NaN	NaN	-9.83968	-10.95660
3139.696	NaN	NaN	-9.74523	-10.90574
3143.797	NaN	NaN	-9.92497	-10.92157
3147.801	NaN	NaN	-10.07973	-10.92161
3151.801	NaN	NaN	-9.97736	-10.94480
3155.698	NaN	NaN	-10.15261	-10.95364
3159.801	NaN	NaN	-10.28239	-10.99221
3163.797	NaN	NaN	-10.27953	-11.00913
3167.802	NaN	NaN	-10.34463	-11.03056
3171.696	NaN	NaN	-10.17961	-11.06284
3175.796	NaN	NaN	-10.08342	-11.09694
3179.797	NaN	NaN	-10.09039	-11.11642
3183.802	NaN	NaN	-10.11781	-11.15942
3187.698	NaN	NaN	-9.91124	-11.20107
3191.803	NaN	NaN	-10.13289	-11.22468
3195.801	NaN	NaN	-9.95916	-11.24360
3199.777	NaN	NaN	-10.12659	-11.24575
3203.691	NaN	NaN	-10.14225	-11.23589
3207.801	NaN	NaN	-10.14307	-11.22979
3211.801	NaN	NaN	-10.02302	-11.21581
3215.800	NaN	NaN	-10.13323	-11.18444
3219.697	NaN	NaN	-10.15634	-11.16139
3223.803	NaN	NaN	-10.14788	-11.11203
3227.676	NaN	NaN	-10.25521	-11.08875
3231.676	NaN	NaN	-10.21805	-11.05357
3235.667	NaN	NaN	-10.23255	-11.01240
3239.679	NaN	NaN	-10.30161	-10.99293
3243.632	NaN	NaN	-10.21106	-10.97601
3247.679	NaN	NaN	-10.09823	-10.97358
3251.670	NaN	NaN	-9.82624	-10.85398
3255.677	-9.20630	-12.72221	-9.11861	-10.68732
3259.677	-8.34101	-12.37300	-6.55248	-9.22479
3263.679	-5.42407	-8.72798	-4.83168	-8.62407
3267.674	-3.84999	-8.69205	-3.27400	-7.97979
3271.678	-1.55137	-7.51013	-1.76909	-6.74060
3275.677	-1.32255	-7.06871	1.41913	-6.25286
3279.687	1.82274	-5.43576	1.75183	-5.83544
3283.670	3.15971	-4.98048	3.45930	-5.25687
3287.659	3.74661	-4.40512	4.35541	-3.74837
3291.674	5.40626	-2.59380	5.01359	-3.41202
3295.637	6.37329	-2.97091	5.97288	-3.81208
3299.668	6.51888	-2.67821	6.15490	-3.61678
3303.682	6.56218	-2.43404	6.80991	-3.34382
3307.678	6.54967	-2.19663	6.92860	-2.98984
3311.679	6.50545	-2.20521	6.58095	-3.03901
3315.668	6.54619	-2.16401	6.75267	-2.78325
3319.679	6.73407	-2.28897	6.64104	-2.54806
3323.679	6.68638	-2.28806	6.99744	-2.62336
3327.677	6.70281	-2.28964	7.16134	-2.95550
3331.668	6.89544	-2.47507	6.99455	-2.84337
3335.679	6.76772	-2.67294	7.36401	-2.58984
3339.678	6.77007	-2.71808	7.52220	-2.56819
3343.695	6.72364	-2.62826	7.70178	-2.56089
3347.670	6.66193	-2.22142	7.76835	-2.45632
3351.679	6.23871	-2.28619	7.94182	-2.35764
3355.679	6.21159	-2.41107	8.11982	-2.18532
3359.682	5.92778	-2.68363	7.92020	-2.63516
3363.670	5.98808	-2.79644	7.90358	-3.28054
3367.647	6.27322	-3.03550	7.95967	-4.03591
3371.657	6.04210	-3.08469	7.79003	-3.46316
3375.681	6.08880	-3.12074	7.68900	-3.43398
3379.668	6.11346	-3.15161	7.54635	-3.36575
3383.680	5.78679	-2.91664	7.92471	-3.62472
3387.680	5.78792	-3.01629	7.52544	-3.38622
3391.679	5.64958	-3.00738	7.28976	-3.09670
3395.671	5.78887	-2.89646	7.19889	-3.12876
3399.681	5.63147	-2.69246	7.18176	-3.45838
3403.684	5.78187	-2.61669	7.20726	-3.44195
3407.680	5.88567	-2.55841	7.12872	-3.27712
3411.636	5.94791	-2.58074	7.14599	-3.21147
3415.672	6.01223	-2.57560	7.14064	-3.10603
3419.680	6.24953	-2.56714	7.44008	-3.14408
3423.679	5.89714	-2.56667	7.39791	-3.19555
3427.679	6.03191	-2.91022	7.35073	-3.31439
3431.681	5.81724	-2.81952	7.33252	-3.66932
3435.681	5.74790	-2.57729	7.55376	-4.19477
3439.681	5.83704	-2.52708	7.07244	-3.47313
3443.641	5.67012	-2.25293	7.02509	-3.39170
3447.685	5.65078	-2.13471	7.16442	-3.21370
3451.684	5.77458	-2.03393	6.92772	-3.17081
3455.683	5.85814	-1.95040	6.79391	-3.18884
3459.676	5.86165	-1.93335	6.99538	-3.28330
3463.681	6.05626	-1.92862	6.87191	-3.31865
3467.681	6.06107	-1.70043	6.68607	-3.10995
3471.683	5.98859	-2.03640	6.84458	-3.05833
3475.671	6.26807	-2.16055	7.00807	-3.10763
3479.683	6.11398	-2.26596	6.97350	-3.12050
3483.681	6.24604	-2.21463	7.36235	-3.13596
3487.676	6.36462	-2.62749	7.47146	-3.14599
3491.638	6.36388	-2.56236	7.71632	-3.20540
3495.661	6.34684	-2.59623	6.16508	-3.11387
3499.678	6.41182	-2.68395	6.13795	-3.13110
3503.687	6.44204	-2.86204	6.33821	-3.14554
3507.679	6.14133	-2.52436	6.54612	-3.13318
3511.681	5.88650	-2.44477	7.10294	-3.14388
3515.682	5.63594	-2.43908	6.73967	-3.22118
3519.682	5.51553	-2.20127	6.46686	-3.26280
3523.706	5.42196	-2.02964	6.63972	-3.30989
3527.683	5.66477	-2.11394	6.53982	-3.19310
3531.685	5.48418	-2.23408	6.57228	-3.16653
3535.683	5.43593	-2.19617	6.72000	-3.19491
3539.673	5.48381	-2.07225	6.71946	-3.23425
3543.704	5.51484	-2.06643	6.65779	-3.23456
3547.642	5.50358	-1.98893	6.65691	-3.19975
3551.685	5.47579	-1.96468	6.56858	-3.04024
3555.703	5.48182	-2.03381	6.68896	-3.20616
3559.684	5.57446	-1.93847	6.56772	-3.04726
3563.685	5.83677	-1.60228	6.87614	-1.38293
3567.684	9.46377	0.90629	7.72468	-2.64406
3571.682	9.52306	1.66376	9.30515	0.38793
3575.686	9.99106	3.22749	9.93879	1.52539
3579.654	9.59264	5.10597	11.28252	2.44997
3583.684	10.54812	5.21902	11.62823	4.90549
3587.685	9.58531	7.18595	11.60806	6.22213
3591.683	9.59182	8.18717	11.52993	10.24605
3595.685	8.21466	9.36585	11.51101	11.20743
3599.682	10.18041	9.79949	11.39706	11.01867
3603.705	9.49518	9.97220	11.44525	11.25846
3607.688	9.50670	9.90989	11.38578	11.71945
3611.639	9.67152	9.84756	11.42217	11.58080
3615.683	9.67025	9.82698	11.43109	11.73807
3619.676	9.48958	9.91373	11.37252	11.88933
3623.673	9.19034	10.00881	11.36777	13.58543
3627.684	9.31885	10.01857	11.31815	13.83074
3631.687	9.52104	10.00498	11.30639	14.04541
3635.705	9.68816	10.01644	11.18838	13.00459
3639.685	9.71493	10.05285	11.14658	13.15178
3643.685	9.71095	10.02886	11.10737	13.35436
3647.688	9.93205	10.04736	11.08242	11.99398
3651.684	9.42815	10.00072	11.08373	12.30850
3655.688	9.59122	9.99954	10.89994	12.21614
3659.686	9.42069	9.98818	10.71058	11.79274
3663.651	9.68737	10.04259	10.63581	11.14119
3667.681	9.80262	10.04601	10.70097	11.33730
3671.686	9.80640	10.03048	10.69771	11.48495
3675.643	9.77033	9.89427	10.74606	11.16897
3679.688	9.92521	9.79541	10.87077	11.30376
3683.685	9.69272	9.66652	11.05412	11.45986
3687.687	9.87847	9.68106	11.05997	11.59759
3691.686	9.65720	9.84892	11.17264	11.72952
3695.687	9.79397	10.02321	10.94770	11.87229
3699.677	9.89841	10.06653	11.05199	11.95526
3703.668	9.62468	9.92190	10.66733	12.30657
3707.688	9.52280	10.00160	10.97334	12.67624
3711.687	9.48046	9.87143	11.07613	12.71823
3715.688	9.66902	9.74157	11.11482	12.74330
3719.685	9.75907	9.79349	11.34385	13.27271
3723.688	9.71707	9.65076	11.31956	13.45404
3727.688	10.55155	9.34892	11.32061	12.63886
3731.684	10.11101	9.38512	11.39282	12.72869
3735.688	9.68045	9.78133	10.58821	12.75934
3739.691	9.51539	9.28615	10.62905	13.07392
3743.686	9.98278	9.54135	10.85571	12.86878
3747.686	9.89482	9.44938	10.97454	12.70584
3751.645	9.93287	9.49170	11.18924	12.43107
3755.689	10.04191	10.62237	10.96684	11.92683
3759.689	9.62439	12.84129	11.99794	13.57192
3763.691	10.54308	10.88346	12.12938	13.38652
3767.689	NaN	NaN	12.14063	14.00036
3771.689	NaN	NaN	NaN	NaN
3775.689	NaN	NaN	NaN	NaN
3779.681	NaN	NaN	NaN	NaN
3783.689	NaN	NaN	NaN	NaN
3787.662	NaN	NaN	NaN	NaN
3791.688	NaN	NaN	NaN	NaN
3795.648	NaN	NaN	NaN	NaN
3799.686	NaN	NaN	NaN	NaN
3803.643	NaN	NaN	NaN	NaN
3807.691	NaN	NaN	NaN	NaN
3811.644	NaN	NaN	NaN	NaN
3815.688	NaN	NaN	NaN	NaN
3819.688	NaN	NaN	NaN	NaN
3823.689	NaN	NaN	NaN	NaN
3827.647	NaN	NaN	NaN	NaN
3831.680	NaN	NaN	NaN	NaN
3835.692	NaN	NaN	NaN	NaN
3839.690	NaN	NaN	NaN	NaN
3843.689	NaN	NaN	-3.25157	9.11914
3847.691	-3.22698	11.00074	6.51434	-1.17771
3851.689	-0.40172	8.03740	NaN	NaN
3855.690	0.65446	0.56852	3.58158	-4.09563
3859.690	1.65934	-2.50456	-1.61800	-1.57374
3863.647	3.47047	-3.71564	-1.38905	-1.81958
3867.692	-2.94218	-3.07156	-1.47707	-2.33599
3871.656	-0.66965	-2.65970	-1.27879	-3.31873
3875.683	-0.99856	-2.94536	-1.13608	-2.98589
3879.686	-1.14776	-3.07952	-1.04029	-3.66835
3883.688	-1.47806	-3.08771	-0.99415	-4.50748
3887.691	-1.29176	-3.12020	-0.99132	-4.43033
3891.648	-1.41757	-3.14644	-0.78878	-4.49234
3895.692	-1.42129	-3.15360	-0.74682	-4.48001
3899.692	-1.42347	-3.17524	-0.69206	-4.47399
3903.692	-1.34909	-3.26191	-0.54419	-4.28533
3907.696	-1.41754	-3.29086	-0.41633	-4.38886
3911.671	-1.35487	-3.37127	-0.24557	-4.49682
3915.689	-1.40321	-3.38679	-0.14752	-4.49547
3919.703	-1.36300	-3.56582	-0.55118	-4.19162
3923.691	-1.33103	-3.88486	-0.46743	-4.20969
3927.693	-1.30325	-3.93377	-0.55528	-3.93539
3931.693	-1.31922	-3.84232	-0.35717	-3.94687
3935.692	-1.34837	-3.67380	-0.26840	-3.86187
3939.692	-1.29878	-3.66346	-0.12275	-3.79481
3943.717	-1.25850	-3.79520	0.03566	-3.74296
3947.694	-1.29087	-3.87103	0.07890	-3.73066
3951.690	-1.28279	-4.02154	0.21561	-3.73160
3955.682	-1.67330	-3.93377	0.00516	-3.71619
3959.692	-1.63236	-3.95625	0.17690	-3.68984
3963.693	-1.67923	-3.86612	0.08982	-3.74034
3967.693	-1.76019	-3.81425	0.16675	-3.80191
3971.592	-1.72064	-3.76950	0.28900	-3.85298
3975.692	-1.71759	-3.65266	0.12486	-3.88802
3979.695	-1.54658	-3.75852	-0.02504	-3.89125
3983.693	-1.46571	-3.83454	-0.11880	-3.89681
3987.592	-1.39202	-3.82111	-0.23604	-3.85859
3991.696	-1.41893	-3.88375	-0.09376	-3.82146
3995.670	-1.19827	-3.77228	-0.12213	-3.40649
3999.692	-1.10837	-3.55263	-0.05356	-2.96875
4003.592	-1.21194	-3.54794	-0.27277	-3.60434
4007.698	-1.04446	-3.71698	-0.34886	-3.65072
4011.695	-1.07237	-4.78471	-0.43266	-4.34584
4015.695	-1.09532	-5.25153	-0.40914	-5.09107
4019.589	-1.09599	-6.04468	-0.27766	-5.46013
4023.697	-1.11963	-6.88448	0.02420	-5.81257
4027.695	-1.24181	-7.12892	0.38745	-5.80282
4031.694	-1.30325	-7.13958	0.46013	-5.74037
4035.589	-1.18232	-6.95633	0.24902	-5.52474
4039.683	-1.09634	-6.89685	0.54706	-5.60469
4043.715	-1.11752	-7.05938	0.65484	-5.51220
4047.696	-1.11405	-7.16157	0.35998	-5.75215
4051.591	-1.10487	-7.07710	0.47813	-5.83254
4055.692	-1.31523	-6.99033	0.59004	-5.90828
4059.696	-1.32302	-7.09973	0.59652	-5.98546
4063.695	-1.25818	-7.14117	0.68722	-6.10365
4067.696	-1.16925	-7.01161	0.57503	-6.30193
4071.698	-1.21464	-6.16638	0.51865	-6.51091
4075.696	-1.18101	-5.65457	0.57089	-6.61155
4079.696	-1.14680	-6.22804	0.61059	-6.72066
4083.695	-1.29167	-6.71523	0.69201	-6.78777
4087.696	-1.26299	-6.75632	0.55580	-6.60750
4091.696	-1.26440	-6.71381	0.37367	-6.43320
4095.696	-1.43669	-6.22402	0.00826	-6.37225
4099.697	-1.38376	-6.26724	0.45199	-6.30741
4103.696	-1.25515	-6.18468	0.50572	-6.51056
4107.699	-1.14843	-6.44054	0.44500	-6.54027
4111.655	-1.35866	-6.04608	0.32193	-6.43348
4115.696	-1.50487	-5.59006	0.45994	-6.61990
4119.696	-1.35278	-6.09124	0.46147	-6.73911
4123.694	-1.29184	-5.99130	0.38896	-6.47524
4127.699	-1.15922	-6.09319	0.37459	-6.51874
4131.592	-1.47449	-5.73463	0.31133	-6.34325
4135.697	-1.64427	-6.13324	0.62719	-6.46664
4139.696	-1.55690	-5.88822	0.46805	-6.44443
4143.722	-1.55670	-6.00307	0.38708	-6.45733
4147.594	-1.40765	-5.67232	0.69159	-6.46548
4151.699	-1.54904	-5.70841	0.38100	-6.37783
4155.699	-1.48277	-5.98062	0.58171	-6.50035
4159.693	-1.50867	-5.68951	0.71109	-6.56152
4163.597	-1.37344	-6.05540	0.72131	-6.39840
4167.696	-1.51839	-6.21918	0.34491	-6.28478
4171.656	-1.84870	-6.01011	1.03240	-6.32801
4175.701	-1.58475	-5.92220	0.80645	-6.30232
4179.698	-1.49440	-5.88342	0.26500	-6.25556
4183.698	-1.50043	-5.59068	0.53046	-6.38533
4187.698	-1.48969	-5.69578	0.61501	-6.33282
4191.698	-1.55725	-6.06530	0.50163	-6.37351
4195.594	-1.45909	-5.62735	0.57056	-6.35763
4199.699	-1.52543	-5.41686	0.52242	-6.37371
4203.669	-1.65034	-5.73900	0.42331	-6.26339
4207.705	-1.51568	-6.06377	0.50356	-6.36857
4211.594	-1.55345	-5.67557	0.75168	-6.36420
4215.699	-1.57932	-5.54668	0.57525	-6.37149
4219.699	-1.62309	-5.69404	0.53669	-6.36216
4223.699	-1.57431	-5.66186	0.56434	-6.32529
4227.597	-1.48664	-5.72237	0.73613	-6.36435
4231.698	-1.66415	-5.87326	0.63853	-6.31318
4235.703	-1.29350	-5.86460	0.42944	-6.29422
4239.700	-1.44465	-6.03389	0.61464	-6.30302
4243.597	-1.75042	-5.96038	0.99941	-6.22119
4247.686	-1.50993	-5.99107	0.41350	-6.25335
4251.539	-1.51506	-5.96098	0.70603	-6.18927
4255.575	-1.46834	-6.03951	1.40445	-6.17196
4259.571	-1.44877	-6.00556	0.42261	-6.17154
4263.575	-1.57426	-6.02103	1.27381	-6.23072
4267.575	-1.75701	-5.98717	0.24058	-6.20918
4271.575	-1.62091	-6.13081	0.79414	-6.27931
4275.571	-1.83023	-6.01235	0.37010	-6.17728
4279.575	-1.64955	-6.04675	0.86123	-6.15665
4283.574	-1.83947	-5.83791	0.60156	-6.24909
4287.577	-1.84577	-5.58198	0.31116	-6.16941
4291.566	-1.88772	-5.66636	0.79928	-6.06907
4295.534	-1.61272	-5.70962	0.61501	-6.09698
4299.575	-2.20741	-5.23514	0.67419	-5.78138
4303.577	-1.69212	-5.34389	0.66977	-5.91926
4307.596	-1.39547	-5.18198	0.67146	-5.91422
4311.576	-1.09773	-5.32629	0.69461	-5.68776
4315.578	-1.96496	-5.06880	0.67722	-5.62560
4319.575	-1.12722	-5.08896	2.61303	-5.49614
4323.566	-0.77593	-4.97086	-3.98904	-5.38958
4327.580	-1.02863	-4.89988	-2.33470	-6.39842
4331.577	0.62042	-5.45455	NaN	NaN
4335.578	2.76170	-2.20102	NaN	NaN
4339.577	-4.56639	12.75151	NaN	NaN
4343.549	NaN	NaN	NaN	NaN
4347.577	NaN	NaN	NaN	NaN
4351.578	NaN	NaN	NaN	NaN
4355.575	NaN	NaN	NaN	NaN
4359.575	NaN	NaN	NaN	NaN
4363.567	NaN	NaN	NaN	NaN
4368.381	NaN	NaN	NaN	NaN
4371.580	NaN	NaN	NaN	NaN
4375.578	NaN	NaN	NaN	NaN
4379.575	NaN	NaN	NaN	NaN
4383.531	NaN	NaN	NaN	NaN
4387.577	NaN	NaN	NaN	NaN
4391.578	NaN	NaN	NaN	NaN
4395.578	NaN	NaN	NaN	NaN
4399.536	NaN	NaN	NaN	NaN
4403.577	NaN	NaN	NaN	NaN
4407.577	NaN	NaN	NaN	NaN
4411.580	NaN	NaN	NaN	NaN
4415.559	NaN	NaN	NaN	NaN
4419.579	NaN	NaN	NaN	NaN
4423.579	NaN	NaN	NaN	NaN
4427.578	0.75181	10.91724	-18.05292	2.14762
4431.580	NaN	NaN	-20.20467	-10.82487
4435.580	-1.12097	10.18106	-20.03290	-12.06564
4439.578	3.27556	-12.72281	-20.03259	-12.06573
4443.568	6.08392	-13.15384	-20.03207	-12.06590
4447.580	6.08208	-10.25114	4.41716	-9.04034
4451.583	-0.70809	-10.25580	18.11728	-9.62749
4455.535	-0.52959	-11.17257	3.48014	-9.76937
4459.543	0.04360	-9.87191	3.11982	-9.26686
4463.571	0.01730	-9.98121	4.23387	-8.51300
4467.579	3.57201	-7.36718	3.15822	-8.11420
4471.580	3.77906	-8.11728	4.57315	-7.86449
4475.579	4.44307	-8.24826	3.06152	-8.11442
4479.569	3.42497	-7.33411	4.85391	-7.78735
4483.583	3.61263	-7.87488	5.03117	-7.91135
4487.579	3.83522	-7.18219	4.80330	-7.03965
4491.580	3.56361	-7.76997	5.13333	-7.65328
4495.574	3.91422	-7.38206	5.39623	-7.87938
4499.555	3.44562	-7.35169	4.40204	-7.66072
4503.580	3.62237	-7.67701	5.67642	-7.78459
4507.579	3.55911	-7.19644	4.80285	-7.38829
4511.570	3.92408	-7.47421	5.80285	-7.58228
4515.581	3.71525	-7.29833	5.27351	-7.34133
4519.579	3.77538	-7.69494	5.46920	-7.17513
4523.580	3.62459	-7.28913	5.58724	-7.43132
4527.575	3.76408	-7.65081	5.71094	-7.38605
4531.581	3.66691	-7.41604	5.86177	-7.57047
4535.583	3.52947	-7.56204	5.64801	-7.61765
4539.573	3.59261	-7.52351	6.21350	-7.55134
4543.600	3.66780	-7.33943	5.66150	-7.78297
4547.536	3.59241	-7.49143	5.92658	-7.74915
4551.582	3.78813	-7.23917	5.80047	-7.60221
4555.582	3.39784	-7.22461	5.92776	-7.47586
4559.572	3.57639	-6.95743	5.86632	-7.97474
4563.582	3.52680	-6.88003	5.99556	-7.72450
4567.582	3.55844	-6.59019	6.02985	-7.74426
4571.582	3.32095	-7.02121	6.00801	-7.65734
4575.571	3.59871	-6.74494	5.74699	-7.92407
4579.583	3.61043	-6.70467	5.89922	-7.84755
4583.550	3.63107	-7.09792	5.97425	-7.90442
4587.578	3.57164	-7.16890	6.09996	-7.81387
4591.604	3.70396	-6.94575	5.92326	-7.89113
4595.537	3.68886	-6.73767	5.88528	-8.00722
4599.596	3.55305	-6.63283	5.83471	-7.88556
4603.582	3.51169	-6.98717	5.97013	-7.79440
4607.571	3.55070	-7.14196	5.87766	-7.59219
4611.539	3.58042	-7.07697	5.78094	-7.65005
4615.584	3.62850	-6.84392	5.78219	-7.82170
4619.584	3.58885	-6.34913	5.96412	-7.84637
4623.570	3.59871	-6.54516	5.76826	-7.71410
4627.581	3.62106	-7.12071	5.90161	-7.67957
4631.582	3.34828	-6.68090	5.89232	-7.58286
4635.582	3.48627	-6.89132	5.96907	-7.44184
4639.580	3.42586	-6.48235	6.01135	-7.54041
4643.583	3.43464	-5.72375	6.12646	-7.72932
4647.583	3.47895	-6.35331	6.16030	-7.56457
4651.583	3.56702	-6.81900	5.87003	-7.67669
4655.576	3.46785	-6.61711	5.71067	-7.61537
4659.585	3.40900	-6.75390	5.74888	-7.42872
4663.586	3.34294	-6.60922	6.09349	-7.37353
4667.583	3.41169	-6.42766	5.80071	-7.40868
4671.578	3.51058	-6.01386	6.09037	-7.63066
4675.582	3.47403	-5.81070	6.00234	-8.15578
4679.584	3.49728	-6.40793	6.00209	-8.18019
4683.583	3.59664	-6.21872	5.59359	-8.01165
4687.581	3.57466	-6.58863	5.78192	-7.90863
4691.585	3.70574	-6.37356	5.73330	-7.91655
4695.585	3.81022	-6.12893	5.55686	-8.05955
4699.584	3.53755	-6.47449	5.88486	-7.86184
4703.575	3.54638	-6.60476	5.99107	-8.02322
4707.560	3.66824	-6.14781	5.68912	-8.16353
4711.588	3.47527	-6.19178	5.70369	-8.03813
4715.585	3.23153	-6.60192	5.85782	-8.17818
4719.581	3.81983	-6.44259	5.91425	-8.11623
4723.583	3.61097	-6.36443	6.03844	-8.03336
4727.584	3.20011	-6.31802	6.00504	-8.12399
4731.584	3.41812	-6.51020	6.09302	-8.11046
4735.576	3.51364	-6.06116	5.96583	-8.09412
4739.586	3.73270	-6.61244	6.08122	-8.11366
4743.586	3.35184	-6.16062	6.15178	-8.00073
4747.585	3.76178	-6.19628	6.20121	-8.18852
4751.589	3.49389	-6.14022	6.17266	-8.12943
4755.586	3.65482	-6.11731	6.10841	-7.97639
4759.587	4.02431	-6.14303	6.16434	-7.88478
4763.586	5.16957	-6.13158	6.33731	-7.78341
4767.584	8.68407	-6.36274	6.60159	-7.83797
4771.586	11.44234	-6.35268	8.68654	-7.19889
4775.588	12.26334	-5.85626	9.80190	-6.49734
4779.586	10.78750	-6.08782	13.12872	-7.34483
4783.578	15.42781	-6.16200	13.68309	-7.39537
4787.587	16.61452	-6.35447	15.06626	-7.70991
4791.560	16.93819	-7.17349	15.60680	-7.93552
4795.546	16.20776	-6.13471	18.14860	-9.93299
4799.584	17.71155	-6.96085	17.43338	-9.34426
4803.588	16.61035	-6.52306	17.57170	-8.77554
4807.587	17.75827	-6.84731	17.47236	-8.93913
4811.591	16.50950	-7.14326	17.46376	-8.87083
4815.587	18.00661	-7.58248	17.41212	-9.12889
4819.587	16.44971	-6.74488	17.86438	-9.23054
4823.586	17.67874	-7.26207	17.68504	-9.34530
4827.588	16.19608	-6.43909	17.93243	-9.22830
4831.564	16.95772	-6.43789	17.56927	-9.53068
4835.584	16.21496	-8.13769	17.63033	-9.14883
4839.587	16.69757	-7.73010	17.50038	-9.32019
4843.587	16.99540	-7.51731	17.64895	-9.43772
4847.588	16.16145	-6.29967	17.84876	-9.58680
4851.585	16.53427	-6.63486	17.62361	-9.43511
4855.585	17.02556	-6.93066	17.54044	-9.36580
4859.588	16.37003	-8.63511	17.61279	-9.43502
4863.590	16.52948	-7.91817	17.63491	-9.30146
4867.595	16.79350	-7.55884	17.59367	-9.54844
4871.588	14.22440	-7.29147	17.45389	-9.43147
4875.551	16.14620	-6.93583	17.30672	-9.40433
4879.578	16.70415	-7.17403	17.60023	-9.39977
4883.590	16.71658	-7.34973	17.50604	-9.27242
4887.589	16.20567	-7.66165	17.42633	-9.13741
4891.588	16.66029	-7.75486	17.33171	-9.21462
4895.587	16.21334	-7.83505	17.19452	-9.03244
4899.590	16.50553	-7.88695	17.37894	-8.88998
4903.589	22.15889	-12.69383	17.34955	-8.86950
4907.590	16.13427	-7.24613	17.17526	-8.84257
4911.582	15.91227	-7.28351	17.07331	-8.66636
4915.576	16.14886	-7.29861	17.29964	-8.53583
4919.590	16.15868	-7.21267	17.29889	-8.65330
4923.588	16.43227	-7.31625	17.15079	-8.57291
4927.591	15.82547	-5.98139	17.18290	-8.54250
4931.588	16.04180	-6.83213	17.24865	-8.47365
4935.588	15.79037	-6.47853	17.39203	-8.36246
4939.589	9.51143	-6.54115	17.69257	-8.43437
4943.486	22.34261	-4.76647	19.55843	-5.40139
4947.589	NaN	NaN	22.07192	-7.20792
4951.593	21.13056	4.84921	21.00918	-5.31734
4955.579	NaN	NaN	22.23252	1.38329
4959.486	NaN	NaN	-19.99372	-12.07740
4963.590	NaN	NaN	NaN	NaN
4967.588	NaN	NaN	NaN	NaN
4971.588	NaN	NaN	NaN	NaN
4975.589	NaN	NaN	NaN	NaN
4979.583	NaN	NaN	NaN	NaN
4983.592	NaN	NaN	NaN	NaN
4987.545	NaN	NaN	NaN	NaN
4991.592	NaN	NaN	NaN	NaN
4995.546	NaN	NaN	NaN	NaN
4999.559	NaN	NaN	NaN	NaN
5003.589	NaN	NaN	NaN	NaN
5007.591	NaN	NaN	NaN	NaN
5011.589	NaN	NaN	NaN	NaN
5015.581	NaN	NaN	NaN	NaN
5019.590	NaN	NaN	NaN	NaN
5023.590	NaN	NaN	NaN	NaN
5027.590	NaN	NaN	NaN	NaN
5031.547	NaN	NaN	NaN	NaN
5035.592	NaN	NaN	NaN	NaN
5039.573	NaN	NaN	NaN	NaN
5043.547	NaN	NaN	NaN	NaN
5047.550	NaN	NaN	NaN	NaN
5051.595	NaN	NaN	NaN	NaN
5055.548	NaN	NaN	NaN	NaN
5059.592	NaN	NaN	NaN	NaN
5063.593	NaN	NaN	NaN	NaN
5067.594	NaN	NaN	NaN	NaN
5071.593	NaN	NaN	NaN	NaN
5075.595	NaN	NaN	NaN	NaN
5079.593	8.95956	-1.20238	NaN	NaN
5083.593	NaN	NaN	NaN	NaN
5087.591	10.60529	-6.07140	NaN	NaN
5091.593	10.00459	-5.15788	NaN	NaN
5095.593	NaN	NaN	NaN	NaN
5099.595	NaN	NaN	NaN	NaN
5103.593	NaN	NaN	NaN	NaN
5107.593	0.65258	-0.83114	NaN	NaN
5111.589	NaN	NaN	NaN	NaN
5115.592	NaN	NaN	NaN	NaN
5119.592	NaN	NaN	NaN	NaN
5123.569	NaN	NaN	NaN	NaN
5127.596	NaN	NaN	NaN	NaN
5131.597	NaN	NaN	NaN	NaN
5135.594	NaN	NaN	NaN	NaN
5139.595	NaN	NaN	NaN	NaN
5143.594	NaN	NaN	NaN	NaN
5147.596	-3.25508	15.19379	NaN	NaN
5151.593	-0.57491	14.99381	NaN	NaN
5155.594	NaN	NaN	NaN	NaN
5159.598	-0.58384	14.87420	NaN	NaN
5163.590	-0.89912	15.01928	NaN	NaN
5167.597	-2.29027	14.95741	NaN	NaN
5171.594	-1.76026	14.89231	NaN	NaN
5175.604	-2.56146	14.92801	NaN	NaN
5179.596	-1.71223	14.89156	NaN	NaN
5183.596	-1.97887	14.86444	NaN	NaN
5187.594	-1.15409	14.50292	NaN	NaN
5191.595	-2.03281	14.49802	NaN	NaN
5195.598	-3.52680	14.77151	NaN	NaN
5199.598	-1.84547	14.60991	NaN	NaN
5203.597	NaN	NaN	NaN	NaN
5207.565	-1.90463	14.52515	NaN	NaN
5211.599	-1.71508	14.54872	NaN	NaN
5215.598	-1.65379	14.54317	NaN	NaN
5219.596	-1.74397	14.68320	NaN	NaN
5223.597	-1.72051	14.52224	NaN	NaN
5230.372	NaN	NaN	NaN	NaN
5239.567	NaN	NaN	NaN	NaN
5243.599	-1.70380	14.56955	NaN	NaN
5247.578	-1.63598	14.56040	NaN	NaN
5251.552	-1.22251	14.34531	NaN	NaN
5255.598	-1.56739	14.40870	NaN	NaN
5259.598	-0.89952	14.34490	NaN	NaN
5263.596	-1.62336	14.42647	NaN	NaN
5267.597	-1.54264	14.39730	NaN	NaN
5271.599	-1.45338	14.25881	NaN	NaN
5275.473	-1.03704	14.41230	NaN	NaN
5279.473	-1.30422	14.42038	NaN	NaN
5283.472	-1.33929	14.30158	NaN	NaN
5287.501	-1.21698	14.26589	NaN	NaN
5291.473	-1.43235	14.41647	NaN	NaN
5295.448	NaN	NaN	NaN	NaN
5299.468	-1.68158	14.45015	NaN	NaN
5303.464	-1.67881	14.53683	NaN	NaN
5307.474	-1.35268	14.71520	NaN	NaN
5311.472	NaN	NaN	NaN	NaN
5315.477	NaN	NaN	NaN	NaN
5319.492	NaN	NaN	NaN	NaN
5323.473	0.22529	14.47465	NaN	NaN
5327.473	NaN	NaN	NaN	NaN
5331.476	-1.21824	14.79001	NaN	NaN
5335.504	-1.59035	14.95020	NaN	NaN
5339.465	NaN	NaN	NaN	NaN
5343.474	-0.80801	15.02055	NaN	NaN
5347.475	NaN	NaN	NaN	NaN
5351.495	NaN	NaN	NaN	NaN
5355.475	NaN	NaN	NaN	NaN
5359.475	NaN	NaN	NaN	NaN
5363.475	NaN	NaN	NaN	NaN
5367.495	11.62387	9.36741	NaN	NaN
5371.477	NaN	NaN	NaN	NaN
5375.477	NaN	NaN	NaN	NaN
5379.439	NaN	NaN	NaN	NaN
5383.473	NaN	NaN	NaN	NaN
5387.473	NaN	NaN	NaN	NaN
5391.475	NaN	NaN	NaN	NaN
5395.474	NaN	NaN	NaN	NaN
5399.492	NaN	NaN	NaN	NaN
5403.476	NaN	NaN	NaN	NaN
5407.474	NaN	NaN	NaN	NaN
5411.476	NaN	NaN	NaN	NaN
5415.499	NaN	NaN	NaN	NaN
5419.455	NaN	NaN	NaN	NaN
5423.472	NaN	NaN	NaN	NaN
5427.477	NaN	NaN	NaN	NaN
5431.497	NaN	NaN	NaN	NaN
5435.476	NaN	NaN	NaN	NaN
5439.477	NaN	NaN	NaN	NaN
5443.478	NaN	NaN	NaN	NaN
5447.466	NaN	NaN	NaN	NaN
5451.476	16.82975	7.34531	NaN	NaN
5455.479	13.47092	7.62611	NaN	NaN
5459.474	12.21693	9.85568	NaN	NaN
5463.467	11.13554	8.25227	NaN	NaN
5467.476	13.79768	11.51414	NaN	NaN
5471.478	18.80768	11.54934	NaN	NaN
5475.476	21.00470	12.01523	NaN	NaN
5479.474	NaN	NaN	NaN	NaN
5483.476	18.12692	12.41979	NaN	NaN
5487.475	22.33131	12.00362	NaN	NaN
5491.478	22.71162	12.17223	NaN	NaN
5495.473	18.30157	10.66994	NaN	NaN
5499.476	19.86593	12.18620	NaN	NaN
5503.454	13.97026	12.67175	NaN	NaN
5507.477	17.81050	11.11397	NaN	NaN
5511.470	18.21222	9.32611	NaN	NaN
5515.481	22.35152	9.96007	NaN	NaN
5519.478	22.05222	8.95577	NaN	NaN
5523.478	18.03448	8.45663	NaN	NaN
5527.470	NaN	NaN	NaN	NaN
5531.477	20.17819	11.30007	NaN	NaN
5535.479	12.71741	13.46668	NaN	NaN
5539.478	13.18327	11.16721	NaN	NaN
5543.434	8.56789	14.79795	NaN	NaN
5547.437	NaN	NaN	NaN	NaN
5551.433	NaN	NaN	NaN	NaN
5555.478	NaN	NaN	NaN	NaN
5559.441	NaN	NaN	NaN	NaN
5563.478	NaN	NaN	NaN	NaN
5567.477	NaN	NaN	NaN	NaN
5571.478	NaN	NaN	NaN	NaN
5575.477	NaN	NaN	NaN	NaN
5579.434	NaN	NaN	NaN	NaN
5583.479	NaN	NaN	NaN	NaN
5587.442	NaN	NaN	NaN	NaN
5591.477	NaN	NaN	NaN	NaN
5595.433	NaN	NaN	NaN	NaN
5599.479	NaN	NaN	NaN	NaN
5603.480	NaN	NaN	NaN	NaN
5607.479	NaN	NaN	NaN	NaN
5611.479	NaN	NaN	NaN	NaN
5615.434	NaN	NaN	NaN	NaN
5619.479	NaN	NaN	NaN	NaN
5623.481	NaN	NaN	NaN	NaN
5627.457	NaN	NaN	NaN	NaN
5631.476	NaN	NaN	NaN	NaN
5635.437	NaN	NaN	NaN	NaN
5639.487	NaN	NaN	NaN	NaN
5643.501	NaN	NaN	NaN	NaN
5647.480	NaN	NaN	NaN	NaN
5651.436	NaN	NaN	NaN	NaN
