time (ms)	lx (deg)	ly (deg)	rx (deg)	ry (deg)
0.000	NaN	NaN	NaN	NaN
3.983	NaN	NaN	NaN	NaN
7.981	NaN	NaN	NaN	NaN
11.983	NaN	NaN	NaN	NaN
15.995	NaN	NaN	NaN	NaN
19.969	NaN	NaN	NaN	NaN
23.976	NaN	NaN	NaN	NaN
27.982	NaN	NaN	NaN	NaN
32.001	NaN	NaN	NaN	NaN
35.981	NaN	NaN	NaN	NaN
39.980	NaN	NaN	NaN	NaN
43.980	NaN	NaN	NaN	NaN
48.003	NaN	NaN	NaN	NaN
51.982	NaN	NaN	NaN	NaN
55.982	NaN	NaN	NaN	NaN
59.936	NaN	NaN	NaN	NaN
63.998	-10.71815	13.19175	NaN	NaN
67.982	-8.75567	10.82395	-9.84209	12.68109
71.982	-7.18027	8.82101	-9.23930	10.12430
75.980	-4.64633	7.72375	-7.62640	5.12256
80.003	-5.58565	7.11513	-6.47299	4.80081
83.981	-4.86332	4.92101	-5.82162	3.28924
87.984	-4.82865	4.47861	-4.81123	0.46571
91.982	-3.18566	4.51127	-2.98831	-0.07603
96.002	-2.28757	2.51301	-2.47992	-0.70549
99.983	-1.94687	1.81745	-2.18699	-0.68121
103.971	-1.41395	1.46628	-2.12379	-0.99095
107.982	-1.54187	1.39877	-2.11489	-1.03566
112.002	-1.71585	1.32626	-2.19816	-1.54381
115.982	-2.05447	1.28269	-2.20961	-0.94537
119.985	-1.77710	1.23720	-2.21308	-1.09147
123.982	-1.84359	1.26245	-2.25325	-1.24066
128.005	-1.95160	1.41028	-2.14419	-1.42103
131.984	-1.90401	1.41791	-2.13690	-1.66079
135.985	-1.88103	1.42868	-2.04411	-1.78821
139.985	-1.83675	1.20277	-2.04718	-1.62235
143.957	-1.97394	1.28330	-2.06290	-1.82528
147.982	-1.99173	1.21019	-2.05809	-1.85543
151.982	-2.11237	1.47359	-2.04376	-1.93897
155.985	-2.16791	1.37286	-1.99178	-1.88351
160.006	-2.51467	1.70980	-1.97949	-1.91525
163.984	-2.82429	1.95408	-1.46593	-1.98894
167.982	-2.67085	1.93413	-1.63668	-2.02269
171.983	-2.57744	1.95227	-1.79123	-2.00353
176.005	-2.53147	2.03446	-1.71258	-1.96903
179.985	-2.34525	2.02319	-1.76440	-1.90266
183.960	-2.04552	1.89831	-1.81548	-1.88495
187.981	-1.60020	2.03538	-1.73328	-1.88223
192.004	-1.38843	2.04285	-1.70132	-1.85263
195.986	-1.56970	2.04147	-1.79725	-1.85991
199.985	-1.30126	2.24975	-1.77613	-1.77971
203.985	-1.36955	2.36018	-1.79153	-1.82086
208.005	-1.43662	2.23409	-1.81731	-1.79136
211.986	-1.84218	2.36481	-1.85482	-1.76288
215.985	-2.26683	2.53921	-1.98279	-1.71784
219.987	-2.21502	2.69717	-2.04508	-1.68406
223.999	-2.37186	2.72174	-2.03987	-1.68193
227.978	-2.28405	2.76350	-2.10602	-1.64983
231.984	-2.31634	2.78239	-2.08647	-1.56246
235.943	-2.29354	2.68726	-2.03172	-1.44096
239.941	-2.38038	2.64897	-1.86759	-1.31990
243.996	-2.52503	2.50474	-1.73653	-1.21312
247.984	-2.60441	2.26709	-1.83171	-1.35525
251.985	-2.55681	2.36604	-1.77933	-1.23851
256.009	-2.57546	2.47773	-1.67556	-1.19605
259.988	-2.57560	2.19174	-1.53900	-1.14570
263.986	-2.72662	2.22609	-1.65275	-1.20349
267.958	-2.71743	2.20685	-1.83885	-1.16918
272.007	-2.75356	2.01266	-1.83281	-1.08614
275.987	-2.85893	2.08099	-1.71008	-1.06419
279.986	-2.86702	2.00641	-1.74377	-1.13652
283.987	-2.70760	1.45075	-1.79438	-1.23386
288.010	-2.34907	0.84926	-1.44500	-1.90197
291.988	-2.02649	0.27784	-1.21000	-3.21786
295.986	-1.64749	0.44866	-0.61039	-3.32420
299.988	-1.86630	0.17410	-0.66722	-2.14728
303.987	-1.47047	0.33766	-0.93530	-2.60716
307.941	-1.67127	0.26594	-0.66441	-2.37790
311.984	-1.53810	0.28397	-0.58257	-2.25309
315.986	-1.46787	0.15978	-0.59898	-2.38220
319.984	-1.40864	0.00504	-0.74322	-2.90457
323.988	-1.35410	-0.03975	-0.60436	-2.83017
327.987	-1.37201	-0.02755	-0.53719	-2.86014
331.987	-1.48835	0.00847	-0.64069	-2.94327
335.984	-1.58691	0.10373	-0.65660	-2.77826
339.988	-1.64662	0.13378	-0.65397	-2.86207
343.989	-1.76906	0.39036	-0.77307	-2.90185
347.990	-1.78429	0.30420	-0.75350	-2.96783
351.990	-1.76475	0.46358	-0.71005	-3.08384
355.991	-1.74099	0.52806	-0.66958	-3.32012
359.987	-1.56241	0.58816	-0.96415	-3.17760
363.986	-1.32664	0.56629	-0.91974	-3.17779
368.009	-1.70613	0.69610	-0.94085	-3.20772
371.988	-1.57369	0.71686	-0.77136	-3.13233
375.988	-1.60000	0.60606	-0.77114	-3.18046
379.987	-1.44770	0.61013	-0.70816	-3.16976
383.988	-1.40574	0.60256	-0.73146	-3.10650
387.988	-1.32699	0.61711	-0.69851	-3.01690
391.965	-1.38577	0.43470	-0.64637	-2.80471
395.990	-1.48533	0.24836	-0.41807	-2.85457
399.986	-1.44629	0.29178	-0.40038	-3.06535
403.989	-1.49178	0.13392	-0.38502	-3.00321
407.989	-1.67739	0.23363	-0.14786	-3.11011
411.988	-1.73371	0.16299	-0.27488	-3.07374
415.989	-1.95225	0.14682	-0.19956	-2.97919
419.989	-2.16007	0.11025	-0.07028	-3.02012
423.989	-1.97971	0.15268	-0.14086	-3.09111
428.774	-2.03080	-0.00688	-0.11726	-3.07986
431.985	-2.07246	-0.01075	-0.21830	-2.83908
435.988	-2.02126	-0.03030	-0.20152	-2.46608
439.990	-2.00165	0.02449	-0.48096	-2.71612
443.991	-1.91273	0.07341	-0.59655	-2.61471
447.991	-1.89332	0.13756	-0.59697	-2.54964
452.000	-1.75094	0.06950	-0.76131	-2.52872
455.994	-1.62815	0.09779	-0.76749	-2.57598
459.990	-1.59368	0.05023	-0.68910	-2.55708
463.989	-1.71632	0.19893	-0.63595	-2.62604
467.991	-1.67774	0.32585	-0.63265	-2.55379
471.989	-1.58106	0.37984	-0.82669	-2.48603
475.989	-1.55385	0.41959	-0.87850	-2.59265
479.992	-1.52221	0.45243	-0.80598	-2.65245
483.990	-1.51206	0.50328	-0.64660	-2.76245
487.951	-1.51539	0.60122	-0.61759	-2.71105
491.991	-1.53324	0.53693	-0.47423	-2.74917
495.982	-1.63683	0.51001	-0.53647	-2.80472
499.991	-1.58986	0.46571	-0.49820	-2.85649
503.991	-1.60920	0.58646	-0.42137	-2.88520
507.992	-1.60040	0.53649	-0.37152	-2.87310
511.990	-1.59611	0.46084	-0.34084	-2.88359
515.975	-1.62172	0.41719	-0.33446	-2.94625
519.982	-1.59968	0.40060	-0.28297	-2.94034
523.992	-1.56853	0.39274	-0.26813	-2.89692
527.984	-1.56310	0.35170	-0.29572	-2.85728
531.993	-1.56615	0.34718	-0.27984	-2.86237
535.995	-1.61622	0.29539	-0.32067	-2.86756
539.994	-1.54864	0.34011	-0.19904	-2.94762
543.994	-1.59217	0.34430	-0.12190	-2.97266
547.991	-1.66881	0.34530	0.01325	-3.01093
551.994	-1.68997	0.41944	0.00300	-3.05928
555.950	-1.74179	0.40738	-0.03154	-3.19356
559.989	-1.75096	0.36620	-0.09441	-3.25437
563.992	-1.80310	0.38422	-0.13049	-3.31616
567.992	-1.87329	0.41120	-0.09753	-3.33837
571.992	-1.94848	0.46388	-0.12203	-3.40266
575.991	-2.07095	0.50829	-0.17834	-3.42469
579.993	-2.10575	0.48874	-0.21971	-3.44013
583.993	-2.16954	0.50071	-0.26068	-3.40738
587.994	-2.12706	0.48536	-0.32526	-3.48394
591.958	-2.14409	0.46112	-0.38578	-3.47538
595.994	-2.12020	0.43200	-0.42338	-3.45125
599.970	-2.11551	0.46078	-0.49733	-3.30730
603.993	-2.17772	0.44752	-0.60168	-3.27727
607.993	-2.17908	0.47769	-0.54227	-3.26108
611.995	-2.17802	0.55801	-0.59305	-3.24439
615.950	-2.06585	0.53240	-0.58774	-3.19163
619.995	-1.97128	0.63293	-0.63106	-3.13314
623.994	-1.89942	0.62235	-0.69233	-3.14978
627.994	-1.90341	0.71833	-0.71891	-3.14156
631.994	-1.92951	0.69378	-0.81066	-3.11300
635.997	-1.90373	0.75160	-0.85830	-3.16167
639.984	-1.95978	0.79376	-0.81791	-3.10866
643.983	-2.01967	0.75535	-0.83265	-3.13506
647.994	-1.96082	0.76508	-0.85729	-3.13051
651.994	-1.77786	0.84269	-0.92775	-3.13624
655.998	-1.80157	0.82430	-0.89870	-3.07741
659.996	-1.79700	0.76972	-0.84898	-2.95542
663.997	-1.98593	0.67407	-0.81704	-2.93584
667.995	-2.02773	0.57751	-0.78176	-2.91450
671.996	-1.77757	0.48682	-0.81037	-2.85798
675.993	0.70652	0.64717	-0.70893	-2.66830
679.997	-0.68938	0.85123	-0.76216	-0.86476
683.967	-2.34245	0.80905	2.69227	-2.55581
687.879	-1.82224	0.64014	-0.70032	-2.40314
691.997	-1.31344	0.12675	-0.30617	-2.28312
695.996	NaN	NaN	-0.31473	-2.77572
699.994	NaN	NaN	NaN	NaN
703.995	NaN	NaN	NaN	NaN
707.994	NaN	NaN	NaN	NaN
711.994	NaN	NaN	NaN	NaN
715.994	NaN	NaN	NaN	NaN
719.956	NaN	NaN	NaN	NaN
723.983	NaN	NaN	NaN	NaN
727.986	NaN	NaN	NaN	NaN
731.996	NaN	NaN	NaN	NaN
735.951	NaN	NaN	NaN	NaN
739.997	NaN	NaN	NaN	NaN
743.950	NaN	NaN	NaN	NaN
748.001	NaN	NaN	9.78341	4.30698
751.997	NaN	NaN	9.21239	6.94350
755.998	NaN	NaN	6.37697	7.72360
759.997	NaN	NaN	8.46344	3.12008
763.999	5.59351	6.53334	6.26601	3.38691
767.961	5.50451	6.67161	6.39101	3.91569
772.001	5.58528	6.74362	6.29389	3.47691
775.999	5.99875	6.57304	6.19402	3.23546
779.997	5.46539	4.66542	6.19248	2.38581
783.998	5.06136	3.36274	5.99703	1.77213
787.999	3.82136	2.37251	5.06126	-0.31272
791.999	4.80330	2.85654	3.81209	0.46079
795.997	4.64934	2.21404	3.78407	-0.18643
799.998	3.38286	2.16499	5.58749	-0.41038
804.002	3.84812	1.54124	5.79339	-0.14640
807.998	4.48266	1.37601	5.75544	-0.26190
811.999	4.88562	1.16101	5.60851	-0.14267
815.994	7.02582	1.17439	5.43782	-0.35342
820.000	5.74055	1.07079	5.18884	0.39813
823.998	5.23376	1.18269	5.21917	0.38309
827.997	5.77472	1.07681	5.22227	0.32095
831.997	5.60851	0.98595	5.41509	0.49921
835.999	5.77679	0.97829	5.36011	0.39379
839.999	5.54447	1.11474	5.42560	0.64533
844.002	5.48408	1.13362	5.45698	0.69311
847.992	5.42793	1.20223	5.46202	0.52526
851.896	5.42385	1.26781	5.45511	0.62084
856.000	5.36993	1.39531	5.53326	0.12312
859.999	5.36437	1.46067	5.70310	-0.18018
864.000	5.37256	1.37246	5.58090	-0.86838
867.895	5.28766	1.39505	5.72959	-1.09467
872.001	5.22146	1.39189	5.67445	-1.10842
876.000	5.14303	1.36916	5.66354	-1.20726
879.999	5.12361	1.42809	5.62896	-1.17910
883.895	5.12481	1.44137	5.68760	-1.11158
888.001	5.14389	1.39946	5.66573	-0.97317
891.970	5.19970	1.42345	5.69784	-1.08469
895.999	5.32269	1.43244	5.70278	-0.99963
899.896	5.41962	1.47676	5.68883	-0.99770
904.000	5.40257	1.46367	5.70318	-0.97164
907.999	5.32513	1.45555	5.72392	-0.91708
912.000	5.34058	1.54329	5.71419	-0.88518
915.898	5.42599	1.58376	5.67873	-0.80239
920.002	5.43502	1.64795	5.67052	-0.73766
924.000	5.53586	1.71410	5.69096	-0.68425
927.856	5.54535	1.71881	5.72475	-0.65005
931.864	5.34447	1.75602	5.73053	-0.73476
935.877	5.51024	1.75915	5.78536	-0.80902
939.839	5.26120	1.72612	5.77826	-0.91225
943.876	5.13877	1.68588	5.77659	-0.97135
947.866	5.17351	1.66601	5.79052	-0.87419
951.876	5.06341	1.67060	5.81923	-1.03832
955.878	5.00332	1.69400	5.76728	-0.86560
959.878	5.02290	1.73950	5.81670	-0.79377
963.873	5.09692	1.78864	5.85563	-1.12808
967.877	4.95578	1.84437	5.90544	-1.03922
971.832	4.94489	1.84754	5.50619	-0.85518
975.875	5.03356	1.81268	5.48651	1.17343
979.866	4.79014	3.24838	5.37554	-0.61115
983.879	4.77855	4.55547	5.18963	1.57638
987.832	4.61580	4.99342	5.38922	4.03412
991.877	3.86941	6.43417	4.90920	4.38246
995.876	4.22133	8.55090	4.86248	6.61292
999.879	3.97390	8.88413	4.81875	7.83376
1003.879	4.11456	8.67978	4.84477	8.72767
1007.878	4.07021	7.97780	4.77860	8.59457
1011.902	3.99393	7.67135	4.79819	8.79151
1015.880	3.94784	8.84704	4.86155	9.10609
1019.866	3.80829	9.08302	4.84504	8.87959
1023.865	3.81024	9.16941	4.77937	8.77552
1027.867	3.90125	9.18675	4.86916	9.06789
1031.878	3.84574	8.84991	4.85228	9.06070
1035.877	3.90479	8.62634	4.77954	9.20774
1039.879	3.98815	8.54807	4.77688	9.00984
1043.870	4.23949	8.44729	4.82693	9.07625
1047.878	3.87742	8.28404	4.90873	8.86322
1051.877	3.87816	8.23237	4.80155	8.99536
1055.879	3.90182	8.43143	4.66834	8.77209
1059.837	4.03873	8.34643	4.59334	8.66015
1063.849	3.99060	8.47982	4.62148	8.54025
1067.877	4.12061	8.47950	4.72630	8.33001
1071.879	4.09508	8.48211	4.69221	8.65685
1075.898	4.18200	8.38342	4.60306	8.69910
1079.880	4.19719	8.35289	4.59909	8.64934
1083.879	4.23332	8.28892	4.78476	8.62229
1087.879	4.10310	8.38934	4.72657	8.31595
1091.878	4.08742	8.26706	4.77079	8.35794
1095.880	4.05221	8.35211	4.66033	8.06765
1099.881	4.12996	8.31150	4.65636	8.11504
1103.863	4.13747	8.36138	4.71582	8.01713
1107.877	4.21407	8.49632	4.77858	7.82206
1111.835	4.10634	8.43267	4.66218	8.03177
1115.881	4.01910	8.38923	4.74141	8.17109
1119.881	4.06774	8.18492	4.66410	8.42288
1123.878	4.00922	8.09638	4.75945	8.08506
1127.881	3.99502	8.10505	4.92326	7.99126
1131.879	3.92144	8.04994	4.93497	7.88618
1135.879	3.95920	8.10046	4.74757	7.60146
1139.879	4.00964	8.06987	4.93029	7.99474
1143.880	4.09229	8.06208	5.21129	7.89861
1147.878	4.02164	8.20481	5.03659	8.17047
1151.880	3.86267	8.06498	4.66014	8.07865
1155.901	3.90516	7.98599	4.85534	7.98922
1159.881	3.81713	7.93681	5.03489	7.68106
1163.880	3.93129	7.90338	5.11750	8.26176
1167.880	3.94683	7.94295	5.10527	7.98450
1171.870	3.79198	7.86070	4.99275	8.06608
1175.878	3.86692	7.96772	5.00339	7.73432
1179.883	3.93804	7.94911	5.04001	7.73856
1183.882	4.04251	7.96572	5.11927	8.05131
1187.872	4.15453	7.87641	5.02809	7.78694
1191.882	4.01258	7.83626	5.07729	7.69680
1195.883	3.83381	7.94228	5.14094	8.03262
1199.883	3.97484	7.97753	5.15194	8.24549
1203.872	4.03655	7.96004	5.15706	8.10634
1207.882	3.94179	8.00825	5.13651	7.88858
1211.883	3.94342	8.15149	5.13296	8.02037
1215.882	3.98776	8.60894	5.18577	7.98357
1219.872	3.97642	8.48183	5.14530	7.60534
1223.884	4.03154	8.57470	5.19532	7.71269
1227.874	4.10542	8.63928	5.05570	7.60035
1231.874	4.11525	8.60571	5.08904	7.98227
1235.874	3.70677	9.05983	5.02610	7.72640
1239.882	3.55587	8.82530	5.04129	7.86639
1243.884	3.56942	8.54797	4.99386	7.82386
1247.884	3.56944	8.58607	4.94869	7.60017
1251.905	3.32068	8.58054	4.98049	7.74385
1255.886	3.45059	8.36011	4.97960	7.35678
1259.887	3.53068	8.39148	4.92496	7.58677
1263.884	3.42020	8.21022	4.91550	7.99919
1267.879	3.58403	8.22459	4.90841	7.79966
1271.852	3.59065	8.07213	4.95706	7.44396
1275.886	3.65055	6.35539	4.99142	6.97489
1279.882	4.10315	6.13320	4.90225	4.28446
1283.903	4.18632	5.35173	4.97364	2.93123
1287.884	3.92904	4.10022	5.00268	2.92539
1291.885	4.01124	4.44677	4.75216	2.37976
1295.884	4.83087	3.43018	4.76002	0.86042
1299.881	4.70143	2.23512	4.80009	0.17673
1303.840	4.74957	2.37290	4.88991	0.13895
1307.845	4.49250	1.97809	5.03336	-0.01696
1311.867	4.73175	1.92157	4.99285	-0.05275
1315.871	4.79391	1.84949	5.18451	0.02987
1319.884	4.62658	1.96083	5.36811	-0.04223
1323.885	4.72763	1.96497	5.37104	0.05354
1327.886	4.84055	2.00553	5.22975	0.09958
1331.881	4.94975	2.02382	5.33915	0.03973
1335.885	4.90898	1.98955	5.43051	0.07585
1339.884	4.99393	1.98813	5.59634	0.03079
1343.884	4.87347	2.01329	5.59587	0.00539
1347.876	4.71575	2.03085	5.60354	-0.02246
1351.911	4.67296	2.07686	5.57822	-0.03645
1355.881	4.40734	2.18858	5.56133	-0.07880
1359.890	4.54772	2.21856	5.61281	-0.15684
1363.882	4.64253	2.28420	5.25911	-0.17613
1367.886	4.61119	2.34288	5.19305	-0.12700
1371.886	4.31218	2.41104	5.24754	-0.20038
1375.884	4.25235	2.42721	5.17063	-0.15965
1379.883	4.37293	2.49585	4.76041	-0.21168
1383.886	4.26936	2.52409	4.73776	-0.19648
1387.888	4.29789	2.55666	4.41507	-0.23750
1391.885	4.39412	2.57498	4.17729	-0.19432
1395.865	4.50532	2.58112	4.44958	-0.17912
1399.886	4.56821	2.59595	4.42592	-0.11949
1403.887	4.64058	2.61808	4.41038	-0.09742
1407.888	4.70224	2.62756	4.52895	-0.00669
1411.884	4.59916	2.66299	4.68533	0.04091
1415.886	4.65659	2.65754	4.83688	0.19878
1419.887	4.67202	2.70720	4.80928	0.31685
1423.887	4.66679	2.72447	5.04060	0.25889
1427.875	4.67148	2.69784	5.14023	0.31476
1431.889	4.62167	2.75215	5.19453	0.45888
1435.881	4.65972	2.76225	5.23846	0.52733
1439.887	4.57406	2.80937	5.38661	0.50774
1443.883	4.41667	2.84919	5.44466	0.56287
1447.885	4.23355	2.95731	5.63319	0.60545
1451.887	4.30433	3.01325	5.50574	0.64062
1455.888	4.25092	3.08915	5.54973	0.64426
1459.876	4.34539	3.08353	5.57289	0.53970
1463.888	4.22831	3.16670	5.62908	0.49163
1467.888	4.24490	3.27688	5.68657	0.46938
1471.888	4.37216	3.33985	5.59430	0.45635
1475.877	4.21780	3.31382	5.64294	0.44353
1479.853	4.19227	3.31425	5.69608	0.38864
1483.886	4.22750	3.29474	5.59695	0.36252
1487.844	4.22866	3.28816	5.49099	0.31384
1491.881	4.26247	3.20942	5.35638	0.26606
1495.891	4.31894	3.14896	5.32862	0.21216
1499.889	4.40135	3.05860	5.24107	0.16908
1503.888	4.42165	2.99816	5.21651	0.08943
1507.886	4.57149	2.92007	5.14338	-0.12362
1511.890	5.01997	2.84075	5.01396	-0.32348
1515.892	5.11627	2.83929	4.99457	-0.03389
1519.872	4.70071	2.88362	4.97625	-0.05991
1523.891	4.74257	2.81569	4.95965	-0.15195
1527.890	4.57707	2.76772	4.94992	-0.33535
1531.889	4.26045	2.78289	4.95948	-0.40963
1535.845	4.52143	2.62581	4.99472	-0.11684
1539.888	4.54279	2.54057	4.94071	0.32458
1543.888	4.68001	2.31194	4.93659	0.17694
1547.888	4.22123	2.23079	4.90378	0.24498
1551.888	4.20634	1.92738	5.00504	0.50676
1555.845	4.06080	2.23622	5.08119	0.28266
1559.887	4.23757	2.28530	5.73303	-0.30265
1563.885	4.40890	1.75332	5.40343	0.02496
1567.891	4.91605	-0.61503	5.01314	-0.65318
1571.888	4.96125	-2.23347	6.39128	-4.06938
1575.889	4.27249	-2.37587	6.33262	-3.89826
1579.889	5.11908	-4.94851	6.86170	-4.23581
1583.890	4.78582	-4.90210	6.41920	-4.76081
1587.881	5.26352	-5.91412	6.49063	-5.86825
1591.867	5.33957	-6.66632	6.85236	-6.56652
1595.891	5.39101	-7.03067	6.83707	-6.78530
1599.891	5.52654	-7.30049	7.05044	-6.89141
1603.869	5.45924	-6.52280	7.27150	-7.00629
1607.890	5.51005	-6.96555	7.51561	-7.07445
1611.891	5.43615	-7.38161	7.69766	-7.10310
1615.890	5.42370	-7.55174	7.55223	-7.01839
1619.894	5.49475	-8.06621	7.71667	-6.98140
1623.892	5.49773	-7.61525	7.54779	-6.89446
1627.891	5.58933	-7.86999	7.48529	-6.74445
1631.890	5.64297	-7.81501	7.51874	-6.88899
1635.890	5.65823	-7.68273	7.58534	-6.84914
1639.895	5.72345	-7.95956	7.71464	-6.98116
1643.887	5.70180	-7.86720	7.75246	-6.85293
1647.880	5.68086	-7.70470	7.57247	-6.83009
1651.875	5.68054	-7.70432	7.50673	-6.89751
1655.891	5.80624	-7.89335	7.49007	-6.98446
1659.890	5.85907	-8.07266	6.94616	-6.89393
1663.892	5.81540	-7.63295	6.86457	-6.78221
1667.882	5.68516	-7.76168	7.38104	-7.09393
1671.892	5.64786	-7.56053	7.26994	-7.02389
1675.847	5.57235	-7.60822	7.37389	-7.08407
1679.846	5.57586	-7.58760	7.43647	-7.09470
1683.795	5.47048	-7.38441	6.94570	-6.88572
1687.857	5.30001	-7.10776	6.97577	-6.95145
1691.894	5.25741	-6.81603	7.30688	-7.07381
1695.892	5.17432	-7.03306	7.35371	-7.13831
1699.884	5.16694	-7.56904	7.48966	-7.09486
1703.892	5.12937	-7.51612	7.36520	-7.00422
1707.892	5.13528	-7.39319	7.27401	-6.91887
1711.893	5.15364	-7.26081	7.38388	-6.98339
1715.788	5.27169	-6.62935	7.39891	-6.94365
1719.890	5.42139	-6.93373	7.62628	-7.04236
1723.893	5.20945	-6.66756	7.29978	-7.03739
1727.874	5.08852	-6.50888	7.32632	-6.62080
1731.782	5.06183	-6.45111	7.58193	-6.76269
1735.856	5.11031	-6.69720	7.63942	-6.74829
1739.849	5.10138	-6.56477	7.86552	-6.79931
1743.897	5.04326	-6.44469	7.95869	-6.66359
1747.895	5.06762	-6.32784	7.79866	-6.71024
1751.915	5.12188	-6.17762	7.51498	-6.41437
1755.893	5.24060	-6.39303	7.62943	-6.70083
1759.894	5.18473	-6.37622	7.60522	-6.75951
1763.898	4.97127	-6.58613	6.93056	-6.56474
1767.891	5.11893	-6.42356	7.45948	-6.56324
1771.888	5.14692	-6.33993	7.75090	-6.58541
1775.894	5.07525	-6.16135	7.24183	-6.63729
1779.894	5.24961	-6.31123	7.10907	-6.73237
1783.894	5.07850	-6.27328	6.88025	-6.16006
1787.894	5.15052	-6.27432	7.17038	-6.65329
1791.895	5.16681	-6.19232	6.85561	-6.74949
1795.789	5.06173	-6.46364	7.49746	-6.69769
1799.894	5.06518	-6.20108	7.47178	-6.76614
1803.897	5.04511	-6.04380	7.64927	-6.78939
1807.895	4.70264	-5.23928	6.97465	-6.20789
1811.873	4.42158	-4.67580	4.57273	-5.22262
1815.852	1.74826	-2.43260	2.90255	-4.71333
1819.897	0.01936	-0.74310	0.15511	-3.26471
1823.898	-1.73799	-0.40872	-0.76176	-2.46402
1827.791	-3.23197	0.69565	-2.05174	-1.82587
1831.896	-3.96926	2.16607	-5.03277	-0.99083
1835.896	-5.70345	2.48705	-6.73495	-0.67337
1839.896	-8.18091	2.65568	-8.53258	-0.49980
1843.790	-8.09421	2.68335	-9.63638	0.25961
1847.896	-8.27734	2.90033	-10.26465	2.21745
1851.883	-8.73373	3.04937	-9.76493	1.73780
1855.888	-9.20900	3.22171	-9.50568	0.42185
1859.750	-9.19104	3.24662	-9.52927	1.21562
1863.852	-8.69355	3.48690	-9.50764	1.53346
1867.897	-9.13030	3.28410	-9.26466	0.72666
1871.898	-9.10250	3.27721	-9.24486	0.96152
1875.792	-9.26684	3.32966	-8.93510	1.23404
1879.899	-9.38069	3.17873	-9.09952	1.59713
1883.896	-9.46486	3.25878	-9.23976	2.01186
1887.900	-9.37315	3.17063	-9.15067	0.41936
1891.793	-9.40593	3.24174	-9.02559	0.53315
1895.866	-9.51264	3.19667	-9.19653	0.94764
1899.897	-9.42112	3.41902	-8.95452	1.05015
1903.897	-9.34674	3.41460	-8.89802	1.36186
1907.798	-9.15773	3.14469	-8.74784	1.58333
1911.897	-9.34522	3.17438	-8.87903	1.60004
1915.896	-9.32782	3.38724	-8.89824	1.07397
1919.899	-9.31426	3.20175	-8.61052	1.81208
1923.794	-9.50264	3.16026	-8.46796	1.35023
1927.898	-9.44484	3.03783	-8.70781	1.16642
1931.899	-9.36034	3.13888	-8.48746	1.26576
1935.875	-9.25705	2.99874	-8.39994	1.18670
1939.793	-9.29570	3.04013	-8.37847	0.88861
1943.898	-9.15197	3.16157	-8.25469	0.76790
1947.774	-9.34691	2.94880	-8.24497	0.60918
1951.801	-9.47331	2.78722	-8.41726	0.60345
1955.856	-9.40586	3.03761	-8.21619	1.23839
1959.787	-9.42945	3.16552	-8.23940	0.67609
1963.779	-9.35063	2.92111	-8.19209	0.49069
1967.774	-9.35892	2.76184	-8.19603	0.85140
1971.902	-9.38003	3.34234	-8.15633	1.59208
1975.775	-9.40559	3.42206	-8.21001	0.99799
1979.775	-9.39235	2.87892	-8.27360	0.61870
1983.742	-9.42948	3.01924	-8.24407	0.58366
1987.729	-9.45921	3.06486	-8.31022	0.69557
1991.773	-9.53767	3.20108	-8.40558	0.70029
1995.774	-9.53306	3.33947	-8.41850	0.68454
1999.775	-9.50564	3.08367	-8.55292	0.87612
2003.773	-9.52618	2.89719	-8.36744	0.76786
2007.774	-9.51710	2.63631	-8.39911	0.93696
2011.774	-9.52077	3.19515	-8.46454	0.70480
2015.774	-9.55408	3.19428	-8.54299	0.67965
2019.901	-9.42960	2.96868	-8.54972	0.49091
2023.776	-9.34370	3.10470	-8.34249	0.59489
2027.772	-9.32316	3.12317	-8.38675	0.67705
2031.774	-9.39883	3.15090	-8.39848	0.65660
2035.772	-9.40351	2.92489	-8.51916	0.79301
2039.776	-9.43728	2.92825	-8.58454	0.45305
2043.775	-9.41301	2.65687	-8.70488	0.57689
2047.775	-9.32780	2.75573	-8.57003	0.25601
2051.794	-8.32692	3.30790	-8.05122	0.60138
2055.775	-6.82679	3.70112	-7.59834	0.61102
2059.734	-4.28449	4.69358	-6.14791	2.00935
2063.781	-2.15051	5.13584	-2.68643	4.32339
2067.776	-1.01161	6.13983	-1.41162	4.39037
2071.775	1.36734	6.15729	0.10222	4.50772
2075.775	2.16600	5.58124	2.34684	4.87503
2079.776	4.99105	5.56791	4.31723	4.84373
2083.796	5.79005	5.77791	5.88771	4.99075
2087.776	6.00214	5.98462	6.75627	5.22671
2091.775	5.89699	6.05337	6.63289	4.77151
2095.777	5.82918	5.96694	6.55008	4.92986
2099.766	5.68947	6.00768	6.43871	4.87447
2103.777	5.67664	6.21087	6.38864	4.93711
2107.754	5.72352	6.15056	6.46262	4.96036
2111.777	5.64788	6.07301	6.55324	5.08039
2115.766	5.54363	6.07200	6.59077	5.02182
2119.778	5.61011	6.09558	6.64383	5.00840
2123.777	5.50218	6.15870	6.64616	4.95573
2127.778	5.52219	6.14057	6.68313	4.87096
2131.767	5.47267	6.21589	6.68952	4.68608
2135.777	5.42139	6.13123	6.57901	4.19119
2139.777	5.42255	6.11133	6.54350	4.48339
2143.780	5.43118	6.10051	6.55704	4.49434
2147.775	5.39886	6.00565	6.61984	4.61040
2151.767	5.33020	5.92763	6.64863	4.72069
2155.779	5.26703	5.99442	6.60504	4.87305
2159.779	5.19399	6.01780	6.56743	5.76440
2163.799	5.22301	6.14249	6.39437	5.90115
2167.780	5.30129	6.08903	6.24884	5.81541
2171.779	5.15687	6.12488	6.35373	4.19814
2175.800	5.16415	6.03475	6.36775	5.14859
2179.801	5.07025	5.98895	6.43229	5.18704
2183.779	4.95347	6.02784	6.32162	4.74714
2187.780	4.98544	6.10353	6.32228	5.41947
2191.747	4.91430	6.15930	6.32615	5.33296
2195.744	4.80238	6.17601	6.16157	5.62773
2199.780	4.90427	6.20293	6.48357	5.57818
2203.779	5.31236	6.14856	6.23265	4.58037
2207.780	4.87020	6.10250	6.20089	5.44628
2211.801	5.09987	6.10486	6.14977	6.56860
2215.780	5.11888	6.01337	6.00261	4.07128
2219.778	5.10918	6.07654	6.19861	4.85425
2223.779	4.97095	6.08538	6.23964	5.19702
2227.738	5.14636	6.05568	6.05143	4.95297
2231.779	5.19610	6.10970	6.10720	5.20692
2235.738	5.06488	6.01581	6.14889	5.68534
2239.783	5.19394	6.08442	6.35280	5.59159
2243.736	4.91666	6.06842	6.18963	4.94166
2247.780	4.69359	6.10220	6.23435	5.25837
2251.780	4.81621	6.13917	6.22618	5.16969
2255.782	4.85662	6.13469	6.14800	5.38455
2259.771	4.96172	6.15441	6.26316	5.25472
2263.780	5.04223	6.09684	6.36788	5.33354
2267.781	5.04686	6.06887	6.27268	5.24130
2271.782	4.97561	6.09126	6.27903	5.06547
2275.771	5.01728	5.93948	6.22292	5.16766
2279.783	5.03216	5.97196	6.18306	5.15538
2283.781	5.01526	5.97677	6.21367	4.77707
2287.793	5.27668	5.98987	6.14037	5.07224
2291.779	5.20081	6.04921	6.13983	5.25288
2295.780	5.26192	5.97154	6.17143	5.04059
2299.779	5.32575	5.94667	6.37604	4.71056
2303.782	5.37721	5.90258	6.29720	3.58483
2307.772	5.17890	6.21383	6.02026	4.95995
2311.781	5.24220	5.91442	5.96822	5.36326
2315.759	5.26571	5.88530	6.08321	5.21918
2319.782	5.26201	6.02650	6.14636	5.10253
2323.779	5.23268	5.93199	6.05776	5.22462
2327.781	5.13439	6.04884	6.00494	5.58586
2331.781	5.05341	5.99814	6.07523	5.39736
2335.782	5.09916	5.89894	6.06551	5.67364
2339.780	5.11553	5.86897	6.26885	5.57061
2343.782	5.05523	5.87348	6.23273	5.43158
2347.782	5.02297	5.95508	6.25713	5.53929
2351.785	4.96741	5.90799	6.13105	5.36009
2355.795	4.89624	5.89652	6.18794	5.53410
2359.745	4.80334	5.94715	6.17443	5.58010
2363.739	4.61430	5.95694	6.22319	5.56278
2367.786	4.76036	5.98214	6.20354	5.90438
2371.773	4.85578	6.02301	6.14040	5.65920
2375.783	5.05400	5.91221	6.21325	5.82812
2379.784	5.16108	5.92590	6.09503	5.63702
2383.784	4.74740	6.04470	6.11822	5.47398
2387.773	4.79152	6.05561	6.09432	5.71390
2391.789	5.12681	5.97222	6.01613	5.92914
2395.784	5.35655	5.98391	6.05690	6.09953
2399.784	5.29275	6.09457	6.24533	5.70705
2403.750	5.86725	5.70754	6.27481	5.36023
2407.783	6.30225	5.64372	6.86816	4.33342
2411.784	6.79672	5.49816	7.85911	4.28315
2415.784	6.78510	5.58224	7.85509	4.16092
2419.804	7.02920	5.42993	7.91178	3.80862
2423.784	7.08612	5.28791	8.03431	3.76628
2427.805	7.16840	4.93903	7.88906	3.90486
2431.784	6.65204	5.06001	8.24837	3.82130
2435.778	7.00252	4.63313	8.35457	3.67867
2439.771	7.03347	5.02085	8.33617	3.83332
2443.783	7.13700	4.89539	8.25865	3.93224
2447.786	7.29865	4.77708	8.36484	3.86182
2451.809	7.21381	4.99964	8.35180	3.73954
2455.787	7.29394	4.76198	8.57100	3.31555
2459.786	6.94827	4.91165	8.34069	3.68524
2463.786	7.15924	4.88962	8.21947	3.77483
2467.779	7.25919	4.79033	8.32830	3.41381
2471.786	6.96827	4.77246	8.38879	3.41343
2475.785	7.03093	4.96728	8.41102	3.66783
2479.786	6.97612	4.84037	8.44076	3.48331
2483.775	6.76657	5.06838	8.41247	3.04863
2487.741	6.88695	5.03580	8.30575	3.29548
2491.785	7.18609	5.01890	8.52207	3.17787
2495.797	7.49385	4.80610	8.48032	3.26571
2499.782	6.89414	5.08388	7.98082	3.38595
2503.786	7.06056	4.95600	8.20498	4.35980
2507.785	7.12933	4.87811	8.36083	3.37144
2511.785	6.64276	4.93996	8.44623	3.87990
2515.783	6.86268	5.03156	8.40349	3.17632
2519.740	7.16749	5.00521	8.45665	3.06162
2523.763	7.37899	4.93895	8.07985	3.45352
2527.786	7.27331	5.01207	7.75743	3.91768
2531.775	6.84328	5.05881	7.98948	3.59711
2535.786	7.03704	5.00518	8.06570	4.09158
2539.786	7.23916	5.04495	8.15117	3.43460
2543.786	6.99915	5.11113	8.37519	3.41291
2547.783	6.61190	5.17079	8.44370	3.10760
2551.787	6.79550	5.16129	8.21670	3.37926
2555.740	7.18850	5.05021	8.27620	3.35667
2559.785	7.21049	4.91623	8.20325	3.46669
2563.775	7.19131	4.99279	8.18684	3.35856
2567.781	6.90955	4.63924	8.21427	3.47714
2571.788	7.00049	4.61326	8.18444	3.37694
2575.789	6.96061	4.36919	8.04117	3.16450
2579.777	7.11601	4.32814	8.33423	3.13367
2583.788	7.24178	4.26691	8.14409	3.29567
2587.788	6.80847	4.30476	8.20989	3.21344
2591.788	7.13368	4.27643	8.16841	3.32986
2595.777	7.00201	4.23229	8.13325	3.34469
2599.789	7.05628	4.27475	8.14514	3.49303
2603.789	7.08954	4.13432	8.18867	3.36389
2607.758	6.88306	4.27075	8.41986	3.16636
2611.780	7.05692	4.43985	7.92152	2.77935
2615.788	7.08175	4.47863	7.76199	3.17044
2619.743	7.07134	4.30156	7.64357	3.71885
2623.788	7.06479	4.62857	7.80214	3.91459
2627.683	7.07735	4.89663	8.10652	3.89088
2631.789	7.07603	4.75514	8.21796	3.57195
2635.789	7.08270	4.89520	8.46024	3.37263
2639.789	6.99956	5.28737	8.86120	4.36933
2643.684	6.98399	4.98188	7.52559	4.69866
2647.751	7.14218	4.87240	7.24012	4.11496
2651.785	6.96411	4.83838	7.14528	4.10254
2655.790	7.01264	5.00813	7.26219	4.39726
2659.768	7.09930	5.17471	7.55815	4.44811
2663.790	7.01565	4.92710	8.15372	4.57353
2667.797	7.01218	4.78590	8.64568	4.75399
2671.791	7.14196	4.76316	7.78243	3.76401
2675.780	7.15391	4.81310	7.69042	3.09259
2679.791	7.14497	4.84642	8.12469	3.32576
2683.792	7.17101	4.82250	8.31591	3.39432
2687.793	7.13121	4.91246	8.18091	4.18569
2691.693	7.01599	5.04583	8.35811	4.13862
2695.791	7.18650	5.22199	8.06475	4.40689
2699.791	7.34541	5.07025	8.01633	4.18600
2703.791	7.12715	4.96941	8.12079	3.91077
2707.686	7.14081	5.12207	8.11897	4.14168
2711.791	7.24520	5.39052	9.15294	5.55184
2715.790	7.05740	5.45790	10.47256	8.00059
2719.789	7.53623	12.69821	11.27061	8.29998
2723.791	NaN	NaN	NaN	NaN
2727.794	NaN	NaN	NaN	NaN
2731.768	NaN	NaN	NaN	NaN
2735.790	NaN	NaN	NaN	NaN
2739.678	NaN	NaN	NaN	NaN
2743.791	NaN	NaN	NaN	NaN
2747.789	NaN	NaN	NaN	NaN
2751.745	NaN	NaN	NaN	NaN
2755.791	NaN	NaN	NaN	NaN
2759.789	NaN	NaN	NaN	NaN
2763.788	NaN	NaN	NaN	NaN
2767.794	NaN	NaN	NaN	NaN
2771.790	NaN	NaN	NaN	NaN
2775.791	NaN	NaN	NaN	NaN
2779.790	NaN	NaN	NaN	NaN
2783.791	NaN	NaN	NaN	NaN
2787.792	NaN	NaN	NaN	NaN
2791.790	NaN	NaN	NaN	NaN
2795.793	NaN	NaN	NaN	NaN
2799.793	NaN	NaN	NaN	NaN
2803.794	NaN	NaN	NaN	NaN
2807.751	NaN	NaN	NaN	NaN
2811.793	NaN	NaN	NaN	NaN
2815.763	NaN	NaN	NaN	NaN
2819.795	3.57612	7.45324	4.29480	3.24513
2823.793	7.43561	9.54920	8.16031	2.75246
2827.794	5.41859	8.88357	9.75020	3.33305
2831.796	3.65203	4.26793	9.56916	3.62929
2835.794	4.20585	6.06231	9.48091	4.22055
2839.794	3.07815	3.52969	8.02531	3.63169
2843.794	2.34191	3.97586	7.98016	4.25438
2847.690	3.32944	3.62129	5.35837	3.63081
2851.820	4.62372	4.04822	4.88082	2.54166
2855.794	3.41570	3.55186	2.19189	0.64220
2859.783	4.48527	3.56129	4.56434	0.91989
2863.795	5.39920	3.18487	6.22351	1.09210
2867.794	5.45285	2.87676	6.65769	1.16296
2871.795	5.40557	3.05850	6.52267	2.09560
2875.795	5.64825	3.30118	6.02806	2.38805
2879.689	5.44694	2.95140	6.15698	2.65854
2883.796	5.87828	2.97708	5.84127	2.55930
2887.794	5.73677	2.84649	5.97028	2.28403
2891.796	5.74718	2.83134	6.09302	2.24404
2895.691	5.68455	2.70354	6.27236	2.40026
2899.759	5.81923	2.72022	6.21880	2.14363
2903.794	5.91111	2.73676	6.29587	2.34046
2907.796	5.73242	2.97489	6.12691	2.45770
2911.797	5.69480	2.96971	6.25465	2.43938
2915.795	5.97769	2.93553	6.03395	2.33626
2919.796	5.78816	2.95167	6.22620	2.16872
2923.796	5.87599	2.98146	6.12300	2.31190
2927.797	5.83309	2.96505	6.20438	2.11929
2931.798	5.81666	3.20031	6.21728	1.78197
2935.798	5.95194	3.27744	6.18034	1.63696
2939.773	6.03395	3.14831	6.13880	2.01432
2943.692	5.62451	3.23979	6.23790	1.54123
2947.795	5.73691	3.18053	6.78554	1.86924
2951.807	5.83677	3.11426	6.38273	1.09793
2955.797	5.65926	3.22010	6.35363	1.81683
2959.689	5.33846	3.55842	6.49874	1.62823
2963.797	5.22906	3.40548	6.88301	1.20325
2967.795	5.51022	3.33830	6.60793	1.42257
2971.673	5.84264	3.30514	6.39548	1.73633
2975.661	5.77932	2.83989	6.65732	1.29712
2979.673	5.21764	2.91854	6.47424	1.59493
2983.672	5.69885	2.92994	6.53110	1.55352
2987.642	5.95317	3.02918	6.61472	1.45415
2991.626	5.65014	3.36619	6.88211	1.26315
2995.672	5.57498	3.49708	6.61330	1.38336
2999.672	4.70308	4.16391	6.58788	1.41863
3003.671	5.36317	2.86830	6.54477	1.57672
3007.661	5.97919	2.88371	6.22726	1.59204
3011.673	5.83019	3.09594	6.42052	1.57701
3015.672	5.64737	3.50524	6.45444	1.62405
3019.672	5.39357	2.72185	6.37707	1.54265
3023.663	4.71595	3.61392	6.44177	1.47314
3027.673	4.28992	4.07576	5.22505	2.35137
3031.669	3.75892	4.85564	2.29290	3.50573
3035.673	0.10838	6.20201	1.32014	4.76255
3039.693	0.31317	7.05674	0.99353	6.48487
3043.673	-1.53629	8.29379	0.22378	6.62458
3047.676	-1.81253	9.62346	-1.26899	9.44971
3051.668	-1.38709	9.25290	-1.43508	11.19939
3055.693	-1.61059	9.52540	-1.86218	10.48571
3059.672	-1.75969	9.42320	-1.63990	10.82671
3063.674	-1.70933	9.49155	-1.58971	10.91430
3067.671	-1.83799	9.40322	-1.07681	11.57366
3071.696	-1.88945	9.51776	-1.40720	11.09810
3075.673	-1.86543	9.64577	-1.52245	10.62079
3079.672	-1.80005	9.54610	-1.40477	9.96783
3083.676	-1.86357	9.62072	-1.13715	10.78457
3087.695	-1.83206	9.61297	-1.10497	10.36864
3091.674	-1.66227	9.58509	-0.79250	10.33916
3095.673	-1.63888	9.71428	-0.59235	10.44897
3099.674	-1.64927	9.65894	-0.27830	10.64284
3103.697	-1.65865	9.64395	-0.06135	10.56477
3107.674	-1.54420	9.65486	0.09530	10.54391
3111.653	-1.68930	9.66558	-0.20527	10.23246
3115.676	-1.81919	9.77309	-0.01839	10.53610
3119.694	-1.78431	9.68400	-0.72533	11.09258
3123.676	-1.76594	9.65525	-1.61416	11.22749
3127.676	-1.61109	9.65388	-0.90723	10.99339
3131.677	-1.39046	9.73960	-0.63851	10.75745
3135.696	-1.34894	9.81743	-0.86272	10.43711
3139.677	-1.45755	9.80755	-0.71454	9.50287
3143.675	-1.56642	9.85848	-0.41767	8.50907
3147.676	-1.58785	9.86174	-0.70466	9.90784
3151.707	-2.11004	9.50979	-0.51312	10.38884
3155.666	-1.76259	9.61403	-0.57895	11.80297
3159.676	-1.85284	9.50295	-1.11383	11.61319
3163.677	-1.65535	9.36016	-0.99556	10.76364
3167.702	-1.57052	9.40581	-0.77196	10.16295
3171.679	-1.43146	9.33997	-1.00020	10.26838
3175.673	-1.52134	9.55235	-1.02543	10.18556
3179.677	-1.75671	9.31970	-0.79754	9.29946
3183.697	-1.77169	9.52028	-0.95934	10.89673
3187.678	-1.66373	9.49367	-0.95566	10.59296
3191.677	-1.98132	9.58190	-0.44517	10.00166
3195.675	-1.87165	9.54633	-0.74538	10.33701
3199.697	-1.85395	9.52022	-0.68253	10.39317
3203.676	-1.84200	9.50182	-0.50294	10.22600
3207.676	-1.90324	9.70781	-0.42378	10.58406
3211.677	-2.19856	9.35307	-0.24200	11.01666
3215.697	-1.94667	9.51483	-1.02886	13.35207
3219.678	-1.94771	9.70908	-0.92371	13.40132
3223.677	-1.82733	9.77087	-1.01380	13.31741
3227.677	-1.55983	9.81800	-1.01025	13.09713
3231.696	-1.51675	9.49992	-0.86007	12.75070
3235.659	-1.66011	9.43700	-0.68742	12.03957
3239.673	-1.62537	9.57029	-1.12234	11.39132
3243.677	-1.59973	10.27420	-0.82595	11.81533
3247.698	-1.49755	10.22537	-0.58243	11.30954
3251.634	-1.43781	10.27209	-0.53339	11.09812
3255.680	-1.38131	10.03125	-0.75632	10.90264
3259.677	-1.27792	9.86854	-0.83855	10.62421
3263.698	-1.31649	9.81700	-1.06329	10.76809
3267.678	-1.37679	9.62591	-1.04838	10.94179
3271.684	-1.53304	9.55351	-0.97678	10.69844
3275.675	-1.56610	9.44700	-1.11107	10.28409
3279.698	-1.39445	9.35680	-1.11928	10.47654
3283.679	-1.40070	9.92715	-1.15945	10.45910
3287.678	-1.40678	9.58720	-0.91145	10.37801
3291.677	-1.35144	9.86223	-1.13804	10.33051
3295.697	-1.50752	9.84749	-1.21003	9.86385
3299.675	-1.62197	9.68279	-1.21569	10.31732
3303.678	-1.70197	9.69530	-1.22615	10.54089
3307.677	-1.66953	9.68739	-1.22536	10.52111
3311.701	-1.63311	9.62524	-1.21923	10.39320
3315.680	-1.57902	9.79259	-1.24401	10.33911
3319.651	-1.58113	9.72411	-1.20715	10.42019
3323.678	-1.65924	9.77192	-1.22248	9.94314
3327.699	-1.56293	9.69371	-1.15908	9.50512
3331.678	-1.40423	9.66393	-1.22156	9.13046
3335.680	-1.38099	9.60639	-1.13015	9.09702
3339.680	-1.39763	9.58555	-1.12162	9.24867
3343.699	-1.40733	9.66058	-1.07431	9.71894
3347.680	-1.40108	9.73483	-1.16925	10.08165
3351.679	-1.45718	9.69676	-1.03074	10.17779
3355.682	-1.33795	9.62228	-1.08748	11.03093
3359.700	-1.46740	9.45109	-0.94319	10.84064
3363.666	-1.43386	9.36852	-1.02766	10.08773
3367.681	-1.37072	9.46719	-1.01226	8.74536
3371.685	-1.54210	9.42039	-1.06036	9.49347
3375.680	-1.50891	9.48268	-1.12464	10.21488
3379.681	-1.72103	9.44688	-1.07277	10.48417
3383.684	-1.87431	9.56986	-1.24382	10.42115
3387.684	-1.60127	9.52960	-0.89694	10.64385
3391.700	-1.63445	9.30320	-0.68461	9.66687
3395.682	-1.77677	9.19306	-1.37508	9.67013
3399.682	-1.69126	9.24122	-1.48749	10.12225
3403.645	-1.61163	9.40294	-1.42898	10.27983
3407.667	-1.68895	9.42453	-1.28899	10.31417
3411.681	-1.92126	9.45358	-1.52325	10.55702
3415.681	-1.92123	9.32800	-1.47422	10.57600
3419.677	-1.68801	9.39379	-0.32285	10.59268
3423.705	-1.65220	9.11587	-1.06706	9.50225
3427.684	-1.43840	9.34398	-1.33822	9.92439
3431.679	-1.68273	10.19650	-1.32694	10.52323
3435.684	-1.42707	9.45206	-1.39026	10.72219
3439.684	-1.54396	9.47153	-1.03411	10.61600
3443.663	-1.59286	9.56353	-1.12747	10.22510
3447.678	-1.39517	9.51840	-0.53071	10.65030
3451.682	-0.98901	9.57627	-0.71307	10.30835
3455.683	0.02683	9.33838	0.00558	10.52870
3459.683	0.13476	8.86260	0.06110	10.36465
3463.683	0.18998	9.15702	0.05939	9.81409
3467.683	0.24711	9.43144	0.75563	9.90787
3471.685	0.13223	9.30639	1.46467	9.27522
3475.684	0.45564	9.31138	1.86965	9.54714
3479.685	0.46540	9.38699	0.29826	9.76295
3483.682	0.39641	9.32192	0.53957	10.07903
3487.638	0.36824	9.49838	0.36283	10.10769
3491.682	0.41693	9.24254	1.07116	9.61634
3495.682	0.57712	9.41725	1.55720	9.39257
3499.684	0.46018	9.32463	1.62016	9.20803
3503.672	0.52605	9.44908	0.89592	9.49673
3507.685	0.41301	9.41467	1.37836	9.29878
3511.684	0.40549	9.56900	1.70172	10.01105
3515.685	0.45644	9.29444	1.56288	9.70713
3519.688	0.20661	9.37035	1.67524	9.37840
3523.683	0.40519	9.40017	1.64575	9.13488
3527.660	0.40621	9.44709	1.91774	10.83583
3531.684	0.39996	9.41916	2.16012	10.23151
3535.686	0.19740	9.49798	2.12855	9.47271
3539.685	0.10667	9.76473	1.05059	9.27654
3543.683	0.29247	9.47882	1.07019	10.00100
3547.683	0.19350	9.54408	0.70833	10.63111
3551.687	0.22497	9.34324	0.70536	10.91543
3555.685	0.38377	9.41113	0.38194	10.28528
3559.687	0.36132	9.48968	0.47448	9.65807
3563.686	0.34618	9.48114	0.41318	10.05281
3567.686	0.24324	9.32448	0.54448	10.01019
3571.674	0.24286	9.43212	0.91639	9.69985
3575.688	0.25994	9.48008	1.15714	9.50491
3579.685	0.36223	9.60403	0.62622	9.97927
3583.686	0.42038	9.52143	0.60071	10.00385
3587.685	0.49575	9.62418	1.18381	9.47244
3591.685	0.47785	9.59657	1.68949	9.45689
3595.685	0.49766	9.56089	1.91918	9.38836
3599.687	0.42710	9.68962	1.32991	9.70784
3603.688	0.43130	9.60497	1.80734	9.62645
3607.686	0.42400	9.68854	2.08872	9.60578
3611.653	0.29679	9.60194	2.40545	10.75594
3615.682	0.31677	9.24635	1.79309	10.60699
3619.685	0.32732	9.61479	1.17016	9.75749
3623.687	0.10406	9.75300	1.79522	9.61734
3627.685	0.38387	9.75560	1.47590	9.28475
3631.686	0.33662	9.37499	1.37166	9.62028
3635.685	0.23696	9.76939	0.76288	11.57763
3639.686	0.04172	9.66757	0.60575	9.77398
3643.687	0.09726	9.29912	1.08257	9.82287
3647.687	0.03909	9.65050	0.61799	9.72497
3651.663	-0.01447	9.71244	0.43425	10.14813
3655.682	0.04854	9.71463	0.61062	9.62458
3659.688	0.10731	9.63640	0.51935	10.03274
3663.687	-0.00136	9.73054	0.49848	9.58608
3667.687	0.03040	9.69252	1.26056	9.18462
3671.687	-0.01760	9.54937	1.67015	8.91027
3675.687	-0.08532	9.53905	1.64441	9.79942
3679.690	0.01171	9.52661	1.53838	9.62531
3683.689	0.04929	9.48655	1.78471	9.62746
3687.688	0.04753	9.69621	1.42072	9.77061
3691.689	0.15439	9.58887	1.69832	10.69510
3695.702	-0.82816	9.60072	1.86645	9.40087
3699.687	-0.27632	9.78971	0.39452	9.66201
3703.687	0.12910	10.05446	1.90311	10.00125
3707.687	0.52495	12.23557	1.84352	9.77549
3711.582	0.85029	9.47299	NaN	NaN
3715.687	NaN	NaN	NaN	NaN
3719.685	NaN	NaN	NaN	NaN
3723.688	NaN	NaN	NaN	NaN
3727.690	NaN	NaN	NaN	NaN
3731.689	NaN	NaN	NaN	NaN
3735.661	NaN	NaN	NaN	NaN
3739.643	NaN	NaN	NaN	NaN
3743.643	NaN	NaN	NaN	NaN
3747.586	NaN	NaN	NaN	NaN
3751.644	NaN	NaN	NaN	NaN
3755.643	NaN	NaN	NaN	NaN
3759.689	NaN	NaN	NaN	NaN
3763.690	NaN	NaN	NaN	NaN
3767.690	NaN	NaN	NaN	NaN
3771.650	NaN	NaN	NaN	NaN
3775.678	NaN	NaN	NaN	NaN
3779.677	2.00103	11.77942	NaN	NaN
3783.645	3.71056	-1.16676	NaN	NaN
3787.690	2.16682	6.55411	5.18660	-5.87632
3791.690	3.00611	4.67516	5.54049	-1.26870
3795.690	2.22760	0.45620	10.49095	0.50591
3799.693	3.29439	0.78337	9.39914	-0.21250
3803.646	4.05947	0.31809	6.59518	-1.30039
3807.588	5.31393	-0.00148	4.36755	-1.78970
3811.692	2.12848	-0.30483	1.67147	-1.63793
3815.693	2.90747	-0.01985	1.42251	-0.79575
3819.654	2.83108	0.29370	3.49829	-0.26866
3823.586	4.31005	0.44175	3.66572	-1.04699
3827.690	2.73818	0.58525	4.08308	-1.91258
3831.691	2.77946	0.26507	3.93700	-1.90103
3835.691	3.70455	0.15077	3.97701	-1.31177
3839.584	3.47967	0.26249	3.81449	-1.60421
3843.691	3.69575	0.38671	3.97854	-1.41550
3847.691	3.16362	0.44984	3.90790	-1.07049
3851.693	2.62851	0.60156	3.66530	-1.39086
3855.693	2.65136	0.88051	3.89251	-1.52362
3859.672	2.89329	1.00210	3.82299	-1.25519
3863.688	3.34423	0.06234	4.07710	-1.70202
3867.693	3.41434	0.42292	4.00285	-1.91571
3871.590	3.23611	0.38514	3.93423	-1.73474
3875.694	3.29409	0.75717	3.93897	-1.41931
3879.691	3.15612	1.01486	3.83878	-1.15331
3883.692	2.98084	1.32640	4.10150	-1.02787
3887.693	2.84727	1.21185	4.20607	-1.40321
3891.695	2.98817	1.02033	5.05993	-1.22570
3895.693	3.34309	0.69741	4.55347	-1.42610
3899.690	3.55436	0.72391	4.83543	-1.63466
3903.587	3.36265	0.83220	4.54627	-2.05820
3907.692	3.11663	0.73503	4.16991	-1.85367
3911.694	2.95723	0.74670	4.06071	-1.65854
3915.694	3.05989	0.99347	4.11268	-1.62906
3919.592	2.79478	1.25093	3.87667	-1.66062
3923.692	2.70562	1.26326	4.11947	-1.93148
3927.693	2.94871	1.35702	3.92531	-1.88761
3931.692	2.94802	0.90413	4.01633	-2.06039
3935.591	2.86920	0.68733	3.90896	-2.03984
3939.693	2.83670	0.70452	3.89214	-2.01801
3943.669	2.95134	0.36082	3.86832	-1.97642
3947.692	2.98727	0.44769	3.93487	-1.92518
3951.650	2.93483	0.40383	3.90237	-1.92275
3955.695	2.96898	0.50958	3.90543	-1.80917
3959.695	2.90547	0.33813	3.84831	-1.76910
3963.696	2.87334	0.26813	3.73384	-1.79026
3967.695	2.83217	0.21622	3.62187	-1.73819
3971.695	2.50883	0.14999	3.66476	-1.59167
3975.698	1.96097	0.26220	3.53869	-1.64225
3979.695	2.82489	1.23505	3.88806	-1.59153
3983.684	3.13509	0.63030	3.91899	-1.67089
3987.695	3.13751	0.39123	4.15823	-1.68840
3991.533	2.80152	0.29029	3.62571	-1.52044
3995.570	3.31190	0.64361	3.59555	-1.57677
3999.568	3.16310	0.37254	3.50116	-1.73653
4003.571	2.67964	0.23968	3.74098	-1.65900
4007.571	3.00509	1.16634	3.64931	-1.62884
4011.570	2.05340	1.16161	2.82541	-1.60182
4015.697	2.57553	0.94670	1.81595	-1.67329
4019.569	-0.84744	1.45020	-3.65314	-0.30832
4023.582	-3.07471	1.81595	-3.79705	-0.50592
4027.569	-4.45649	2.03661	-6.58210	-0.26411
4031.598	-6.67669	1.81685	-7.26705	0.08398
4035.572	-8.50872	1.54384	-10.39897	-1.05412
4039.570	-10.07918	1.81096	-10.96423	-1.42258
4043.570	-11.34165	2.06010	-11.43462	-0.99990
4047.592	-11.99438	1.73319	-13.00349	-1.10598
4051.569	-12.01813	1.46806	-13.52801	-0.42409
4055.570	-11.97446	1.52400	-13.15412	-1.21512
4059.526	-12.11380	2.05498	-13.00921	-1.39846
4063.562	-12.13863	1.90848	-12.74615	-0.40955
4067.574	-12.14508	1.94430	-12.81443	-0.39131
4071.571	-11.98973	1.71683	-12.82495	-0.86734
4075.567	-12.12352	1.71156	-12.77488	-1.14643
4079.591	-12.15697	1.38366	-12.59763	-1.46436
4083.571	-11.98572	1.30095	-12.18016	-0.81217
4087.572	-12.19792	1.33816	-11.97140	-1.27128
4091.571	-12.16598	1.37500	-11.90143	-0.76687
4095.591	-12.07626	1.06472	-11.64747	-1.04248
4099.572	-12.11358	1.34137	-12.35197	-0.49222
4103.573	-12.09610	1.34148	-12.16413	-0.85654
4107.572	-12.02418	1.20080	-11.82050	-0.98118
4111.611	-11.88280	1.11823	-11.78621	-1.21696
4115.545	-11.88226	1.17679	-11.58163	-1.17354
4119.574	-11.81608	1.18133	-11.49865	-1.09719
4123.573	-11.84796	0.97017	-11.44854	-0.84972
4127.593	-11.92258	1.14480	-11.34425	-0.92218
4131.572	-11.79425	1.13566	-11.30615	-0.92927
4135.572	-11.64413	1.22503	-11.23081	-1.14588
4139.572	-11.55600	1.29544	-11.30973	-1.04166
4143.595	-11.51044	1.42320	-11.25440	-0.69621
4147.572	-11.46804	1.42246	-11.17245	-0.49272
4151.573	-11.53844	1.44960	-11.11669	-0.16590
4155.573	-11.42236	1.56907	-11.05130	-0.30344
4159.594	-11.29283	1.62961	-11.03031	-0.25402
4163.574	-11.25359	1.69870	-11.02117	-0.19896
4167.573	-11.30796	1.72435	-11.03002	-0.05327
4171.574	-11.27927	1.86887	-11.03050	0.04771
4175.592	-11.36842	1.94341	-11.05146	0.10031
4179.573	-11.44368	1.95063	-11.07326	0.11186
4183.575	-11.55297	2.02589	-11.07752	-0.03360
4187.574	-11.70107	2.08695	-11.11267	-0.10129
4191.597	-11.75284	2.08663	-11.13891	-0.10457
4195.578	-11.83003	2.12379	-11.16827	-0.08774
4199.539	-11.79955	1.98138	-11.18007	-0.88732
4203.576	-11.60158	1.87380	-11.20407	-0.56055
4207.599	-11.54928	2.04082	-11.36839	-0.66492
4211.574	-11.54165	2.04990	-11.52510	-0.82668
4215.573	-11.74501	2.02983	-11.58091	-0.61562
4219.574	-11.62332	2.00471	-11.50100	-0.55587
4223.592	-11.34850	2.07018	-11.48068	-1.05505
4227.575	-11.71094	1.98170	-11.52600	-1.05590
4231.576	-11.78452	1.78598	-11.39952	-1.00305
4235.574	-11.75843	1.81553	-11.28992	-0.73369
4239.581	-11.81035	1.42229	-11.39260	-0.56836
4243.572	-11.87429	1.47321	-11.62311	-0.82150
4247.574	-11.96859	1.41641	-11.36849	-0.66570
4251.574	-12.03334	1.35324	-11.20366	-0.64624
4255.595	-12.05267	1.33811	-11.22621	-0.59679
4259.575	-12.13090	1.29959	-11.21883	-0.57792
4263.575	-12.13498	1.39002	-11.21787	-0.53332
4267.574	-12.14079	1.21412	-11.14469	-0.42648
4271.597	-12.13859	1.21576	-11.06251	-0.71707
4275.578	-12.15367	1.33418	-10.98544	-0.60648
4279.567	-12.14134	1.29491	-11.00338	-0.52762
4283.563	-12.14112	1.48902	-10.94268	-0.68778
4287.565	-12.06862	1.35928	-10.96102	-0.69520
4291.575	-11.97137	1.38856	-10.98635	-0.54216
4295.577	-11.87681	1.39670	-10.99310	-0.40333
4299.578	-11.94163	1.47579	-11.05055	-0.57830
4303.564	-11.99070	1.33098	-11.08713	-0.44780
4307.607	-12.07303	1.32103	-10.98219	-0.43557
4311.577	-12.11966	1.40180	-11.01649	-0.48913
4315.578	-12.11266	1.48820	-10.97825	-0.50654
4319.597	-12.11009	1.43019	-11.02925	-0.20017
4323.546	-11.87584	1.23070	-11.02225	-0.28781
4327.576	-11.91303	1.19695	-11.08701	-0.71338
4331.576	-11.86847	1.32008	-11.24726	-0.47870
4335.573	-12.12684	1.31938	-11.46270	-0.54711
4339.579	-12.17447	1.28586	-11.78804	-0.39501
4343.577	-12.06976	1.25396	-11.17515	-0.41993
4347.578	-11.99780	1.26657	-11.15198	-0.50536
4351.579	-11.95836	1.25305	-11.13860	-1.30048
4355.578	-11.91902	1.29005	-11.17245	-0.63047
4359.582	-12.02563	1.21299	-11.70730	-0.42627
4363.532	-11.88649	1.17604	-11.18637	-0.20684
4367.575	-11.89183	1.13625	-11.14008	-0.32607
4371.578	-11.89076	1.08648	-10.95880	-0.50928
4375.577	-11.89747	1.22599	-10.82816	-0.79275
4379.579	-11.91628	1.11248	-11.07018	-0.27459
4383.567	-11.79929	1.26579	-10.92256	-0.31670
4387.578	-11.70697	1.30836	-11.09162	-0.54616
4391.578	-11.72981	1.39757	-11.09721	-0.60581
4395.578	-11.58024	1.44194	-11.12013	-0.78824
4399.569	-11.69007	1.74847	-11.04661	-0.44611
4403.579	-11.67444	1.81348	-11.12073	-0.67227
4407.542	-11.79636	2.08023	-11.18425	-0.55266
4411.578	-11.80478	1.78434	-11.25688	-0.50069
4415.569	-11.66318	1.70076	-11.24445	-0.61671
4419.579	-11.67170	1.67282	-11.25660	-0.53671
4423.580	-11.51730	1.54692	-11.02411	-0.60084
4427.581	-11.63032	1.51657	-10.72917	-0.69181
4431.568	-11.68357	1.47521	-10.92736	-0.73929
4435.581	-11.85466	1.36784	-11.11047	-0.69892
4439.579	-11.83372	1.61988	-11.12543	-0.37029
4443.581	-11.72791	1.46330	-11.29240	-0.41469
4447.569	-11.77277	1.36890	-11.18396	-0.55498
4451.577	-11.74872	1.30383	-11.32944	-0.71032
4455.581	-11.77446	1.31414	-11.20997	-0.80420
4459.580	-11.56188	1.35367	-11.12656	-1.30305
4463.570	-11.58334	1.34860	-10.92909	-1.89768
4467.580	-11.58806	1.34692	-11.17995	-1.88790
4471.581	-11.64563	1.31342	-11.04730	-0.99450
4475.579	-11.56143	1.27021	-10.40007	-0.88926
4479.572	-11.67006	1.26130	-10.82256	-0.94579
4483.582	-11.67582	1.18854	-10.78688	-0.71164
4487.535	-11.67051	1.08569	-10.94803	-0.70989
4491.580	-11.77427	1.06695	-11.07790	-0.80328
4495.570	-11.66889	1.10117	-11.02395	-0.94693
4499.580	-11.50977	1.19573	-11.16227	-0.57365
4503.580	-11.31066	1.09575	-11.15250	-0.56135
4507.582	-11.54199	1.31069	-11.08722	-0.48638
4511.570	-10.96021	1.81662	-10.25475	-0.34497
4515.581	-9.12137	3.35602	-9.54790	0.06288
4519.581	-6.30624	3.03851	-8.54896	-0.13395
4523.584	-5.25281	3.41955	-6.79599	0.51744
4527.572	-4.28997	3.33171	-5.39551	1.27707
4531.552	-1.72165	3.08370	-4.28441	1.56178
4535.580	-1.22618	3.03712	-1.36176	1.98060
4539.583	1.92106	2.85574	2.00916	1.83814
4543.571	2.54001	3.07232	1.98787	0.98458
4547.583	2.72753	2.86624	2.15036	1.43390
4551.538	3.87183	2.71717	3.63404	0.70201
4555.580	4.78208	2.89491	3.82724	1.08192
4559.574	4.58851	2.87770	3.95775	0.90560
4563.582	4.27807	2.83998	4.08829	0.96854
4567.582	3.77416	2.91062	4.06947	0.48474
4571.564	4.14653	3.70688	4.04369	0.49886
4575.579	4.16347	3.59311	4.63997	0.62048
4579.586	4.17201	3.49805	4.38363	0.89210
4583.582	4.45325	3.19853	4.26102	0.67672
4587.581	3.99625	3.43000	4.13349	0.98023
4591.579	4.02431	3.37656	4.27032	1.10736
4595.584	3.61238	3.23309	4.20832	0.95343
4599.583	3.86991	3.03988	4.15036	1.07993
4603.581	3.75007	2.64872	4.39126	1.07046
4607.574	3.74372	1.59559	4.36809	0.80802
4611.584	3.71584	2.25627	4.58947	1.09884
4615.545	3.52870	3.61199	4.57926	1.12733
4619.584	3.45880	3.15162	4.36496	0.88321
4623.573	3.62217	3.35140	4.20706	0.50802
4627.584	3.53661	3.50031	4.06880	0.73617
4631.586	3.57345	3.21147	4.14135	0.93721
4635.584	3.50887	3.06320	4.32802	1.38474
4639.571	3.54225	3.19348	4.29939	1.24241
4643.585	3.56452	2.93826	4.32079	1.67482
4647.585	3.48113	3.17250	4.06520	1.83408
4651.593	3.43647	3.17964	3.88107	1.95445
4655.480	3.39933	3.14544	3.68814	2.21200
4659.590	3.43773	3.05945	3.54984	2.17288
4663.584	3.38711	3.17382	3.66001	0.70771
4667.584	3.37247	3.16811	3.74646	0.82025
4671.584	3.31390	3.12175	3.58455	0.89828
4675.581	3.23455	3.11690	3.31838	0.66930
4679.589	3.17072	3.19024	3.79791	0.71320
4683.584	3.05922	3.34130	3.67900	0.28830
4687.585	3.05558	3.37944	3.76020	0.40151
4691.586	3.11905	3.30995	3.40771	0.25026
4695.577	4.01258	3.03874	5.68627	-0.02000
4699.574	7.19573	1.10456	6.20175	-0.21154
4703.580	7.55764	0.77093	6.39660	-2.61047
4707.589	7.95132	0.45154	6.99903	-1.42060
4711.588	7.89620	0.07037	7.44125	-2.02325
4715.586	8.49568	-0.11966	7.85458	-2.54262
4719.578	8.72105	-0.67871	9.76910	-2.58981
4723.586	8.78001	-0.92993	9.63221	-2.66108
4727.588	8.81789	-1.00124	10.02425	-2.77122
4731.587	8.58845	-0.93244	9.74494	-2.47312
4735.487	8.96227	-1.03405	9.71587	-2.44519
4739.542	8.98712	-1.06911	9.65411	-2.34601
4743.586	8.80146	-0.99316	9.61293	-2.60941
4747.587	8.71303	-0.98365	9.99946	-2.78889
4751.486	8.88239	-1.01395	9.98417	-2.81983
4755.587	8.82112	-0.99866	10.57975	-3.81827
4759.587	8.86103	-1.00775	10.38970	-3.38463
4763.587	9.01886	-1.06625	10.23839	-3.54587
4767.591	8.89521	-1.09645	10.09667	-3.36016
4771.587	9.07358	-1.11485	9.93590	-2.93578
4775.589	9.10821	-1.08431	9.61276	-2.62014
4779.574	8.89007	-1.09860	9.88461	-3.20126
4783.482	9.00465	-1.02230	10.28469	-3.42764
4787.586	12.51073	-8.50351	10.30920	-3.71932
4791.587	12.45620	-8.07173	10.30230	-3.66499
4795.586	12.34548	-7.82992	10.33123	-3.67047
4799.587	11.98902	-7.43943	10.04863	-3.44938
4803.588	11.92831	-11.59387	9.89241	-3.23554
4807.588	6.16294	-1.11057	10.53444	-3.59107
4811.588	11.76074	-11.24931	10.46292	-3.51853
4815.485	11.49645	-11.12175	10.50057	-3.46139
4819.589	11.52202	-10.71815	10.38752	-3.42236
4823.589	11.27269	-10.39628	10.33783	-3.13641
4827.589	11.05359	-9.96639	10.40192	-3.20979
4831.587	10.97920	-9.83568	10.20248	-3.42556
4835.589	-19.99372	-11.71561	10.30639	-3.45087
4839.589	8.73444	-0.64487	10.13633	-3.29641
4843.589	8.60744	-0.78941	10.24113	-3.50542
4847.588	8.59039	-0.84651	10.17596	-3.38531
4851.569	8.50921	-0.81305	10.06292	-3.35090
4855.590	8.54023	-1.01704	9.85626	-3.27762
4859.593	8.72323	-0.96153	9.50074	-2.51230
4863.590	8.94523	-1.15414	8.91980	-2.75542
4867.592	9.04851	-1.16063	9.45819	-3.27580
4871.600	8.75785	-1.27172	9.96930	-3.32570
4875.587	8.69932	-1.20382	9.79766	-3.15542
4879.589	8.65298	-1.39396	10.22296	-3.07954
4883.590	8.64553	-1.53354	10.18397	-3.12069
4887.591	8.65031	-1.49220	10.11562	-3.07440
4891.588	8.48423	-1.51162	10.07504	-2.91295
4895.482	8.43588	-1.60659	10.16690	-3.04255
4899.589	5.89770	-0.97091	10.21719	-2.90622
4903.580	8.57699	-1.15580	10.14232	-3.00622
4907.590	8.68029	-1.29011	10.03007	-2.86178
4911.591	8.78660	-1.21777	10.02333	-2.82767
4915.590	9.03766	-1.32771	10.02184	-2.82988
4919.591	9.03019	-1.46552	10.02114	-2.88759
4923.591	8.94707	-1.16024	9.96429	-3.00396
4927.590	8.68468	-1.11193	9.70567	-2.94358
4931.592	8.58335	-0.95547	9.76852	-2.72053
4935.592	8.68824	-1.24326	10.09561	-3.30792
4939.593	9.34732	-2.47617	10.21459	-4.39201
4943.488	10.00863	-3.75342	11.08856	-5.78546
4947.561	10.25930	-4.32858	11.08591	-5.84500
4951.578	10.42567	-6.21926	11.43350	-5.75970
4955.592	10.70114	-6.36858	11.52574	-5.33545
4959.594	10.73512	-6.52488	11.34461	-5.78828
4963.593	11.03927	-6.03304	11.83355	-6.00665
4967.588	11.03284	-6.18012	11.80376	-6.21808
4971.595	11.05988	-6.26842	11.73183	-6.57754
4975.592	11.07680	-6.35645	11.99968	-6.53784
4979.591	11.19791	-6.42819	12.54578	-6.78666
4983.593	10.79550	-6.54278	11.99118	-6.51371
4987.423	10.65268	-6.11572	11.95296	-6.45122
4991.484	10.26977	-6.11540	11.89578	-6.51767
4995.592	9.88629	-5.45509	11.67996	-6.49815
4999.591	9.76647	-5.42250	11.87208	-6.51065
5003.591	9.94144	-5.16611	11.74913	-6.56894
5007.454	9.94370	-5.26521	11.81736	-6.24940
5011.592	9.83913	-5.27688	12.04165	-6.56695
5015.468	10.04995	-6.14761	12.44335	-6.66492
5019.468	9.98085	-6.20266	12.34122	-6.75613
5023.488	10.40322	-6.27506	12.14675	-6.74371
5027.466	11.46194	-6.74822	12.50486	-6.61529
5031.468	11.16691	-6.30386	11.78057	-6.74207
5035.443	11.04623	-6.61847	11.71841	-6.78722
5039.434	11.16765	-6.60169	11.87522	-6.70496
5043.468	10.71089	-6.71943	11.69864	-6.68028
5047.424	10.56347	-6.26088	12.04866	-6.92439
5051.468	10.89733	-6.26203	12.32203	-6.74342
5055.466	11.03042	-6.44618	12.42067	-6.88788
5059.423	11.06772	-6.30943	11.82487	-6.72545
5063.469	10.91119	-6.14618	11.83388	-6.78452
5067.470	11.05051	-5.96867	11.66670	-6.68871
5071.490	10.67835	-5.62024	11.76557	-6.62064
5075.455	10.65287	-5.19588	11.75355	-6.54742
5079.471	10.48658	-5.03560	12.47335	-6.74543
5083.471	10.38649	-4.97021	11.96420	-6.40395
5087.486	10.35267	-5.26202	11.91431	-6.33175
5091.467	10.08917	-5.45729	12.01896	-6.30896
5095.470	10.38101	-5.07661	12.09863	-6.47076
5099.468	10.65223	-4.16137	12.08758	-6.39861
5103.466	16.72339	-2.53423	12.20771	-5.90036
5107.468	16.48285	0.85276	15.52817	-5.35565
5111.424	NaN	NaN	22.16076	-4.71886
5115.469	NaN	NaN	20.21396	-5.53353
5119.460	NaN	NaN	NaN	NaN
5123.466	NaN	NaN	NaN	NaN
5127.467	NaN	NaN	NaN	NaN
5131.468	NaN	NaN	NaN	NaN
5135.469	NaN	NaN	NaN	NaN
5139.470	NaN	NaN	NaN	NaN
5143.426	NaN	NaN	NaN	NaN
5147.470	NaN	NaN	NaN	NaN
5151.427	NaN	NaN	NaN	NaN
5155.471	NaN	NaN	NaN	NaN
5159.449	NaN	NaN	NaN	NaN
5163.465	NaN	NaN	NaN	NaN
5167.471	NaN	NaN	NaN	NaN
5171.470	NaN	NaN	23.48507	-2.92825
5175.470	17.96386	-1.76273	NaN	NaN
5179.494	20.08173	-0.15609	9.42221	-7.36205
5183.474	19.80363	-2.31673	23.37058	-6.73684
5187.473	3.52833	-6.72963	6.52978	-5.01118
5191.473	3.58166	-6.94403	14.59152	-7.82763
5195.470	4.09964	-7.36985	12.12907	-6.99498
5199.469	12.29716	-7.25976	12.61736	-7.15790
5203.435	10.22993	-7.12322	12.46935	-6.96560
5207.472	12.09821	-7.13361	13.10158	-7.16970
5211.463	11.74014	-7.21488	12.91423	-7.12918
5215.472	12.03220	-7.86158	12.42669	-6.96420
5219.471	11.79774	-8.12213	12.26085	-6.98536
5223.470	11.64163	-7.52281	12.23298	-6.79978
5227.471	11.02289	-7.25828	12.15962	-6.80239
5231.471	10.77476	-7.27691	12.07972	-6.54780
5235.474	10.51393	-7.15043	12.02784	-6.39919
5239.470	11.30238	-7.14450	11.99764	-6.41317
5243.432	11.34313	-7.27708	12.51797	-6.72485
5247.472	11.26247	-7.36031	12.61894	-6.63803
5251.482	11.15917	-7.42523	12.80426	-6.79915
5255.474	11.02215	-7.44958	12.74183	-6.69112
5259.463	11.12859	-7.57876	12.78906	-6.79862
5263.473	11.35127	-7.56998	12.61594	-6.73795
5267.472	11.30109	-7.58030	12.95240	-6.94708
5271.473	11.30424	-7.32831	12.94886	-6.96052
5275.430	11.55135	-7.51270	12.87912	-7.01184
5279.474	11.44299	-7.23654	12.90454	-7.04972
5283.478	11.48265	-7.21179	12.44276	-7.01868
5287.463	11.42751	-7.29872	12.89631	-7.06254
5291.499	11.38261	-7.06757	12.61261	-7.08736
5295.473	11.37643	-6.94538	12.55424	-7.09674
5299.473	11.29111	-6.66616	12.60502	-7.09822
5303.475	11.12118	-6.85053	12.39428	-7.08825
5307.493	10.86495	-6.81425	12.45845	-7.09127
5311.474	11.11045	-6.80027	12.41613	-7.05372
5315.475	11.02605	-6.61023	12.38109	-7.03537
5319.476	11.04267	-6.53792	12.44692	-7.03172
5323.494	10.92102	-6.42928	12.38768	-7.01822
5327.443	10.87034	-6.30541	12.48594	-6.97926
5331.429	10.80249	-6.62275	12.32239	-7.02564
5335.474	10.79751	-7.08527	12.57545	-8.56417
5339.464	10.93165	-7.32219	12.79383	-9.67683
5343.475	10.89949	-8.38652	13.88771	-10.21752
5347.473	10.85720	-9.52101	15.41951	-11.48572
5351.501	10.89341	-11.30386	16.12980	-12.50646
5355.464	10.98848	-11.67935	16.41626	-13.03290
5359.475	12.13643	-13.63265	15.89444	-12.86152
5363.473	11.51321	-12.67161	16.04168	-12.84605
5367.457	12.46992	-13.23950	15.98835	-12.89380
5371.478	12.75460	-14.20406	16.04113	-12.88692
5375.475	12.51842	-13.77216	16.45875	-13.08465
5379.475	12.82535	-13.99450	17.00518	-13.40470
5383.481	12.81035	-13.77609	17.09100	-13.47774
5387.466	13.07888	-14.01145	17.03872	-13.42897
5391.476	13.04799	-13.87249	17.12625	-13.48146
5395.475	13.02822	-13.87226	16.80312	-13.34748
5399.476	13.13486	-13.75992	17.14458	-13.36019
5403.474	12.31395	-13.66499	17.14701	-13.36845
5407.473	12.25517	-13.97084	16.22732	-13.30598
5411.472	12.24799	-13.97724	16.33630	-13.29684
5415.476	12.02238	-13.82658	16.19798	-13.22104
5419.471	11.35349	-13.67161	15.90194	-13.00487
5423.434	11.39098	-13.40763	15.97113	-12.87744
5427.434	11.29581	-13.04922	15.75647	-12.63667
5431.476	11.51039	-12.93451	15.79967	-12.60886
5435.481	11.67570	-13.37608	15.81095	-12.58124
5439.476	11.63582	-13.72230	16.35577	-12.66186
5443.478	11.20214	-13.89983	15.73189	-12.53918
5447.476	11.33428	-13.63578	16.03999	-12.54296
5451.499	11.74661	-13.68471	16.02438	-12.49288
5455.476	11.95866	-13.14138	12.72407	-11.93158
5459.477	11.95201	-13.25271	15.75173	-12.41120
5463.478	15.62287	-14.01489	15.82090	-12.42381
5467.476	15.47425	-14.19692	15.82956	-12.42786
5471.479	15.86780	-14.15083	15.89333	-12.46879
5475.477	16.08575	-14.20816	15.98542	-12.49893
5479.478	16.12804	-14.02746	15.90304	-12.47217
5483.479	16.69204	-14.22697	15.72816	-12.35539
5487.480	17.28185	-14.14545	15.80668	-12.32431
5491.467	17.81415	-13.83680	15.86698	-12.31675
5495.467	18.38839	-13.78153	15.97431	-12.28686
5499.479	15.19752	-11.42846	15.91110	-12.31437
5503.479	15.49656	-11.60045	16.02788	-12.32753
5507.479	15.88160	-11.58463	16.05163	-12.33787
5511.478	9.71083	-13.21969	16.09011	-12.33795
5515.476	9.80802	-13.46613	16.07471	-12.32921
5519.478	-19.99372	-12.10009	16.10124	-12.30503
5523.479	-19.99372	-12.08450	15.89416	-12.22427
5527.480	10.33709	-13.37232	15.68858	-12.15965
5531.478	11.21847	-13.44675	15.89251	-12.16738
5535.444	11.94258	-13.42335	15.33804	-11.98808
5539.477	11.82171	-13.18471	15.47245	-11.89560
5543.478	11.95940	-12.84145	15.96473	-11.99973
5547.467	11.94178	-12.65930	15.82145	-11.91754
5551.508	12.12362	-12.79059	15.78485	-11.97010
5555.436	12.12431	-12.38601	15.45956	-11.86242
5559.476	12.19268	-12.88692	15.48711	-11.83873
5563.476	12.26147	-12.76698	15.64862	-11.83962
5567.479	12.29372	-12.77794	15.99679	-11.90159
5571.479	12.37970	-12.60761	15.96537	-11.96543
5575.481	12.42799	-12.82774	15.62761	-11.99048
5579.452	12.24457	-12.68066	15.69597	-11.98416
5583.480	12.12262	-12.57276	15.69006	-12.04235
5587.482	11.50908	-12.51926	14.68227	-11.93658
5591.451	12.17205	-12.48331	15.52548	-12.01200
5595.478	11.70161	-12.70247	15.60802	-11.99301
5599.481	11.69778	-12.91047	14.73321	-11.86584
5603.480	11.31304	-13.23161	14.36930	-11.75128
5607.480	10.99087	-13.80163	13.02149	-11.38104
5611.479	10.27102	-14.19298	12.61712	-11.23301
5615.479	10.41196	-14.38623	12.39556	-11.17005
5619.472	-19.99372	-12.17793	12.39262	-11.16686
5623.481	-19.99372	-12.15392	12.47513	-11.13057
5627.470	-19.99372	-12.16796	12.34910	-11.00964
5631.479	-19.99372	-12.19839	12.33042	-10.98487
5635.481	-19.99372	-12.22344	12.32490	-10.89085
5639.479	-19.99372	-12.17048	12.29969	-10.88726
5643.479	-19.99372	-12.11832	12.26763	-10.84528
5647.481	-19.99372	-12.08982	12.31805	-10.82739
5651.512	-19.99372	-12.08209	12.30379	-10.83893
5655.481	-19.99372	-12.07903	12.30244	-10.83554
5659.473	NaN	NaN	12.30159	-10.84522
5663.481	NaN	NaN	12.30242	-10.83795
5667.481	NaN	NaN	12.30682	-10.84255
5671.482	10.53075	-14.95351	12.20731	-10.83729
5675.376	10.38034	-14.75354	12.31717	-10.82431
5679.481	10.21019	-14.79211	12.33309	-10.83772
5683.481	10.31465	-14.88328	12.37399	-10.83157
5687.484	9.84621	-13.09520	12.70062	-10.87298
5691.375	9.83823	-13.32882	12.90183	-10.89164
5695.486	9.62970	-13.37549	13.11785	-10.91822
5699.472	8.77623	-13.77986	13.30174	-10.98120
5703.474	9.24987	-13.98154	13.17908	-10.98623
5707.484	8.91280	-13.96845	13.30921	-11.03870
5711.485	9.01254	-14.04778	12.95027	-11.01516
5715.482	9.07382	-13.89767	13.05785	-11.04187
5719.485	8.75584	-13.88266	13.05039	-11.05161
5723.481	8.76442	-13.89411	12.92812	-11.05200
5727.482	8.55569	-13.91525	12.90503	-11.07273
5731.483	8.70410	-13.96891	12.77634	-11.03760
5735.438	8.53578	-13.98840	12.59531	-11.01031
5739.383	8.45118	-14.09162	12.53239	-10.95952
5743.447	8.30114	-14.11282	12.59517	-10.95841
5747.483	8.07141	-14.20897	12.61634	-10.96091
5751.438	-19.99372	-12.76708	12.50129	-10.92933
5755.472	-19.99372	-12.51017	12.42112	-10.91108
5759.482	-19.99372	-12.35386	12.45168	-10.89944
5763.483	8.97036	-14.50121	12.48317	-10.92819
5767.483	9.32799	-14.31373	12.49857	-10.94189
5771.381	9.29568	-14.43671	12.56339	-10.95141
5775.484	9.43675	-14.42403	12.64501	-10.94574
5779.484	9.35947	-14.42473	12.71819	-10.96440
5783.485	9.45983	-14.36168	12.80055	-10.99253
5787.376	9.39525	-14.32268	12.83446	-11.00157
5791.483	9.42629	-14.29854	12.82847	-10.99303
5795.485	9.42163	-14.21639	12.89527	-11.01449
5799.446	9.45428	-14.16254	12.90022	-11.02301
5803.380	9.38600	-14.18284	12.89232	-11.02188
5807.485	9.36989	-14.05709	12.96053	-11.04325
5811.486	9.30331	-13.81333	13.00810	-11.05000
5815.486	9.30783	-13.84231	13.12604	-11.09935
5819.382	9.28784	-13.64817	13.11865	-11.12036
5823.485	9.22816	-13.48566	13.22963	-11.17036
5827.478	9.24056	-13.39286	13.20414	-11.18838
5831.485	9.09565	-13.37328	13.16139	-11.19939
5835.381	9.10117	-13.28822	13.32026	-11.24454
5839.493	9.06308	-13.27742	13.23659	-11.26296
5843.485	9.00268	-13.26429	13.47397	-11.31034
5847.485	9.03389	-13.26840	13.37937	-11.32937
5851.380	8.99545	-13.21725	13.39577	-11.32550
5855.486	8.84552	-13.17727	13.21227	-11.32305
5859.488	8.90175	-13.16089	13.10280	-11.29449
5863.486	8.89017	-13.19297	13.05093	-11.27806
5867.382	8.94985	-13.17239	13.04024	-11.24920
5871.487	9.01094	-13.30403	12.84864	-11.22097
5875.485	8.95961	-13.34780	13.21138	-11.22043
5879.486	8.96537	-13.20465	13.12168	-11.15313
5883.380	8.15786	-12.79153	11.70504	-10.24979
5887.489	8.01484	-13.88359	10.63339	-10.16888
5891.487	6.95839	-13.24581	8.96753	-9.52419
5895.487	6.46721	-12.22715	7.30952	-9.75176
5899.387	5.55020	-11.97413	7.25020	-9.22364
5903.488	4.34761	-11.61315	7.39996	-9.29366
5907.469	3.77182	-11.41159	7.39469	-9.31503
5911.488	3.52924	-11.27807	7.42949	-9.24689
5915.328	4.80041	-10.97471	7.43857	-9.27661
5919.488	4.08656	-11.09220	7.35749	-9.16022
5923.488	4.06456	-11.10970	7.08661	-9.04923
5927.485	4.03779	-11.58352	6.90141	-8.93725
5931.384	3.89355	-11.10386	6.55849	-8.81477
5935.492	3.66871	-10.85308	6.27601	-8.64654
5939.488	3.84127	-10.68564	6.54541	-8.70185
5943.491	3.62917	-10.62949	6.24970	-8.62790
5947.389	3.52044	-10.34278	6.15193	-8.63450
5951.454	3.37959	-10.64620	6.30213	-8.63445
5955.487	3.47220	-10.57180	6.22402	-8.58335
5959.488	3.43459	-10.61508	6.26358	-8.58701
5963.384	3.29659	-10.57854	6.19729	-8.59489
5967.488	3.35986	-10.74426	6.20258	-8.61354
5971.488	3.20714	-10.67659	6.26206	-8.66886
5975.488	2.69101	-10.68556	6.39719	-8.73204
5979.381	2.40018	-10.78509	6.73211	-8.78621
5983.484	2.27377	-10.86925	6.55062	-8.78217
5987.445	2.52775	-10.85086	6.71253	-8.81069
5991.466	2.46905	-10.95474	6.68181	-8.82350
5995.492	2.84175	-11.01842	6.73079	-8.83651
5999.490	2.72323	-11.10195	6.84989	-8.87624
6003.489	2.87646	-11.10011	6.89710	-8.89765
6007.491	3.15152	-11.15547	6.93225	-8.92023
6011.386	3.21495	-11.11935	6.99423	-8.94446
6015.489	2.74737	-11.03779	7.03003	-8.93527
6019.490	3.17359	-10.97852	7.10707	-8.95413
6023.490	3.31672	-10.87916	7.13773	-8.96750
6027.388	3.35382	-10.99192	7.21078	-9.02893
6031.488	3.43113	-10.88784	7.24813	-9.10632
6035.445	3.40207	-11.01175	7.32072	-9.19467
6039.335	3.43091	-11.00194	7.34384	-9.28541
6043.333	3.46330	-10.98635	7.42756	-9.37872
6047.365	3.45344	-11.08952	7.43832	-9.47844
6051.376	3.49347	-11.25542	7.45897	-9.52737
6055.321	3.40714	-11.50368	7.42027	-9.52549
6059.355	3.47295	-11.38089	7.40555	-9.57250
6063.366	3.50642	-11.70040	7.43249	-9.64494
6067.364	3.49609	-11.73406	7.38463	-9.68850
6071.367	3.49490	-11.83903	7.45428	-9.73387
6075.364	3.34420	-11.55611	7.44008	-9.72482
6079.346	2.69923	-11.62030	7.49915	-9.72420
6083.364	2.68408	-11.55753	7.50186	-9.72845
6087.371	2.31007	-11.53623	7.40091	-9.70515
6091.358	2.33167	-11.57457	7.27973	-9.65761
6095.366	2.21145	-11.57041	7.19813	-9.62475
6099.366	2.55889	-11.47425	7.10208	-9.62225
6103.366	2.27684	-11.53303	6.75441	-9.57183
6107.355	2.40922	-11.57994	6.80737	-9.55324
6111.365	2.72578	-11.46212	6.71706	-9.46156
6115.322	2.94225	-11.45710	6.73586	-9.43722
6119.370	3.11381	-11.49434	6.60081	-9.42060
6123.357	2.93054	-11.43109	6.58869	-9.39807
6127.368	3.31177	-11.20236	6.56297	-9.39677
6131.368	3.38931	-11.32058	6.50075	-9.41220
6135.368	3.50074	-10.88796	6.55873	-9.40240
6139.358	3.39354	-11.27003	6.77516	-9.45726
6143.368	3.31880	-10.93652	6.81238	-9.41793
6147.367	3.50361	-10.87148	6.75862	-9.43385
6151.347	3.55293	-10.97691	6.74063	-9.43784
6155.358	3.60227	-10.51956	6.95176	-9.53216
6159.372	3.60343	-10.55107	7.03594	-9.53237
6163.346	3.59515	-10.43312	7.32819	-9.58222
6167.375	3.72449	-10.40816	7.86914	-9.62954
6171.366	3.72491	-10.30075	7.32790	-9.57096
6175.369	3.63226	-9.39801	7.03609	-9.58371
6179.323	-0.12525	-9.55945	7.43840	-9.26411
6183.371	-0.41390	-10.21980	14.32507	-10.10412
6187.357	8.24993	-10.09132	16.88519	-10.36522
6191.371	14.89393	-7.62092	17.56891	-9.73851
6195.367	13.49289	12.56545	-19.99372	-11.86833
6199.369	-19.99372	-12.06193	-19.99372	-11.96687
6203.359	-19.99372	-12.07137	-19.99372	-12.00300
6207.358	-19.99372	-12.07396	-19.99372	-12.02199
6211.367	-19.99372	-12.07555	-19.99372	-12.03379
6215.370	-19.99372	-12.07615	-19.99372	-12.04171
6219.369	-19.99372	-12.07640	-19.99372	-12.04752
6223.390	-19.99372	-12.07657	-19.99372	-12.05194
6227.369	-19.99372	-12.07704	-19.99372	-12.06391
6231.369	-7.99476	7.08519	21.04723	3.20201
6235.326	18.26389	0.26370	20.34803	-2.56511
6239.372	22.66910	0.80578	23.05998	-5.40442
6243.372	21.24105	0.36033	22.16242	-2.58673
6247.391	18.91777	0.43929	18.65955	-1.30293
6251.325	18.99660	1.88746	18.43341	-2.93249
6255.371	17.71072	1.13570	13.88584	-1.61788
6259.370	5.43620	-0.06157	13.25228	0.01011
6263.367	13.24414	0.69666	10.70105	-0.02642
6267.370	11.42728	0.44029	9.90990	-1.51980
6271.371	10.82186	-0.11337	10.25773	-0.89617
6275.370	10.56303	0.01664	12.34214	-0.74313
6279.363	10.97435	0.34274	10.28457	-0.66596
6283.371	10.87457	0.37963	11.99723	-0.60207
6287.371	10.88300	0.42701	11.38998	-0.63211
6291.370	10.64801	0.33745	10.41534	-0.57331
6295.368	10.82509	0.46826	10.84097	-0.62530
6299.370	10.88989	0.57203	11.18456	-0.42352
6303.372	11.03674	0.65793	11.72565	-0.45011
6307.372	11.01168	0.62267	11.81187	-0.29046
6311.327	10.82962	0.64714	11.96021	-0.15619
6315.328	10.88331	0.68452	11.89975	-0.61189
6319.371	10.97236	0.67490	11.63206	-0.65091
6323.374	11.06891	0.73520	11.22164	-0.59578
6327.361	11.08335	0.63498	11.26295	-0.58409
6331.368	10.92301	0.59348	11.42248	-0.50469
6335.372	10.96002	0.60258	11.53077	-0.52757
6339.373	10.86531	0.46756	11.69514	-0.73913
6343.362	10.80754	0.40046	11.83752	-0.83628
6347.372	10.63293	0.38721	11.39511	-0.80619
6351.399	10.65201	0.35691	11.57684	-0.86822
6355.373	10.61382	0.34076	11.55128	-0.90990
6359.362	10.63777	0.27878	11.58301	-0.88427
6363.371	10.51384	0.31070	11.57586	-0.94353
6367.374	10.50445	0.28953	11.62151	-1.09270
6371.373	10.42855	0.26425	11.67046	-1.13028
6375.340	10.43018	0.29839	11.80775	-1.24506
6379.373	10.37359	0.33577	11.63325	-1.37672
6383.373	10.35356	0.37033	11.60468	-1.37034
6387.376	10.33248	0.41318	11.56545	-1.68818
6391.370	10.31223	0.41010	11.60951	-1.70715
6395.374	10.26809	0.41730	11.64737	-1.71995
6399.371	10.27321	0.40463	11.63628	-1.69358
6403.374	10.28198	0.45650	11.73566	-1.74961
6407.394	10.36137	0.49549	11.80840	-1.78028
6411.366	10.41246	0.54964	11.99840	-1.75478
6415.363	10.44660	0.53868	12.14774	-1.74171
6419.373	10.41333	0.55594	12.15218	-1.56559
6423.332	10.59109	0.61355	12.20143	-1.51251
6427.332	10.84346	0.69950	12.27059	-1.39142
6431.377	10.74314	0.82368	12.14055	-1.47137
6435.376	10.78123	0.69862	12.22203	-1.45238
6439.366	10.54118	0.81143	12.18967	-1.54231
6443.377	10.28765	0.74460	12.04424	-1.70352
6447.376	10.45855	0.77930	11.96788	-1.70893
6451.403	10.30814	0.82851	12.18177	-1.81926
6455.397	10.39160	0.82607	12.17594	-1.73697
6459.378	10.44753	0.89765	12.18512	-1.82349
6463.374	10.11079	0.94469	12.23986	-1.88279
6467.375	10.24951	0.94427	12.22864	-1.81516
6471.373	10.31818	0.83565	12.39262	-1.83299
6475.374	10.33072	0.70729	12.17900	-1.04085
6479.374	10.32594	0.65632	11.82728	-0.89859
6483.375	10.47631	0.55216	12.03439	-1.29853
6487.341	10.47060	0.55244	12.02409	-1.26418
6491.379	10.59167	0.45683	11.81401	-0.16243
6495.357	10.59874	0.60504	11.74154	-0.35090
6499.374	10.50645	0.81255	11.89100	-0.25658
6503.377	10.52108	0.95535	11.65094	-0.28890
6507.375	10.48991	0.92731	11.62942	-0.50566
6511.376	10.49229	0.83042	11.58665	-0.48195
6515.376	10.52526	0.84542	11.57019	-0.58702
6519.374	10.55560	1.13971	11.58930	-0.71281
6523.376	10.61214	0.99855	11.63275	-0.79018
6527.376	10.64870	1.10275	11.71142	-0.99914
6531.379	10.64003	1.23126	11.69088	-1.06426
6535.365	10.68113	1.22541	11.92567	-1.38772
6539.374	10.77181	1.23687	11.98474	-1.55450
6543.377	10.77986	1.18043	11.90286	-1.54204
6547.375	10.87594	1.21686	11.92370	-1.67255
6551.374	10.92667	1.25979	11.82977	-1.43884
6555.377	10.98138	1.13740	11.77044	-1.57147
6559.332	11.05546	1.05808	11.73681	-1.58078
6563.378	11.06982	0.82719	11.72339	-1.70555
6567.375	10.97569	1.06431	11.74901	-1.77102
6571.378	10.91172	1.01586	11.73669	-1.77532
6575.378	10.78470	0.92888	11.74696	-1.89478
6579.354	10.66678	0.90895	11.80942	-1.89722
6583.346	10.52554	0.86357	11.72600	-1.90030
6587.378	10.43241	0.94512	11.71073	-1.90237
6591.382	10.39074	0.91680	11.70940	-1.90649
6595.387	10.34573	0.91427	11.75626	-1.95763
6599.368	10.42677	0.91293	11.70157	-1.96014
6603.377	10.39107	0.83709	11.73428	-1.98226
6607.377	10.31602	0.82683	11.72334	-1.95439
6611.332	10.28150	0.91248	11.97408	-2.00014
6615.376	10.17449	0.93340	12.12336	-2.29067
6619.369	10.16892	0.99843	11.82827	-1.86597
6623.379	10.12592	1.03737	11.11788	-1.59751
6627.378	8.93421	1.16269	9.35747	-1.13430
6631.370	7.76377	1.36709	7.47868	-0.25093
6635.379	5.94219	1.82488	5.37488	0.28277
6639.378	4.02312	2.13363	4.13888	-0.27523
6643.380	4.00798	2.12359	3.85066	-0.73257
6647.376	3.69432	2.04000	3.39295	-0.67756
6651.389	3.43937	1.96634	3.29525	-0.64074
6655.382	2.98084	2.11679	3.10453	-0.40154
6659.379	2.63333	2.26379	3.09448	-0.63174
6663.371	2.55002	2.33299	3.14083	-0.63020
6667.379	2.07923	2.33877	3.11235	-0.69357
6671.381	1.76143	2.38200	2.96037	-0.80726
6675.340	1.84252	2.40002	2.92025	-0.77317
6679.379	1.33562	2.40274	2.70431	-0.79091
6683.382	1.32351	2.47791	2.99490	-0.67474
6687.378	1.16476	2.46928	3.00549	-0.57194
6691.385	1.23580	2.42929	2.96931	-0.47169
6695.382	1.21767	2.43799	2.80662	-0.49774
6699.382	1.53979	2.39395	3.14716	-0.89655
6703.361	1.40814	2.33124	3.00923	-0.85932
6707.377	1.42434	2.26466	3.11754	-0.87906
6711.277	1.34294	2.13367	3.33997	-1.00956
6715.380	1.38503	1.77955	3.10495	-1.01448
6719.380	1.51439	1.55394	2.91401	-1.06167
6723.380	1.54024	1.62553	2.86955	-1.09082
6727.276	1.41757	1.76208	2.89069	-1.30024
6731.379	1.46593	1.74705	2.73910	-1.28997
6735.379	1.46100	1.63959	2.65280	-1.31184
6739.336	1.40795	1.59010	2.72152	-1.43439
6743.368	1.55603	1.65259	2.85002	-1.34799
6747.345	1.54031	1.43752	3.72645	-1.61606
6751.337	1.73554	1.41455	3.60979	-1.62552
6755.382	1.98068	1.28489	3.25901	-1.65447
6759.378	1.98898	1.31216	2.83239	-1.49859
6763.381	1.88239	1.41897	2.91285	-1.40625
6767.382	1.90438	1.52411	3.66995	-1.42830
6771.382	1.67516	1.59551	3.42092	-1.25574
6775.280	2.14231	1.56069	2.97537	-1.07013
6779.383	2.08548	1.56425	3.67114	-1.31573
6783.382	0.93378	1.48019	3.69504	-1.46710
6787.382	2.16384	1.32683	3.27284	-1.53972
6791.281	2.49686	1.36224	3.03910	-1.38037
6795.383	2.45879	1.45352	2.62593	-1.28420
6799.383	2.29572	1.54098	2.75150	-1.24110
6803.338	2.19465	1.56614	2.95671	-1.43298
6807.274	2.29726	1.67472	2.78174	-1.53216
6811.383	2.30610	1.55451	3.47257	-1.79303
6815.383	2.39054	1.32337	4.18433	-1.52807
6819.383	2.32099	1.44205	3.28202	-1.45624
6823.277	2.17333	1.36231	3.12118	-0.99872
6827.369	-0.22559	1.93341	0.80466	-0.07519
6831.372	-1.66961	2.18409	-2.51465	-0.06008
6835.383	-2.13294	2.39342	-4.08271	0.33151
6839.279	-4.05120	2.26631	-5.87612	0.54851
6843.382	-5.38344	1.62738	-6.47642	-0.45709
6847.384	-7.40914	1.59420	-7.66865	-0.80933
6851.412	-8.96356	1.69787	-8.80304	-0.22049
6855.278	-10.10757	1.44930	-11.13530	0.40736
6859.384	-9.96535	1.97390	-10.74618	0.36417
6863.383	-10.11704	1.77602	-10.70610	-0.28220
6867.386	-10.11471	1.96830	-10.50628	0.46890
6871.282	-10.18957	1.80034	-10.43512	0.15313
6875.384	-10.47218	1.76167	-10.65458	-0.00713
6879.340	-10.50693	1.67750	-10.15196	0.18391
6883.385	-10.60411	1.43385	-10.04290	-0.19239
6887.386	-10.66886	1.33334	-9.64335	-0.42386
6891.384	-10.47453	0.78351	-9.47582	-0.40578
6895.387	-10.41791	1.38499	-9.60364	-0.51722
6899.385	-10.38502	1.11222	-10.06155	-0.67646
6903.281	-10.66402	0.57991	-9.76705	-0.83306
6907.386	-10.62814	0.53536	-9.88350	-0.94275
6911.364	-10.61059	0.35686	-9.65025	-1.10064
6915.382	-10.47297	0.56788	-9.17486	-1.08462
6919.386	-10.41088	0.49959	-9.39419	-1.23166
6923.383	-10.51583	0.42401	-9.34894	-1.25785
6927.383	-10.31958	0.73154	-9.43699	-1.36339
6931.387	-10.32400	0.63669	-9.33640	-1.53419
6935.284	-10.37117	0.71507	-8.75795	-1.34973
6939.385	-10.48339	0.43739	-8.84268	-1.39656
6943.387	-10.64813	0.50956	-8.94336	-1.42064
6947.383	-10.58977	0.51960	-9.27240	-1.33857
6951.284	-10.58241	0.37826	-9.30781	-1.07109
6955.346	-10.58392	0.37445	-9.32888	-1.22363
6959.387	-10.46594	0.78292	-9.53303	-1.27013
6963.386	-10.52403	0.71367	-9.39291	-1.59759
6967.283	-10.22861	0.59109	-9.40426	-1.74930
6971.387	-10.24125	0.63429	-9.51778	-1.89119
6975.386	-10.17630	0.57776	-9.07678	-1.29286
6979.386	-10.09684	0.58614	-8.92292	-1.23724
6983.281	-10.21426	0.68259	-9.04347	-1.34900
6987.343	-10.17226	0.62685	-8.94840	-1.02366
6991.387	-10.22257	0.58308	-8.91219	-0.96420
6995.367	-10.20599	0.65764	-8.78629	-0.88501
6999.284	-10.29762	0.67948	-8.94418	-0.91513
7003.389	-10.45308	0.65041	-8.88605	-0.78929
7007.384	-10.54257	0.63243	-8.78794	-0.79399
7011.388	-10.62363	0.64399	-8.80607	-0.78374
7015.289	-10.64355	0.62612	-8.74214	-0.76356
7019.341	-10.68336	0.62802	-8.75417	-0.71043
7023.388	-10.76753	0.62150	-8.76442	-0.76897
7027.388	-10.80046	0.60205	-8.80180	-0.78468
7031.284	-10.85732	0.57534	-8.80997	-0.82097
7035.375	-10.89779	0.59329	-8.77817	-0.81184
7039.376	-10.91066	0.52824	-8.79901	-0.91792
7043.388	-10.90375	0.52657	-8.73543	-0.96378
7047.282	-10.85531	0.50975	-8.67818	-1.02190
7051.365	-10.80898	0.51686	-8.65790	-1.08028
7055.343	-10.72172	0.52140	-8.62552	-1.06940
7059.263	-10.71324	0.57046	-8.59929	-1.14200
7063.251	-10.57042	0.56526	-8.58701	-1.19548
7067.263	-10.48982	0.62773	-8.58410	-1.17975
7071.265	-10.42497	0.67883	-8.66770	-1.28362
7075.263	-10.47163	0.83499	-8.72786	-1.69311
7079.254	-10.57838	0.65547	-8.82630	-1.49525
7083.245	-10.48831	0.69531	-8.79858	-1.67145
7087.258	-10.34725	0.71337	-8.85044	-1.51292
7091.264	-10.30355	0.55543	-9.00685	-1.45527
7095.262	-10.33781	0.52491	-9.02166	-1.23855
7099.264	-10.67291	0.65556	-9.37552	-0.88637
7103.266	-10.93813	0.57391	-9.99164	-0.84932
7107.265	-11.34755	0.99816	-11.11760	-0.13023
7111.254	-12.11425	1.69640	-10.97334	0.40802
7115.261	-11.90172	2.36475	-10.76753	0.68449
7119.267	-12.12196	2.02668	-10.82981	0.46718
7123.270	-12.02083	2.33573	-11.21646	0.31779
7127.253	-12.07002	2.41407	-11.17295	0.48919
7131.263	-12.33039	2.01783	-11.34926	0.08220
7135.264	-12.30125	1.51058	-11.52669	0.20050
7139.263	-12.36608	1.60441	-11.61013	0.30387
7143.256	-12.40441	1.76987	-11.61635	0.45257
7147.266	-12.46543	1.58509	-11.65677	0.46253
7151.284	-12.50853	1.70350	-11.69892	0.49312
7155.267	-12.57869	1.66337	-11.77403	0.49839
7159.255	-12.54819	1.65271	-11.78295	0.48852
7163.266	-12.56952	1.72859	-11.84420	0.61890
7167.242	-12.61084	1.66854	-11.86997	0.60554
7171.265	-12.64655	1.66108	-11.91377	0.67035
7175.262	-12.61143	1.69892	-11.93641	0.72798
7179.266	-12.62956	1.75187	-11.96748	0.76554
7183.265	-12.66450	1.93185	-11.95698	0.79265
7187.268	-12.65075	2.04100	-11.97194	0.83278
7191.262	-12.61861	2.08890	-11.95358	0.85474
7195.270	-12.64496	2.10430	-11.97137	0.89388
7199.266	-12.60755	2.23721	-11.96071	0.87897
7203.269	-12.59214	2.42779	-11.98512	0.90052
7207.255	-12.56472	2.36382	-12.00721	0.88071
7211.268	-12.53008	2.42760	-11.96230	0.65317
7215.266	-12.52726	2.48705	-11.90483	0.48954
7219.266	-12.50463	2.56760	-11.88513	0.30264
7223.264	-12.49632	2.59773	-11.82575	0.27196
7227.268	-12.45338	2.60763	-11.81674	0.04602
7231.265	-12.45182	2.61261	-11.79924	-0.12237
7235.222	-12.43554	2.63045	-11.81524	0.04570
7239.256	-12.36788	2.63195	-11.83267	-0.00564
7243.269	-12.28671	2.62259	-11.89780	-0.00180
7247.267	-12.26524	2.59511	-11.87891	-0.04134
7251.221	-12.19586	2.60674	-11.87315	-0.11084
7255.261	-12.11318	2.61822	-11.88958	-0.17627
7259.267	-12.13913	2.63532	-11.88606	-0.25092
7263.267	-12.09937	2.61074	-11.87831	0.01204
7267.267	-12.05008	2.58923	-11.86724	-0.01170
7271.265	-11.99949	2.54544	-11.85675	0.01955
7275.269	-11.98531	2.53595	-11.84520	0.08787
7279.267	-11.95123	2.50484	-11.79232	-0.01883
7283.268	-11.96287	2.48011	-11.75305	0.10877
7287.261	-11.93151	2.42890	-11.72731	0.10708
7291.249	-11.93301	2.40619	-11.70521	0.07553
7295.268	-11.95828	2.37510	-11.66192	0.04561
7299.269	-11.92588	2.32403	-11.64466	0.07258
7303.224	-11.91232	2.26787	-11.65737	0.11010
7307.243	-11.89775	2.22160	-11.60230	0.15442
7311.269	-11.89663	2.18281	-11.59139	0.21110
7315.269	-11.89084	2.17370	-11.56200	0.20720
7319.259	-11.88166	2.13786	-11.56686	0.25116
7323.268	-11.90405	2.14060	-11.59253	0.23281
7327.272	-11.87384	2.12964	-11.58634	0.26850
7331.266	-11.88927	2.16291	-11.60137	0.26744
7335.259	-11.88805	2.17088	-11.53629	0.27213
7339.270	-11.86522	2.15866	-11.51354	0.52196
7343.268	-11.91279	2.17149	-11.30281	0.48421
7347.272	-11.96629	2.14659	-11.22664	0.61707
7351.227	-11.97838	2.14261	-11.27550	0.59464
7355.270	-11.99279	2.14148	-11.16607	0.61454
7359.270	-11.99747	2.10867	-11.14708	0.61168
7363.246	-12.03059	2.05511	-11.19175	0.64361
7367.260	-12.03073	2.00656	-11.07157	0.70406
7371.270	-12.05091	1.96535	-11.06573	0.80236
7375.239	-12.07932	1.96315	-11.04683	0.81116
7379.268	-12.09704	1.89120	-11.04931	0.83181
7383.226	-12.09636	1.85963	-11.01450	0.81225
7387.267	-12.05335	1.88651	-11.07200	0.82699
7391.272	-12.03838	2.22323	-11.10228	0.80116
7395.277	-12.05687	2.20828	-11.11841	0.81455
7399.264	-12.01692	2.59723	-11.08894	0.76814
7403.272	-12.02439	2.46579	-11.08055	0.77208
7407.273	-11.98795	2.55804	-11.05612	0.81767
7411.272	-11.96961	2.77395	-11.00943	0.80546
7415.227	-11.93049	3.12929	-10.85792	0.74014
7419.268	-11.89131	3.20460	-11.00348	0.48342
7423.272	-11.80259	2.76672	-10.79957	0.48775
7427.274	-11.67510	2.51531	-12.89588	0.47564
7431.269	-11.71073	1.68372	-12.32411	-1.70580
7435.272	-11.71320	0.92017	-12.41469	-2.08538
7439.271	-11.67384	1.07622	-10.98776	-0.51364
7443.273	-11.71782	1.15689	-10.78772	-0.22755
7447.270	-11.74718	1.01620	-10.74408	-0.58073
7451.298	-11.83883	0.84082	-10.70409	-0.65131
7455.271	-11.80490	0.79132	-10.84975	-0.67664
7459.234	-11.86709	0.69853	-10.88836	-1.13310
7463.291	-11.88102	0.61546	-10.95464	-1.22000
7467.273	-11.88473	0.52298	-10.99231	-1.69445
7471.273	-11.94755	0.29042	-11.01216	-1.58520
7475.271	-11.98876	0.20192	-11.00037	-1.78925
7479.292	-11.98707	0.12185	-10.97741	-1.64262
7483.272	-11.99381	-0.00447	-11.05352	-1.78220
7487.227	-11.99761	-0.05829	-11.09339	-1.90590
7491.274	-11.97047	-0.22823	-11.14653	-1.97303
7495.296	-11.91398	-0.23023	-11.23619	-2.04307
7499.254	-11.94315	-0.32650	-11.24354	-2.15244
7503.270	-11.93731	-0.42627	-11.25216	-2.09867
7507.274	-11.90006	-0.43842	-11.29495	-2.14255
7511.296	-11.88508	-0.45680	-11.30159	-2.17603
7515.274	-11.91013	-0.36899	-11.24251	-2.19762
7519.275	-11.84121	-0.41368	-11.25318	-2.10238
7523.274	-11.81736	-0.15513	-11.24137	-2.09996
7527.274	-11.77301	-0.08614	-11.18807	-2.08869
7531.273	-11.72291	0.71089	-11.17123	-2.02353
7535.277	-11.72912	0.56975	-11.12314	-1.66453
7539.270	-11.65542	0.89686	-11.06253	-1.48571
7543.274	-11.58117	0.96483	-11.05902	-1.34795
7547.240	-11.49936	0.91749	-11.01144	-1.21238
7551.229	-11.48253	0.86623	-11.00697	-1.33956
7555.273	-11.50463	1.05888	-11.04243	-1.43137
7559.262	-11.49364	0.97681	-11.06585	-1.41110
7563.274	-11.49738	1.01283	-11.04181	-1.64630
7567.274	-11.52538	0.91775	-10.95430	-2.28804
7571.275	-11.64280	0.77772	-10.99099	-1.60325
7575.266	-11.68605	0.48404	-10.93251	-1.17563
7579.274	-11.76281	0.10755	-10.85655	-1.11919
7583.275	-11.77796	0.53477	-10.79607	-1.08809
7587.274	-11.78050	0.61753	-10.78328	-1.07930
7591.264	-11.81727	0.61752	-10.57886	-1.04745
7595.275	-11.83186	0.52766	-10.35498	-0.89909
7599.274	-11.79013	0.41381	-10.34489	-0.83154
7603.276	-11.79465	0.89327	-10.23161	-0.83162
7607.264	-11.83797	0.63365	-10.05185	-0.86330
7611.236	-11.80621	1.00570	-10.03999	-0.82838
7615.275	-11.74889	1.50766	-10.47331	-0.80110
7619.278	-11.66001	0.61031	-10.03002	-0.82520
7623.265	-10.38889	1.59158	-9.94236	-0.71667
7627.274	-8.25999	1.46393	-8.57260	-0.76354
7631.277	-7.10958	2.37551	-7.80419	-0.78892
7635.276	-5.13951	2.13329	-6.05118	-0.71487
7639.279	-2.65872	2.87096	-4.22426	-0.52660
7643.273	-1.34862	1.71142	-0.93053	-0.57973
7647.280	-0.80709	1.71734	-0.55158	-0.79764
7651.301	2.47511	2.09371	1.33006	-0.29605
7655.273	1.85735	1.40482	2.19564	-0.81514
7659.279	3.11460	1.20896	2.89997	-1.07667
7663.276	4.09821	1.50768	3.95992	-0.92530
7667.276	4.42972	1.00185	4.24327	-1.26947
7671.276	4.42284	0.74430	4.41721	-1.32042
7675.232	1.43238	1.03977	4.24428	-1.42172
7679.279	5.18429	0.72363	4.38775	-1.49709
7683.276	5.45995	0.67557	4.39333	-1.53392
7687.274	5.55061	0.52506	4.50140	-1.58536
7691.277	5.67150	0.44867	4.45468	-1.47878
7695.277	1.79309	0.34180	4.55041	-1.74783
7699.278	1.29573	0.34690	4.57566	-1.82315
7703.270	1.21278	0.38651	4.55019	-1.95841
7707.255	1.12358	0.39236	4.49667	-1.83711
7711.279	1.27162	0.36954	4.54168	-1.77087
7715.278	1.22635	0.49393	4.63612	-1.81003
7719.278	1.30499	0.57000	4.72534	-1.65382
7723.235	3.01712	0.34636	4.68102	-1.52831
7727.279	3.20827	0.30429	4.72445	-1.42855
7731.277	3.20718	0.29115	4.63230	-0.98738
7735.278	3.21510	0.20994	4.69630	-0.83717
7739.233	3.33540	0.35280	4.63440	-0.72695
7743.236	3.31840	0.41872	4.59300	-0.85923
7747.280	3.37964	0.40956	4.47955	-0.59166
7751.305	3.48133	0.28236	4.67313	-0.69645
7755.278	3.52865	0.20390	4.61277	-0.69062
7759.278	3.50684	0.13393	4.66635	-0.72283
7763.277	3.38145	0.18436	4.58745	-0.64651
7767.280	3.37603	0.19924	4.61847	-0.73023
7771.277	3.32874	0.16229	4.76988	-0.80462
7775.280	3.30841	0.19863	4.73850	-0.88228
7779.278	3.33619	0.20366	4.85300	-1.00129
7783.281	3.24076	0.18788	4.90624	-0.98018
7787.279	3.30507	0.12300	5.01627	-1.04965
7791.254	3.30220	0.04823	4.96337	-1.13170
7795.277	3.23937	0.01761	4.99650	-1.24279
7799.282	3.20387	-0.05820	5.09362	-1.33698
7803.281	3.19543	-0.06994	5.19753	-1.39726
7807.280	3.23685	-0.21041	5.32506	-1.41267
7811.279	3.23267	-0.21840	5.21319	-1.29970
7815.281	3.26658	-0.22462	5.16497	-1.27875
7819.281	3.28857	-0.19618	5.11814	-1.22309
7823.282	3.29661	-0.11608	5.10167	-1.18564
7827.283	3.35325	0.04168	4.99842	-1.09568
7831.177	3.42196	0.33521	5.06508	-1.41388
7835.271	3.47918	0.55605	5.12735	-1.51008
7839.282	3.49384	0.83793	5.14170	-1.33245
7843.281	3.49668	1.09873	5.26142	-1.26817
7847.281	3.52514	0.48834	5.18596	-1.26234
7851.310	3.50640	0.60477	5.23332	-1.06532
7855.284	3.59271	0.43397	5.22237	-1.13550
7859.293	3.58571	0.59916	5.21525	-1.16940
7863.177	3.58306	0.50088	5.08091	-1.02879
7867.284	3.38956	0.50337	4.79277	-1.20186
7871.236	3.31962	0.28883	4.36629	-1.27719
7875.245	3.14330	0.19038	5.11470	-1.39583
7879.281	3.31064	-0.08236	5.29927	-1.51406
7883.281	3.16102	0.39514	5.12041	-1.58612
7887.284	3.29552	0.16664	5.00031	-1.49850
7891.280	2.98646	0.18800	4.81217	-1.33000
7895.283	3.04395	-0.12454	4.92945	-1.54980
7899.287	3.04994	0.32404	4.77338	-1.56065
7903.283	2.80800	0.66059	4.78917	-1.71948
7907.282	-1.85028	0.01741	5.16782	1.05262
7911.283	-1.71144	-0.71299	12.95916	-2.03781
7915.281	13.51002	4.63596	13.60662	-1.74059
7919.284	13.20072	0.43260	4.58385	-1.96846
7923.282	NaN	NaN	7.84192	-1.14226
7927.280	NaN	NaN	NaN	NaN
7931.282	NaN	NaN	NaN	NaN
7935.282	NaN	NaN	NaN	NaN
7939.282	NaN	NaN	NaN	NaN
7943.182	NaN	NaN	NaN	NaN
7947.282	NaN	NaN	NaN	NaN
7951.238	NaN	NaN	NaN	NaN
7955.285	NaN	NaN	NaN	NaN
7959.177	NaN	NaN	NaN	NaN
7963.282	NaN	NaN	NaN	NaN
7967.282	NaN	NaN	NaN	NaN
7971.280	NaN	NaN	NaN	NaN
7975.284	NaN	NaN	NaN	NaN
7979.283	NaN	NaN	NaN	NaN
7983.283	NaN	NaN	NaN	NaN
7987.240	NaN	NaN	NaN	NaN
7991.288	NaN	NaN	NaN	NaN
7995.238	NaN	NaN	NaN	NaN
7999.256	NaN	NaN	NaN	NaN
8003.240	NaN	NaN	NaN	NaN
8007.291	NaN	NaN	NaN	NaN
8011.284	NaN	NaN	NaN	NaN
8015.283	NaN	NaN	NaN	NaN
8019.239	NaN	NaN	NaN	NaN
8023.284	NaN	NaN	NaN	NaN
8027.284	NaN	NaN	NaN	NaN
8031.285	NaN	NaN	NaN	NaN
8035.286	NaN	NaN	NaN	NaN
8039.267	0.44750	13.97595	NaN	NaN
8043.286	-6.53338	13.67332	NaN	NaN
8047.285	NaN	NaN	NaN	NaN
8051.284	-2.35796	6.22495	11.12099	-3.24015
8055.180	3.02336	-0.47539	7.62616	-4.81121
8059.241	2.99925	-2.48492	7.29570	-5.06061
8063.287	2.98227	-3.05564	6.22280	-4.47360
8067.286	2.80040	-2.39418	3.93018	-3.07209
8071.152	-2.75641	-2.20217	-0.36251	-2.56386
8075.161	-2.85041	-2.05552	-0.24455	-2.50762
8079.162	0.00189	-1.64066	0.19723	-2.72844
8083.162	-0.28620	-1.62845	0.31734	-3.11007
8087.156	-0.17410	-1.48452	0.68521	-3.14815
8091.162	-0.20489	-1.79041	0.83449	-2.98997
8095.164	-0.28962	-1.67434	0.77476	-2.94913
8099.167	-0.43336	-1.74832	0.84833	-2.93914
8103.149	-0.51118	-1.63258	0.83148	-2.99342
8107.161	-0.63508	-1.78209	0.79124	-2.80252
8111.117	-0.80317	-1.66069	0.94056	-2.93688
8115.163	-0.95728	-1.66064	1.07999	-2.93502
8119.151	-0.85659	-1.82782	1.21988	-2.91652
8123.163	-0.92120	-1.81240	1.46055	-2.84824
8127.150	-0.97519	-1.85435	1.55787	-2.78252
8131.167	-1.01834	-1.89180	1.57158	-2.84175
8135.183	-1.07197	-1.84890	1.60997	-2.84039
8139.161	-1.14938	-1.77053	1.47263	-2.78954
8143.118	-1.17485	-1.72774	1.54172	-2.69751
8147.161	-1.20050	-1.66793	1.39363	-2.57939
8151.122	-1.13213	-1.58657	1.33438	-2.62686
8155.162	-1.19028	-1.63058	1.20998	-2.50039
8159.163	-1.20437	-1.52010	1.08182	-2.34766
8163.163	-1.25679	-1.18013	1.00963	-2.41249
8167.183	-1.20936	-1.13491	0.92408	-2.32988
8171.134	-1.21960	-0.69300	0.96331	-2.30587
8175.117	-1.23166	-0.98162	0.84176	-2.20300
8179.164	-1.18619	-0.84269	0.92440	-2.29064
8183.185	-1.15037	-0.39444	0.96127	-2.22399
8187.164	-1.11670	-0.92669	0.93150	-2.30909
8191.165	-1.24917	-1.11177	1.02650	-2.24570
8195.163	-1.19229	-1.02408	1.09648	-2.20000
8199.184	-1.32208	-0.96979	0.83453	-2.15502
8203.164	-1.29124	-0.78046	0.80647	-2.18751
8207.165	-1.24945	-0.98288	0.73675	-2.12075
8211.145	-1.29551	-0.97330	0.71196	-2.18691
8215.183	-1.30704	-1.07728	0.64039	-2.07017
8219.164	-1.28068	-1.06224	0.72201	-2.13778
8223.165	-1.26651	-1.10210	0.58898	-2.12647
8227.164	-1.27963	-1.13629	0.54391	-2.13207
8231.182	-1.37104	-1.15582	0.54086	-2.05542
8235.163	-1.40088	-1.10914	0.47046	-2.03651
8239.161	-1.47982	-1.05981	0.46011	-2.01628
8243.165	-1.41154	-0.87791	0.46616	-2.05909
8247.191	-1.54222	-0.82426	0.49165	-2.07037
8251.163	-1.52915	-0.67642	0.48584	-2.06204
8255.161	-1.53843	-0.70376	0.53848	-2.03075
8259.165	-1.51975	-0.52635	0.57106	-2.06233
8263.154	-1.54006	-0.33032	0.63243	-2.01883
8267.165	-1.62128	-0.52660	0.63491	-1.97326
8271.164	-1.56804	-0.67733	0.59441	-1.89602
8275.166	-1.41276	-0.84118	0.36511	-1.88846
8279.155	-0.86741	-1.24577	0.46741	-2.01261
8283.165	-1.07262	-0.97655	0.49905	-2.09732
8287.166	-0.94388	-1.08546	0.47701	-2.03827
8291.167	-1.07758	-1.15987	0.41904	-1.99458
8295.156	-1.21286	-1.15562	0.40139	-1.95264
8299.165	-1.07934	-1.28036	0.37313	-2.08723
8303.166	-1.05892	-1.23363	0.28711	-2.21425
8307.166	-1.03732	-1.24742	0.20983	-2.10396
8311.157	-1.07056	-1.27480	0.15181	-2.18680
8315.166	-1.06071	-1.21903	0.11550	-2.23042
8319.167	-1.14303	-1.15637	0.22971	-2.34453
8323.169	-1.19274	-1.09838	0.26344	-2.48276
8327.123	-1.18242	-1.06918	0.18032	-2.29358
8331.169	-1.22127	-1.02826	0.20174	-2.31320
8335.157	-1.25252	-1.01668	0.20713	-2.33903
8339.169	-1.23283	-1.02563	0.21815	-2.38564
8343.189	-1.23779	-1.06769	0.23207	-2.45090
8347.167	-1.23585	-1.18575	0.29575	-2.27451
8351.178	-1.19951	-1.44818	0.30173	-2.12601
8355.167	-1.18855	-1.60529	0.37539	-2.12909
8359.188	-1.14288	-1.73720	0.38742	-2.15323
8363.169	-1.23012	-1.49675	0.37097	-2.03509
8367.122	-1.26649	-1.57480	0.36169	-2.08192
8371.122	-1.26091	-1.97331	0.41832	-2.08042
8375.191	-1.22412	-1.82461	0.41355	-2.11231
8379.141	-1.06428	-1.75621	0.42385	-2.15826
8383.167	-0.92808	-1.78582	0.41281	-2.12415
8387.169	-0.82600	-1.62962	0.40919	-2.11760
8391.157	-0.95750	-1.54160	0.35129	-2.13136
8395.167	-1.10666	-1.51524	0.30183	-2.17405
8399.169	-1.04173	-1.42124	0.31406	-2.29376
8403.169	-1.03320	-1.42450	0.33923	-2.33414
8407.158	-1.02625	-1.42202	0.45301	-2.40257
8411.168	-0.97092	-1.36948	0.48421	-2.45249
8415.169	-0.97467	-1.31887	0.50793	-2.50085
8419.150	-0.89731	-1.27400	0.56049	-2.50450
8423.165	-0.92133	-1.28703	0.63464	-2.51319
8427.171	-0.90927	-1.26846	0.63126	-2.57931
8431.169	-0.90778	-1.26679	0.56443	-2.55784
8435.171	-0.89282	-1.23819	0.43011	-2.55732
8439.191	-0.84510	-1.18752	0.46800	-2.53013
8443.169	-0.81441	-1.10867	0.43653	-2.50052
8447.168	-0.78059	-1.06896	0.36343	-2.44251
8451.197	-0.76945	-1.00334	0.39119	-2.40802
8455.189	-0.76213	-0.96909	0.27031	-2.32939
8459.167	-0.73461	-0.91561	0.21609	-2.27363
8463.168	-0.77977	-0.85748	0.17799	-2.27319
8467.169	-0.77027	-0.83433	0.14397	-2.26607
8471.158	-0.79684	-0.77862	0.08984	-2.27593
8475.169	-0.84007	-0.73315	0.10031	-2.24953
8479.169	-0.88423	-0.68175	0.11746	-2.26255
8483.168	-0.94189	-0.66713	0.13612	-2.30292
8487.126	-0.96755	-0.68302	0.13876	-2.30626
8491.171	-1.02379	-0.66741	0.14645	-2.32767
8495.169	-1.04620	-0.64733	0.13017	-2.35898
8499.171	-1.06882	-0.62366	0.16873	-2.38230
8503.154	-1.12385	-0.59498	0.16945	-2.40812
8507.172	-1.14399	-0.63089	0.16891	-2.41980
8511.170	-1.14211	-0.59112	0.13697	-2.42231
8515.170	-1.20316	-0.61347	0.15774	-2.40633
8519.162	-1.21660	-0.54607	0.17685	-2.44704
8523.171	-1.25555	-0.55833	0.15849	-2.44892
8527.170	-1.26143	-0.55262	0.11783	-2.44667
8531.173	-1.26971	-0.46279	0.16672	-2.48323
8535.127	-1.28417	-0.45578	0.15992	-2.51733
8539.174	-1.32974	-0.45235	0.21063	-2.61161
8543.162	-1.39284	-0.47742	0.20219	-2.68039
8547.132	-1.38592	-0.42827	0.23358	-2.58418
8551.127	-1.44768	-0.41275	0.35129	-2.73818
8555.170	-1.45991	-0.37445	0.35955	-2.71884
8559.126	-1.47722	-0.33957	0.44810	-2.75557
8563.172	-1.50981	-0.33785	0.44443	-2.83577
8567.162	-1.52017	-0.33596	0.44187	-2.96973
8571.172	-1.59174	-0.26178	0.46304	-2.98833
8575.171	-1.66532	-0.34871	0.45413	-3.03966
8579.174	-1.59093	-0.35140	0.49386	-3.02836
8583.162	-1.55115	-0.18960	0.55183	-3.09251
8587.144	-1.49011	-0.11789	0.37819	-3.11127
8591.171	-1.57486	0.00306	0.45763	-3.17753
8595.175	-1.50958	0.05798	0.40259	-3.19843
8599.163	-1.50869	0.16310	0.38812	-3.28719
8603.177	-1.49232	0.26577	0.38596	-3.26173
8607.174	-1.50053	0.28907	0.42311	-3.31221
8611.134	-1.53327	0.38872	0.35241	-3.33646
8615.170	-1.45993	0.15975	0.42534	-3.39970
8619.174	-1.45130	0.17635	0.57243	-3.40153
8623.174	-1.52590	0.27548	0.38105	-3.41693
8627.155	-1.48649	0.40453	0.38355	-3.30316
8631.171	-0.89761	0.35298	0.37286	-2.77551
8635.173	-1.00017	0.61095	0.32627	-1.28889
8639.173	-1.08932	1.04724	0.24048	-1.38198
8643.174	-0.89066	1.31145	0.36831	-1.42497
8647.171	-0.74861	1.30457	0.30992	-1.82281
8651.175	-0.59950	1.38336	0.30138	-1.91622
8655.175	-0.40015	1.45298	0.22837	-1.69170
8659.177	-0.41688	1.53760	0.23850	-1.68951
8663.164	-0.37809	1.65426	0.21457	-1.73688
8667.174	-0.41152	1.71021	0.16144	-1.63120
8671.168	-0.33332	1.70176	0.12806	-1.55855
8675.129	-0.34139	1.75256	-0.02618	-1.55542
8679.164	-0.27967	1.77136	0.08277	-1.63423
8683.175	-0.22807	1.79832	0.16236	-1.61320
8687.175	-0.17655	1.76340	0.12637	-1.67023
8691.175	-0.15164	1.76767	0.11724	-1.48261
8695.172	-0.10592	1.75603	0.15111	-1.40094
8699.173	-0.08778	1.80094	-0.07654	-1.33220
8703.180	-0.08761	1.76748	-0.04162	-1.26894
8707.131	-0.09925	1.72212	-0.20107	-1.14352
8711.091	-0.00377	1.67356	-0.17960	-1.15155
8715.176	0.03646	1.59500	-0.02181	-1.20369
8719.175	0.07550	1.55182	0.01906	-1.16820
8723.177	0.05112	1.54842	0.11575	-1.09064
8727.164	-0.00179	1.60528	-0.12816	-1.03247
8731.175	-0.42651	1.63513	-0.11381	-1.02661
8735.177	-0.27726	1.49777	-0.06157	-1.09152
8739.209	-0.40554	1.52420	-0.14655	-1.36485
8743.177	-0.36201	1.42388	-0.10592	-1.38571
8747.177	-0.46579	1.43477	-0.10863	-1.60146
8751.164	-0.61801	1.37660	-0.02450	-1.87246
8755.177	-0.69317	1.40789	0.09034	-1.99835
8759.179	-0.72997	1.42655	0.09230	-2.17867
8763.177	-0.90073	1.43620	-0.05991	-2.07283
8767.174	-1.06344	1.42665	-0.00697	-2.26868
8771.176	-1.02429	1.41989	-0.11796	-2.27868
8775.177	-1.29139	1.42822	-0.14819	-2.27438
8779.177	-1.43540	1.45380	-0.11558	-2.27002
8783.175	-1.48692	1.40449	-0.19482	-2.16377
8787.177	-1.59073	1.43232	-0.29687	-2.10119
8791.072	-1.53190	1.37825	-0.38065	-1.80019
8795.146	-1.56553	1.27917	-0.45472	-1.64267
8799.176	-1.60727	1.25657	-0.50051	-1.64390
8803.183	-1.57711	1.10620	-0.47795	-1.21023
8807.133	-1.64325	1.00863	-0.52495	-1.05523
8811.176	-1.56608	1.06412	-0.49597	-1.14716
8815.176	-1.42198	0.87415	-0.43996	-0.95531
8819.176	-1.47933	1.00732	-0.45415	-0.91042
8823.179	-1.33979	0.81751	-0.39015	-0.96307
8827.178	-1.28105	0.82038	-0.12354	-0.90679
8831.178	-1.19408	0.73245	0.09262	-0.93109
8835.178	-1.04243	0.68770	0.06676	-0.98773
8839.182	-0.97460	0.68531	0.10627	-0.98105
8843.177	-0.94691	0.54344	-0.01241	-1.08687
8847.133	-0.81109	0.50077	0.30625	-1.19277
8851.180	-0.88967	0.69563	0.36593	-1.42185
8855.182	-0.87200	0.61852	0.27163	-1.52007
8859.180	-0.83342	0.70844	0.51805	-1.69020
8863.179	-0.78764	0.52644	0.51091	-1.78109
8867.180	-0.54987	0.64070	0.42192	-1.75038
8871.181	-0.59585	0.40307	0.38899	-1.81369
8875.178	-0.51820	0.63253	0.44582	-1.85932
8879.174	-0.54525	0.80455	0.41120	-1.92754
8883.179	-0.47153	0.75182	0.39323	-1.96959
8887.180	-0.43428	0.89201	0.41256	-2.01275
8891.179	-0.41628	0.87415	0.38916	-2.08169
8895.179	-0.37712	0.93847	0.40859	-2.12569
8899.178	-0.43204	0.81704	0.33293	-2.18813
8903.075	-0.52662	0.87690	0.30980	-2.24493
8907.179	-0.41688	0.96269	0.20740	-2.23155
8911.180	-0.51734	0.99529	0.12583	-2.26531
8915.180	-0.62933	0.95684	0.06192	-2.29615
8919.181	-0.74092	0.93521	0.17003	-2.34628
8923.181	-0.80888	0.87861	0.14990	-2.33507
8927.179	-0.86907	0.87576	0.47892	-2.36759
8931.181	-0.92907	0.89532	0.60186	-2.36670
8935.182	-0.94557	0.81017	0.53185	-2.33396
8939.182	-1.26607	0.76423	0.73235	-2.30504
8943.181	-1.35065	0.74667	0.47014	-2.26256
8947.180	-1.47072	0.73818	0.56704	-2.17983
8951.183	-1.25198	0.61872	0.57873	-2.11414
8955.180	-1.45524	0.54741	0.38134	-1.92874
8959.170	-1.22576	0.64056	0.27756	-1.81900
8963.171	-1.54438	0.66566	0.23259	-1.74413
8967.183	-0.82143	0.65133	0.13756	-1.51358
8971.182	-0.90944	0.76380	-0.12171	-1.17252
8975.185	-0.85711	0.76314	-0.10840	-0.51943
8979.180	-1.02575	0.92361	0.24150	-1.43892
8983.181	-0.90086	0.76270	0.21879	-1.36991
8987.136	-0.56061	0.62070	0.32940	-1.40479
8991.183	-0.70685	0.55487	0.19636	-1.35265
8995.183	-0.45820	0.55649	0.09947	-1.29864
8999.182	-0.37948	0.63168	0.32900	-1.19160
9003.151	-0.25443	0.74371	0.27252	-1.10623
9007.185	-0.16774	0.74965	0.41336	-1.47622
9011.182	-0.21251	0.89869	0.52346	-1.45944
9015.183	-0.25540	0.93133	0.62394	-1.36959
9019.183	-0.16149	0.96611	0.66980	-1.43864
9023.182	0.02420	0.87092	0.69047	-1.38904
9027.182	-0.03581	0.77378	0.66511	-1.21901
9031.182	-0.13565	0.74394	0.72427	-1.31955
9035.183	-0.02973	0.72705	0.60610	-1.24033
9039.183	-0.18698	0.75390	0.84932	-1.29912
9043.164	-0.06621	0.96068	0.95219	-1.45877
9047.078	-0.16370	0.90629	1.11221	-1.47477
9051.182	-0.21859	0.90932	1.12390	-1.45070
9055.183	-0.11565	0.95576	1.07245	-1.44762
9059.138	-0.13689	0.93894	1.12869	-1.53727
9063.184	-0.02060	0.98363	1.20737	-1.61550
9067.184	-0.34451	0.78005	1.16587	-1.60021
9071.183	-0.23788	0.84344	1.00506	-1.57505
9075.184	-0.29223	0.92107	1.03764	-1.55961
9079.187	-0.34950	0.92921	1.04295	-1.67599
9083.180	-0.28920	0.95264	0.94398	-1.72269
9087.175	-0.30679	0.85016	0.83506	-1.75141
9091.183	-0.22974	0.80841	0.75312	-1.71870
9095.082	-0.16591	0.79303	0.73384	-1.81564
9099.058	-0.19631	0.80073	0.65811	-1.78144
9103.057	-0.29841	0.80788	0.58555	-1.77752
9107.060	-0.32183	0.74520	0.54716	-1.73709
9111.017	-0.26473	0.83668	0.49031	-1.71010
9115.056	-0.29434	0.80711	0.47408	-1.63475
9119.060	-0.36305	0.77078	0.43832	-1.59223
9123.058	-0.31960	0.80738	0.39705	-1.40349
9127.049	-0.27113	0.85399	0.40465	-1.52782
9131.046	-0.20710	0.90361	0.42452	-1.34219
9135.049	-0.22112	0.99532	0.39231	-1.22269
9139.061	-0.27054	0.98553	0.39857	-1.24934
9143.081	-0.32531	1.02761	0.38449	-1.22309
9147.060	-0.47445	0.94157	0.33590	-1.18765
9151.060	-0.50934	0.96561	0.34630	-1.11447
9155.061	-0.40283	0.85224	0.43763	-1.22814
9159.081	-0.43085	0.79185	0.42055	-1.27111
9163.062	-0.49118	0.70585	0.45773	-1.37030
9167.062	-0.27694	0.58209	0.49374	-1.35614
9171.062	-0.39420	0.31197	0.48406	-1.38264
9175.019	-0.46609	0.32439	0.42222	-1.42357
9179.064	-0.59736	0.21140	0.14469	-1.36401
9183.061	-0.52684	0.22316	-0.07368	-1.47837
9187.060	-0.62079	0.23106	0.40663	-1.52124
9191.058	-0.69801	0.39730	0.34258	-1.58728
9195.061	-0.56731	0.36044	0.23165	-1.70021
9199.061	-0.76687	0.40860	0.28634	-1.82900
9203.060	-0.86446	0.30255	0.32389	-2.01736
9207.083	-0.83846	0.30931	0.47490	-1.89084
9211.062	-1.12851	0.20094	0.37688	-1.98818
9215.039	-1.43699	0.30256	0.35362	-1.98687
9219.062	-1.39048	0.38042	0.45083	-2.08304
9223.085	-1.58654	0.40433	0.42492	-2.16181
9227.061	-1.45581	0.32914	0.42748	-2.18818
9231.060	-1.47322	0.21100	0.76985	-2.09617
9235.062	-1.58587	0.14735	0.67603	-2.03194
9239.082	-1.59668	0.12305	0.60277	-1.96849
9243.063	-1.56685	0.10112	0.57970	-1.78564
9247.018	-1.53681	0.04091	0.64404	-1.80920
