time (ms)	lx (deg)	ly (deg)	rx (deg)	ry (deg)
0.000	NaN	NaN	NaN	NaN
4.000	NaN	NaN	NaN	NaN
7.967	NaN	NaN	NaN	NaN
11.999	NaN	NaN	NaN	NaN
15.997	NaN	NaN	NaN	NaN
20.001	NaN	NaN	NaN	NaN
24.001	NaN	NaN	NaN	NaN
27.999	NaN	NaN	NaN	NaN
31.982	NaN	NaN	NaN	NaN
35.997	1.81800	9.10491	NaN	NaN
40.004	-5.11745	13.57859	-5.56797	3.97803
44.002	-1.86744	8.78437	-0.32052	2.36538
48.001	-1.16066	5.69439	-0.40159	-2.51671
51.999	-0.57334	5.40707	-0.38075	-1.49555
56.001	-1.05213	4.25748	-0.53083	-1.18128
60.001	-1.19152	3.02324	-0.32151	-0.92352
64.002	-0.91448	2.40170	0.76518	-1.13777
68.023	-1.62477	1.88231	1.27968	-1.01329
72.004	-2.14449	1.88844	1.52868	-0.57262
75.971	-2.07177	1.84353	0.96643	-0.19007
79.957	-1.94843	2.02741	0.14714	-0.41885
83.992	-2.25092	1.92509	0.01281	-0.51841
88.004	-2.23561	2.06751	-0.11776	-0.66024
92.002	-1.73393	1.88756	-0.23649	-0.59961
96.003	-1.60774	1.50281	-0.27778	-0.63688
100.022	-1.57136	1.66576	-0.29520	-0.55650
104.003	-1.48119	1.64158	-0.48373	-0.66479
108.003	-1.66200	1.69050	-0.74637	-0.69531
112.004	-1.81929	1.90638	-0.93557	-0.74486
116.025	-1.94563	2.03669	-1.17843	-0.86388
120.003	-1.89595	2.12760	-1.63445	-1.02299
123.958	-1.75275	2.07655	-1.18760	-1.05358
128.005	-1.78746	2.25878	-1.38275	-1.24563
132.024	-1.58247	2.29738	-1.13181	-1.29583
136.004	-1.41750	2.35480	-1.20730	-1.31112
140.002	-1.56322	2.36642	-1.28899	-1.39912
144.000	-1.67997	2.29244	-1.10140	-1.16525
147.996	-1.69431	2.31107	-1.04821	-1.19954
152.003	-1.71950	2.27734	-0.98055	-1.19862
155.996	-1.74459	2.20807	-1.06748	-0.94504
159.993	-1.79931	2.18883	-0.93654	-0.97563
164.029	-1.77749	2.18164	-0.87002	-0.99842
168.001	-1.83176	2.17557	-0.74608	-1.13725
172.005	-1.76914	2.13834	-0.74181	-0.90230
176.003	-1.73296	2.09637	-0.77496	-1.40044
180.003	-1.89146	2.04340	-0.62995	-1.12672
184.004	-1.87579	2.01867	-0.58781	-1.01299
188.004	-1.92267	1.99138	-0.55138	-0.96016
192.007	-1.96194	2.02380	-0.68439	-0.88907
195.996	-2.05482	2.06022	-0.52878	-1.13812
199.976	-2.03191	2.11952	-0.63739	-1.13203
204.002	-2.02914	1.93819	-0.81397	-1.12119
208.005	-1.83142	1.75330	-0.85456	-1.27933
211.992	-1.77035	1.51001	-1.08103	-1.26581
216.006	-1.89434	1.15341	-1.04409	-1.38559
220.005	-2.07836	1.11374	-1.07989	-1.48648
224.005	-1.66792	0.64670	-0.93688	-1.79587
228.024	-1.68905	0.85683	-1.13556	-1.68522
232.006	-1.76661	0.99938	-1.19763	-1.55253
236.008	-1.67467	0.51653	-0.86138	-2.09101
239.990	-1.48215	0.70572	-0.59143	-1.93595
244.002	-1.56965	0.69248	-1.01176	-1.68991
248.005	-1.46472	0.63056	-0.98072	-1.82223
252.006	-2.02641	0.59882	-0.94475	-1.90333
256.004	-1.92741	0.59051	-1.21727	-2.09923
260.026	-1.54963	0.51067	-1.53944	-2.12249
263.961	-1.50351	0.58731	-1.66076	-2.22795
268.008	-1.43334	0.40881	-1.79066	-1.75560
272.007	-1.51945	0.29426	-0.81292	-1.53729
276.025	-1.55836	0.22341	-0.83917	-1.77682
280.008	-1.77595	0.27989	-0.64166	-1.58413
283.972	-1.98797	0.37228	-0.30190	-1.96939
288.006	-1.63122	0.07350	-0.78421	-2.10954
292.028	-1.81384	0.04252	-1.08028	-1.83900
296.009	-1.89456	0.15445	-1.15987	-1.83979
300.006	-2.00135	0.20081	-0.99174	-1.96262
304.007	-1.64972	0.18726	-0.75672	-1.79617
308.029	-1.72416	0.20327	-0.62965	-1.79811
312.008	-1.81235	0.01113	-0.80196	-2.20108
316.009	-1.85926	-0.05700	-1.01226	-2.03397
320.008	-1.79376	-0.66687	-1.00395	-2.12067
324.008	-1.77107	-0.44078	-0.96321	-2.07534
327.963	-1.74050	-0.12851	-0.99206	-2.04761
332.009	-1.68922	-0.16428	-0.93805	-2.35944
336.009	-1.70732	0.10094	-0.73953	-2.34443
340.005	-1.67737	-0.02357	-0.81171	-2.17711
344.010	-1.64556	-0.29123	-0.69407	-2.09318
348.011	-1.65168	-0.58051	-0.67092	-2.27498
352.008	-1.65361	-0.41299	-0.66687	-2.31557
356.029	-1.67987	-0.52554	-0.63538	-2.14107
360.011	-1.67015	-0.49827	-0.56528	-2.11797
364.000	-1.65877	-0.51283	-0.46120	-2.19619
367.998	-1.64843	-0.41647	-0.46693	-2.35169
372.028	-1.57476	-0.55041	-0.44544	-2.40997
376.008	-1.56347	-0.58384	-0.43036	-2.35565
380.007	-1.44123	-0.62456	-0.48912	-2.13556
384.008	-1.41368	-0.56687	-0.48952	-2.18715
388.034	-1.42811	-0.71346	-0.61873	-2.20323
392.037	-1.41534	-0.74973	-0.66967	-2.14495
396.007	-1.52069	-0.72321	-0.93760	-2.03340
400.007	-1.43756	-0.64108	-1.03451	-2.10172
404.032	-1.43840	-0.74438	-0.86237	-2.09193
407.981	-1.55993	-0.57527	-1.02000	-2.13744
412.010	-1.67330	-0.50587	-1.10306	-2.07699
416.009	-1.70308	-0.44797	-1.08537	-2.08395
420.032	-1.81510	-0.36996	-1.00491	-2.02557
424.009	-2.08352	-0.41351	-0.97968	-2.07461
428.010	-2.16169	-0.39769	-0.95698	-2.25525
432.009	-2.29042	-0.61261	-0.97187	-2.15888
436.010	-2.27840	-0.21306	-0.92681	-2.03752
440.011	-2.28948	-0.29604	-0.94981	-2.01637
444.012	-2.27154	-0.30883	-0.91927	-2.13244
447.991	-2.22983	-0.26365	-0.84084	-1.83652
452.006	-2.05549	-0.37935	-0.86081	-1.75514
456.012	-2.11162	-0.33973	-0.81136	-1.81586
459.969	-2.09266	-0.36084	-0.85371	-1.66436
464.011	-2.04646	-0.32650	-0.91158	-1.60195
467.999	-1.97193	-0.38105	-0.93877	-1.50360
472.010	-1.99243	-0.32324	-0.98705	-1.39882
476.011	-1.92176	-0.35218	-1.07135	-1.27552
480.011	-1.93492	-0.39648	-1.09304	-1.24097
484.001	-1.87785	-0.44229	-1.11065	-1.20173
488.012	-1.78919	-0.40494	-1.09577	-1.21912
491.976	-1.79792	-0.34193	-1.08636	-1.27725
496.011	-1.87842	-0.32674	-1.07644	-1.42297
500.013	-1.84780	-0.32746	-0.82818	-1.82081
504.012	-1.81850	-0.35754	-1.09252	-1.54111
508.011	-1.77578	-0.27316	-0.93914	-2.02662
512.012	-1.84528	-0.26426	-0.91001	-1.95167
516.012	-1.77826	-0.35405	-0.97680	-1.59606
520.013	-1.79839	-0.20324	-0.71365	-1.75632
524.013	-1.69557	-0.15780	-0.81382	-2.41141
528.014	-1.70955	0.02519	-0.75690	-1.67865
531.986	-1.78672	0.08164	-0.64769	-1.92179
536.012	-1.71191	-0.14004	-0.59255	-2.31825
540.012	-1.68454	-0.03413	-0.65005	-1.44018
544.012	-1.61012	0.24340	-0.57285	-2.02645
548.014	-1.73090	-0.10839	-0.72953	-2.34188
552.012	-1.72408	0.05474	-0.73374	-1.71421
556.012	-1.65451	0.10179	-0.75397	-1.43104
560.012	-1.61213	-0.02693	-0.70275	-1.86684
564.012	-1.64481	0.24951	-0.81794	-2.02418
568.014	-1.67635	0.11850	-0.92760	-1.63591
571.999	-1.64149	0.00375	-0.76558	-1.53709
576.004	-1.81314	-0.12781	-0.68466	-1.80692
580.002	-1.84624	0.23654	-0.50408	-2.00401
584.013	-1.83509	-0.06532	-0.93874	-1.84605
588.012	-2.28960	0.17035	-0.79002	-1.97633
592.014	-1.93048	-0.08926	-0.97053	-2.03551
596.015	-1.94476	0.04768	-1.09827	-2.01265
600.013	-2.01858	0.07485	-0.83813	-2.10259
604.014	-2.15752	0.09369	-1.09743	-2.17422
608.015	-2.10939	-0.11890	-1.04153	-2.09160
612.015	-2.07554	-0.13442	-0.72613	-2.34808
616.014	-2.15519	-0.19540	-1.10055	-2.24354
620.014	-1.68005	0.01980	-1.13816	-2.13797
624.014	-2.11784	-0.10874	-0.83111	-1.69690
628.017	-2.10092	0.07492	-1.13992	-2.12177
632.015	-2.16669	0.20533	-1.11464	-1.94537
636.014	-2.12285	0.19471	-0.95971	-2.02264
640.016	-2.25674	-0.22774	-1.11911	-1.88635
643.978	-2.28388	-0.04787	-1.05987	-1.84529
647.980	-2.21003	-0.03342	-0.64714	-1.75312
652.015	-2.20773	-0.10898	-1.18160	-1.73136
655.997	-2.25241	0.12251	-1.23218	-1.82220
660.014	-2.09673	0.33521	-0.91267	-1.77302
664.014	-2.29176	-0.78394	-1.18368	-1.81367
668.014	-2.05829	-0.18478	-1.15387	-1.84310
672.014	-2.23172	0.33687	-1.12181	-1.88273
676.015	-2.19797	0.10143	-1.05669	-1.83812
680.016	-2.33098	0.28955	-1.07393	-1.98423
684.016	-2.22929	0.24560	-1.04116	-2.00190
688.015	-2.13009	0.18507	-1.23838	-2.28624
692.018	-2.18166	-0.15115	-1.20417	-2.03913
696.016	-2.04218	0.35539	-1.17039	-2.05722
700.010	-2.07611	0.37835	-1.10137	-1.79267
704.016	-2.17460	0.25695	-0.95343	-2.14160
708.018	-2.27322	0.08633	-0.66099	-2.21869
712.015	-2.32461	0.31095	-0.90195	-2.12468
716.017	-2.31126	0.35048	-1.00732	-1.90995
720.016	-1.99999	0.02868	-0.65747	-1.93975
724.016	-2.02991	0.06226	-0.70699	-2.04615
728.016	-2.08530	0.23479	-0.89063	-2.07067
732.017	-2.12845	0.28313	-0.79039	-1.97245
736.017	-2.08156	0.07822	-0.79109	-1.93684
739.989	-1.96494	0.28406	-0.86044	-1.82661
744.020	-1.97411	0.39556	-0.87830	-2.05026
748.016	-1.91053	0.21773	-0.88106	-1.90945
752.016	-1.78994	-0.07379	-1.03637	-2.03847
755.911	-1.76802	0.24134	-1.14670	-1.95381
760.017	-1.70308	0.59028	-1.10983	-1.97381
764.018	-1.60709	0.24688	-1.31945	-2.00318
768.016	-1.77491	-0.11731	-1.17282	-2.15524
771.912	-1.76933	0.19614	-1.22660	-1.97142
776.018	-1.70601	0.61529	-1.27715	-1.62477
780.006	-1.66336	0.44714	-1.32371	-2.28996
784.007	-1.78024	-0.00348	-1.41633	-2.31025
788.019	-1.67707	-0.10529	-1.20849	-2.14425
792.017	-1.73442	0.73290	-1.33292	-1.97196
796.018	-1.68766	0.46432	-1.32364	-2.24819
800.018	-1.80090	-0.23488	-1.39587	-2.01314
803.916	-1.83439	-0.77803	-1.44550	-2.11365
808.045	-1.72406	1.13576	-1.24893	-1.92718
812.020	-1.64015	0.46048	-1.37407	-2.53519
816.019	-1.80273	-0.15476	-1.51139	-2.19815
820.018	-1.54668	-0.74178	-1.28470	-2.03760
823.988	-1.38711	1.33705	-1.01350	-2.25598
827.974	-1.77541	0.88404	-1.29893	-2.25508
832.020	-1.68791	-0.40337	-0.90515	-1.87588
835.916	-2.00177	0.11329	-0.87686	-2.11370
839.890	-2.00641	0.75873	-0.78853	-2.07082
843.981	-1.79971	0.21615	-0.90614	-1.76796
847.975	-2.05655	-0.36656	-0.54553	-2.08721
852.020	-2.17291	0.50620	-0.44862	-2.23530
856.020	-2.44967	0.72363	-0.62734	-2.36931
860.023	-2.59307	-0.02023	-0.71734	-2.04602
864.001	-2.40151	0.23221	-0.73077	-2.09631
868.027	-2.65676	0.21675	-0.58932	-2.05051
872.018	-2.89802	0.12386	-0.76280	-1.86398
876.021	-2.52240	0.34300	-0.54716	-2.09887
880.018	-2.44469	0.13602	-0.73369	-1.84014
884.020	-2.47700	0.18413	-0.92738	-1.90076
888.020	-2.68078	0.17862	-0.74402	-2.11702
892.049	-3.01393	0.25368	-1.01414	-2.14813
896.016	-2.92351	0.16672	-1.14747	-2.17471
900.024	-2.92220	0.11728	-1.16835	-2.26591
904.014	-2.74244	0.27409	-1.28723	-2.16271
907.983	-2.86569	0.32673	-1.26249	-2.51707
912.018	-2.59274	0.50974	-1.35757	-2.40721
915.916	-2.68888	0.63536	-1.41536	-2.36025
920.020	-2.70297	0.21619	-1.27378	-2.36190
924.020	-2.74420	0.18931	-1.48982	-2.30554
928.022	-2.45215	-0.27962	-1.38079	-1.97281
932.020	-2.37074	0.14638	-1.36893	-2.37952
936.021	-2.40280	0.77357	-1.32560	-2.64117
940.021	-1.85395	0.76180	-1.27564	-2.06684
944.026	-1.65659	-0.16530	-1.17195	-2.11279
947.998	-2.09207	0.11592	-0.79712	-2.58214
952.022	-2.00569	-0.01719	-1.25327	-2.20660
956.022	-1.73487	0.42651	-0.92932	-1.98985
960.014	-1.82500	0.13732	-0.67670	-2.33260
964.022	-2.20904	-0.08514	-0.52674	-2.17242
968.023	-2.10216	0.02684	-0.91870	-2.36962
972.023	-2.48341	0.08175	-0.56776	-2.57249
976.022	-2.00579	0.12839	-0.37809	-2.11234
980.021	-2.29604	0.10672	-0.37628	-2.16160
984.022	-2.28465	0.15578	-0.27406	-1.89669
988.010	-2.38006	0.43028	-0.21839	-2.22979
992.012	-2.43072	-0.03585	-0.19397	-1.94672
996.024	-2.28115	0.05495	-0.23470	-1.98764
1000.021	-2.33415	0.56399	-0.83379	-1.94910
1004.022	-1.71084	0.59018	-1.13985	-2.09669
1008.025	-1.69594	0.78082	-1.05158	-1.92806
1012.023	-1.32433	-0.08017	-0.64598	-1.98406
1016.019	-1.72907	0.03609	-0.84667	-1.81222
1020.023	-1.99429	-0.04425	-0.99846	-1.82763
1023.897	-2.16089	-0.02828	-1.19472	-1.32458
1027.920	-2.01062	-0.22067	-1.57867	-1.62773
1031.900	-2.18035	-0.06930	-1.42977	-1.63710
1035.898	-1.93385	0.09333	-1.27879	-0.94755
1039.897	-2.31889	-0.16879	-1.43369	-1.24043
1044.026	-2.17772	-0.18184	-1.49641	-1.27610
1047.902	-2.16503	0.38270	-1.60972	-1.15688
1051.899	-2.10488	1.10788	-1.02836	-1.01897
1055.898	-2.13886	0.96733	-0.37214	-1.26476
1060.024	-2.12704	0.10938	-0.24602	-1.36601
1063.899	-2.02314	0.38295	-0.28684	-1.56375
1067.899	-2.06349	0.16891	-0.27446	-1.43711
1071.900	-0.88272	1.13964	-0.26344	0.87943
1075.888	-2.07217	0.99500	3.74108	-0.61435
1079.894	-2.42691	1.26202	-1.50425	-1.00199
1083.903	-5.27117	3.53616	-1.91432	-1.15521
1087.899	NaN	NaN	-1.85063	-0.31162
1091.897	NaN	NaN	1.24498	2.01493
1095.898	NaN	NaN	NaN	NaN
1099.918	NaN	NaN	NaN	NaN
1103.899	NaN	NaN	NaN	NaN
1107.901	NaN	NaN	NaN	NaN
1111.903	NaN	NaN	NaN	NaN
1115.903	NaN	NaN	NaN	NaN
1119.896	NaN	NaN	NaN	NaN
1123.899	NaN	NaN	NaN	NaN
1127.855	NaN	NaN	NaN	NaN
1131.900	NaN	NaN	NaN	NaN
1135.902	NaN	NaN	NaN	NaN
1139.899	NaN	NaN	NaN	NaN
1143.858	NaN	NaN	NaN	NaN
1147.900	NaN	NaN	NaN	NaN
1151.899	-15.94206	-0.04693	-16.44272	13.22169
1155.891	-12.80848	3.76122	NaN	NaN
1159.888	-15.71280	4.59151	-14.89124	11.87148
1163.888	-15.90435	4.95188	-16.42656	4.47953
1167.902	-15.69215	4.79296	-15.84596	-0.51767
1171.892	-15.32657	4.85248	-15.41677	-1.02940
1175.900	-15.54826	3.10246	-15.36403	-1.04500
1179.902	-15.29690	1.65099	-16.33608	-0.18504
1183.901	-15.45440	0.79209	-15.10048	-0.58162
1187.919	-12.57288	0.54871	-13.86701	-0.86242
1191.902	-9.59144	0.71610	-15.06406	-0.50336
1195.904	-9.81166	0.67293	-13.97926	-0.58820
1199.901	-12.33312	0.66692	-12.56056	-1.92074
1203.922	-12.78446	0.44319	-13.07667	-1.85201
1207.902	-12.50557	0.28536	-12.79985	-2.56014
1211.858	-12.44127	-0.02339	-12.46060	-3.01237
1215.903	-12.44370	-0.48202	-12.16653	-2.83572
1219.921	-12.42527	-0.57739	-11.87465	-2.36204
1223.903	-12.33413	-0.44038	-12.19496	-2.54506
1227.901	-12.27668	-0.64861	-12.49786	-2.46154
1231.902	-12.27526	-1.11060	-12.52147	-2.73175
1235.922	-12.33352	-1.30374	-12.35966	-2.94122
1239.903	-12.40915	-0.61931	-12.20702	-3.03177
1243.883	-12.56068	-1.15225	-12.04782	-2.33067
1247.902	-12.40796	0.06232	-12.00735	-2.70736
1251.893	-12.51629	-0.68163	-12.04372	-2.35087
1255.902	-12.34062	-1.14815	-12.16124	-2.37779
1259.902	-12.41864	-1.06431	-12.29917	-2.45830
1263.901	-12.38569	-0.74871	-12.25988	-2.62458
1267.895	-12.53022	-0.47652	-12.42957	-2.50758
1271.903	-12.55930	-0.77183	-12.15822	-2.88922
1275.903	-12.58441	-0.73184	-12.15953	-2.93173
1279.905	-12.71939	-0.66287	-12.28766	-2.88134
1283.919	-12.56318	-0.71912	-12.40543	-2.68926
1287.897	-12.62138	-0.30594	-12.19458	-2.74735
1291.904	-12.50406	-0.61261	-11.82497	-2.62055
1295.904	-12.53488	-0.39696	-11.96028	-2.27631
1299.924	-12.58900	-0.07356	-12.59337	-1.93200
1303.905	-12.43547	-0.49985	-12.49862	-2.19458
1307.904	-12.60015	-0.56653	-12.21957	-1.96049
1311.904	-12.58550	-0.61089	-12.08817	-2.10158
1315.895	-12.57240	-0.54246	-12.16567	-1.96067
1319.907	-12.61559	-0.52222	-12.17539	-2.37917
1323.907	-12.51950	-0.55863	-12.23552	-2.41473
1327.861	-12.56571	-0.47464	-12.12041	-2.35371
1331.902	-12.52561	-0.46295	-12.26846	-2.56854
1335.905	-12.53027	-0.56780	-12.11944	-2.10941
1339.904	-12.56016	-0.52832	-12.27344	-1.93157
1343.905	-12.55673	-0.65415	-12.23900	-2.26193
1347.897	-12.55772	-0.63499	-12.44877	-2.64697
1351.905	-12.48845	-0.60204	-12.40512	-2.47092
1355.905	-12.49138	-0.64408	-12.41582	-2.75259
1359.904	-12.47768	-0.36645	-12.33492	-2.34831
1363.927	-12.50553	-0.65248	-12.52017	-2.61770
1367.906	-12.56127	-0.69983	-12.56420	-3.07830
1371.894	-12.48116	-0.64941	-12.48767	-2.84252
1375.903	-12.85996	-0.61277	-12.99326	-2.04844
1379.898	-12.96161	-0.80636	-12.81528	-2.04926
1383.902	-13.70683	-1.14548	NaN	NaN
1387.905	-14.70579	-0.27321	-14.18606	-2.54601
1391.861	-15.27753	-1.29958	-14.56678	-3.05993
1395.864	-14.97747	-1.39125	-14.53686	-3.83958
1399.908	-15.54469	-0.82909	-14.77774	-4.15032
1403.909	-15.35067	-0.97741	-14.88002	-4.15088
1407.906	-15.18368	-1.32983	-14.91847	-4.32136
1411.930	-15.13184	-1.42804	-15.00485	-4.46208
1415.907	-15.24071	-1.81020	-14.90964	-4.59172
1419.908	-15.13233	-1.27159	-14.67990	-4.16985
1423.908	-15.22084	-1.24587	-14.81293	-4.31511
1427.904	-15.23923	-1.38932	-14.80389	-4.49269
1431.915	-15.23990	-1.60403	-14.93327	-4.44843
1435.906	-15.37312	-1.89141	-14.75969	-4.52500
1439.907	-15.64779	-1.97337	-14.78732	-4.43216
1443.898	-15.40233	-1.65581	-14.77974	-4.55522
1447.913	-15.34167	-1.45689	-14.73866	-4.50530
1451.888	-15.28607	-1.46691	-14.57680	-4.38986
1455.865	-15.21483	-1.48492	-14.50376	-3.96709
1459.903	-15.27175	-1.29082	-14.24121	-3.87174
1463.908	-15.32952	-1.38479	-14.25562	-3.39854
1467.908	-15.49877	-1.27747	-14.31969	-3.33402
1471.909	-15.40717	-1.93035	-14.06186	-3.24947
1475.906	-15.41891	-1.75488	-13.99959	-3.48452
1479.910	-15.21818	-1.21391	-14.12436	-4.04044
1483.909	-15.17861	-1.34643	-14.14894	-3.66721
1487.910	-15.08410	-1.37281	-14.15206	-3.62521
1491.898	-15.11905	-1.62554	-14.17822	-3.34580
1495.898	-15.20989	-1.62312	-14.09397	-3.56295
1499.910	-15.12125	-1.88877	-13.88036	-3.56591
1503.908	-14.99148	-1.63294	-13.82686	-3.33177
1507.901	-14.66062	-1.71802	-13.77895	-3.24668
1511.908	-14.94162	-1.82193	-13.91787	-3.60740
1515.864	-14.78985	-1.91117	-13.91979	-3.09710
1519.910	-14.74418	-1.97559	-13.79700	-3.10398
1523.897	-14.61081	-1.94848	-13.80463	-2.91648
1527.912	-14.58605	-1.99566	-13.84682	-3.29544
1531.913	-14.60195	-2.06835	-13.88443	-3.50236
1535.889	-14.51944	-2.06622	-13.98281	-2.79559
1539.901	-14.45702	-2.08466	-13.62823	-2.85041
1543.910	-14.38474	-1.98059	-13.52304	-3.23702
1547.914	-14.43065	-1.97206	-13.24898	-2.94350
1551.910	-14.49534	-2.09924	-13.26314	-2.57520
1555.906	-14.49395	-2.14228	-14.45665	-2.22621
1559.908	-14.50528	-2.03663	-13.27788	-2.25951
1563.911	-14.52135	-2.03783	-13.36936	-2.54625
1567.866	-14.62359	-2.00473	-13.66901	-2.52457
1571.901	-14.50656	-1.71951	-13.90934	-2.72681
1575.898	-14.70161	-1.34800	-13.89805	-2.94380
1579.866	-14.62324	-1.62428	-14.30473	-2.88851
1583.864	-14.63850	-1.60531	-13.99466	-3.41224
1587.908	-14.66508	-1.69154	-14.45670	-2.40794
1591.912	-14.74720	-1.69025	-14.62891	-2.56681
1595.911	-14.83900	-1.59524	-13.78281	-2.04277
1599.912	-14.88308	-1.67021	-13.35022	-1.65288
1603.902	-14.80298	-1.64599	-13.31262	-1.82259
1607.913	-14.75152	-1.63101	-13.18694	-2.07942
1611.914	-14.68185	-1.56313	-13.26718	-2.21344
1615.913	-14.73963	-1.60135	NaN	NaN
1619.902	-14.67160	-1.64064	-11.85858	-3.51512
1623.913	-14.60295	-1.43006	-11.87104	-3.57315
1627.912	-14.62006	-1.39707	-13.08418	-2.50983
1631.916	-14.70405	-1.62976	-13.29271	-2.74950
1635.904	-14.57906	-1.34470	-15.13082	-3.59054
1639.907	-14.62398	-1.29739	-15.36184	-4.19304
1643.911	-14.67553	-1.31710	-15.51444	-4.37452
1647.914	-14.77268	-1.40095	-15.29351	-4.90697
1651.909	-14.87457	-1.19964	-14.96731	-5.08545
1655.911	-15.03066	-1.16782	-14.92834	-4.91858
1659.889	-15.11368	-2.01658	-15.00512	-5.03598
1663.914	-15.15931	-1.70264	-14.97090	-4.86713
1667.906	-15.21686	-1.55308	-15.12356	-4.80638
1671.914	-15.26420	-1.89604	-15.18076	-4.61200
1675.912	-15.32412	-2.38888	-15.23870	-4.43018
1679.914	-15.39409	-2.17110	-15.14477	-4.83610
1683.903	-15.44409	-2.18488	-15.19995	-4.76515
1687.913	-15.52292	-2.29763	-14.93858	-4.32719
1691.912	-15.36525	-1.51285	-14.83297	-4.36233
1695.914	-15.41098	-1.63659	-14.88818	-4.39345
1699.810	-15.31083	-1.99827	-14.84670	-4.43455
1703.904	-15.25138	-1.94704	-14.88711	-4.28096
1707.915	-15.19817	-1.69607	-14.89420	-4.34358
1711.869	-15.25676	-1.63485	-14.82801	-4.40707
1715.809	-15.25926	-1.68446	-14.94310	-4.55472
1719.914	-15.27711	-1.84698	-14.82506	-4.63497
1723.913	-15.16863	-1.63530	-14.89995	-4.13327
1727.913	-15.05971	-1.43774	-14.77790	-4.00452
1731.905	-14.96853	-1.37768	-14.77612	-4.15322
1735.916	-14.85113	-1.18167	-14.79064	-4.42268
1739.915	-14.82370	-1.36797	-14.80795	-4.80732
1743.914	-14.84768	-1.43287	-14.81115	-5.03094
1747.831	-14.90023	-1.41781	-14.59854	-4.79907
1751.915	-14.82602	-1.46168	-14.67876	-4.86090
1755.912	-14.83606	-1.48036	-14.57236	-4.08458
1759.913	-14.79781	-1.55070	-14.48602	-3.77770
1763.805	-14.76600	-1.47303	-14.25597	-3.93924
1767.916	-14.87633	-1.53984	-14.39422	-4.02252
1771.913	-14.83838	-1.59988	-14.35430	-3.67117
1775.914	-14.85027	-1.55954	-14.42004	-3.45824
1779.911	-14.88345	-1.61068	-14.38514	-3.45420
1783.894	-14.90667	-1.62800	-14.31356	-3.36765
1787.910	-14.89974	-1.56871	-14.39003	-3.65853
1791.915	-14.91620	-1.68562	-14.40447	-3.58319
1795.812	-15.15039	-1.86778	-14.48299	-3.60639
1799.914	-15.09002	-2.06065	-14.54591	-3.82529
1803.916	-15.13864	-2.00441	-14.55462	-3.68897
1807.871	-15.07236	-1.96374	-14.57006	-3.66139
1811.813	-15.02432	-1.67513	-14.58373	-3.92164
1815.917	-14.97254	-1.64582	-14.54263	-3.63709
1819.918	-14.89140	-1.48586	-14.45700	-3.69100
1823.911	-14.71774	-1.20954	-14.34972	-3.64897
1827.813	-14.51916	-0.71153	-14.25301	-3.55417
1831.916	-14.95913	-1.04621	-14.15839	-3.33195
1835.918	-15.09367	-1.94195	-14.01062	-3.22335
1839.792	-15.04566	-1.65919	-14.08001	-3.47343
1843.811	-15.01216	-1.69480	-14.04822	-3.07074
1847.917	-14.82956	-1.69487	-14.11355	-2.76883
1851.923	-15.05899	-1.13852	-14.04575	-2.53981
1855.915	-14.86699	-0.99955	-13.99534	-2.57966
1859.814	-14.75433	-0.90443	-14.00723	-2.51280
1863.916	-14.65725	-0.87147	-13.95269	-2.60254
1867.918	-14.55721	-0.87343	-13.93871	-2.96226
1871.918	-14.73179	-0.96067	-14.06913	-2.40609
1875.813	-14.90327	-1.35923	-13.72739	-2.65076
1879.916	-14.75973	-1.46935	-13.63058	-2.95111
1883.917	-14.75375	-1.83494	-13.47754	-2.50464
1887.918	-14.74207	-1.19550	-13.32014	-2.56801
1891.814	-14.81467	-0.82631	-13.65214	-2.63124
1895.919	-14.74247	-0.77460	-13.61975	-2.78105
1899.921	-14.78537	-0.89986	-13.74495	-2.81593
1903.916	-14.81092	-1.00125	-14.26800	-2.16484
1907.816	-14.86024	-1.42909	-14.45067	-1.93689
1911.905	-14.91193	-1.29075	-14.40176	-2.03530
1915.917	-14.91597	-1.53279	-14.52909	-2.19890
1919.917	-14.91645	-1.60486	-14.47676	-2.09288
1923.819	-14.93828	-1.38425	-14.57348	-1.96231
1927.918	-14.95243	-1.47423	-14.56583	-1.98765
1931.918	-14.93061	-1.53693	-14.62763	-1.78597
1935.920	-14.93043	-1.66387	-14.70361	-1.72361
1939.815	-14.93110	-1.77148	-14.50411	-1.58643
1943.920	-14.95920	-1.81514	-14.42348	-1.59557
1947.921	-15.02517	-2.02247	-13.83739	-1.60554
1951.896	-15.04515	-2.17441	-14.39615	-1.11892
1955.919	-15.04388	-2.20335	NaN	NaN
1959.917	-15.15062	-2.10476	NaN	NaN
1963.919	-15.26933	-1.95952	NaN	NaN
1967.919	-15.15057	-1.91881	NaN	NaN
1971.811	-15.20767	-1.90941	NaN	NaN
1975.917	-15.14127	-1.85962	NaN	NaN
1979.918	-15.16738	-1.75596	NaN	NaN
1983.918	-15.09781	-1.05483	NaN	NaN
1987.815	-15.08447	-1.51156	NaN	NaN
1991.906	-15.04276	-1.45673	-13.78012	-0.41582
1995.916	-15.00684	-1.42912	-13.46996	-1.39836
1999.919	-15.03767	-1.45801	-13.53643	-1.86219
2003.816	-15.06450	-1.48974	-13.62877	-1.74954
2007.907	-15.02973	-1.64032	-13.61783	-2.02057
2011.921	-15.01709	-1.72699	-13.56015	-2.33010
2015.921	-15.03158	-1.90776	-13.62444	-2.56209
2019.816	-15.15288	-1.92826	-13.68218	-2.66074
2023.921	-15.23627	-2.07996	-13.78284	-2.78262
2027.923	-15.25713	-2.17700	-13.81340	-2.91871
2031.921	-15.38406	-2.20989	-14.03442	-2.08562
2035.817	-15.32846	-2.23896	-14.14123	-2.61084
2039.921	-15.25658	-2.31893	-13.89833	-3.08067
2043.921	-15.19341	-2.46242	-13.98160	-3.26603
2047.797	-15.28406	-2.24793	-14.01973	-3.73475
2051.788	-15.23426	-2.07445	-14.46431	-4.12698
2055.796	-15.31840	-2.13377	-14.47429	-4.31051
2059.797	-15.23486	-1.90375	-14.43128	-4.06079
2063.797	-15.11581	-1.96856	-14.57966	-4.20189
2067.786	-14.95292	-1.95081	-14.58550	-4.21099
2071.796	-14.87302	-2.27481	-14.64659	-4.48555
2075.798	-14.83144	-2.04322	-14.58863	-4.65198
2079.783	-14.78774	-2.12963	-14.52947	-4.84418
2083.787	-14.77693	-2.14840	-14.66849	-4.98925
2087.797	-14.76486	-1.96451	-14.73857	-4.88148
2091.796	-14.84190	-1.82011	-14.84042	-4.86752
2095.800	-14.99903	-1.93835	-14.85890	-4.99389
2099.787	-14.90535	-2.02271	-14.97886	-4.96786
2103.796	-14.93659	-2.06201	-15.00672	-5.03720
2107.796	-14.99619	-1.99647	-15.02865	-5.06476
2111.797	-14.95918	-1.87509	-15.06700	-5.04671
2115.821	-15.12409	-1.93827	-15.01594	-4.95162
2119.798	-15.17605	-2.04446	-14.91001	-4.87880
2123.770	-15.03020	-2.01507	-14.97824	-5.00735
2127.797	-15.25854	-2.02010	-14.93877	-4.99779
2131.790	-15.05568	-2.07165	-14.94581	-4.92568
2135.795	-14.99598	-2.20104	-14.94354	-4.91639
2139.793	-14.89821	-2.13334	-14.93297	-4.90188
2143.800	-14.93786	-2.15261	-14.85700	-4.78525
2147.788	-15.06350	-2.25221	-14.89569	-4.56152
2151.803	-15.13776	-2.42689	-14.78637	-4.71006
2155.798	-14.92030	-2.30056	-14.80319	-4.73764
2159.800	-14.97826	-2.21529	-14.75915	-4.69466
2163.790	-15.08882	-2.11630	-14.72223	-4.66857
2167.795	-15.06804	-1.80405	-14.65797	-4.59014
2171.799	-14.96295	-2.40702	-14.53814	-4.41956
2175.802	-14.88428	-2.39270	-14.39220	-4.26020
2179.787	-14.80693	-2.46224	-14.30694	-4.04562
2183.799	-14.71740	-2.46023	-14.25727	-3.87768
2187.798	-14.65936	-2.34619	-14.19112	-3.72168
2191.800	-14.57899	-2.30943	-14.10244	-3.58394
2195.788	-14.52967	-2.28514	-14.29184	-3.20914
2199.800	-14.53916	-2.35900	-14.39538	-3.14074
2203.800	-14.50074	-2.30775	-14.34937	-3.09237
2207.755	-14.49967	-2.48442	-14.28779	-2.97248
2211.818	-14.50953	-2.46568	-14.29308	-3.10016
2215.799	-14.57239	-2.35063	-14.14327	-2.79332
2219.800	-14.48741	-2.24255	-14.08377	-2.95590
2223.800	-14.48746	-2.20262	-14.18512	-2.91494
2227.788	-14.43026	-1.79852	-14.05159	-2.93453
2231.799	-14.41890	-1.86697	-13.61771	-3.20342
2235.801	-14.38391	-1.84487	-13.56516	-3.47419
2239.800	-14.44041	-1.94039	-13.63984	-3.73049
2243.803	-14.47936	-1.88345	-13.62240	-4.03462
2247.777	-14.54930	-1.78752	-13.60254	-4.11181
2251.808	-14.57743	-2.06075	-13.58362	-4.05963
2255.800	-14.64329	-1.98186	NaN	NaN
2259.803	-14.51844	-2.03774	NaN	NaN
2263.757	-14.55125	-2.11154	NaN	NaN
2267.757	-14.61313	-2.15662	NaN	NaN
2271.801	-14.67964	-2.11868	-13.64471	-4.00527
2275.793	-14.71891	-2.09761	-14.04678	-3.71153
2279.807	-14.75263	-2.13734	-14.41389	-2.44574
2283.801	-14.77331	-2.09311	-14.57220	-2.30597
2287.787	-14.74328	-2.06016	-14.59242	-2.13362
2291.791	-14.70391	-1.97320	-14.65179	-2.05211
2295.801	-14.69330	-1.85901	-14.79519	-1.93520
2299.800	-14.68240	-1.82399	-14.76347	-2.01614
2303.802	-14.65286	-1.74688	-14.75827	-1.95593
2307.796	-14.66064	-1.78262	NaN	NaN
2311.799	-14.65532	-1.75618	NaN	NaN
2315.803	-14.62426	-1.73478	NaN	NaN
2319.803	-14.64812	-1.94313	NaN	NaN
2323.800	-14.57195	-1.75773	NaN	NaN
2327.804	-14.57790	-1.78627	NaN	NaN
2331.767	-14.64617	-1.52746	NaN	NaN
2335.802	-14.63567	-1.64790	NaN	NaN
2339.825	-14.67367	-1.87308	NaN	NaN
2343.804	-14.63256	-1.77702	NaN	NaN
2347.804	-14.63709	-1.69552	NaN	NaN
2351.803	-14.66394	-1.48146	-14.13983	-2.60090
2355.793	-14.73128	-1.53266	-15.00302	-1.32617
2359.805	-14.72559	-1.77343	NaN	NaN
2363.804	-14.68854	-1.72238	NaN	NaN
2367.800	-14.64101	-1.49905	NaN	NaN
2371.792	-14.64838	-1.46655	NaN	NaN
2375.806	-14.60820	-1.57975	NaN	NaN
2379.805	-14.58998	-1.74094	NaN	NaN
2383.804	-14.64299	-1.27524	NaN	NaN
2387.802	-14.62559	-1.30933	NaN	NaN
2391.800	-14.64854	-1.45302	NaN	NaN
2395.805	-14.58647	-1.50716	NaN	NaN
2399.804	-14.59159	-1.55384	NaN	NaN
2403.797	-14.60002	-1.65179	NaN	NaN
2407.832	-14.59705	-1.77562	NaN	NaN
2411.804	-14.58164	-1.65102	NaN	NaN
2415.769	-14.61999	-1.63901	NaN	NaN
2419.801	-14.57785	-1.58259	NaN	NaN
2423.805	-14.58722	-1.57286	NaN	NaN
2427.804	-14.56867	-1.60373	NaN	NaN
2431.804	-14.54686	-1.70117	NaN	NaN
2435.802	-14.53198	-1.60438	NaN	NaN
2439.805	-14.53640	-1.50311	NaN	NaN
2443.807	-14.51132	-1.51176	NaN	NaN
2447.805	-14.48618	-1.73517	NaN	NaN
2451.808	-14.48992	-1.64856	NaN	NaN
2455.783	-14.56841	-1.50390	NaN	NaN
2459.764	-14.46072	-1.43165	NaN	NaN
2463.806	-14.43757	-1.41987	NaN	NaN
2467.796	-14.53858	-1.43276	NaN	NaN
2471.806	-14.61425	-1.50325	NaN	NaN
2475.807	-14.66656	-1.39101	-13.51173	-1.98107
2479.806	-14.62445	-1.44770	NaN	NaN
2483.796	-14.66552	-1.66206	NaN	NaN
2487.805	-14.70159	-1.64029	NaN	NaN
2491.807	-14.82827	-1.69205	NaN	NaN
2495.794	-14.85071	-1.63898	NaN	NaN
2499.827	-14.85688	-1.66367	NaN	NaN
2503.806	-14.94291	-1.73061	NaN	NaN
2507.817	-14.95945	-1.81355	NaN	NaN
2511.806	-15.00635	-1.80277	NaN	NaN
2515.816	-14.96691	-1.75567	NaN	NaN
2519.807	-14.94324	-1.83410	NaN	NaN
2523.806	-14.92454	-1.83594	NaN	NaN
2527.806	-14.92716	-1.70842	NaN	NaN
2531.800	-14.91787	-1.64461	NaN	NaN
2535.808	-14.87962	-1.76823	NaN	NaN
2539.772	-14.82609	-1.69696	NaN	NaN
2543.807	-14.77851	-1.70345	NaN	NaN
2547.811	-14.69146	-1.48139	NaN	NaN
2551.806	-14.66610	-1.52045	NaN	NaN
2555.810	-14.62770	-1.46623	NaN	NaN
2559.808	-14.66385	-1.35708	NaN	NaN
2563.805	-14.68264	-1.44398	NaN	NaN
2567.806	-14.71763	-1.44331	NaN	NaN
2571.808	-14.79196	-1.42925	NaN	NaN
2575.766	-14.79679	-1.42250	NaN	NaN
2579.790	-14.82509	-1.38397	NaN	NaN
2583.807	-14.85586	-1.40912	NaN	NaN
2587.809	-14.89332	-1.35584	NaN	NaN
2591.809	-14.93564	-1.33669	NaN	NaN
2595.815	-14.97865	-1.35353	-13.96213	-3.92289
2599.807	-15.01387	-1.48132	-15.51813	-6.41302
2603.808	-15.05110	-1.51607	-15.47614	-6.42642
2607.828	-15.03969	-1.42459	-14.43943	-4.99906
2611.800	-15.06288	-1.35112	-14.02365	-3.58709
2615.810	-15.02892	-1.33229	-14.33555	-3.43846
2619.805	-15.01804	-1.27469	-14.16777	-3.57483
2623.805	-15.01200	-1.37711	-14.31864	-3.65844
2627.806	-15.02881	-1.21854	-14.32547	-3.88211
2631.807	-15.07271	-1.26909	-14.33434	-3.97853
2635.808	-15.07301	-1.28360	-14.46126	-3.77539
2639.809	-15.07662	-1.35950	-14.35712	-3.66664
2643.766	-15.08111	-1.34875	-15.87295	-1.03280
2647.809	-15.02182	-1.27251	-15.03726	-1.22768
2651.810	-14.99873	-1.19458	-15.39301	-1.20394
2655.813	-14.91307	-1.18358	-15.03277	-1.56311
2659.800	-14.87506	-1.24779	-14.95521	-2.22270
2663.790	-14.86875	-1.24730	NaN	NaN
2667.811	-14.90853	-1.26214	-13.54072	-2.36406
2671.809	-14.86143	-1.27829	-13.56523	-2.23395
2675.806	-14.77711	-1.17042	-13.79065	-2.73198
2679.811	-14.67530	-1.08737	-14.14887	-2.44912
2683.810	-14.57871	-1.20233	-14.31787	-2.55469
2687.811	-14.45505	-1.24634	-14.57978	-2.67576
2691.800	-14.48425	-1.18839	-14.22547	-2.91550
2695.813	-14.49809	-1.31896	-16.11029	-2.29126
2699.813	-14.61583	-1.33197	-15.88564	-2.33893
2703.811	-14.53812	-1.31102	-15.86431	-2.43749
2707.767	-14.64015	-1.47602	-15.86300	-2.53005
2711.811	-14.74869	-1.45269	-15.90160	-2.66710
2715.809	-14.72137	-1.60314	-15.90970	-2.83258
2719.810	-14.98458	-1.61896	NaN	NaN
2723.807	-14.82583	-1.52256	NaN	NaN
2727.810	-14.83413	-1.51779	NaN	NaN
2731.811	-14.91562	-1.47513	NaN	NaN
2735.811	-14.95116	-1.46138	NaN	NaN
2739.708	-14.90584	-1.55057	NaN	NaN
2743.813	-14.87524	-1.33113	-13.11140	-2.60496
2747.776	-14.90375	-1.32486	-13.29944	-2.67897
2751.813	-14.84867	-1.19981	-13.44956	-2.78535
2755.813	-14.83801	-0.95259	-13.46813	-3.07222
2759.813	-14.84441	-1.09030	NaN	NaN
2763.812	-14.86353	-1.09543	NaN	NaN
2767.814	-14.90985	-1.31369	NaN	NaN
2771.815	-14.97659	-1.22412	NaN	NaN
2775.813	-14.96772	-1.14551	NaN	NaN
2779.813	-15.03920	-1.27471	NaN	NaN
2783.813	-15.01272	-1.18359	NaN	NaN
2787.713	-15.07149	-1.25432	NaN	NaN
2791.810	-15.04612	-1.31472	NaN	NaN
2795.768	-14.93138	-1.52428	NaN	NaN
2799.813	-14.91900	-1.41433	-12.65465	-4.82362
2803.811	-14.77127	-1.31652	-14.13561	-2.77531
2807.840	-14.82119	-1.34527	-14.29135	-2.81482
2811.813	-14.77737	-1.23906	NaN	NaN
2815.812	-14.70270	-1.10115	-14.10648	-2.64683
2819.806	-14.64250	-0.99565	-14.01718	-2.32505
2823.816	-14.62201	-0.68550	-14.35253	-1.43232
2827.768	-14.56648	-0.60439	-14.04862	-2.07989
2831.777	-14.61485	-0.56495	-14.04183	-2.10082
2835.695	-14.56053	-0.65875	NaN	NaN
2839.692	-14.60816	-0.78733	-13.96701	-2.37110
2843.815	-14.60795	-0.80762	-13.94097	-2.40341
2847.815	-14.58875	-0.87922	-14.01856	-1.88561
2851.712	-14.69237	-0.64384	-14.22454	-1.97329
2855.818	-14.89643	-0.79136	-14.26851	-2.12807
2859.815	-15.16421	-0.83736	-14.25399	-2.55539
2863.815	-15.34727	-0.68972	-14.47438	-3.44905
2867.711	-15.07951	-0.78571	-14.75635	-3.23423
2871.795	-15.13688	-0.47863	-14.80709	-3.05188
2875.818	-15.22488	-0.11300	-14.42591	-3.28123
2879.813	-15.39896	-0.23758	-15.29404	-3.06225
2883.711	-15.39444	-0.30900	-14.66773	-3.11938
2887.816	-15.18007	-0.62325	-14.84728	-3.14835
2891.771	-15.33901	-0.54581	-14.97004	-2.69700
2895.817	-15.32502	-0.69089	-14.79015	-2.94482
2899.709	-15.20207	-0.67531	-14.71788	-3.16760
2903.817	-15.22345	-0.56858	-14.41583	-3.54325
2907.843	-15.25882	-0.69044	-14.73121	-3.48464
2911.814	-15.27157	-0.81903	-14.87656	-3.18832
2915.711	-15.44273	-0.75066	-14.82634	-3.23659
2919.816	-15.41123	-0.81923	-15.04043	-3.14455
2923.815	-15.49472	-0.84844	-14.89610	-3.20579
2927.817	-15.50356	-0.85121	-15.25009	-3.07542
2931.712	-15.34088	-0.79871	-15.47872	-2.77767
2935.771	-15.36207	-0.55248	-15.73184	-2.81667
2939.817	-15.43729	-0.40273	-15.01723	-3.18772
2943.817	-15.40440	-0.58806	NaN	NaN
2947.713	-15.43886	-0.60796	-14.87557	-2.24834
2951.816	-15.36585	-0.73932	-14.75941	-2.64698
2955.823	-15.58716	-0.92054	-14.80662	-2.66676
2959.771	-15.43284	-0.74655	-14.83754	-3.22625
2963.712	-15.30958	-0.32118	-14.58608	-3.19153
2967.818	-15.35510	-0.40265	-14.62445	-3.64952
2971.817	-15.41762	-0.58137	-14.61854	-2.21752
2975.818	-15.45221	-0.72201	-14.75277	-2.62939
2979.712	-15.32899	-0.60831	-14.74948	-3.15691
2983.817	-15.35413	-0.58485	-14.66136	-3.42230
2987.819	-15.48427	-0.59069	-14.71064	-3.41210
2991.818	-15.66818	-0.67728	-14.69903	-3.80596
2995.713	-15.58375	-0.66895	-14.81890	-3.64211
2999.815	-15.45770	-0.41896	-14.86191	-2.74861
3003.817	-15.41753	-0.53516	-14.90934	-3.05958
3007.844	-15.40445	-0.58567	-14.91541	-3.54764
3011.715	-15.45689	-0.72504	-14.98493	-4.52481
3015.822	-15.52753	-0.79816	-15.09684	-3.93998
3019.819	-15.58124	-0.68238	-15.05267	-3.99992
3023.817	-15.45673	-0.62812	-15.05961	-3.89607
3027.714	-15.40528	-0.60104	-15.10066	-4.06704
3031.820	-15.35062	-0.69471	-15.11553	-4.22261
3035.818	-15.27621	-0.66977	-15.28358	-3.99319
3039.812	-15.28931	-0.98683	-15.38309	-4.07516
3043.682	-15.31632	-0.95256	-15.36094	-4.13014
3047.818	-15.33871	-1.26299	-15.37077	-4.07943
3051.818	-15.36721	-1.06191	-15.38915	-4.05035
3055.819	-15.31953	-0.48859	-15.41118	-4.13005
3059.714	-15.33116	-0.15354	-15.43123	-4.16913
3063.819	-15.33317	-0.21544	-15.65354	-4.19964
3067.817	-15.31641	-0.17812	-15.92554	-4.16893
3071.694	-15.35771	-0.11518	-15.75433	-4.26339
3075.685	-15.43487	-0.10331	-15.62125	-4.24524
3079.691	-15.45036	0.02328	-15.44462	-4.35592
3083.676	-15.44859	0.06342	-15.21167	-4.40250
3087.684	-15.49126	0.03515	-15.35187	-4.37148
3091.683	-15.48563	0.10841	-15.38823	-4.33337
3095.697	-15.48478	0.15135	-15.36982	-4.34011
3099.696	-15.52799	0.16412	-15.35900	-4.19489
3103.696	-15.50645	0.12545	-15.32989	-4.26276
3107.803	-15.51426	0.11368	-15.25674	-4.24636
3111.696	-15.52198	0.12520	-15.32493	-4.20458
3115.695	-15.56383	0.09348	-15.20561	-4.09325
3119.697	-15.56975	0.08893	-15.20388	-4.05902
3123.729	-15.59782	0.06579	-15.25769	-3.94147
3127.657	-15.63071	-0.01879	-15.25593	-3.95210
3131.694	-15.63941	-0.15575	-15.25318	-3.91140
3135.693	-15.69868	-0.19805	-15.22733	-3.95268
3139.686	-15.78322	-0.26468	-15.16553	-4.07086
3143.650	-15.84739	-0.64836	-15.18028	-4.07029
3147.695	-15.87598	-0.86485	-15.10853	-3.95638
3151.695	-15.91762	-0.96781	-15.06424	-4.00052
3155.713	-15.95608	-0.78401	-14.99737	-3.98479
3159.697	-15.97406	-0.90386	-14.94745	-4.10250
3163.697	-15.96067	-0.99528	-14.92345	-4.13072
3167.676	-15.96915	-1.11131	-14.81864	-4.15377
3171.663	-16.06967	-1.01656	-14.84455	-4.10716
3175.697	-16.12696	-1.05719	-14.91237	-4.16184
3179.698	-16.12128	-1.18546	-14.84768	-4.10101
3183.695	-16.12067	-1.22550	-14.89666	-4.21605
3187.693	-16.10232	-1.21678	-14.85526	-4.15486
3191.697	-16.10463	-1.20677	-14.79004	-4.13113
3195.697	-16.09451	-1.18111	-14.79343	-4.10146
3199.697	-16.06999	-1.18070	-14.83743	-4.15568
3203.654	-16.08330	-1.15900	-14.84615	-4.12558
3207.691	-16.07159	-1.14623	-14.81901	-4.16251
3211.654	-16.06618	-1.05787	-14.78742	-4.16481
3215.697	-16.04895	-1.04624	-14.78435	-4.21071
3219.696	-16.01637	-0.97392	-14.73258	-4.23527
3223.698	-15.99321	-0.94351	-14.66944	-4.20415
3227.697	-15.98042	-0.81346	-14.67121	-4.18474
3231.698	-15.99374	-0.82066	-14.61671	-4.18858
3235.695	-15.98686	-0.79440	-14.62377	-4.17084
3239.697	-15.95268	-0.80433	-14.56523	-4.17654
3243.697	-15.96975	-0.80686	-14.57413	-4.12508
3247.698	-15.98945	-0.83632	-14.61248	-4.11382
3251.688	-15.92469	-0.80410	-14.61120	-3.88111
3255.692	-15.81640	-0.78329	-14.65154	-3.35698
3259.701	-15.69328	-0.80902	-14.67483	-3.16604
3263.698	-15.57816	-0.79444	-14.60502	-3.28980
3267.696	-15.42825	-0.86746	-14.67952	-3.30919
3271.699	-15.40067	-0.97984	-14.49230	-3.19831
3275.697	-15.21571	-0.96551	-14.47345	-3.16281
3279.699	-15.19262	-0.94813	-14.46745	-3.15870
3283.689	-15.15931	-0.94687	-14.48313	-3.16841
3287.699	-15.34684	-1.01737	-14.42616	-3.30807
3291.684	-15.37753	-0.95760	-14.43436	-3.20895
3295.697	-15.46855	-1.09680	-14.33273	-3.17719
3299.721	-15.49831	-1.15902	-14.38020	-3.35821
3303.700	-15.49667	-1.36197	-14.39345	-3.31678
3307.699	-15.64089	-1.42748	-14.38861	-3.32290
3311.700	-15.70064	-1.37704	-14.38060	-3.20653
3315.687	-15.69440	-1.29888	-14.44292	-3.15603
3319.696	-15.79285	-1.35670	-14.49786	-3.18508
3323.695	-15.81709	-1.50349	-14.53470	-3.20374
3327.699	-15.84631	-1.56349	-14.58427	-3.07484
3331.656	-15.83018	-1.27187	-14.61116	-3.04430
3335.702	-15.77975	-1.47874	-14.65976	-2.98192
3339.709	-15.75628	-1.34060	-14.66861	-2.95564
3343.699	-15.76394	-1.33106	-14.70356	-2.90203
3347.657	-15.80549	-1.21113	-14.76637	-2.86553
3351.700	-15.70947	-1.09815	-14.62477	-2.81855
3355.699	-15.68858	-0.98966	-14.55304	-2.83772
3359.705	-15.54614	-0.91115	-14.39063	-2.81855
3363.699	-15.37178	-0.75398	-14.25865	-2.82080
3367.700	-15.43277	-0.69832	-14.12298	-2.77198
3371.700	-15.21901	-0.62553	-14.02910	-2.70947
3375.677	-15.23667	-0.85776	-14.12326	-2.64849
3379.722	-15.08648	-0.53776	-14.02220	-2.58566
3383.701	-15.10073	-0.83073	-14.09663	-2.40602
3387.701	-15.00535	-0.90223	-13.97554	-2.37838
3391.701	-14.97852	-0.98578	-13.93461	-2.33919
3395.691	-14.95827	-1.10328	-13.87276	-2.34779
3399.701	-14.90843	-0.61336	-13.82384	-2.37577
3403.702	-14.92744	-0.46342	-13.83847	-2.26604
3407.702	-14.96863	-0.54324	-13.83344	-2.27272
3411.708	-14.98081	-0.69271	-13.83337	-2.25956
3415.699	-15.04013	-0.55124	-13.75191	-2.24353
3419.697	-15.13598	-0.59085	-13.72624	-2.29721
3423.702	-15.14421	-0.79989	-13.68813	-2.27131
3427.700	-15.18340	-0.73814	-13.72875	-2.19256
3431.702	-15.22645	-0.71476	-13.74755	-2.13381
3435.701	-15.27159	-0.79332	-13.82096	-2.09292
3439.701	-15.29817	-0.81996	-13.83278	-2.09494
3443.692	-15.33213	-0.93512	-13.85248	-2.07474
3447.701	-15.34236	-1.03341	-13.88352	-2.03632
3451.704	-15.35533	-1.17146	-13.85639	-2.02299
3455.659	-15.36301	-0.98840	-13.88806	-1.89827
3459.695	-15.39910	-1.18889	-13.89994	-1.84764
3463.703	-15.41273	-1.16362	-13.96126	-1.80704
3467.703	-15.44663	-1.18663	-13.96201	-1.84057
3471.701	-15.44446	-1.25143	-13.90824	-1.86842
3475.700	-15.47909	-1.29624	-13.89545	-1.89276
3479.703	-15.50721	-1.31248	-13.87386	-1.92354
3483.705	-15.51522	-1.32715	-13.86097	-1.90818
3487.703	-15.45087	-1.28129	-13.83266	-1.91020
3491.706	-15.45479	-1.24167	-13.83002	-1.95782
3495.705	-15.48259	-1.23753	-13.84427	-1.91615
3499.692	-15.44965	-1.25396	-13.80964	-1.98874
3503.692	-15.46770	-1.22017	-13.85395	-2.04742
3507.701	-15.48160	-1.21647	-13.81797	-2.08736
3511.660	-15.45966	-1.32262	-13.86563	-2.07368
3515.704	-15.46812	-1.38248	-13.86780	-2.10255
3519.705	-15.42867	-1.41003	-13.84864	-2.13898
3523.694	-15.40503	-1.37182	-13.87512	-2.09258
3527.705	-15.38482	-1.36467	-13.86455	-2.07509
3531.705	-15.37150	-1.38662	-13.95748	-2.04947
3535.706	-15.34517	-1.30486	-13.87356	-2.07616
3539.703	-15.33232	-1.20719	-13.83154	-2.03965
3543.706	-15.30852	-1.05433	-13.74528	-2.05156
3547.715	-15.24718	-0.89322	-13.69661	-2.02380
3551.703	-15.17616	-0.74210	-13.59537	-1.98457
3555.694	-15.11107	-0.99819	-13.66437	-2.02400
3559.709	-15.11782	-0.69786	-13.80793	-2.22261
3563.705	-15.12712	-1.13571	-13.96741	-2.17413
3567.705	-15.10432	-0.87873	-14.04594	-2.58554
3571.695	-15.10936	-0.91877	-14.15890	-2.37686
3575.660	-15.14551	-0.90065	-14.45132	-2.27023
3579.704	-15.21201	-1.33867	-14.59091	-2.24986
3583.687	-15.27739	-1.28298	-14.58285	-2.25983
3587.672	-15.39411	-1.77316	-14.28662	-2.24916
3591.706	-15.41524	-1.81436	-14.32160	-2.32982
3595.707	-15.48347	-1.73311	-14.51833	-2.19874
3599.705	-15.44335	-1.26769	-14.44844	-1.89318
3603.695	-15.32699	-0.64028	-12.99272	-1.48245
3607.733	-15.05836	-0.45637	-13.70458	-1.66323
3611.707	-11.57253	0.53283	-12.29815	-1.49510
3615.706	-10.19142	0.38272	-11.00912	-0.76996
3619.705	-7.82192	-0.93188	-9.37943	-1.09325
3623.702	-7.24068	-0.79679	-7.94061	-1.09360
3627.697	-2.57199	-0.04022	-6.95810	-1.13435
3631.706	-0.75501	0.85018	-5.68851	-0.99582
3635.703	-5.31211	-0.51082	-2.28281	-0.52540
3639.708	-7.31276	4.22209	-6.11110	-1.28549
3643.708	8.13709	3.42957	4.09957	-1.48806
3647.711	NaN	NaN	10.33322	-1.67763
3651.704	NaN	NaN	-1.11060	-4.49916
3655.705	NaN	NaN	NaN	NaN
3659.710	NaN	NaN	NaN	NaN
3663.707	NaN	NaN	NaN	NaN
3667.674	NaN	NaN	NaN	NaN
3671.704	NaN	NaN	NaN	NaN
3675.705	NaN	NaN	NaN	NaN
3679.705	NaN	NaN	NaN	NaN
3683.705	NaN	NaN	NaN	NaN
3687.705	NaN	NaN	NaN	NaN
3691.662	NaN	NaN	NaN	NaN
3695.708	NaN	NaN	NaN	NaN
3699.709	NaN	NaN	NaN	NaN
3703.678	NaN	NaN	NaN	NaN
3707.662	NaN	NaN	-9.50663	12.92496
3711.710	NaN	NaN	NaN	NaN
3715.709	NaN	NaN	5.33165	2.67587
3719.699	NaN	NaN	5.02516	-3.04860
3723.710	NaN	NaN	7.58339	1.32094
3727.709	-0.95224	14.13240	6.98211	-0.54720
3731.708	-3.25112	5.58060	7.43369	0.34264
3735.709	-3.47364	7.17956	1.39225	-0.85720
3739.709	-1.82011	8.68805	1.74241	-1.39016
3743.712	-1.25870	2.53466	1.45405	-1.55127
3747.710	-0.97899	-0.60718	1.26284	-1.61060
3751.604	-0.96591	-0.47802	1.61141	-1.72005
3755.698	-0.83071	-0.04964	2.07199	-1.26084
3759.711	-0.79583	0.55111	2.35650	-1.04068
3763.709	-0.43480	0.62628	2.57825	-1.59207
3767.605	1.08974	0.98899	2.59116	-1.60632
3771.710	1.94241	1.00829	2.87133	-1.71805
3775.712	2.67952	0.84051	3.10280	-1.91337
3779.711	1.74945	-0.52388	3.07018	-2.00168
3783.710	1.96328	-0.86890	3.31237	-1.98201
3787.710	1.93876	-1.01882	3.60981	-2.00814
3791.687	1.97520	-1.09697	3.75714	-2.02267
3795.710	1.93237	-0.52189	3.72091	-1.65031
3799.699	1.84852	-0.91998	3.35395	-2.01153
3803.710	1.91117	-0.78199	3.01094	-1.81220
3807.710	1.89503	-0.85813	2.73781	-1.89207
3811.709	1.85001	-0.85582	2.66536	-2.03090
3815.612	1.92793	-0.85516	2.50927	-2.17750
3819.711	1.88908	-0.76027	2.80558	-2.39561
3823.710	1.91888	-0.74817	2.86730	-2.08908
3827.709	1.91965	-0.72711	2.74841	-2.23170
3831.609	1.90445	-0.35832	2.90265	-2.10262
3835.714	1.84733	-0.31020	2.59512	-2.06833
3839.713	1.74174	-0.18208	2.76948	-2.26963
3843.711	1.75076	0.35343	3.16522	-2.22368
3847.609	2.02336	0.21523	2.92002	-2.22295
3851.712	1.94226	0.44041	2.97458	-2.34001
3855.713	2.08798	0.48105	3.37151	-2.18503
3859.712	2.24111	0.43005	3.12477	-2.06901
3863.715	2.06530	0.63292	2.90500	-1.98396
3867.713	1.83590	0.56955	2.86749	-2.04377
3871.713	1.31781	0.67477	2.71426	-1.99230
3875.681	1.72637	0.75304	2.66597	-1.90887
3879.595	1.72332	0.01637	2.86705	-2.06860
3883.711	2.08220	0.06869	3.11359	-2.27768
3887.713	1.94927	0.66025	3.13068	-2.13798
3891.671	1.81989	0.56328	3.41488	-1.76169
3895.609	1.62482	0.31610	2.96220	-1.73743
3899.713	1.56211	0.04506	2.86737	-2.06776
3903.712	1.62378	-0.13195	2.77426	-1.66644
3907.713	1.62163	-0.25232	2.79092	-1.95828
3911.716	1.55417	0.01299	2.74031	-1.98933
3915.694	1.55331	0.16740	3.00185	-2.35578
3919.669	1.55579	0.03634	3.45185	-2.15993
3923.714	1.74204	-0.08353	3.02653	-2.28648
3927.717	1.84575	-0.29716	2.79060	-2.35243
3931.714	1.62053	-0.13868	2.76272	-2.41458
3935.713	1.74583	-0.21889	2.89309	-2.50534
3939.714	1.65009	-0.11135	2.84767	-2.34337
3943.611	1.83786	-0.18041	2.90386	-2.20831
3947.715	1.81897	-0.18573	3.03549	-2.28887
3951.713	2.08704	-0.42927	2.96963	-2.30677
3955.718	1.96246	-0.56460	2.86757	-2.33798
3959.717	1.71655	-0.49327	2.89527	-2.38564
3963.716	1.98427	-0.62175	2.83734	-2.44041
3967.715	1.99810	-0.27608	2.12788	-2.25914
3971.714	1.57267	-0.45478	2.04594	-2.16501
3975.609	2.02386	-0.46592	1.97146	-1.63165
3979.715	2.24490	-0.55538	2.98475	-1.37436
3983.715	2.26960	-0.67727	3.11334	-1.54053
3987.714	2.21226	-0.77229	2.95250	-2.03620
3991.616	1.83747	-0.70244	2.80288	-1.99770
3995.716	2.01119	-0.74073	2.69854	-1.85794
3999.691	2.01092	-0.59237	2.10520	-1.75939
4003.715	1.83923	-0.52773	2.31525	-2.56048
4007.612	1.87567	-0.35579	2.68118	-2.37242
4011.671	1.49971	-0.27004	3.09443	-2.30341
4015.712	1.71551	-0.19416	2.98282	-2.21668
4019.715	1.72406	-0.21152	2.95495	-2.28621
4023.612	1.60781	0.00189	3.04771	-2.26236
4027.716	1.63236	0.13217	2.89814	-2.23038
4031.715	1.64945	0.36200	3.02294	-2.24903
4035.715	1.64982	0.70685	3.08023	-2.20545
4039.611	1.70031	0.65866	2.93401	-2.22860
4043.706	1.71818	0.69228	3.04024	-2.21867
4047.717	1.71962	0.83005	3.05811	-2.13768
4051.716	1.59737	0.88260	3.00363	-1.95558
4055.614	1.56682	1.10889	2.99364	-1.88900
4059.717	1.55105	1.10554	2.76351	-1.74522
4063.719	1.65272	1.16999	2.63301	-1.66016
4067.716	1.52687	1.27822	2.44948	-1.71452
4071.613	1.45991	1.33675	2.54338	-1.65976
4075.718	1.38488	1.27947	2.37431	-1.99376
4079.713	1.21162	1.28244	2.19628	-1.57979
4083.686	1.26413	1.09160	2.27954	-1.58590
4087.600	1.20008	0.08675	2.25442	-1.60804
4091.719	1.20700	-0.03458	2.25397	-1.64322
4095.592	1.30387	0.02877	2.26757	-1.87990
4099.594	1.34624	-0.00805	2.08778	-1.68957
4103.582	1.32662	0.92682	2.21013	-1.72791
4107.592	1.38260	0.08739	2.90931	-2.05591
4111.593	1.39016	-0.09614	2.70059	-2.02715
4115.591	1.50847	0.13337	2.48733	-1.82375
4119.581	1.47655	-0.16060	2.23340	-2.23701
4123.593	1.91888	-0.39162	2.53191	-1.86476
4127.592	3.71982	-0.38960	2.98084	-1.77119
4131.556	4.92602	-0.29761	3.82600	-1.71014
4135.588	7.18731	-0.43077	5.53884	-1.90424
4139.595	7.49546	-1.11014	5.69662	-1.55704
4143.550	7.56947	-1.38123	5.76372	-1.87059
4147.594	7.51583	-0.95688	7.21325	-1.86157
4151.584	7.18205	-0.96100	6.06478	-1.59075
4155.594	7.38392	-0.99607	6.75561	-1.81017
4159.595	7.55115	-1.04255	6.69542	-1.76357
4163.596	7.67014	-1.00972	7.03105	-1.90493
4167.583	7.10235	-1.46237	6.54594	-2.12035
4171.571	7.44240	-1.41793	6.86283	-2.23392
4175.595	7.53705	-1.62177	7.67735	-2.25489
4179.594	7.38295	-1.48230	6.65683	-1.90403
4183.584	7.17192	-1.62887	6.96345	-2.18478
4187.594	7.21237	-1.51445	6.87643	-2.35364
4191.596	7.14893	-1.45338	6.79315	-2.35747
4195.595	7.19603	-1.41309	6.85967	-2.45989
4199.585	7.36359	-1.32727	7.53008	-2.38475
4203.593	7.19991	-1.42434	6.65333	-1.95865
4207.605	6.90011	-1.39196	6.83888	-2.45232
4211.549	6.94384	-1.25091	6.95450	-2.32262
4215.585	6.88499	-1.04749	6.84084	-2.41241
4219.594	6.95000	-0.98087	6.95704	-2.42071
4223.593	6.75766	-1.24422	7.00827	-2.56189
4227.594	7.19500	-1.05692	7.01037	-2.57433
4231.584	6.85801	-1.27860	7.15222	-2.43207
4235.596	7.10785	-1.34008	7.13448	-2.22795
4239.595	7.16881	-1.31311	7.18389	-2.54076
4243.594	7.15288	-1.40741	7.16405	-2.45378
4247.588	6.96480	-1.21069	7.31858	-2.46325
4251.597	6.95585	-1.21360	7.33457	-2.49554
4255.563	6.87694	-0.90996	7.30695	-2.63757
4259.594	6.89275	-0.99978	7.43713	-2.44333
4263.555	7.07156	-1.03818	7.32680	-2.71581
4267.596	6.99482	-1.18401	7.60846	-2.74741
4271.597	6.88768	-1.14603	7.65207	-2.45591
4275.596	6.99585	-0.89908	7.54791	-2.87526
4279.587	6.86792	-0.74874	7.62965	-2.54564
4283.597	6.80803	-0.75096	7.39774	-2.90326
4287.597	6.81483	-0.84994	7.71852	-3.03885
4291.597	6.81402	-1.06511	7.65283	-2.62504
4295.588	6.83736	-1.50085	7.73022	-3.13538
4299.595	6.83788	-1.08410	7.63762	-2.95052
4303.597	6.89184	-0.95714	7.45697	-3.01977
4307.627	6.85434	-1.07516	7.53162	-2.95319
4311.620	6.88394	-1.29323	7.71328	-3.12264
4315.598	6.90512	-1.75679	7.44013	-2.72077
4319.596	6.96242	-1.14644	7.45435	-3.14149
4323.597	7.01673	-1.19381	7.22185	-2.89587
4327.552	7.06806	-1.08655	7.61431	-2.89875
4331.599	7.03391	-1.21002	7.67075	-2.91450
4335.596	7.05430	-1.22224	7.29396	-2.96483
4339.594	7.13407	-1.35491	7.19605	-2.65950
4343.552	7.24112	-1.57687	7.17788	-2.79492
4347.599	7.20839	-1.02724	6.94981	-2.91027
4351.597	7.08693	-1.06923	7.02130	-2.82498
4355.599	6.98617	-1.18529	7.40472	-2.87011
4359.621	7.19989	-1.06842	7.26327	-3.00722
4363.598	7.24122	-1.35853	7.11332	-2.95285
4367.600	7.42512	-1.65983	7.16598	-3.03434
4371.598	7.10687	-0.96868	7.27172	-2.99895
4375.589	6.91855	-0.91035	7.56083	-2.96834
4379.576	7.04342	-1.14141	7.70792	-3.00170
4383.599	7.25626	-1.22552	7.56603	-3.50570
4387.599	7.11770	-1.17748	7.48180	-2.92465
4391.597	7.24315	-1.55588	7.15474	-3.09291
4395.600	7.06476	-1.06289	7.16029	-3.24369
4399.599	6.93993	-1.09698	7.51344	-3.22958
4403.598	6.79530	-1.02820	7.71645	-3.22688
4407.556	6.91897	-1.14344	7.68608	-3.16389
4411.598	7.07630	-1.16509	7.27987	-2.97510
4415.601	7.06266	-1.33895	7.50042	-2.90357
4419.584	7.22551	-1.55096	7.55635	-2.96579
4423.588	7.03980	-1.25595	7.21833	-2.18114
4427.599	7.04868	-1.12641	7.05454	-3.04595
4431.599	7.05234	-1.09440	6.79310	-3.14272
4435.598	6.99543	-1.19786	7.32275	-3.05244
4439.589	6.97927	-1.28828	7.55132	-3.10032
4443.600	6.69072	-1.31990	7.36989	-2.70551
4447.598	6.78940	-1.30535	7.11305	-2.55334
4451.602	6.80954	-1.39153	7.11667	-2.39432
4455.558	6.89867	-1.39970	7.04115	-2.68658
4459.560	7.06857	-1.32279	7.11210	-2.64176
4463.600	7.06041	-1.33723	7.00103	-2.43564
4467.606	7.21501	-1.42131	6.84152	-2.39408
4471.589	7.01617	-1.50228	7.05489	-2.36710
4475.601	7.10167	-1.56757	6.63374	-2.79794
4479.601	6.80223	-1.49825	7.23145	-2.74218
4483.601	6.97086	-1.28227	7.16038	-2.33022
4487.588	7.34411	1.42120	7.40960	-2.53046
4491.602	9.84452	1.25545	9.16005	-2.20404
4495.602	10.47818	1.50569	9.79720	-1.31317
4499.602	10.23726	1.36081	10.14975	0.11853
4503.591	10.27061	1.35783	10.29277	0.28684
4507.598	10.31074	1.38463	10.65726	0.31470
4511.599	10.41150	1.30878	10.53516	0.24037
4515.602	10.65793	1.30146	10.53089	0.38700
4519.591	11.07257	1.19521	10.61612	0.36455
4523.600	11.40732	1.20738	10.89659	0.39844
4527.600	10.38663	1.46952	10.35532	0.48565
4531.600	10.15199	1.60265	10.67349	0.53262
4535.591	10.49119	1.65051	10.64568	0.61401
4539.602	10.21382	1.85397	10.68660	0.62005
4543.602	10.28313	2.03019	10.69196	0.41734
4547.597	10.38555	2.09197	10.71858	0.31615
4551.592	10.48588	2.18821	10.78846	0.28694
4555.599	10.74815	2.15706	10.91621	0.38090
4559.604	10.72654	2.08829	10.97248	0.41663
4563.601	10.96629	2.08986	10.85078	0.48889
4567.601	10.80299	2.12810	10.98578	0.49321
4571.603	10.74491	2.05646	11.20772	0.46782
4575.604	10.38862	2.17354	10.97875	0.46658
4579.601	10.35769	2.23251	11.14063	0.38997
4583.593	10.49471	2.27059	11.13630	0.47498
4587.580	10.25797	2.31888	11.09105	0.57752
4591.605	10.26574	2.34119	11.12541	0.60785
4595.604	10.50184	2.35679	10.93411	0.53886
4599.600	10.49788	2.36440	10.92712	0.63505
4603.603	10.64106	2.31093	10.79004	0.66992
4607.604	10.72548	2.33028	10.94954	0.66644
4611.604	10.89429	2.33167	11.04993	0.61920
4615.593	10.66136	2.26253	11.08122	0.61404
4619.603	10.12241	2.38627	11.17395	0.41557
4623.605	10.26100	2.42778	11.40131	0.30543
4627.559	10.46745	2.40123	10.79159	0.49497
4631.592	10.59450	2.37712	10.82780	0.42145
4635.604	10.19238	2.40757	11.14796	0.26153
4639.604	10.37964	2.49479	11.15979	0.29994
4643.604	10.36593	2.48489	11.02086	0.47725
4647.595	10.33079	2.52038	11.12809	0.29263
4651.604	10.40164	2.57598	10.85203	0.24651
4655.604	10.47849	2.62953	10.83364	0.34915
4659.603	10.57685	2.66891	10.63655	0.40530
4663.597	10.87029	2.68055	10.63864	0.41561
4667.606	10.73557	2.54631	10.70196	0.44081
4671.570	10.79571	2.48298	10.71386	0.52730
4675.604	10.73464	2.53580	10.71801	0.53879
4679.604	10.59879	2.32040	10.69963	0.56673
4683.605	10.70533	2.30252	10.73387	0.66841
4687.605	10.76173	2.10745	10.65750	0.41783
4691.604	10.62262	1.94357	10.67876	0.41619
4695.596	10.74642	1.77443	10.71248	0.31597
4699.606	10.62550	1.83072	10.78350	0.53672
4703.566	10.65676	1.80474	10.83680	0.50121
4707.606	10.55179	1.78454	10.97035	0.45396
4711.597	10.50174	1.72215	11.13081	0.47882
4715.607	10.46762	1.59633	11.51506	0.41198
4719.606	10.43030	1.47886	10.97425	0.45934
4723.607	10.48955	1.48447	10.95007	0.27224
4727.596	10.55862	1.42391	10.87467	0.09490
4731.606	10.54039	1.41572	11.03033	0.02017
4735.606	10.63650	1.39218	11.20968	0.07310
4739.606	10.71137	1.44401	11.01146	0.34933
4743.596	10.66670	1.63697	11.09485	0.61659
4747.608	10.66912	1.43435	10.43251	0.51852
4751.605	10.68784	1.44466	11.02887	-0.11132
4755.564	10.45481	-0.39052	10.56771	-0.49839
4759.607	10.67267	-2.72879	9.86505	-2.35648
4763.562	10.70390	-3.94809	10.83319	-5.28215
4767.610	10.78388	-7.07402	10.09528	-5.35488
4771.608	10.60370	-8.66291	10.76544	-8.00221
4775.608	10.02228	-10.93412	11.37701	-9.19157
4779.609	9.77071	-11.58168	11.40033	-9.51668
4783.608	10.63255	-12.04639	11.27343	-9.91840
4787.606	9.48608	-12.04608	11.51776	-10.54529
4791.505	9.17074	-13.57500	11.66208	-11.05202
4795.580	8.83430	-13.05548	11.45903	-10.85339
4799.606	8.52501	-11.91254	11.52850	-10.88149
4803.608	8.35784	-12.80857	11.43996	-10.79176
4807.505	8.53343	-13.10434	11.57265	-10.88348
4811.610	8.61448	-13.13413	11.43297	-10.86916
4815.609	8.32543	-13.28904	11.38917	-10.88823
4819.608	8.24806	-12.74720	11.37591	-10.93370
4823.599	8.07119	-12.58149	11.29686	-10.98499
4827.564	7.94530	-13.01420	11.30572	-11.04274
4831.610	7.31987	-12.10655	11.28963	-11.05288
4835.598	7.57642	-11.44068	11.22542	-11.00778
4839.522	5.90512	-11.37457	11.24055	-11.02053
4843.564	6.12973	-11.47437	11.23411	-10.99036
4847.609	6.20631	-11.45707	11.24297	-10.99975
4851.609	6.54594	-11.66629	11.36773	-11.03773
4855.510	6.63382	-11.45150	11.32118	-11.03334
4859.611	6.53076	-11.36228	11.19879	-10.99933
4863.610	6.47652	-11.31298	11.12484	-10.96559
4867.613	6.47088	-11.36552	10.87536	-10.84287
4871.506	6.62287	-11.37396	10.54987	-10.71177
4875.609	6.68004	-11.47537	10.46673	-10.73171
4879.610	6.71757	-11.58243	10.54977	-10.62139
4883.611	6.75155	-11.56146	10.42992	-10.56107
4887.506	6.85099	-11.61411	10.37561	-10.51446
4891.607	6.91209	-11.63994	10.37148	-10.50363
4895.611	7.03523	-11.65790	10.44842	-10.50733
4899.611	7.10257	-11.68936	10.44081	-10.49038
4903.508	7.17631	-11.81160	10.38817	-10.52439
4907.600	7.22737	-12.04167	10.33185	-10.52371
4911.612	7.35305	-12.03698	10.36288	-10.64403
4915.611	7.37770	-12.03213	10.38017	-10.68634
4919.508	7.36523	-12.06152	10.53036	-10.69649
4923.611	7.35229	-12.13882	10.50033	-10.78102
4927.612	7.44298	-12.14735	10.54620	-10.79145
4931.612	7.45440	-12.08351	10.68379	-10.84789
4935.504	7.45004	-12.12441	10.70773	-10.89064
4939.613	7.40714	-12.17037	10.95844	-10.93436
4943.613	7.43430	-12.22889	10.78175	-10.95438
4947.610	7.48353	-12.20591	10.82256	-10.97932
4951.506	7.47353	-12.26287	10.83738	-11.00631
4955.613	7.40096	-12.32362	10.88238	-10.96144
4959.609	7.39964	-12.53993	10.93507	-10.95877
4963.607	7.40052	-12.29541	10.92545	-10.93715
4967.491	7.39588	-12.10548	11.02337	-10.93512
4971.610	7.49459	-11.11495	10.97631	-10.90700
4975.611	7.49263	-11.58761	10.90609	-10.84785
4979.612	7.47265	-10.95246	10.92162	-10.80325
4983.507	7.46521	-10.89853	10.83819	-10.73818
4987.612	7.40909	-10.96059	10.70970	-10.60008
4991.613	7.43310	-12.38724	10.81980	-10.56507
4995.611	7.44333	-12.59212	10.74815	-10.49879
4999.508	7.36955	-12.38869	10.73770	-10.42683
5003.589	7.37980	-12.55656	10.65949	-10.31628
5007.647	7.34975	-12.62374	10.50693	-10.25216
5011.572	7.26019	-12.53786	10.43095	-10.17644
5015.508	7.19393	-12.17320	10.52192	-10.17250
5019.610	7.11924	-12.12084	10.52449	-10.14707
5023.613	7.06053	-12.09301	10.50537	-10.09838
5027.614	6.96157	-12.18485	10.60804	-10.04834
5031.509	6.87763	-11.93682	10.89408	-10.06061
5035.617	6.78671	-11.82984	11.04553	-10.05992
5039.612	6.67128	-11.77122	10.81884	-10.02990
5043.603	6.65015	-11.90128	10.75821	-10.00695
5047.515	6.59537	-11.78827	10.84125	-9.97342
5051.609	6.59491	-11.77106	11.03097	-9.96579
5055.614	6.59949	-11.70690	10.97308	-9.94244
5059.614	6.58749	-11.62755	10.88680	-9.96004
5063.509	6.56561	-11.54990	11.06820	-10.12052
5067.613	6.51552	-11.47773	10.88104	-10.18206
5071.614	6.53563	-11.34273	10.68171	-10.20813
5075.574	6.54957	-11.22956	10.40531	-10.31290
5079.511	6.56263	-11.00568	10.33771	-10.24898
5083.615	6.61587	-10.89758	10.25571	-10.30194
5087.579	6.64396	-10.64846	10.14242	-10.27181
5091.614	6.65284	-10.52149	10.17800	-10.28139
5095.510	6.69583	-11.23063	10.81231	-10.45058
5099.613	6.75987	-11.11959	11.20705	-10.48566
5103.614	6.80727	-10.69731	10.94062	-10.56119
5107.614	6.73649	-11.81997	10.92107	-10.54692
5111.511	6.83222	-11.56254	10.36617	-10.58772
5115.615	6.80842	-10.98913	10.21702	-10.53038
5119.491	6.86904	-10.57986	10.22868	-10.44505
5123.491	6.97947	-10.93232	10.15896	-10.48414
5127.515	6.97658	-10.73697	9.66959	-10.34485
5131.484	6.78133	-11.39059	10.27568	-10.38426
5135.490	6.47166	-11.58565	10.34823	-10.40834
5139.491	6.39668	-11.78494	10.41861	-10.42567
5143.447	6.67855	-11.34872	10.51048	-10.38819
5147.491	6.84639	-11.40127	10.62600	-10.46514
5151.491	6.43405	-11.66320	10.57802	-10.54838
5155.495	6.38511	-11.74198	10.67442	-10.59534
5159.479	6.21254	-11.94908	10.61586	-10.65593
5163.491	6.36496	-11.34351	10.64576	-10.60051
5167.492	6.19604	-11.14572	10.78182	-10.66106
5171.492	6.27964	-11.61716	10.90140	-10.72395
5175.480	6.24965	-11.61854	10.51823	-10.64176
5179.491	7.14375	-11.28915	10.78927	-10.72599
5183.491	6.18819	-9.98772	10.80613	-10.74091
5187.493	7.65512	-9.05482	10.73993	-10.61791
5191.479	12.67445	-9.09176	10.85212	-10.48875
5195.492	1.13345	-9.58204	7.54469	-9.63262
5199.490	12.88897	-1.75908	20.82449	-10.99373
5203.490	-19.99372	-11.66287	8.99910	-3.33742
5207.511	-19.99372	-11.85587	-19.99372	-11.79486
5211.449	-19.99372	-11.93089	-19.99372	-11.90737
5215.482	-19.99372	-12.01078	-19.99372	-11.96678
5219.487	-19.99372	-12.06507	-19.99372	-11.99241
5223.512	-19.99372	-12.07740	-19.99372	-12.01381
5227.493	-19.99372	-12.07740	-19.99372	-12.02921
5231.447	-19.99372	-12.07740	-19.99372	-12.03678
5235.492	-19.99372	-12.07740	-19.99372	-12.04259
5239.483	NaN	NaN	-19.99372	-12.04707
5243.494	NaN	NaN	NaN	NaN
5247.451	NaN	NaN	NaN	NaN
5251.495	NaN	NaN	NaN	NaN
5255.504	NaN	NaN	NaN	NaN
5259.459	NaN	NaN	NaN	NaN
5263.493	NaN	NaN	NaN	NaN
5267.494	-11.23416	10.58663	NaN	NaN
5271.493	-8.63964	5.38287	NaN	NaN
5275.486	-8.73587	8.62250	-15.28776	11.13636
5279.491	-8.75773	7.71036	NaN	NaN
5283.492	-8.95930	9.86200	NaN	NaN
5287.461	-8.93036	10.01384	NaN	NaN
5291.517	-8.69076	10.22718	-8.39868	12.72525
5295.494	-8.52018	10.19437	NaN	NaN
5299.469	-8.51659	8.86153	NaN	NaN
5303.491	-6.23140	8.13871	NaN	NaN
5307.451	-8.65581	9.16901	-8.61324	14.82439
5311.495	-8.72442	9.03812	-8.82315	14.86941
5315.495	-6.62304	9.19012	-8.87496	12.62188
5319.494	-6.87721	8.77468	-8.67493	14.90418
5323.516	-8.61991	8.59410	-9.10775	14.58943
5327.496	-8.55911	9.08985	-9.55705	11.97829
5331.497	-8.61300	9.00002	-8.99852	11.63483
5335.498	-8.53287	9.04702	-8.67027	11.34211
5339.508	-8.58561	8.94396	-8.61885	11.45831
5343.498	-8.36166	9.19474	-8.53328	11.48126
5347.495	-8.36800	9.10939	-8.44880	11.28674
5351.495	-8.51273	9.24262	-8.23325	10.98586
5355.516	-8.54918	9.79740	-8.18334	9.54982
5359.496	-8.72226	9.83523	-8.40844	8.97978
5363.495	-8.60405	9.80763	-8.15231	9.22346
5367.495	-8.57503	9.29547	-8.05290	9.13413
5371.517	-8.75194	9.49673	-7.84579	9.56907
5375.497	-8.70878	9.68291	-7.66529	9.68003
5379.499	-8.61538	9.97994	-7.81914	9.69934
5383.495	-8.65407	9.77205	-7.86418	9.30017
5387.517	-8.60897	9.46850	-7.72515	9.20990
5391.497	-8.70066	9.56218	-7.69517	9.42013
5395.497	-8.81557	9.38957	-7.67058	9.35271
5399.496	-8.82158	9.21951	-7.58554	9.43274
5403.488	-8.78951	9.25241	-7.54532	9.50886
5407.495	-8.69566	9.01053	-7.52654	9.60387
5411.498	-8.54188	9.07645	-7.54237	9.77204
5415.496	-8.45859	9.08529	-7.69736	9.86382
5419.518	-8.66443	9.18734	-7.75266	9.64084
5423.485	-8.73264	9.11183	-7.73294	9.88734
5427.493	-8.66654	9.20351	-7.70221	9.68686
5431.497	-8.69219	9.24631	-7.73716	9.67730
5435.519	-8.77817	9.25326	-7.76886	9.55696
5439.497	-8.75119	9.21398	-7.77853	9.40888
5443.498	-8.70493	9.19002	-7.79563	9.21498
5447.498	-8.76641	9.22835	-7.70299	9.07622
5451.519	-8.66469	9.30242	-7.60553	8.87503
5460.467	-8.80536	9.19974	-7.40799	9.35811
5465.452	-8.79867	9.31987	-7.49076	12.05408
5467.551	-8.77451	9.28131	-7.49529	11.95484
5471.458	-8.94305	9.12268	-8.02608	12.24828
5475.499	-9.08038	9.40777	-7.61009	12.45524
5479.500	-8.81372	9.28955	-9.03144	11.69090
5483.509	-8.79232	9.80301	-7.71515	9.33374
5487.486	-8.74830	9.71804	-7.44425	13.11075
5491.497	-8.98746	9.93461	NaN	NaN
5495.500	NaN	NaN	NaN	NaN
5499.500	NaN	NaN	NaN	NaN
5503.494	NaN	NaN	NaN	NaN
5507.490	NaN	NaN	NaN	NaN
5511.499	NaN	NaN	NaN	NaN
5515.454	NaN	NaN	NaN	NaN
5519.495	NaN	NaN	NaN	NaN
5523.522	NaN	NaN	NaN	NaN
5527.499	NaN	NaN	NaN	NaN
5531.508	NaN	NaN	NaN	NaN
5535.497	NaN	NaN	NaN	NaN
5539.498	NaN	NaN	NaN	NaN
5543.499	NaN	NaN	NaN	NaN
5547.455	NaN	NaN	NaN	NaN
5551.491	NaN	NaN	NaN	NaN
5555.500	NaN	NaN	NaN	NaN
5559.521	NaN	NaN	NaN	NaN
5563.458	NaN	NaN	NaN	NaN
5567.500	NaN	NaN	NaN	NaN
5571.504	NaN	NaN	NaN	NaN
5575.502	NaN	NaN	NaN	NaN
5579.456	NaN	NaN	NaN	NaN
5583.456	15.13630	14.76154	NaN	NaN
5587.502	NaN	NaN	NaN	NaN
5591.522	NaN	NaN	NaN	NaN
5595.501	NaN	NaN	NaN	NaN
5599.502	9.40540	14.89861	NaN	NaN
5603.501	NaN	NaN	NaN	NaN
5607.489	NaN	NaN	NaN	NaN
5611.502	NaN	NaN	NaN	NaN
5615.455	12.62254	14.64455	NaN	NaN
5619.502	NaN	NaN	NaN	NaN
5623.498	NaN	NaN	NaN	NaN
5627.503	NaN	NaN	NaN	NaN
5631.501	NaN	NaN	NaN	NaN
5635.498	NaN	NaN	NaN	NaN
5639.502	NaN	NaN	NaN	NaN
5643.502	NaN	NaN	NaN	NaN
5647.501	NaN	NaN	NaN	NaN
5651.503	NaN	NaN	NaN	NaN
5655.504	NaN	NaN	NaN	NaN
5659.503	NaN	NaN	NaN	NaN
5663.501	NaN	NaN	NaN	NaN
5667.505	NaN	NaN	NaN	NaN
5671.509	NaN	NaN	NaN	NaN
5675.466	NaN	NaN	NaN	NaN
5679.502	NaN	NaN	NaN	NaN
5683.504	NaN	NaN	NaN	NaN
5687.503	11.00601	14.71669	NaN	NaN
5691.502	11.81603	13.12754	NaN	NaN
5695.504	11.69124	13.53622	NaN	NaN
5699.503	11.59751	13.63086	NaN	NaN
5703.504	11.77030	14.09519	NaN	NaN
5707.503	11.28355	13.40398	NaN	NaN
5711.459	11.46092	13.41557	NaN	NaN
5715.481	11.66468	13.17865	NaN	NaN
5719.469	11.62140	13.40212	NaN	NaN
5723.501	11.40405	13.27002	NaN	NaN
5727.503	10.61766	13.63749	NaN	NaN
5731.503	10.14331	13.60296	NaN	NaN
5735.494	10.02201	13.52099	NaN	NaN
5739.504	11.02887	13.37480	NaN	NaN
5743.504	11.07948	13.29650	NaN	NaN
5747.504	11.14768	13.24322	NaN	NaN
5751.507	11.07396	13.21267	NaN	NaN
5755.497	10.14636	13.25322	NaN	NaN
5759.494	9.87553	13.49980	NaN	NaN
5763.460	10.10788	13.69390	NaN	NaN
5767.501	10.80352	13.56540	NaN	NaN
5771.506	10.95799	13.62126	NaN	NaN
5775.507	11.13475	13.38336	NaN	NaN
5779.507	11.07532	13.41017	NaN	NaN
5783.507	11.12832	13.35990	NaN	NaN
5787.506	11.01577	13.47182	NaN	NaN
5791.506	11.08959	13.58533	NaN	NaN
5795.506	10.47513	14.01132	NaN	NaN
5799.505	10.93784	13.75002	NaN	NaN
5803.508	10.62713	13.91543	NaN	NaN
5807.506	10.72419	13.73629	NaN	NaN
5811.507	10.45860	13.72213	NaN	NaN
5815.512	11.02837	13.62568	NaN	NaN
5819.505	10.61243	13.64562	NaN	NaN
5823.504	10.64022	13.70555	NaN	NaN
5827.490	10.63758	14.02486	NaN	NaN
5831.506	9.96992	14.01873	NaN	NaN
5835.508	9.64063	13.82503	NaN	NaN
5839.510	7.99201	13.85795	NaN	NaN
5843.503	6.18752	13.44966	NaN	NaN
5847.508	4.10510	12.78967	1.08071	12.05725
5851.506	2.15048	10.15116	-0.42078	10.93064
5855.506	0.79220	10.03969	-0.18018	11.89927
5859.507	-1.02084	6.99551	-1.63593	8.77357
5863.510	-1.29196	7.27486	-3.58900	8.15241
5867.507	-3.58588	5.00206	-3.53547	4.94927
5871.506	-4.21624	4.94058	-4.65530	3.68236
5875.510	-4.25450	4.73435	-5.27823	2.87168
5879.510	-5.16140	4.44921	-5.88402	2.71019
5883.472	-5.38607	3.09474	-6.98961	0.74293
5887.510	-6.44255	3.51418	-7.12886	0.47072
5891.464	-6.85530	2.84601	-7.43461	0.32946
5895.404	-5.54722	2.58601	-5.43307	0.08438
5899.510	-6.61756	3.03253	-6.65762	0.83988
5903.507	-6.40065	2.69159	-5.80575	0.55585
5907.509	-6.19174	3.04930	-6.78803	0.40170
5911.406	-6.28734	2.79746	-6.46662	0.53484
5915.510	-6.73417	2.49977	-6.27903	0.46682
5919.511	-6.46841	2.64100	-6.62887	0.17893
5923.485	-6.48749	2.83541	-5.92218	0.48505
5927.508	-6.49136	2.81642	-6.35216	0.77864
5931.507	-4.93531	2.76282	-6.04892	0.70588
5935.508	-6.53654	3.52076	-10.60804	3.12229
5939.509	-10.21589	8.27325	-7.59693	4.36644
5943.405	-8.92755	3.99823	-5.79676	2.54164
5947.508	NaN	NaN	-5.70603	3.85455
5951.508	NaN	NaN	NaN	NaN
5955.508	NaN	NaN	NaN	NaN
5959.404	NaN	NaN	NaN	NaN
5963.501	NaN	NaN	NaN	NaN
5967.508	NaN	NaN	NaN	NaN
5971.508	NaN	NaN	NaN	NaN
5975.507	NaN	NaN	NaN	NaN
5979.500	NaN	NaN	NaN	NaN
5983.510	NaN	NaN	NaN	NaN
5987.508	NaN	NaN	NaN	NaN
5991.509	NaN	NaN	NaN	NaN
5995.510	NaN	NaN	NaN	NaN
5999.511	NaN	NaN	NaN	NaN
6003.512	NaN	NaN	NaN	NaN
6007.480	NaN	NaN	NaN	NaN
6011.375	NaN	NaN	NaN	NaN
6015.465	NaN	NaN	NaN	NaN
6019.510	-22.22657	12.05908	-12.13149	12.22714
6023.513	-8.61897	-2.90480	-11.77632	6.90969
6027.511	-12.40567	2.27821	-11.28820	2.12797
6031.467	-9.08462	-0.23931	-11.37755	2.33012
6035.512	-10.03368	0.06937	-10.57308	2.15503
6039.513	-11.06511	1.51780	-9.48763	-0.79253
6043.407	-9.86912	0.72025	-9.41185	-0.71390
6047.512	-9.27842	0.99001	0.88761	-3.31661
6051.499	-10.55203	0.35104	-6.69593	-0.96918
6055.507	-9.48888	-0.84563	-7.76404	-0.17117
6059.509	-9.26824	-0.46880	-8.28024	-1.61885
6063.514	-7.93968	-0.38105	-7.74951	-2.58731
6067.510	-8.76168	-0.27602	-7.86727	-1.40001
6071.512	-9.27859	-0.02864	-7.97145	-1.18584
6075.514	-8.65269	0.62148	-7.50486	-1.10625
6079.509	-8.89446	0.50950	-7.70485	-1.23553
6083.514	-9.17829	0.65750	-7.70563	-1.19905
6087.514	-9.13448	0.72764	-7.52425	-1.30539
6091.514	-8.96140	0.49012	-7.62848	-0.85125
6095.514	-8.99951	0.85124	-7.85261	-1.17006
6099.513	-8.78185	0.18072	-7.58190	-1.24999
6103.513	-8.86614	0.48958	-7.80048	-1.22181
6107.513	-8.76505	0.17528	-7.63864	-1.17314
6111.513	-9.00760	0.32639	-7.66946	-1.14583
6115.513	-8.81552	0.19441	-7.68735	-0.89897
6119.512	-8.87278	0.26224	-7.65641	-1.15328
6123.514	-8.96496	0.47468	-7.68020	-1.36859
6127.511	-8.92684	0.02663	-7.50095	-1.20280
6131.514	-9.08425	0.31400	-7.64817	-1.14230
6135.512	-8.94619	0.26935	-7.58612	-1.31229
6139.378	-8.60155	-0.06725	-7.70682	-0.90791
6143.391	-9.02486	-0.01951	-7.63903	-1.46681
6147.390	-8.98387	-0.23602	-7.62809	-1.59800
6151.387	-8.96039	0.22317	-7.61507	-0.89008
6155.411	-9.00929	-0.10958	-7.68759	-0.93656
6159.388	-8.63825	-0.14303	-7.62216	-0.91471
6163.390	-8.86660	-0.23769	-7.82545	-0.91637
6167.388	-9.16683	-0.31346	-7.26994	-0.58725
6171.514	-8.33379	-0.41332	-7.39815	-0.87510
6175.393	-8.95990	-0.22666	-7.74873	-0.55652
6179.358	-8.88058	0.48831	-7.55622	-0.36270
6183.390	-9.12263	0.72102	-7.44286	-0.85711
6187.410	-8.98053	0.36804	-7.66122	-0.68421
6191.389	-8.74690	-0.10151	-7.21178	-0.78960
6195.389	-8.74459	-0.28166	-7.35607	-0.89448
6199.389	-8.53028	0.22505	-7.89405	-0.86375
6203.379	-8.65261	0.10809	-7.62626	-0.66216
6207.389	-9.19287	0.37319	-7.16229	-0.71529
6211.345	-8.88104	0.49825	-7.33879	-0.81429
6215.390	-8.98980	0.50969	-7.39139	-1.19214
6219.410	-9.54672	0.32670	-7.57542	-0.86758
6223.388	-8.72563	0.17227	-7.44535	-0.92551
6227.390	-9.03299	0.29643	-7.49400	-0.66477
6231.390	-8.79179	0.14064	-7.31518	-1.00081
6235.408	-8.32701	0.30203	-7.58868	-0.94367
6239.388	-8.88167	0.31214	-7.63101	-0.47410
6243.389	-8.83687	0.45611	-7.47722	-0.74887
6247.391	-9.00486	0.21858	-7.44030	-0.91599
6251.410	-8.74627	0.33853	-7.42190	-1.25444
6255.398	-8.65892	0.25195	-7.43593	-1.18017
6259.392	-8.59997	0.21086	-7.45013	-0.83975
6263.345	-8.70233	0.31126	-7.43747	-0.66703
6267.382	-8.78163	0.30176	-7.47395	-0.62250
6271.392	-8.59631	0.16712	-7.64995	-1.09598
6275.398	-8.62913	0.19642	-7.54598	-1.09502
6279.387	-8.69768	0.30967	-7.55757	-1.11425
6283.387	-8.71404	0.28802	-7.58205	-1.11219
6287.393	-8.53678	0.19986	-7.52549	-0.91935
6291.391	-8.43693	0.23816	-7.77517	-1.08111
6295.392	-8.72168	0.17451	-7.79525	-0.75612
6299.414	-8.68118	0.26387	-7.42231	-0.76129
6303.362	-8.67750	0.41420	-7.60158	-1.11064
6307.392	-8.44686	0.56308	-7.63572	-1.12579
6311.390	-8.20167	0.20456	-7.45953	-1.22274
6315.416	-8.43703	0.25335	-7.51298	-1.26536
6319.393	-8.46592	0.30477	-7.70911	-1.22941
6323.392	-8.82439	0.22765	-7.85297	-1.03064
6327.389	-8.82015	0.26544	-7.89179	-0.99912
6331.411	-8.90160	0.03241	-7.54025	-0.71478
6335.393	-8.97300	0.08063	-7.60526	-0.97742
6339.394	-8.70112	0.14011	-7.89795	-0.97735
6343.392	-8.49309	0.25400	-8.12583	-0.96761
6347.421	-8.47872	0.19886	-7.81135	-1.14540
6351.394	-8.43450	0.31212	-8.25486	-1.07323
6355.393	-8.63127	0.65170	-7.44320	-0.77623
6359.392	-8.55241	0.57567	-8.35561	0.37342
6363.415	-8.69738	0.76429	-7.97378	-0.79528
6367.396	-8.67321	0.76746	-7.92510	-0.82638
6371.391	-7.88733	1.34447	-8.04025	-0.47147
6375.392	-8.21723	1.30783	-7.71871	-0.31523
6379.413	-5.60123	1.29366	-2.27260	-0.85611
6383.393	-8.17777	2.14777	-11.08469	3.68435
6387.357	-8.23957	1.54331	-8.71846	-0.66602
6391.395	-8.33819	2.07684	-7.63023	1.68695
6395.362	-8.12571	2.79376	-7.16845	2.03980
6399.392	NaN	NaN	NaN	NaN
6403.392	NaN	NaN	NaN	NaN
6407.391	NaN	NaN	NaN	NaN
6411.348	NaN	NaN	NaN	NaN
6415.395	NaN	NaN	NaN	NaN
6419.394	NaN	NaN	NaN	NaN
6423.399	NaN	NaN	NaN	NaN
6427.376	NaN	NaN	NaN	NaN
6431.350	NaN	NaN	NaN	NaN
6435.394	NaN	NaN	NaN	NaN
6439.395	NaN	NaN	NaN	NaN
6443.393	NaN	NaN	NaN	NaN
6447.392	NaN	NaN	NaN	NaN
6451.350	NaN	NaN	NaN	NaN
6455.347	NaN	NaN	NaN	NaN
6459.350	NaN	NaN	NaN	NaN
6463.397	NaN	NaN	NaN	NaN
6467.352	NaN	NaN	NaN	NaN
6471.409	NaN	NaN	NaN	NaN
6475.397	NaN	NaN	NaN	NaN
6479.395	NaN	NaN	NaN	NaN
6483.396	NaN	NaN	NaN	NaN
6487.394	NaN	NaN	1.90770	0.92705
6491.394	2.39495	13.60646	1.74900	3.18878
6495.386	0.75523	8.12756	-1.43947	2.79732
6499.395	0.05038	5.25167	-0.93254	1.42596
6503.397	-1.33884	0.79657	-1.06091	1.01252
6507.397	-1.15012	4.28328	-1.04612	-1.31802
6511.396	-1.26832	2.08622	-1.21921	0.62745
6515.391	-0.55032	0.84226	-1.03980	-0.50685
6519.398	0.03132	1.82336	-1.27008	0.23067
6523.397	-0.44286	1.71708	-1.23164	0.33732
6527.422	-4.41489	0.79058	-2.56483	0.59462
6531.398	-4.04283	0.91933	-1.28656	0.21419
6535.399	-2.18406	1.28018	-1.29630	-0.07202
6539.398	-2.95676	1.69846	-1.11775	-0.40299
6543.420	-3.73393	2.09454	-1.12831	-0.19540
6547.400	-1.68627	2.14853	-1.10199	-0.24079
6551.384	-1.45889	2.28008	-0.94492	-0.39238
6555.386	-2.23905	2.50236	-0.37238	-0.84236
6559.397	-2.16672	2.44537	0.50887	-1.17076
6563.398	-2.24901	2.21936	0.28858	-1.09185
6567.397	-2.22624	2.09131	0.00469	-0.84449
6571.399	-2.35541	2.24027	0.24860	-0.88132
6575.395	-2.57142	2.32544	0.15863	-0.83157
6579.401	-2.25731	2.37587	0.23520	-0.79785
6583.399	-2.17997	2.49371	0.29751	-0.76157
6587.400	-2.45232	2.26247	0.40646	-0.65493
6591.387	-2.44145	2.06919	0.50302	-0.58486
6595.364	-2.34441	1.89128	0.34449	-0.52710
6599.400	-2.23935	1.66229	-0.07661	-0.63718
6603.399	-2.47816	1.19874	0.00591	-0.68374
6607.388	-2.54090	1.07228	0.20752	-0.74570
6611.398	-2.57603	1.62933	-0.00777	-1.10846
6615.400	-2.44824	1.53763	-0.39457	-0.85110
6619.397	-2.46060	1.73636	-0.00548	-0.73264
6623.395	-2.45693	1.97482	0.04055	-0.70344
6627.398	-2.34379	1.88732	0.54200	-0.92673
6631.399	-2.34530	1.81596	-0.01407	-0.92769
6635.381	-2.17888	2.27602	-0.36618	-0.86151
6639.372	-2.16297	2.31861	-0.29639	-1.04182
6643.399	-2.71629	2.21940	-0.13176	-1.16315
6647.400	-2.33291	1.99471	0.05579	-0.89937
6651.399	-2.37669	2.03634	-0.23800	-0.65367
6655.389	-2.29594	1.79724	-0.41899	-0.73095
6659.399	-3.01626	1.89991	-0.22155	-0.91340
6663.400	-2.73266	1.83428	-0.13558	-0.88818
6667.400	-2.27506	1.75180	0.24316	-1.07074
6671.403	-2.61295	1.89831	-0.58511	-1.28263
6675.400	-2.32905	1.72480	-0.41043	-0.87783
6679.397	-2.30563	1.86896	-0.36804	-0.47457
6683.400	-2.33405	1.68562	-0.20733	-0.06871
6687.401	-2.42210	1.46804	-0.61109	-0.40461
6691.399	-2.50652	1.63245	-0.60158	-0.64395
6695.401	-2.03583	1.48848	-0.37993	-1.17423
6699.405	-2.37359	1.47353	-0.07038	-1.49374
6703.392	-2.36948	1.46120	-0.03075	-0.94741
6707.402	-2.22614	1.50326	-0.32047	-1.30704
6711.357	-2.23320	1.37821	-0.46090	-0.89983
6715.413	-2.13775	1.46039	-0.36628	-0.86350
6719.401	-2.31153	1.47414	-0.30858	-0.38438
6723.400	-2.20619	1.46087	-0.35968	-0.69011
6727.400	-2.50073	1.43866	0.53106	-1.05155
6731.400	-2.31480	1.54885	-0.27267	-0.89978
6735.402	-2.19160	1.53927	-0.47421	-1.41162
6739.401	-2.66305	1.51545	-0.53535	-0.96605
6743.400	-2.64800	1.56994	0.16367	-0.89347
6747.401	-2.52973	1.54810	-0.35332	-0.96878
6751.401	-2.20882	1.55548	-0.44569	-0.90167
6755.404	-2.87257	1.55848	0.03802	-0.95653
6759.391	-2.68980	1.52333	-0.70754	-0.89572
6763.357	-2.20627	1.49772	-0.98261	-0.99290
6767.392	-2.83318	1.39975	0.19715	-1.14062
6771.404	-2.26071	1.44261	0.22688	-1.04848
6775.403	-1.96816	1.45477	-0.45130	-1.28139
6779.407	-2.88663	1.44170	-0.48897	-1.11011
6783.404	-2.61419	1.45036	-0.31384	-1.17240
