time (ms)	lx (deg)	ly (deg)	rx (deg)	ry (deg)
0.000	NaN	NaN	NaN	NaN
4.028	NaN	NaN	NaN	NaN
7.983	NaN	NaN	NaN	NaN
12.028	NaN	NaN	NaN	NaN
16.028	NaN	NaN	NaN	NaN
20.028	NaN	NaN	NaN	NaN
23.986	NaN	NaN	NaN	NaN
28.018	NaN	NaN	NaN	NaN
32.031	NaN	NaN	-0.92961	-2.52055
36.030	NaN	NaN	-0.66593	-4.60631
40.021	NaN	NaN	-1.63023	1.52429
43.986	-2.36210	7.74018	-0.84158	1.24692
48.049	-1.99320	2.41719	2.01221	-1.28275
52.032	-0.07371	8.48435	2.13398	-1.18987
56.031	-2.15601	1.99094	2.24475	-0.81090
60.031	1.78091	5.07788	2.47737	-0.73049
64.052	2.07903	1.26746	3.13039	-0.68947
68.032	1.91558	0.43123	2.50994	-1.30107
72.031	-1.88953	-0.65797	2.81595	-1.00170
76.034	-2.58398	-0.97295	3.48251	-1.68334
80.054	-2.86044	-0.46171	0.68392	-1.56100
84.002	-2.93193	-0.56987	2.83955	-1.26639
88.031	-2.39217	-0.43333	3.10923	-0.72345
92.030	-4.85196	-0.02127	1.04771	-1.12695
96.033	-1.53877	0.87078	0.66283	-0.78754
100.031	-5.94855	-0.96356	0.43787	-0.86677
104.034	-3.70900	-0.46218	0.19127	-0.96514
107.988	-1.38314	-0.13810	-0.13270	-1.11966
112.022	-1.48409	0.13682	0.13679	-1.43719
116.033	-1.83823	0.63566	0.14680	-1.34041
120.033	-2.10875	0.62361	0.04805	-1.18265
124.009	-2.02636	0.35837	-0.19115	-1.19844
128.023	-1.65644	0.10415	-0.18787	-1.13553
132.032	-1.75870	0.21338	-0.08924	-1.16574
136.032	-1.85958	0.20808	-0.07170	-1.24822
140.032	-2.22079	-0.39582	-0.13354	-1.17259
144.049	-2.19918	-0.22896	-0.16913	-1.29682
148.033	-1.89362	-0.15559	-0.05184	-1.28685
152.032	-2.06116	0.39323	-0.06659	-1.32703
156.033	-2.16481	0.11728	-0.09527	-1.30368
160.057	-2.12545	0.13305	-0.15198	-1.25038
164.031	-2.14188	-0.20355	-0.14722	-1.23215
168.037	-2.39131	-0.12414	-0.11019	-1.25369
171.989	-2.15269	-0.19783	-0.07904	-1.23245
176.024	-2.29272	-0.40709	-0.12292	-1.22237
180.034	-2.13239	-0.39678	-0.09460	-1.19827
184.035	-2.08738	-0.34785	-0.15067	-1.26797
188.036	-2.08245	-0.29439	-0.13938	-1.19470
192.022	-2.17866	-0.39131	-0.18643	-1.28182
196.034	-2.15276	0.05090	-0.20380	-1.29061
200.035	-2.18981	0.22047	-0.20690	-1.33755
204.034	-2.23553	0.10173	-0.18129	-1.30499
208.029	-2.31098	-0.41888	-0.14506	-1.34635
211.990	-2.32045	-0.53755	-0.05661	-1.35755
216.035	-2.23338	-0.40699	-0.05549	-1.37213
220.032	-2.27518	-0.51940	0.00675	-1.37260
224.025	-2.29929	-0.13087	0.03070	-1.34692
228.035	-2.31207	0.00439	-0.03095	-1.28369
232.036	-2.31894	0.12268	-0.03551	-1.30085
236.034	-2.27468	-0.13266	-0.02874	-1.16559
240.025	-2.26073	-0.11141	-0.00186	-1.13119
244.034	-2.24178	-0.10764	0.01397	-1.07649
248.035	-2.15551	-0.33522	-0.04204	-0.76108
252.023	-2.12022	-0.26098	-0.09617	-0.98649
256.033	-2.07400	-0.10214	-0.22048	-0.74754
260.035	-2.12240	-0.08110	-0.30143	-0.54253
264.035	-2.12568	0.05850	-0.35454	-0.52521
268.034	-2.17658	-0.01410	-0.48063	-0.33674
272.034	-2.26247	-0.03136	-0.53565	-0.56585
276.037	-2.44006	-0.03510	-0.64503	-0.48655
280.037	-2.46602	-0.03468	-0.70655	-0.45760
284.038	-2.56978	0.15398	-0.67503	-0.65510
288.042	-2.63467	0.10704	-0.68590	-1.20102
291.993	-2.58321	0.18744	-0.65811	-1.43209
296.038	-2.58772	0.31578	-0.67062	-1.32135
300.038	-2.58910	0.37322	-0.67541	-1.12808
304.039	-2.62430	0.38225	-0.68226	-1.67337
308.038	-2.68450	0.34626	-0.66424	-1.39474
312.038	-2.59685	0.45970	-0.53086	-1.41481
316.038	-2.70721	0.43161	-0.35191	-1.53528
320.038	-2.54385	0.50701	0.07224	-1.29345
324.036	-2.53035	0.54295	-0.27483	-0.98427
328.038	-2.51799	0.52891	-0.14737	-1.22167
332.027	-2.43684	0.56370	-0.06026	-1.04313
336.037	-2.36314	0.52428	0.37070	-1.17739
340.038	-2.33618	0.47526	0.60729	-1.09242
344.038	-2.38316	0.40282	0.73032	-1.10097
348.036	-2.47172	0.36027	0.84190	-1.10466
352.025	-2.38283	0.35384	0.83347	-1.03293
355.994	-2.37600	0.48239	0.76240	-1.04907
360.025	-2.35152	0.42480	0.85766	-0.74619
364.040	-2.21831	0.47229	0.78995	-0.88624
368.040	-2.13180	0.39825	0.78416	-0.74698
372.036	-2.16166	0.43484	0.88180	-0.84039
376.030	-2.00229	0.43831	0.81851	-1.00452
380.038	-2.02780	0.37824	0.68159	-1.01585
384.027	-1.86737	0.49777	0.67873	-0.90102
388.041	-1.94736	0.67317	0.60543	-0.84106
392.040	-1.71122	0.68252	0.55565	-0.85580
396.039	-1.74067	0.85386	0.52031	-0.94370
400.038	-1.76797	0.70326	0.38777	-1.49341
404.038	-1.70420	0.77490	0.34064	-1.46891
408.040	-1.63447	0.83585	0.30223	-1.50028
412.039	-1.63095	0.78422	0.29575	-1.83091
416.039	-1.60821	0.82881	0.24698	-2.26259
420.039	-1.67747	0.77447	0.18350	-1.69158
424.040	-1.75059	0.90304	0.25086	-2.26072
428.038	-1.89694	0.85416	0.20487	-2.08302
431.939	-2.23226	0.83558	0.25483	-2.20207
436.038	-2.74975	-0.00854	0.25924	-2.28506
440.040	-2.67586	0.24666	0.28064	-2.22822
444.039	-2.77624	0.20811	0.35179	-2.25209
448.040	-2.89955	0.04065	0.37655	-2.20366
452.038	-2.93443	-0.15133	0.44577	-2.21570
456.029	-2.93252	-0.16322	0.47939	-2.24164
460.032	-2.94134	0.08817	0.58014	-2.02826
464.041	-3.13811	-0.31173	0.42083	-2.22890
468.039	-3.29305	-0.16272	0.51024	-2.23962
472.039	-3.05499	-0.27943	0.52525	-2.16495
476.039	-3.01816	-0.49415	0.50272	-2.09226
480.040	-2.95663	-0.29218	0.34715	-1.93850
484.040	-2.87373	-0.24666	0.29637	-2.01121
488.044	-2.85888	-0.26545	0.34298	-2.02140
492.043	-3.12801	-0.07550	0.32786	-2.16672
496.042	-3.08632	-0.20570	0.28870	-2.25719
500.007	-3.01933	-0.14474	0.02998	-1.97631
504.041	-2.98997	-0.29391	-0.22371	-2.07011
508.041	-2.97948	-0.34600	-0.23666	-1.90022
511.939	-2.85212	-0.52546	-0.59054	-1.60212
516.042	-2.85019	-0.65508	-0.55635	-1.31492
520.042	-2.81201	-0.53764	-0.64987	-1.15434
524.041	-2.59406	-0.40571	-0.57890	-0.79232
528.042	-2.52500	-0.22278	-0.43924	-1.32878
532.041	-2.22575	-0.49809	-0.39899	-1.48094
536.043	-2.47088	-0.54499	-0.43991	-1.36690
540.026	-2.29305	-0.43157	-0.42249	-1.55295
544.052	-1.89441	-0.32023	-0.41130	-1.70602
548.042	-1.79418	0.36284	-0.42117	-1.56663
552.042	-1.65773	0.12727	-0.40537	-1.57865
556.041	-1.60516	0.18361	-0.35377	-1.85408
560.042	-1.83670	-0.21066	-0.36702	-1.74369
564.042	-1.68845	-0.20176	-0.34585	-1.67726
568.041	-1.70229	-0.34147	-0.31560	-1.77058
572.043	-1.75376	-0.09448	-0.37608	-1.63497
576.046	-1.71531	-0.29559	-0.35395	-1.71539
580.041	-1.64310	-0.20852	-0.38708	-1.71901
584.035	-1.54944	-0.13995	-0.38122	-1.71729
588.046	-1.62785	-0.40152	-0.36683	-1.73199
592.045	-1.66016	-0.44731	-0.37015	-1.68115
596.043	-1.53602	-0.06518	-0.28304	-1.66436
600.042	-1.65426	-0.51877	-0.29716	-1.60881
604.043	-1.63159	0.01957	-0.38497	-1.33030
608.044	-1.72307	-0.25007	-0.29761	-1.51103
612.043	-1.77206	-0.21670	-0.40651	-1.22750
616.046	-1.68240	0.09814	-0.29813	-1.40100
620.044	-1.77838	-0.12436	-0.10126	-1.44656
624.044	-1.89307	0.08275	0.17271	-1.50359
628.043	-1.95135	0.13376	0.18427	-1.30204
632.043	-1.99030	0.22599	-0.07438	-1.09859
636.008	-2.20961	0.08718	-0.07996	-1.09830
639.945	-2.93738	0.04812	0.01206	-1.15160
644.043	-2.69960	-0.05642	0.18422	-1.04511
648.042	-2.86371	0.04316	-0.57940	-0.81056
652.045	-2.58487	0.11223	-0.88453	-0.89697
656.046	-2.56478	0.20254	-0.17988	-0.69030
660.043	-2.43290	0.32912	0.24562	-1.07583
664.030	-2.63569	0.30164	0.61950	-1.06485
668.030	-2.25243	0.58075	0.43800	-1.07574
671.940	-2.40444	0.25910	0.57094	-0.90364
676.000	-2.44987	0.47489	0.50567	-1.13708
680.040	-2.29235	0.56621	0.34414	-1.61355
684.045	-2.43189	0.16813	0.57205	-1.42379
687.942	-2.23858	-0.05443	0.31794	-1.25166
692.045	-2.29837	0.06783	0.26066	-1.13574
696.046	-2.29874	0.11310	0.25329	-1.19583
700.048	-2.35149	-0.04164	0.22882	-1.22176
704.048	-2.40013	0.66182	0.06783	-1.10123
708.011	-2.44294	-0.09414	0.07264	-1.12001
712.045	-2.37384	0.23365	0.03028	-1.14726
716.047	-2.28140	0.11901	0.02137	-1.23295
720.048	-2.34143	-0.00715	-0.00678	-1.37245
724.046	-2.26619	0.74532	0.04740	-1.32785
728.042	-2.12833	-0.11373	0.18154	-1.21759
732.049	-2.16005	0.27029	0.35953	-1.19748
736.049	-2.04356	0.28876	0.37963	-1.07515
740.047	-1.99382	0.18618	0.49418	-1.13917
744.043	-1.91779	0.30934	0.57131	-1.29483
748.024	-1.93016	0.73105	0.76129	-1.09120
751.934	-1.84966	0.64293	0.92540	-0.95171
756.046	-1.80464	0.48388	0.87128	-0.92954
760.047	-1.82775	0.34582	0.99065	-0.89563
764.046	-0.76424	0.61504	0.85111	-0.88372
767.944	-1.84823	0.39454	2.45054	-0.84476
772.002	-2.53072	0.43398	2.07182	-0.59733
776.048	-2.45993	0.72471	1.71543	-0.83564
780.046	NaN	NaN	2.22329	1.39646
784.048	NaN	NaN	NaN	NaN
787.923	NaN	NaN	NaN	NaN
791.922	NaN	NaN	NaN	NaN
798.662	NaN	NaN	NaN	NaN
807.921	NaN	NaN	NaN	NaN
811.922	NaN	NaN	NaN	NaN
815.920	NaN	NaN	NaN	NaN
819.923	NaN	NaN	NaN	NaN
823.922	NaN	NaN	NaN	NaN
827.922	NaN	NaN	NaN	NaN
831.924	NaN	NaN	NaN	NaN
835.924	NaN	NaN	NaN	NaN
839.919	NaN	NaN	NaN	NaN
843.922	NaN	NaN	NaN	NaN
847.922	NaN	NaN	NaN	NaN
851.878	NaN	NaN	NaN	NaN
855.926	NaN	NaN	NaN	NaN
859.879	NaN	NaN	NaN	NaN
863.925	NaN	NaN	NaN	NaN
867.924	NaN	NaN	-9.83949	-0.00492
871.925	NaN	NaN	NaN	NaN
875.924	-12.13963	-4.33562	-5.31863	-7.99691
879.915	-8.75388	-9.74068	-5.96522	-7.73255
883.915	-7.41524	-7.99135	-1.77439	-8.07957
887.926	-7.08346	-9.45670	-1.45971	-7.95022
891.925	-4.92346	-9.68979	-6.19685	-7.73428
895.924	-6.69510	-8.10873	0.50592	-7.80571
899.944	-5.52785	-6.41918	-1.05873	-6.71260
903.925	-3.93641	-4.08721	-1.69592	-7.23484
907.923	-3.64081	-4.09600	-2.85346	-6.84310
911.924	-3.43904	-6.23033	-1.78210	-7.65017
915.914	-3.52445	-6.08274	-1.83422	-7.59811
919.901	-3.69847	-6.27093	-1.65438	-7.69323
923.926	-6.11766	-7.71412	-1.71208	-7.41100
927.925	-6.08294	-7.80682	-1.13898	-7.29858
931.913	-5.81317	-7.50578	-1.07334	-7.28479
935.926	-5.89839	-7.72352	-1.19805	-7.14916
939.925	-5.86892	-7.83894	-1.18899	-7.09847
943.925	-3.97738	-7.04261	-1.04910	-7.11474
947.947	-4.08320	-7.35925	-0.98961	-7.14750
951.926	-3.63114	-7.44416	-1.02104	-7.19297
955.928	-4.14584	-6.75651	-0.90277	-7.13557
959.917	-4.09021	-6.83286	-0.82210	-7.13153
963.925	-3.76319	-6.64651	-0.79340	-7.07548
967.927	-3.72536	-6.70420	-0.72268	-7.02851
971.929	-3.41931	-6.52505	-0.76387	-6.99452
975.930	-3.84098	-7.21909	-0.83357	-6.96153
979.885	-3.86852	-7.97466	-0.87624	-6.75653
983.926	-3.82909	-7.91316	-1.01732	-6.92452
987.924	-3.76519	-7.79270	-0.99062	-6.97650
991.907	-3.70121	-7.78991	-0.96050	-7.10355
995.926	-3.36641	-7.60676	-0.98571	-7.06271
999.928	-3.47762	-7.57742	-0.94835	-7.12643
1003.895	-3.30928	-8.07683	-1.08696	-7.23757
1007.927	-3.03103	-7.81690	-1.08549	-7.23462
1011.924	-2.85834	-7.46675	-1.15870	-7.21512
1015.926	-2.73940	-7.76462	-1.09582	-7.20718
1019.927	-3.18625	-7.80749	-1.09214	-7.06749
1023.927	-3.42873	-7.90998	-1.04520	-7.12871
1027.925	-3.37761	-7.84582	-0.59625	-7.02786
1031.928	-3.13486	-7.76805	-1.06426	-7.00278
1035.928	-2.35459	-7.78607	-0.89981	-6.86905
1039.930	-0.39643	-7.75560	0.18695	-6.83965
1043.900	1.35201	-8.94485	1.71878	-6.92748
1047.924	2.14243	-8.49568	2.45032	-6.96716
1051.929	3.60929	-10.07856	5.02861	-7.02447
1055.929	5.90018	-10.01136	5.29201	-7.20848
1059.927	6.56422	-9.18794	7.62506	-7.66810
1063.930	6.96259	-9.97100	8.73347	-8.14060
1067.930	7.16693	-10.21768	8.53331	-8.23743
1071.928	7.18794	-10.24957	8.55088	-8.23590
1075.927	7.23955	-10.33236	8.68526	-8.23042
1079.929	7.03917	-10.56511	8.86289	-8.38409
1083.931	6.68771	-10.59587	9.05020	-8.61133
1087.894	6.53404	-10.30879	9.67230	-8.70509
1091.927	6.46302	-9.86982	9.55818	-8.58699
1095.930	6.32745	-9.92488	9.88179	-8.77661
1099.928	6.31350	-9.80676	9.36027	-8.86699
1103.939	6.46404	-10.00161	9.63759	-8.97598
1107.890	6.40011	-9.77312	9.31216	-8.89249
1111.929	6.38891	-9.71092	9.14102	-8.99267
1115.931	6.22768	-9.66062	9.09471	-8.93308
1119.929	6.25416	-9.72513	8.93244	-8.90210
1123.919	6.16110	-9.77829	8.83856	-8.84523
1127.907	5.97745	-9.67203	8.78435	-8.83785
1131.925	5.98277	-9.59490	8.61516	-8.79817
1135.929	5.79430	-9.59752	8.69574	-8.83376
1139.919	5.96949	-9.53585	8.58430	-8.72946
1143.930	5.88525	-9.59602	8.52896	-8.69482
1147.929	5.81029	-9.61588	8.47352	-8.61868
1151.931	5.87624	-9.53897	8.47502	-8.56857
1155.921	5.96984	-9.54009	8.69661	-8.69131
1159.932	5.94641	-9.48489	8.76229	-8.82374
1163.932	5.99060	-9.37408	8.86946	-8.92448
1167.918	5.90502	-9.33795	9.00852	-9.01772
1171.920	6.00744	-9.22225	9.07298	-9.13276
1175.932	6.02293	-9.27724	9.10446	-9.12731
1179.886	6.07933	-9.13623	9.34587	-9.21152
1183.933	6.07582	-9.12309	9.34341	-9.30087
1187.920	6.04053	-8.81810	9.42660	-9.33825
1191.935	6.00153	-8.87075	9.41648	-9.34389
1195.932	5.96117	-8.76556	9.44899	-9.36577
1199.931	5.82896	-8.76424	9.44993	-9.37727
1203.954	5.73780	-8.74590	9.42622	-9.37222
1207.936	5.81869	-8.99995	9.43064	-9.29721
1211.897	5.79973	-9.12621	9.40528	-9.23462
1215.931	5.71708	-9.16639	9.33956	-9.19914
1219.929	5.68529	-9.18436	9.34848	-9.14646
1223.932	5.67268	-9.25378	9.28731	-9.10534
1227.932	5.62844	-9.48498	9.32767	-9.06916
1231.930	5.62652	-9.60483	9.31827	-9.03008
1235.929	5.65096	-9.55899	9.28821	-8.99343
1239.934	5.63933	-9.59406	9.34159	-8.97833
1243.932	5.61999	-9.71294	9.33275	-8.94855
1247.932	5.67860	-9.64390	9.43588	-8.95464
1251.923	5.70907	-9.68583	9.44660	-8.97823
1255.930	5.64520	-9.71351	9.46969	-8.98967
1259.933	5.58029	-9.74138	9.51971	-9.04422
1263.934	5.59885	-9.76500	9.51727	-9.07296
1267.932	5.52473	-9.78973	9.55056	-9.07754
1271.934	5.52168	-9.78382	9.55994	-9.15257
1275.932	5.45508	-9.80757	9.64849	-9.16225
1279.953	5.36944	-9.81116	9.66479	-9.16611
1283.932	5.32550	-9.81916	9.69410	-9.19337
1287.936	5.42734	-9.72329	9.70198	-9.16437
1291.937	5.48248	-9.83859	9.76141	-9.14358
1295.935	5.49992	-9.80778	9.75145	-9.11658
1299.895	5.46694	-9.68878	9.79937	-9.11505
1303.934	5.52701	-9.71668	9.80267	-9.06798
1307.934	5.55022	-9.68689	9.83891	-9.08780
1311.934	5.52096	-9.66809	9.85300	-9.06177
1315.947	5.58255	-9.55773	9.86218	-9.02444
1319.935	5.53685	-9.55933	9.84043	-8.99940
1323.933	5.46495	-9.41916	9.83855	-8.98961
1327.933	5.56728	-9.33609	9.21534	-8.94831
1331.937	6.00106	-9.12411	9.55777	-8.98722
1335.910	6.83619	-8.74130	9.95148	-8.97148
1339.891	7.35830	-8.44081	10.10381	-8.96215
1343.936	7.91341	-8.38140	10.64552	-8.96928
1347.926	9.40646	-9.24070	11.61370	-9.01349
1351.934	9.28132	-8.69915	13.12420	-9.08519
1355.937	9.78317	-8.93463	13.02295	-9.06067
1359.934	10.47763	-8.62019	13.34587	-9.14677
1363.925	10.97093	-8.57270	13.57534	-9.16831
1367.935	10.61193	-8.58981	13.74271	-9.21849
1371.937	10.75507	-8.57033	13.80037	-9.28165
1375.937	10.75107	-8.56820	14.02125	-9.35357
1379.956	10.70759	-8.65775	14.27702	-9.41016
1383.934	10.81461	-8.70973	14.29508	-9.46589
1387.936	10.82531	-8.88638	14.67874	-9.53801
1391.939	10.78058	-8.85864	14.61329	-9.57864
1395.924	10.84736	-8.78186	14.79535	-9.59098
1399.938	10.93052	-8.81564	14.50451	-9.59497
1403.935	10.79423	-8.73223	14.48471	-9.64684
1407.935	10.67620	-8.78701	14.74929	-9.69586
1411.939	10.25273	-8.42255	13.97872	-9.62689
1415.892	9.17292	-8.50407	13.38275	-9.22085
1419.938	9.56216	-8.30278	13.35226	-9.38119
1423.938	9.53132	-8.20639	13.00396	-9.38673
1427.938	10.00632	-8.12668	13.21634	-9.44222
1431.937	10.06203	-7.96110	13.22288	-9.40556
1435.936	10.30187	-8.19114	13.74779	-9.43687
1439.936	10.19933	-7.89020	14.24394	-9.31508
1443.932	10.25942	-7.77332	12.51054	-9.14859
1447.938	10.48960	-7.73181	13.56861	-8.98934
1451.937	10.70744	-7.65151	13.67642	-8.85936
1455.934	10.72453	-8.11461	13.38045	-8.53460
1459.928	10.78149	-8.40882	13.78153	-8.55471
1463.936	10.54147	-7.92524	13.73917	-8.41210
1467.938	10.18885	-7.67231	13.75676	-8.24602
1471.937	10.07800	-7.21859	13.69560	-8.70435
1475.894	9.93362	-7.19247	13.59377	-8.58515
1479.937	10.11512	-7.01898	13.58451	-8.72431
1483.938	10.14064	-6.74837	13.55637	-8.75303
1487.892	9.87579	-7.10918	13.50706	-8.93503
1491.941	9.79264	-6.58869	13.39006	-8.69512
1495.943	10.10774	-6.77888	13.43247	-8.72622
1499.938	10.35191	-6.77986	13.54267	-8.76835
1503.902	9.89935	-7.25020	13.67836	-8.85467
1507.940	10.02471	-7.41960	13.63667	-8.84768
1511.938	10.16132	-7.55056	13.42758	-8.76821
1515.937	10.24915	-7.68043	13.40809	-8.68881
1519.939	10.43256	-7.80353	13.57105	-8.72008
1523.939	10.52084	-7.85718	13.46177	-8.64533
1527.940	10.04372	-7.36064	13.56882	-8.67812
1531.942	10.10973	-7.44521	13.46688	-8.62049
1535.938	9.95911	-6.98573	13.48559	-8.62084
1539.895	9.93005	-6.86716	13.38968	-8.63203
1543.916	9.63879	-6.65285	13.49903	-8.69392
1547.940	9.86575	-6.75814	13.37385	-8.63779
1551.938	9.71247	-6.69878	13.37446	-8.62463
1555.838	9.73260	-6.70264	13.35057	-8.61580
1559.939	9.83113	-6.71356	13.29974	-8.67708
1563.940	9.78233	-6.85314	13.28898	-8.73192
1567.940	9.84635	-6.85757	13.16870	-8.67997
1571.942	10.04247	-6.87303	13.15002	-8.68353
1575.939	10.40209	-6.83028	13.16569	-8.74240
1579.958	10.38353	-7.13220	13.32228	-8.81695
1583.929	10.32352	-7.60778	13.48533	-8.88080
1587.836	10.36881	-8.06586	13.59673	-8.97885
1591.940	10.51535	-8.26275	12.91930	-8.71016
1595.941	10.34239	-7.60769	12.98339	-8.77487
1599.940	9.97960	-7.16066	13.09730	-8.83022
1603.943	9.26645	-7.45191	13.33574	-8.93238
1607.942	9.26648	-7.34919	13.36530	-8.94575
1611.899	9.21169	-7.65404	13.68312	-9.09063
1615.941	9.08198	-7.84594	13.60322	-9.13446
1619.837	9.04154	-7.90037	13.52918	-8.95404
1623.943	9.25233	-7.69227	13.47334	-8.84352
1627.911	9.23106	-7.64223	13.21277	-8.97422
1631.940	9.23761	-7.72534	13.27675	-8.99489
1635.942	9.32978	-7.70679	13.32101	-9.04136
1639.941	9.28681	-7.71392	13.45320	-9.13286
1643.941	9.34215	-7.68603	13.45977	-9.15921
1647.940	9.64391	-7.84133	13.48657	-9.15792
1651.942	9.23986	-7.77774	12.71297	-9.01923
1655.942	9.32593	-7.79658	9.84402	-7.58994
1659.942	7.18223	-7.77484	9.07310	-8.17623
1663.942	6.47051	-7.72645	6.43586	-7.82025
1667.940	4.39901	-7.57797	5.77131	-8.00972
1671.898	2.66513	-7.74657	2.76225	-7.82234
1675.942	0.81099	-7.44469	3.36814	-8.41892
1679.934	-1.10614	-7.45219	2.74635	-7.96313
1683.839	-1.19946	-7.01773	2.09333	-7.91640
1687.943	-1.42310	-7.08510	2.08106	-7.91512
1691.945	-1.40212	-7.03344	2.20235	-7.92492
1695.943	-1.50165	-6.99195	2.11110	-7.96802
1699.944	-1.50621	-7.00016	2.10198	-8.00377
1703.948	-1.52352	-7.07456	2.00294	-7.96000
1707.937	-1.52970	-7.10250	1.97342	-7.93096
1711.941	-1.51251	-6.99681	2.00167	-7.97384
1715.942	-1.47704	-6.97693	2.00165	-8.01439
1719.944	-1.42908	-7.12170	2.03895	-8.03544
1723.944	-1.28665	-7.08584	2.00368	-8.01745
1727.942	-1.13548	-7.26647	2.05115	-8.03030
1731.944	-1.00965	-7.19791	2.08297	-8.06585
1735.952	-0.99779	-7.03883	2.15026	-8.11835
1739.942	-0.95090	-6.92059	2.18404	-8.18810
1743.942	-0.91346	-6.85322	2.28321	-8.20791
1747.841	-0.88341	-6.74169	2.30732	-8.23584
1751.923	-0.84664	-6.53193	2.37037	-8.26055
1755.945	-0.82454	-6.34998	2.42825	-8.26429
1759.898	-0.77047	-6.25963	2.48158	-8.25852
1763.944	-0.73610	-6.49772	2.54509	-8.26680
1767.943	-0.71789	-6.42518	2.55081	-8.27661
1771.942	-0.83017	-6.60751	2.55520	-8.33745
1775.945	-0.91416	-6.57696	2.64678	-8.37446
1779.932	-0.95423	-6.97939	2.71800	-8.41431
1783.946	-1.06862	-7.33095	2.78191	-8.42727
1787.949	-1.10346	-7.68415	2.77015	-8.49119
1791.900	-1.04198	-7.47108	2.78339	-8.49673
1795.809	-1.14652	-7.92207	2.78978	-8.48428
1799.945	-1.16002	-7.84615	2.80397	-8.52836
1803.821	-1.17493	-7.77703	2.87146	-8.55564
1807.821	-1.14670	-7.96813	2.88718	-8.55465
1811.841	-1.16694	-8.10972	2.90943	-8.53897
1815.821	-1.13821	-8.03301	2.93490	-8.42740
1819.821	-0.99675	-8.07468	2.89906	-8.44797
1823.820	-0.86476	-8.14572	2.84932	-8.37624
1827.818	-0.68771	-8.20690	2.80783	-8.31803
1831.821	-0.58089	-8.23347	2.78305	-8.26420
1835.822	-0.51699	-8.25009	2.76624	-8.21888
1839.820	-0.28967	-8.23281	2.73766	-8.15958
1843.789	-0.28629	-8.29190	2.72523	-8.13453
1847.820	-0.26319	-8.32321	2.68554	-8.10025
1851.821	-0.17338	-8.32929	2.68462	-8.07520
1855.822	-0.11329	-8.30613	2.63953	-8.03636
1859.843	-0.08108	-8.30891	2.61867	-8.05107
1863.821	-0.06346	-8.38425	2.60404	-8.02823
1867.821	-0.02792	-8.40152	2.56599	-8.01552
1871.822	-0.04321	-8.38148	2.52941	-7.98782
1875.844	-0.05090	-8.35265	2.57531	-7.99952
1879.839	-0.06063	-8.37391	2.64084	-8.06470
1883.821	-0.13198	-8.33215	2.94022	-8.21844
1887.822	-0.79980	-8.31846	2.70342	-8.19876
1891.843	-1.31240	-8.35704	2.40174	-8.08281
1895.826	-1.98705	-8.88592	0.23453	-8.06613
1899.778	-2.08761	-8.58605	-0.86416	-8.30020
1903.823	-3.76544	-8.97792	-1.04570	-8.50396
1907.842	-5.23849	-10.57246	-2.44152	-8.78969
1911.823	-6.13814	-12.38509	-4.13095	-8.99664
1915.778	-7.18626	-12.34460	-3.96120	-9.44894
1919.821	-7.96461	-13.98117	-4.29628	-10.42487
1923.816	-9.16097	-14.62075	-5.52276	-10.80415
1927.825	-10.10244	-14.82079	-5.85428	-10.95834
1931.825	-19.99372	-11.95062	-6.00496	-11.08263
1935.822	-10.64846	-14.80490	-6.36074	-11.17478
1939.820	-19.99372	-11.98857	-6.44353	-11.24476
1943.823	-10.46897	-14.83890	-6.40672	-11.25947
1947.824	-19.99372	-12.01212	-6.56005	-11.22365
1951.824	-19.99372	-12.03352	-6.24504	-11.08177
1955.820	-10.53017	-14.82605	-6.35859	-11.08107
1959.824	-10.67188	-14.82972	-6.22140	-11.07315
1963.812	-10.64329	-14.85546	-6.25203	-11.13003
1967.812	-10.64973	-14.82552	-6.21796	-11.10341
1971.813	-10.62001	-14.74027	-6.10833	-11.05908
1975.824	-10.69084	-14.76501	-6.09835	-11.02172
1979.821	-10.68808	-14.74559	-5.94065	-10.99979
1983.823	-10.67888	-14.70073	-5.73745	-10.95071
1987.779	-10.74896	-14.42456	-5.64216	-10.90053
1991.803	-10.71360	-14.46080	-5.49485	-10.86274
1995.827	-10.62993	-14.27015	-5.40156	-10.85663
1999.826	-10.63274	-14.05867	-5.35854	-10.83421
2003.823	-10.60354	-13.62541	-5.14970	-10.85230
2007.790	-10.63324	-13.48378	-5.01236	-10.82249
2011.828	-10.65050	-13.44253	-4.96650	-10.80436
2015.824	-19.99372	-12.55356	-4.96886	-10.76982
2019.842	-19.99372	-12.45959	-4.97445	-10.74570
2023.826	-19.99372	-12.39356	-5.72765	-10.73027
2027.825	-19.99372	-12.34194	-6.77085	-10.71028
2031.825	-19.99372	-12.28887	-6.92762	-10.81186
2035.822	-19.99372	-12.25018	-7.13651	-10.91646
2039.781	-19.99372	-12.20787	-7.46621	-11.07093
2043.828	-19.99372	-12.16758	-7.55425	-11.05712
2047.803	-19.99372	-12.13692	-7.66378	-11.13602
2051.857	-19.99372	-12.10763	-7.66972	-11.21221
2055.826	NaN	NaN	-7.57425	-11.25427
2059.824	NaN	NaN	-7.61329	-11.29156
2063.826	NaN	NaN	-7.53342	-11.37592
2067.782	NaN	NaN	-7.59007	-11.41039
2071.827	NaN	NaN	-7.56915	-11.44489
2075.826	NaN	NaN	-7.60407	-11.46649
2079.799	NaN	NaN	-7.58073	-11.46513
2083.815	NaN	NaN	-7.48275	-11.45573
2087.825	NaN	NaN	-7.47831	-11.47156
2091.818	NaN	NaN	-7.47397	-11.48430
2095.832	NaN	NaN	-7.40753	-11.50869
2099.823	NaN	NaN	-7.37885	-11.52122
2103.824	NaN	NaN	-7.31140	-11.53170
2107.827	NaN	NaN	-7.33169	-11.54731
2111.828	NaN	NaN	-7.37809	-11.56832
2115.847	NaN	NaN	-7.36191	-11.59432
2119.827	NaN	NaN	-7.33925	-11.60334
2123.828	NaN	NaN	-7.41045	-11.61904
2127.826	NaN	NaN	-7.39051	-11.64369
2131.827	NaN	NaN	-7.45499	-11.65184
2135.827	NaN	NaN	-7.53083	-11.64162
2139.829	NaN	NaN	-7.60263	-11.62433
2143.828	NaN	NaN	-7.69563	-11.61960
2147.816	NaN	NaN	-7.73560	-11.60627
2151.826	NaN	NaN	-7.85609	-11.57268
2155.832	NaN	NaN	-7.83595	-11.54211
2159.827	NaN	NaN	-7.91271	-11.51512
2163.850	NaN	NaN	-7.96368	-11.49896
2167.805	NaN	NaN	-7.97894	-11.47921
2171.783	NaN	NaN	-8.01014	-11.47888
2175.829	NaN	NaN	-8.01153	-11.46927
2179.816	NaN	NaN	-8.04448	-11.46751
2183.828	NaN	NaN	-8.07380	-11.46654
2187.830	NaN	NaN	-8.05319	-11.47656
2191.829	NaN	NaN	-8.13091	-11.49633
2195.828	NaN	NaN	-8.09046	-11.52193
2199.832	NaN	NaN	-8.04601	-11.54929
2203.828	NaN	NaN	-8.02601	-11.56349
2207.829	NaN	NaN	-7.93647	-11.59921
2211.839	NaN	NaN	-7.89386	-11.63346
2215.829	NaN	NaN	-7.91779	-11.66553
2219.831	NaN	NaN	-7.96064	-11.69590
2223.829	NaN	NaN	-7.94798	-11.72235
2227.852	NaN	NaN	-8.00209	-11.77606
2231.831	NaN	NaN	-8.02973	-11.79205
2235.830	NaN	NaN	-8.00056	-11.83505
2239.831	NaN	NaN	-8.03905	-11.85991
2243.820	NaN	NaN	-8.01292	-11.88504
2247.831	NaN	NaN	-8.05774	-11.90676
2251.832	NaN	NaN	-8.14217	-11.92649
2255.830	NaN	NaN	-8.10875	-11.93188
2259.803	NaN	NaN	-8.09501	-11.92460
2263.831	NaN	NaN	-8.14747	-11.91687
2267.832	NaN	NaN	-8.13312	-11.92809
2271.842	NaN	NaN	-8.11569	-11.91079
2275.820	NaN	NaN	-8.09973	-11.89903
2279.858	NaN	NaN	-8.15569	-11.87417
2283.831	NaN	NaN	-8.18648	-11.83396
2287.830	NaN	NaN	-8.19543	-11.80045
2291.787	NaN	NaN	-8.36797	-11.77896
2295.827	NaN	NaN	-8.50673	-11.74995
2299.825	NaN	NaN	-9.80390	-11.77915
2303.831	NaN	NaN	-10.52209	-11.94744
2307.828	NaN	NaN	-10.81664	-12.17645
2311.831	NaN	NaN	-10.83211	-12.39578
2315.832	NaN	NaN	-11.11805	-12.59293
2319.830	NaN	NaN	-11.06743	-12.61490
2323.830	NaN	NaN	-11.17030	-12.69878
2327.833	NaN	NaN	-11.35411	-12.76766
2331.832	NaN	NaN	-11.51919	-12.75764
2335.832	NaN	NaN	-11.64587	-12.82113
2339.830	NaN	NaN	-11.65318	-12.81967
2343.833	NaN	NaN	-11.63444	-12.85619
2347.833	NaN	NaN	-11.55111	-12.84592
2351.834	NaN	NaN	-11.63744	-12.83310
2355.789	NaN	NaN	-11.64332	-12.82240
2359.833	NaN	NaN	-11.56198	-12.80301
2363.835	NaN	NaN	-11.61654	-12.78671
2367.831	NaN	NaN	-11.49981	-12.75895
2371.831	NaN	NaN	-11.44649	-12.72435
2375.835	NaN	NaN	-11.39573	-12.69637
2379.853	NaN	NaN	-11.36813	-12.69589
2383.821	NaN	NaN	-11.37126	-12.69400
2387.829	NaN	NaN	-11.30710	-12.69174
2391.833	NaN	NaN	-11.30032	-12.71701
2395.833	NaN	NaN	-11.31622	-12.73228
2399.836	NaN	NaN	-11.36176	-12.74691
2403.823	NaN	NaN	-11.45186	-12.76510
2407.832	NaN	NaN	-11.42818	-12.78460
2411.833	NaN	NaN	-11.52607	-12.78837
2415.790	NaN	NaN	-11.51816	-12.80092
2419.835	NaN	NaN	-11.55802	-12.80462
2423.798	NaN	NaN	-11.56264	-12.82291
2427.834	NaN	NaN	-11.54887	-12.82963
2431.837	NaN	NaN	-11.55071	-12.83464
2435.828	NaN	NaN	-11.52905	-12.83106
2439.830	NaN	NaN	-11.40591	-12.82168
2443.837	NaN	NaN	-11.43257	-12.81018
2447.837	NaN	NaN	-11.37553	-12.80514
2451.832	NaN	NaN	-11.36090	-12.78224
2455.835	NaN	NaN	-11.27018	-12.76924
2459.837	NaN	NaN	-11.31223	-12.79241
2463.790	NaN	NaN	-11.27250	-12.78682
2467.732	NaN	NaN	-11.28605	-12.78200
2471.836	NaN	NaN	-11.30763	-12.77101
2475.835	NaN	NaN	-11.25782	-12.74352
2479.865	NaN	NaN	-11.19277	-12.73554
2483.792	NaN	NaN	-11.15699	-12.70684
2487.832	NaN	NaN	-11.09353	-12.68700
2491.834	NaN	NaN	-10.89054	-12.63878
2495.836	-13.85835	-12.70246	-10.70524	-12.24806
2499.739	-12.80296	-10.47484	-10.44749	-11.23739
2503.831	-9.77505	-9.16061	-9.55809	-10.15088
2507.827	-9.37433	-8.40674	-6.76195	-8.53909
2511.836	-8.15433	-6.17328	-5.51698	-7.21900
2515.835	-7.69510	-5.11690	-5.28534	-6.52306
2519.837	-6.67162	-3.59776	-4.16231	-5.98502
2523.835	-6.04747	-3.56704	-3.16894	-4.58386
2527.837	-4.25223	-2.93860	-3.21973	-4.68760
2531.734	1.91496	-3.07505	0.20460	-4.44433
2535.838	-0.59099	2.49042	4.00082	-4.78169
2539.838	-5.81209	10.63423	-4.07110	12.40284
2543.792	NaN	NaN	-2.93332	3.61121
2547.837	NaN	NaN	NaN	NaN
2551.837	NaN	NaN	NaN	NaN
2555.838	NaN	NaN	NaN	NaN
2559.837	NaN	NaN	NaN	NaN
2563.839	NaN	NaN	NaN	NaN
2567.792	NaN	NaN	NaN	NaN
2571.836	NaN	NaN	NaN	NaN
2575.835	NaN	NaN	NaN	NaN
2579.835	NaN	NaN	NaN	NaN
2583.829	NaN	NaN	NaN	NaN
2587.826	NaN	NaN	NaN	NaN
2591.835	NaN	NaN	NaN	NaN
2595.837	NaN	NaN	NaN	NaN
2599.799	NaN	NaN	NaN	NaN
2603.804	NaN	NaN	NaN	NaN
2607.734	NaN	NaN	NaN	NaN
2611.839	NaN	NaN	1.57835	9.36288
2615.838	NaN	NaN	NaN	NaN
2619.838	-5.97325	11.62165	NaN	NaN
2623.843	-0.84126	11.34232	-2.44829	9.87392
2627.839	0.75987	2.93980	9.85269	-7.82360
2631.803	3.18190	-1.09834	7.61221	-2.12321
2635.838	-2.18877	-0.91559	5.40924	-1.60958
2639.838	-2.69416	1.78165	1.58527	-0.08540
2643.737	-2.74838	1.79275	-1.57384	0.06250
2647.838	-2.58299	1.65760	-0.84496	-0.27820
2651.839	-2.69094	1.78448	-0.19298	-0.97679
2655.841	-2.73766	2.53159	0.14034	-0.99829
2659.840	-2.65971	1.77322	-0.09475	-1.46434
2663.841	-2.72456	1.70056	-0.16851	-1.20376
2667.796	-2.72716	1.14256	-0.10533	-1.26697
2671.795	-2.74328	0.38891	-0.21184	-1.12683
2675.839	-2.73338	0.54840	-0.17305	-1.12249
2679.828	-2.64012	1.02165	-0.23904	-0.93926
2683.841	-2.58033	0.55713	-0.30808	-0.86154
2687.840	-2.53919	1.04853	-0.24927	-0.80605
2691.842	-2.54643	1.12496	-0.23594	-0.87857
2695.842	-2.38499	0.92180	-0.24219	-0.71231
2699.847	-2.27084	0.90367	-0.27041	-0.69074
2703.842	-2.25171	0.85143	-0.28108	-0.67489
2707.839	-2.23568	0.78200	-0.29833	-0.59136
2711.837	-2.19427	0.79506	-0.32588	-0.52971
2715.840	-2.12691	0.73392	-0.36888	-0.42326
2719.839	-2.05035	0.80363	-0.41961	-0.43156
2723.840	-2.01855	0.71314	-0.41891	-0.38718
2727.839	-1.96159	0.74194	-0.45520	-0.39034
2731.840	-1.93323	0.75099	-0.47331	-0.41961
2735.840	-1.91489	0.69317	-0.49515	-0.40569
2739.843	-1.91122	0.62910	-0.49140	-0.43712
2743.797	-1.90287	0.52314	-0.53381	-0.38340
2747.842	-1.98908	0.53680	-0.53488	-0.41327
2751.842	-1.94402	0.42713	-0.54893	-0.36536
2755.843	-1.95720	0.10992	-0.52304	-0.34392
2759.842	-2.06109	0.38940	-0.45889	-0.37652
2763.842	-2.03152	0.34841	-0.42028	-0.37700
2767.844	-2.27035	0.38977	-0.38345	-0.37315
2771.843	-2.40860	0.29882	-0.40276	-0.47723
2775.841	-2.20617	-0.00529	-0.40340	-0.47139
2779.817	-2.43664	0.06793	-0.39986	-0.66658
2783.842	-2.43521	0.01815	-0.45649	-0.78158
2787.843	-2.47980	-0.01207	-0.46751	-0.79579
2791.844	-2.48594	-0.10921	-0.47770	-0.83780
2795.846	-2.52082	-0.07155	-0.49562	-0.81042
2799.801	-2.50013	0.04270	-0.54756	-0.84070
2803.844	-2.43431	-0.03883	-0.53441	-0.89078
2807.844	-2.50088	-0.15906	-0.61206	-0.92145
2811.842	-2.45990	-0.13652	-0.66188	-0.94027
2815.855	-2.39279	-0.23755	-0.65541	-0.87991
2819.737	-2.36960	-0.11528	-0.58056	-0.83992
2823.842	-2.25952	-0.12316	-0.57791	-0.77794
2827.718	-2.18580	-0.20895	-0.57461	-0.97106
2831.718	-2.22314	-0.17121	-0.50495	-1.05203
2835.741	-2.27674	-0.08489	-0.45592	-0.81564
2839.718	-0.71474	-0.01093	-0.20318	-0.60155
2843.717	0.29376	-0.11035	0.60419	-0.82576
2847.718	2.55941	-0.40726	2.55126	-0.95985
2851.708	5.70718	-2.26486	3.02635	-1.26251
2855.720	5.53124	-2.58403	5.19468	-2.11677
2859.720	6.00732	-3.50347	6.77448	-3.47193
2863.720	7.42014	-3.38696	6.63374	-3.49686
2867.710	7.34765	-2.92480	7.37804	-3.96627
2871.720	7.75802	-2.81588	7.76391	-4.10980
2875.719	7.70407	-2.90880	7.94260	-4.20442
2879.727	7.74559	-2.89454	7.88108	-4.36655
2883.710	7.62365	-3.00097	8.17121	-4.47382
2887.675	7.62731	-3.04518	8.26840	-4.53917
2891.720	7.61029	-3.00745	8.72333	-4.69646
2895.719	7.63030	-2.92480	9.02116	-4.58778
2899.711	7.33811	-3.23996	9.13274	-4.59733
2903.721	7.46819	-3.14456	9.37257	-4.64819
2907.720	7.30429	-3.17981	9.03534	-4.67647
2911.717	7.10015	-3.29322	9.02912	-4.65197
2915.743	6.57061	-3.40295	8.99293	-4.57911
2919.723	6.30217	-3.62332	9.12350	-4.67325
2923.721	6.36167	-3.53597	9.02072	-4.52784
2927.688	6.23952	-3.60811	8.90555	-4.43372
2931.740	6.14550	-3.50038	8.44637	-4.41914
2935.720	6.67363	-3.58464	8.78147	-4.43743
2939.721	6.54087	-3.66583	8.62617	-4.32122
2943.720	6.25605	-3.81036	8.47102	-4.34502
2947.710	6.23690	-3.69571	8.44118	-4.25257
2951.722	6.13206	-3.65850	8.33241	-4.31165
2955.720	6.36432	-3.65341	8.51622	-4.31846
2959.720	6.37633	-3.63923	8.26446	-4.23341
2963.742	6.42226	-3.64540	8.13706	-4.34166
2967.703	6.58472	-3.61484	8.25158	-4.40109
2971.718	6.40342	-3.66125	8.26908	-4.28474
2975.713	6.54651	-3.65153	8.47668	-4.33205
2979.711	6.47385	-3.66866	8.24828	-4.22453
2983.719	6.48595	-3.62301	8.17765	-3.79159
2987.677	6.54886	-3.59730	8.05728	-4.07294
2991.717	6.64670	-3.49251	8.12500	-4.38498
2995.696	6.69483	-3.56089	8.17301	-4.19321
2999.722	6.60840	-3.56257	8.35801	-4.18800
3003.725	6.66908	-3.55571	8.26009	-4.10516
3007.723	6.63996	-3.46243	8.28157	-4.13683
3011.712	6.66234	-3.42780	7.67457	-3.93364
3015.723	6.69564	-3.36158	7.57561	-3.75218
3019.724	6.73091	-3.36685	8.05149	-4.17203
3023.724	6.62674	-3.42504	8.00462	-4.09016
3027.720	6.69463	-3.39489	8.39120	-4.38663
3031.723	6.78701	-3.39638	8.43095	-4.46510
3035.724	6.67809	-3.41101	8.55100	-4.18432
3039.722	6.63492	-3.24748	8.13157	-4.29867
3043.746	8.34482	-4.06824	8.38512	-4.48310
3047.724	9.54447	-4.05478	10.92043	-4.87770
3051.701	12.99507	-6.70667	11.27226	-5.27495
3055.723	13.49652	-7.52009	11.97140	-6.42121
3059.712	13.52660	-9.68598	13.64734	-7.69407
3063.723	13.83423	-9.28240	14.60930	-7.37769
3067.724	15.19468	-9.55839	17.27516	-9.37716
3071.724	15.45504	-9.99959	16.36813	-9.40554
3075.720	15.86002	-9.86270	18.96866	-11.27650
3079.742	16.45014	-10.05705	18.97596	-11.53645
3083.726	16.79843	-10.39960	18.84854	-10.86439
3087.725	16.94545	-10.33522	18.59243	-10.40909
3091.722	16.81565	-10.20727	18.23900	-10.23978
3095.715	16.46423	-10.36909	18.51291	-10.40985
3099.725	16.71305	-10.45294	18.33239	-10.36363
3103.725	16.70495	-10.49372	18.34527	-10.41855
3107.721	16.94852	-10.62212	18.00147	-10.20013
3111.726	16.90504	-10.63621	18.16175	-10.25710
3115.725	16.85414	-10.66464	18.44306	-10.43630
3119.726	16.88287	-10.73662	18.09329	-10.18222
3123.713	16.93732	-10.73508	17.98250	-10.01948
3127.728	16.96734	-10.73006	17.95256	-10.00283
3131.729	16.91502	-10.70931	17.98377	-10.00027
3135.694	17.02604	-10.76287	17.78130	-9.79804
3139.744	16.81824	-10.63191	17.77851	-9.68361
3143.724	16.71050	-10.60091	17.64827	-9.57851
3147.726	16.56686	-10.72861	17.69167	-9.66452
3151.726	16.44900	-10.49608	17.61721	-9.58787
3155.680	16.39550	-10.50594	17.65927	-9.63148
3159.725	16.07146	-10.15396	17.65544	-9.66979
3163.685	16.30085	-10.19371	17.47114	-9.57656
3167.727	16.05204	-10.00972	17.51528	-9.64894
3171.725	16.03905	-9.93243	17.48047	-9.65435
3175.706	16.00191	-9.82465	17.38819	-9.69211
3179.682	15.95656	-9.94569	17.45479	-9.81781
3183.727	15.99395	-10.03164	17.57689	-10.02481
3187.716	15.82380	-9.58078	18.48577	-9.96279
3191.726	15.69686	-9.64382	19.26683	-9.89307
3195.726	15.90995	-9.65465	-19.99372	-11.90158
3199.728	15.69410	-9.36400	-19.99372	-11.98810
3203.727	15.76414	-9.34521	18.19844	-9.92242
3207.726	15.72471	-9.48008	18.61182	-10.04359
3211.729	15.75279	-9.57924	-19.99372	-12.01614
3215.725	15.79191	-9.70697	19.10705	-9.66085
3219.717	15.80606	-10.02615	19.37870	-9.46986
3223.727	15.92769	-10.46981	19.48639	-9.32168
3227.727	15.78821	-9.68416	19.21336	-9.04376
3231.729	15.87802	-9.87051	19.09951	-8.89338
3235.758	15.96645	-9.84733	-19.99372	-12.07052
3239.727	15.90460	-9.79134	-19.99372	-12.07099
3243.726	15.95459	-9.90133	-19.99372	-12.07148
3247.727	15.98581	-9.92279	-19.99372	-12.07345
3251.716	15.97964	-9.94909	-19.99372	-12.07738
3255.728	15.81746	-9.91411	-19.99372	-12.07738
3259.704	15.72830	-10.00210	-19.99372	-12.07740
3263.727	15.74081	-9.94176	-19.99372	-12.07740
3267.717	15.45797	-9.88131	NaN	NaN
3271.728	15.46973	-9.81934	NaN	NaN
3275.729	15.57949	-9.80990	NaN	NaN
3279.741	15.46761	-9.69869	NaN	NaN
3283.725	15.48822	-9.58514	17.64532	-9.59200
3287.729	15.53006	-9.54182	17.83410	-9.64040
3291.731	15.50670	-9.49120	20.03800	-9.85604
3295.729	15.55342	-9.44111	17.38796	-9.98447
3299.717	15.68437	-9.30103	17.20573	-9.87277
3303.721	15.45740	-9.41822	18.49153	-9.77112
3307.729	15.31999	-9.40583	17.71329	-9.87456
3311.729	15.15582	-9.41535	17.93565	-9.85948
3315.727	15.04911	-9.54142	18.06589	-9.80900
3319.729	15.12976	-9.52721	18.32333	-9.80534
3323.731	15.07544	-9.62637	18.47054	-9.78204
3327.731	15.32491	-9.76717	18.28438	-9.94875
3331.728	14.87374	-9.32585	18.47383	-10.19580
3335.731	14.76781	-9.23620	17.21300	-9.94421
3339.731	11.66948	-8.50113	15.21811	-9.64443
3343.693	13.42634	-8.78393	14.04278	-8.97227
3347.730	13.75809	-8.99481	13.99774	-8.77749
3351.690	13.45925	-8.05165	13.70270	-8.57699
3355.729	13.13985	-8.02566	13.72132	-8.65245
3359.730	12.22021	-8.36275	13.98774	-8.66331
3363.750	12.41840	-8.50780	13.95914	-8.56344
3367.729	12.51205	-8.58921	14.26452	-8.55839
3371.730	14.84102	-8.30503	14.49420	-8.58040
3375.730	15.54575	-8.10522	14.99454	-8.62589
3379.724	15.62584	-8.03566	14.88248	-8.62551
3383.732	15.81100	-7.92683	14.98984	-8.64106
3387.726	15.86957	-7.91977	15.40025	-8.66218
3391.729	15.84006	-7.63398	15.71168	-8.72109
3395.731	12.50867	-7.99543	15.69634	-8.69039
3399.733	12.36312	-7.86682	15.79685	-8.73057
3403.736	12.13285	-7.71457	14.94752	-8.69054
3407.729	12.02758	-7.86619	14.81864	-8.68516
3411.729	11.31500	-7.66652	14.13337	-8.66478
3415.687	11.54828	-7.48411	14.06992	-8.57382
3419.733	11.70552	-7.53332	13.88249	-8.69935
3423.732	11.71480	-7.54820	14.08568	-8.79007
3427.722	11.75370	-7.61353	13.88663	-8.68534
3431.733	11.89098	-7.77726	14.07576	-8.79979
3435.731	12.07025	-7.83458	13.97430	-8.69826
3439.733	12.08530	-7.84223	14.53270	-8.76549
3443.719	11.81964	-7.39486	14.22720	-8.69022
3447.687	11.79981	-7.31634	14.35771	-8.82466
3451.734	11.79049	-7.25302	14.77001	-8.84503
3455.740	11.91322	-7.51228	14.55635	-8.87607
3459.722	12.27223	-7.73848	14.39899	-8.88340
3463.734	12.49864	-7.57564	14.37555	-8.82728
3467.707	12.52050	-7.51305	14.27837	-8.73602
3471.733	11.90797	-7.08411	14.12396	-8.71731
3475.735	11.90407	-7.13398	14.41315	-8.67886
3479.745	11.82934	-7.11880	14.36628	-8.63360
3483.692	11.66734	-7.19378	14.66285	-8.55186
3487.734	11.77760	-7.42696	14.74576	-8.55724
3491.723	11.52943	-7.28850	14.52607	-8.43260
3495.732	11.57836	-7.56655	14.52023	-8.40752
3499.733	12.09209	-7.52608	14.88607	-8.51784
3503.737	12.49183	-7.45024	14.62398	-8.41272
3507.629	12.22149	-7.18356	14.82680	-8.52184
3511.724	11.98018	-7.25135	14.85885	-8.63012
3515.734	11.93118	-7.19644	14.91724	-8.67971
3519.734	12.00215	-7.37092	14.86896	-8.54749
3523.630	10.92265	-5.78809	12.97080	-7.81860
3527.734	10.01202	-4.01352	12.14914	-7.14774
3531.736	8.44887	-2.30007	9.49917	-4.78921
3535.733	7.73117	-1.20668	7.46831	-4.34397
3539.735	5.06287	0.35648	6.34768	-2.97475
3543.689	2.96230	1.14225	4.26997	-1.69744
3547.736	2.80127	1.79716	4.20022	-1.19652
3551.734	2.81122	2.23949	4.30416	-1.22563
3555.724	3.04991	2.24055	4.32698	-1.11043
3559.737	3.18094	1.71127	4.44371	-1.36655
3563.735	3.30782	1.54624	4.29137	-1.26580
3567.734	3.34212	1.52757	4.39686	-1.34504
3571.630	3.40366	1.59973	4.41679	-1.36103
3575.734	3.30980	2.22844	4.62932	-1.40813
3579.755	3.28857	2.00728	4.72058	-1.43705
3583.736	3.26812	2.03842	4.44627	-1.39034
3587.632	3.31959	2.04114	4.85593	-1.44892
3591.717	3.38825	2.03864	4.92075	-1.46760
3595.732	3.44026	2.04648	5.00408	-1.55449
3599.734	3.41075	1.81493	5.16583	-1.57760
3603.609	3.22794	2.04683	4.92184	-1.56931
3607.696	3.15622	2.11132	5.08187	-1.52876
3611.736	3.06964	2.12153	5.18926	-1.50066
3615.737	3.00225	2.23227	5.19209	-1.50945
3619.632	2.93913	2.17343	5.18412	-1.44836
3623.736	2.88445	2.24872	5.15677	-1.42752
3627.737	2.78528	2.12392	5.24599	-1.32617
3631.737	2.79696	2.09116	5.27208	-1.27453
3635.631	2.70901	2.03418	5.29669	-1.22511
3639.733	2.68326	1.96381	5.24425	-1.25319
3643.738	2.58851	1.94358	5.26930	-1.25425
3647.737	2.58997	1.99009	5.30468	-1.45963
3651.629	2.48881	1.94834	5.32137	-1.48540
3655.734	2.45175	1.78563	5.37072	-1.72965
3659.740	2.39891	1.68472	5.36297	-1.58073
3663.704	2.41194	1.64737	5.41519	-1.72060
3667.632	2.47881	1.56459	5.42739	-1.80615
3671.737	2.44378	1.63932	5.49610	-1.88116
3675.706	2.45473	1.53996	5.51890	-1.98554
3679.691	2.44120	1.56771	5.55462	-2.06807
3683.637	2.54061	1.60271	5.59666	-2.11310
3687.737	2.49114	1.65973	5.58833	-2.04098
3691.737	2.69527	1.57888	5.56033	-1.92357
3695.737	2.64062	1.53792	5.60607	-1.96976
3699.637	2.67283	1.58330	5.48489	-1.86397
3703.736	2.82113	1.57750	5.60949	-1.90187
3707.739	2.96230	1.54506	5.60349	-1.92113
3711.739	3.09513	1.52484	5.41930	-1.88995
3715.727	3.44189	1.33014	5.03777	-1.76335
3719.728	3.20063	1.38951	4.98098	-1.75023
3723.740	3.38657	1.35295	4.77964	-1.66257
3727.740	3.36703	1.40990	5.14419	-1.66537
3731.604	3.36003	1.32153	5.28679	-1.54710
3735.690	3.44248	1.28505	5.33175	-1.58185
3739.739	3.39520	1.26510	5.74441	-1.63243
3743.738	3.37749	1.33427	5.30436	-1.63874
3747.634	-1.45485	0.86667	5.45595	-0.78225
3751.742	3.94443	2.55325	9.05843	-1.49096
3755.739	3.77137	5.16652	13.69584	0.19959
3759.707	NaN	NaN	3.72840	-1.07771
3763.609	NaN	NaN	6.23700	2.80320
3767.742	NaN	NaN	NaN	NaN
3771.739	NaN	NaN	NaN	NaN
3775.739	NaN	NaN	NaN	NaN
3779.756	NaN	NaN	NaN	NaN
3783.739	NaN	NaN	NaN	NaN
3787.693	NaN	NaN	NaN	NaN
3791.740	NaN	NaN	NaN	NaN
3795.702	NaN	NaN	NaN	NaN
3799.719	NaN	NaN	NaN	NaN
3803.712	NaN	NaN	NaN	NaN
3807.740	NaN	NaN	NaN	NaN
3811.738	NaN	NaN	NaN	NaN
3815.739	NaN	NaN	NaN	NaN
3819.699	NaN	NaN	NaN	NaN
3823.742	NaN	NaN	NaN	NaN
3827.739	NaN	NaN	NaN	NaN
3831.635	NaN	NaN	NaN	NaN
3835.697	NaN	NaN	NaN	NaN
3839.739	NaN	NaN	NaN	NaN
3843.735	NaN	NaN	NaN	NaN
3847.743	0.57501	7.48639	NaN	NaN
3851.606	0.32784	9.11518	-0.70369	13.88500
3855.695	0.38623	11.73611	8.84646	0.42649
3859.616	0.64429	6.75007	8.88208	0.85115
3863.619	0.83218	4.64495	5.54130	-1.41551
3867.606	1.24424	2.92965	5.26440	-1.38316
3871.573	0.99665	1.23773	3.45114	-1.44190
3875.618	1.13402	2.18955	3.08513	-1.11843
3879.615	1.65014	1.99346	2.26269	-1.32749
3883.608	1.01913	1.71947	2.68497	-1.01828
3887.603	1.30295	1.94997	3.61508	-0.45298
3891.614	1.43183	2.12552	3.41273	-0.96612
3895.619	1.76792	1.93171	2.84400	-0.85940
3899.614	1.39207	1.98094	2.73620	-0.83370
3903.618	1.46221	1.88421	2.86789	-0.87710
3907.618	1.33435	1.82781	3.19365	-0.83365
3911.617	1.23107	1.81105	3.01447	-0.84210
3915.608	1.47260	1.82437	2.86948	-0.81169
3919.616	1.43054	1.81917	2.88465	-0.75044
3923.620	1.40740	1.80328	2.92171	-0.59194
3927.617	1.56414	1.80236	2.87319	-0.24130
3931.610	1.49669	1.70186	2.74182	-0.01479
3935.619	1.46608	1.63020	2.65988	0.11453
3939.617	1.38835	1.72728	2.58905	-0.07827
3943.618	1.34125	1.68484	2.29788	-0.16390
3947.610	1.28358	1.61605	2.17199	-0.19855
3951.619	1.23102	1.65369	2.29374	-0.31905
3955.618	1.45162	1.59690	2.71146	-0.13143
3959.618	1.63678	1.54672	2.39792	-0.05743
3963.608	1.41363	1.84005	2.59606	-0.06496
3967.620	1.35400	1.73338	2.22166	-0.11516
3971.597	1.36620	2.06860	2.58962	-0.24779
3975.620	1.31062	2.40916	2.83593	-0.51490
3979.616	1.10623	1.90140	2.26894	-0.83419
3983.617	1.23878	1.87284	2.52059	-0.69013
3987.574	1.07324	2.13472	2.90138	-0.43526
3991.616	1.17002	2.05699	2.68809	0.21707
3995.573	1.34686	2.22029	2.11814	-0.53102
3999.632	1.23077	2.42347	2.30558	-0.00472
4003.620	1.20318	2.08017	2.20039	0.34393
4007.623	1.02905	2.12450	2.33038	-0.38866
4011.607	0.67392	2.07701	2.69212	-0.54219
4015.611	0.99186	2.11458	2.78478	-0.48785
4019.619	1.06143	2.13453	2.63331	-0.23832
4023.620	1.39773	2.14984	2.38942	0.67483
4027.617	0.97891	2.31015	2.19492	-0.09560
4031.620	0.93644	2.24521	2.08129	-0.09782
4035.619	0.90999	2.34363	2.22297	-0.01684
4039.621	0.92138	2.26651	2.34976	0.08320
4043.641	0.79796	2.14069	2.31911	-0.20878
4047.623	1.26155	2.03953	2.39681	-0.22978
4051.620	0.88262	2.17528	2.26619	0.26344
4055.596	0.84654	2.18180	2.32825	0.26000
4059.610	0.84704	2.11481	2.33685	0.16672
4063.621	0.76359	2.11396	2.73293	-0.50462
4067.622	0.83372	1.76514	2.61174	-1.09621
4071.623	0.74082	-0.28475	2.32241	-1.09236
4075.609	0.80027	-2.75968	2.14761	-4.01629
4079.622	1.43716	-5.22986	2.14166	-5.18516
4083.623	0.87287	-5.19839	2.92418	-6.58297
4087.622	1.05235	-6.83675	2.79179	-7.22994
4091.613	0.90691	-7.72131	2.84724	-7.74564
4095.623	0.78377	-6.93652	3.10831	-8.17187
4099.609	0.16223	-6.40060	3.03816	-8.26034
4103.578	0.49312	-5.73463	2.91304	-8.24581
4107.646	-0.71685	-6.19380	2.69710	-8.23922
4111.623	0.54503	-5.18680	2.87074	-8.25724
4115.622	0.62714	-5.07317	2.97626	-8.57938
4119.623	0.78342	-4.88492	2.98104	-8.59951
4123.614	0.44182	-6.82361	3.04296	-8.60596
4127.624	-0.04259	-7.04443	2.97195	-8.53886
4131.624	0.09140	-7.33501	2.83192	-8.54483
4135.626	0.21457	-7.30639	2.80570	-8.59223
4139.579	0.12369	-7.31777	2.79080	-8.54634
4143.623	0.22634	-6.91930	2.83539	-8.55677
4147.623	-0.03733	-7.12181	3.03462	-8.57543
4151.578	-0.35164	-7.17665	3.44021	-8.66545
4155.622	-0.03586	-7.22683	3.73707	-8.67245
4159.623	-0.23160	-7.20581	3.15451	-8.54427
4163.626	0.27153	-6.96688	2.53087	-8.45864
4167.578	0.62642	-7.13558	3.11722	-8.45016
4171.583	0.01782	-7.14075	3.18878	-8.50405
4175.625	0.32156	-7.23496	3.35625	-8.56325
4179.624	1.18438	-5.23467	3.36822	-8.42185
4183.621	1.17845	-4.76399	3.26337	-8.39095
4187.644	1.69431	-5.33746	3.26500	-8.36972
4191.625	0.66216	-5.38499	3.28231	-8.39250
4195.624	0.66538	-5.37075	3.19707	-8.35937
4199.624	0.50778	-7.17616	3.26772	-8.34852
4203.622	0.18276	-6.77801	3.23465	-8.38004
4207.625	0.11185	-7.01554	3.25421	-8.45570
4211.625	0.14940	-7.07584	3.30653	-8.49160
4215.627	0.09262	-7.04815	3.40432	-8.52970
4219.582	0.07463	-7.13218	3.38407	-8.44577
4223.615	0.09935	-7.15082	3.43064	-8.48854
4227.625	0.43998	-7.70708	3.33475	-8.54076
4231.627	0.48306	-8.17803	3.16322	-8.56424
4235.618	0.65355	-8.60953	2.86230	-8.57131
4239.624	0.90919	-8.70744	2.70602	-8.55697
4243.625	1.12308	-9.41234	-0.14682	-7.52438
4247.626	1.22129	-9.57599	-0.19785	-7.34038
4251.614	1.37838	-9.67968	0.20219	-7.37931
4255.627	1.25247	-9.83579	0.08378	-7.43985
4259.625	1.22700	-9.78829	-0.00544	-7.47521
4263.596	1.27693	-9.76128	-0.02673	-7.45290
4267.592	1.39492	-9.75208	-0.12635	-7.54094
4271.625	1.50408	-9.82674	-0.25661	-7.46456
4275.626	1.52007	-9.85732	-0.57379	-7.57929
4279.651	1.58363	-9.88736	-0.67069	-7.65873
4283.628	1.55482	-9.91360	-0.63987	-7.67581
4287.628	1.64112	-9.75898	-0.77161	-7.97716
4291.626	1.58817	-9.64387	-0.98412	-8.07778
4295.627	1.50524	-9.57370	-1.10462	-8.18821
4299.618	1.49009	-9.36142	-1.22940	-8.39548
4303.613	1.22516	-7.27062	-1.25590	-8.70349
4307.617	1.21700	-8.67208	4.44761	-8.95466
4311.629	1.50710	-9.80946	4.46517	-9.18091
4315.624	1.76279	-9.90062	4.39148	-9.47604
4319.635	-19.99372	-12.06742	4.56834	-9.92223
4323.626	0.73816	-12.81917	4.34611	-9.80829
4327.626	-0.08597	-12.75969	4.64788	-10.03732
4331.617	-0.93738	-12.56176	4.92302	-10.17708
4335.626	-19.99372	-11.95543	4.80551	-10.09891
4339.629	-19.99372	-11.97706	4.68950	-10.09491
4343.625	-19.99372	-11.99248	4.57213	-10.15827
4347.624	-19.99372	-12.00412	4.98425	-10.29597
4351.598	-19.99372	-12.01326	5.34353	-10.37647
4355.583	-19.99372	-12.02105	5.67244	-10.40231
4359.627	-19.99372	-12.02758	5.37842	-10.44610
4363.619	-19.99372	-12.02932	5.37888	-10.40429
4367.627	3.40858	-10.73863	5.23536	-10.39943
4371.629	-19.99372	-12.04071	5.28766	-10.42598
4375.628	-19.99372	-12.07595	5.32114	-10.45005
4379.626	-19.99372	-12.07597	5.35519	-10.47267
4383.623	-19.99372	-12.07599	5.19431	-10.47166
4387.607	-19.99372	-12.07604	4.87232	-10.42609
4391.626	-19.99372	-12.07606	4.93876	-10.45395
4395.627	-19.99372	-12.07611	4.71476	-10.42887
4399.629	-19.99372	-12.07615	5.05575	-10.46433
4403.629	-19.99372	-12.07622	5.07028	-10.42041
4407.628	-19.99372	-12.07626	5.41613	-10.42769
4411.628	NaN	NaN	5.52650	-10.44849
4415.590	1.82653	-10.71323	5.34651	-10.40387
4419.631	-19.99372	-12.07579	5.28967	-10.32142
4423.632	-19.99372	-12.07582	5.55499	-10.35786
4427.621	-19.99372	-12.07584	5.49069	-10.35987
4431.622	-19.99372	-12.07586	5.51587	-10.38271
4435.630	-19.99372	-12.07588	5.43253	-10.36016
4439.629	-19.99372	-12.07593	5.59762	-10.33796
4443.618	-19.99372	-12.07597	5.57363	-10.30009
4447.630	-19.99372	-12.07604	5.52291	-10.26871
4451.629	-19.99372	-12.07608	5.39064	-10.23583
4455.629	-19.99372	-12.07615	5.21781	-10.19871
4459.619	NaN	NaN	5.12122	-10.16084
4463.633	NaN	NaN	5.10962	-10.19943
4467.630	NaN	NaN	4.78535	-10.15889
4471.598	NaN	NaN	4.72462	-10.11755
4475.599	NaN	NaN	4.56905	-10.09880
4479.586	NaN	NaN	4.36868	-10.08021
4483.632	4.45612	-13.03528	4.32118	-10.08277
4487.586	4.27002	-13.47608	4.25438	-10.08998
4491.628	4.19010	-13.60169	4.30630	-10.12605
4495.631	4.13478	-13.85644	4.19746	-10.15233
4499.630	3.90343	-13.92676	4.22977	-10.20183
4503.632	3.73979	-13.97011	4.39938	-10.25863
4507.620	3.80858	-14.17639	4.63080	-10.30509
4511.624	3.72758	-14.36218	4.62678	-10.30298
4515.629	3.68451	-14.49519	5.00647	-10.33500
4519.631	-19.99372	-12.53427	5.01913	-10.37059
4523.621	2.35018	-9.12679	5.10435	-10.39615
4527.632	2.21554	-11.13088	5.34914	-10.41046
4531.631	2.86361	-11.08515	5.10307	-10.38072
4535.632	3.09211	-11.79175	5.26384	-10.34347
4539.527	6.07359	-11.40202	7.99936	-10.32723
4543.632	7.79987	-11.23942	7.61021	-10.33273
4547.634	8.38461	-11.25508	10.05096	-10.32296
4551.633	10.35003	-11.59116	10.49682	-10.47813
4555.525	10.67382	-13.16541	12.99321	-11.04060
4559.632	10.99317	-13.11640	14.17220	-11.06252
4563.631	11.46938	-13.27771	14.48746	-11.07647
4567.632	11.14971	-13.32038	14.65416	-11.51263
4571.520	11.27674	-12.89165	15.22599	-12.08860
4575.632	11.61954	-12.69675	15.23479	-12.17955
4579.657	11.87681	-12.47915	15.33045	-12.29684
4583.634	11.85685	-12.17903	15.45825	-12.32125
4587.534	11.87978	-11.57432	15.87912	-12.44200
4591.632	11.86129	-12.89597	15.69992	-12.43133
4595.608	11.65511	-12.85394	15.62351	-12.34441
4599.634	11.65865	-12.89556	15.81475	-12.48822
4603.532	11.09587	-12.73842	15.92953	-12.49898
4607.635	11.40882	-13.56849	15.71554	-12.45650
4611.637	11.50899	-13.27275	15.81174	-12.50009
4615.636	11.51802	-12.99505	15.67349	-12.45404
4619.532	11.06389	-12.85623	15.46122	-12.44458
4623.632	10.89008	-12.37271	14.70005	-12.44157
4627.632	10.85916	-12.47682	14.47592	-12.34216
4631.638	11.08412	-11.93671	14.06016	-12.25474
4635.535	10.93660	-11.57677	13.83018	-12.10639
4639.633	10.87429	-11.23289	13.76650	-11.90517
4643.634	10.69062	-11.23647	13.70022	-11.60872
4647.635	10.65589	-11.46979	13.60477	-11.35244
4651.530	10.17305	-11.75064	13.62816	-11.36209
4655.633	10.33267	-12.39995	13.56495	-11.26071
4659.632	10.11204	-11.77978	13.65791	-11.26254
4663.593	9.95300	-11.78316	13.62748	-11.25947
4667.530	10.00134	-11.70888	13.65081	-11.29162
4671.638	9.98042	-11.81950	13.66046	-11.10572
4675.634	10.00885	-11.91686	13.79379	-11.18792
4679.589	10.10875	-12.14948	13.84258	-11.18991
4683.519	9.92959	-12.21692	13.94925	-11.20848
4687.635	9.97953	-12.11983	13.88474	-11.14980
4691.634	10.08010	-12.07307	13.85190	-11.13569
4695.634	10.36230	-12.11843	13.91568	-11.16866
4699.531	10.18781	-12.01381	14.22755	-11.23854
4703.636	10.35051	-12.10880	13.40746	-10.93658
4707.636	10.40135	-12.19880	13.85480	-11.19256
4711.593	10.43942	-12.24439	13.80091	-11.19622
4715.533	10.21599	-12.19829	13.83227	-11.30774
4719.621	10.20284	-12.05188	13.76326	-11.22002
4723.631	10.25865	-12.12410	13.83720	-11.21400
4727.636	10.21969	-12.15355	13.94602	-11.22036
4731.497	10.11130	-12.19259	13.68965	-11.18979
4735.638	10.36860	-12.27820	13.18988	-11.06796
4739.637	10.56349	-12.21994	13.59546	-11.13400
4743.644	10.94787	-12.28315	13.50420	-11.08303
4747.531	10.53511	-12.24345	13.65155	-11.01328
4751.636	10.72508	-11.65608	13.38555	-10.96644
4755.638	10.38039	-11.89641	13.57551	-10.79961
4759.637	10.56363	-11.29107	13.46184	-10.76565
4763.528	10.53010	-11.10798	13.61907	-10.75241
4767.637	10.61157	-11.18237	13.40154	-10.57318
4771.636	10.65875	-11.17965	13.93798	-10.84567
4775.637	10.63566	-11.23593	14.49748	-11.25755
4779.531	14.35759	-12.24839	14.64972	-11.55796
4783.637	14.48534	-13.04127	14.27215	-11.32691
4787.637	9.47956	-11.16046	14.90925	-11.59179
4791.635	10.84331	-10.94880	14.88936	-11.56297
4795.641	11.15597	-10.82953	14.32353	-10.98270
4799.637	14.24818	-11.80661	15.07685	-10.72999
4803.614	14.20826	-9.48578	19.84220	-12.58407
4807.639	20.27423	-12.12841	21.74908	-13.18979
4811.641	18.64750	-10.76332	-19.99372	-11.73703
4815.638	19.58928	-10.24427	-19.99372	-11.83484
4819.638	22.79594	-9.72447	-19.99372	-11.90820
4823.638	22.53478	-10.63362	-19.99372	-11.96352
4827.639	22.15729	-13.03639	-19.99372	-12.02367
4831.639	22.45593	-12.87480	-19.99372	-12.07358
4835.638	21.93493	-12.30451	-19.99372	-12.11716
4839.641	22.61919	-11.27874	-19.99372	-12.12187
4843.536	22.35350	-10.20937	-19.99372	-12.11935
4847.631	22.06981	-12.33304	-19.99372	-12.08642
4851.594	22.51147	-11.69572	NaN	NaN
4855.639	-19.99372	-12.10939	NaN	NaN
4863.637	19.11536	-10.67345	NaN	NaN
4867.524	-19.99372	-12.08919	NaN	NaN
4871.639	-19.99372	-12.12442	NaN	NaN
4875.514	19.14683	-12.98122	22.43223	-14.07170
4879.515	18.28277	-12.20217	22.53861	-14.10841
4883.531	18.09686	-12.31523	21.55102	-13.65054
4887.515	17.84858	-12.24285	21.55578	-13.55675
4891.507	15.63357	-10.30317	22.27117	-13.85194
4895.512	17.14207	-12.07228	21.64437	-13.71647
4899.518	-19.99372	-12.05029	19.33072	-12.22083
4903.517	15.46862	-12.31567	16.67883	-11.56662
4907.513	14.38980	-12.18260	15.58331	-10.74370
4911.515	12.98360	-11.44322	12.87173	-9.83947
4915.512	12.46616	-11.10494	13.40438	-10.02409
4919.470	11.51545	-11.23359	13.50697	-10.04497
4923.517	11.57177	-11.19281	14.54600	-10.60003
4927.517	12.37079	-10.96062	14.53593	-10.56776
4931.502	11.88582	-11.07321	13.71329	-10.35078
4935.478	11.38185	-11.14942	13.60866	-10.51480
4939.518	11.19058	-11.19749	13.57877	-10.52585
4943.515	10.77943	-11.17350	13.68291	-10.49301
4947.513	10.39117	-11.24282	13.95135	-10.45297
4951.528	10.38163	-11.10909	14.15897	-10.51173
4955.515	10.09212	-11.09611	14.29401	-10.53992
4959.516	9.72443	-11.04095	13.93433	-10.53517
4963.512	10.43709	-11.02639	14.30254	-10.55783
4967.516	10.68938	-10.67495	14.18025	-10.50585
4971.517	11.02253	-10.74940	13.96299	-10.55408
4975.493	10.90097	-10.87547	13.97071	-10.58233
4979.482	11.00726	-10.34451	13.90836	-10.54032
4983.513	11.35418	-10.81069	13.86567	-10.51237
4987.471	-19.99372	-11.62242	13.93160	-10.44669
4991.511	-19.99372	-11.89118	14.17735	-10.49115
4995.494	10.49143	-10.52036	14.19662	-10.51198
4999.517	10.66785	-10.55240	14.27002	-10.48028
5003.518	10.45142	-10.39904	14.27625	-10.45513
5007.518	10.12200	-9.88675	13.32740	-10.35252
5011.509	10.05356	-9.88877	14.11738	-9.71135
5015.508	3.31116	-7.13870	13.87674	-7.87607
5019.505	14.14310	-4.15662	16.21588	-9.97904
5023.518	-19.99372	-12.02950	23.58261	-10.24515
5027.516	-19.99372	-12.06447	23.25220	-6.31722
5031.507	-19.99372	-12.06543	-19.99372	-11.72609
5035.519	-19.99372	-12.06639	-19.99372	-11.88613
5039.517	-19.99372	-12.07110	-19.99372	-11.96108
5043.514	-19.99372	-12.07651	-19.99372	-11.99652
5047.517	-19.99372	-12.07740	-19.99372	-12.01558
5051.519	-19.99372	-12.07740	-19.99372	-12.02661
5055.475	NaN	NaN	-19.99372	-12.03457
5059.487	NaN	NaN	-19.99372	-12.04073
5063.516	NaN	NaN	-19.99372	-12.04576
5067.518	NaN	NaN	NaN	NaN
5071.472	NaN	NaN	NaN	NaN
5075.517	NaN	NaN	NaN	NaN
5079.518	NaN	NaN	NaN	NaN
5083.474	NaN	NaN	NaN	NaN
5087.522	NaN	NaN	NaN	NaN
5091.517	NaN	NaN	NaN	NaN
5095.518	NaN	NaN	NaN	NaN
5099.500	10.92471	-6.80438	NaN	NaN
5103.495	18.23935	-4.96974	NaN	NaN
5107.517	14.59507	-14.18855	9.78966	-12.14713
5111.521	4.29095	-11.22075	6.01353	-10.63386
5115.517	4.39849	-12.56807	5.94889	-10.49166
5119.542	4.75430	-12.96650	8.48454	-11.53699
5123.521	4.80258	-13.49409	14.46466	-12.42006
5127.520	10.97325	-12.43618	14.32411	-12.08343
5131.519	11.19382	-11.52733	14.61671	-12.46569
5135.546	10.44014	-12.38824	15.70075	-12.64692
5139.518	10.48581	-12.86037	14.71631	-12.09212
5143.516	10.63506	-13.45899	15.43782	-12.38570
5147.521	9.95271	-12.88780	15.47081	-12.29968
5151.507	9.95529	-12.94016	14.95653	-12.17538
5155.520	10.03775	-12.96757	14.51295	-12.07329
5159.522	9.89101	-13.18794	14.55539	-12.09187
5163.521	11.24913	-9.87686	14.63465	-12.18217
5167.554	10.08900	-12.94630	14.98764	-12.11408
5171.523	10.03327	-12.89330	15.24080	-12.20088
5175.522	10.26143	-13.08713	15.05538	-12.13286
5179.523	8.24339	-13.10709	14.41455	-12.05194
5183.550	10.03643	-12.97529	13.95530	-12.03796
5187.523	8.84433	-11.77399	14.19830	-12.02929
5191.523	11.47619	-12.92076	14.74017	-12.07456
5195.521	10.11844	-12.76719	14.21976	-12.04231
5199.530	10.13212	-13.97775	14.39478	-12.01430
5203.521	10.20630	-13.47981	14.56097	-12.01512
5207.522	10.22668	-13.36326	14.34047	-11.97837
5211.521	10.29846	-13.66018	14.87772	-11.96721
5215.516	10.25706	-13.82691	14.70477	-11.94395
5219.522	10.19748	-13.99780	14.42265	-11.89392
5223.511	10.28770	-14.09653	14.70035	-11.87411
5227.510	10.34619	-13.83092	14.82212	-11.87497
5231.519	10.42579	-14.06149	14.60553	-11.79793
5235.523	10.37032	-14.15178	14.29662	-11.69767
5239.477	10.50556	-14.05420	14.52063	-11.65819
5243.521	10.60855	-13.86190	14.39911	-11.57475
5247.545	10.40711	-13.79369	14.77032	-11.60006
5251.522	10.42545	-13.76560	14.38351	-11.49288
5255.523	10.49159	-13.48718	14.20122	-11.43833
5259.526	10.95569	-13.25189	14.04269	-11.41986
5263.523	10.75773	-13.28587	14.19623	-11.63626
5267.493	10.74302	-13.32651	13.92407	-11.64024
5271.526	10.76875	-13.98554	13.91084	-11.40457
5275.478	10.53260	-13.77650	12.28720	-11.50404
5279.512	10.50909	-13.60931	11.96254	-11.50531
5283.552	-19.99372	-12.50992	11.51399	-11.46392
5287.524	-19.99372	-12.41947	14.38612	-11.69410
5291.493	10.68902	-13.89853	14.26709	-11.52325
5295.524	10.77574	-13.75492	13.95778	-11.53933
5299.524	10.66222	-13.22837	13.30559	-11.47209
5303.527	10.94141	-13.19671	11.67753	-11.28164
5307.524	10.86110	-14.16340	8.84225	-10.46514
5311.498	10.90444	-13.63812	15.19593	-12.00739
5315.528	10.49059	-13.46113	12.52504	-10.41061
5319.525	10.81204	-12.89138	13.68813	-11.16488
5323.524	8.75570	-12.67925	11.12056	-10.21730
5327.513	8.17150	-12.43389	11.02560	-9.85267
5331.526	6.85224	-12.79935	7.25682	-9.59364
5335.525	5.53080	-8.93168	6.17990	-9.26745
5339.525	4.78015	-10.03026	5.78720	-9.06666
5343.517	3.22161	-10.20069	3.81696	-8.72220
5347.533	2.88460	-9.92935	4.61191	-8.70292
5351.518	2.43057	-9.21642	3.91664	-8.64313
5355.525	2.05400	-10.48855	3.70480	-8.51074
5359.536	2.12114	-10.19940	3.84043	-8.56311
5363.525	2.00286	-10.60845	4.13075	-8.73089
5367.526	1.75805	-10.50148	3.89476	-8.67599
5371.528	1.78716	-10.56769	3.89523	-8.61151
5375.517	1.39867	-10.62408	3.80755	-8.57684
5379.527	1.54753	-10.46781	3.87168	-8.52112
5383.481	1.52069	-10.64144	3.87569	-8.61483
5387.525	1.46516	-10.59675	3.92092	-8.66860
5391.517	1.43602	-10.58318	3.90108	-8.72878
5395.528	1.20517	-10.41582	4.30201	-8.84896
5399.525	1.22122	-10.59400	4.13164	-8.70233
5403.526	1.04689	-10.39176	4.23799	-8.75693
5407.522	1.08301	-10.51147	3.96367	-8.74214
5411.535	1.15493	-10.17040	4.10251	-8.69826
5415.532	1.12286	-10.48587	4.11320	-8.62572
5419.499	1.10234	-10.29437	4.07582	-8.60632
5423.527	1.12690	-9.84621	4.05666	-8.64672
5427.528	0.89954	-10.04072	4.02925	-8.63177
5431.526	1.04992	-9.45698	4.15952	-8.67561
5435.518	0.96896	-10.00641	4.48041	-8.68640
5439.525	1.01769	-10.39363	4.14270	-8.65356
5443.528	1.03863	-10.02319	3.99783	-8.70325
5447.527	1.11566	-10.31332	4.10337	-8.74305
5451.526	1.12586	-10.32144	4.17327	-8.84942
5455.524	1.19544	-10.64545	4.41664	-8.78841
5459.530	1.13526	-11.21212	4.39745	-8.80930
5463.527	1.13774	-10.35780	4.52883	-8.87660
5467.530	1.22712	-10.02183	4.24500	-8.88399
5471.525	1.35755	-10.07540	4.49287	-8.97451
5475.494	1.35045	-9.97664	4.36668	-8.98663
5479.523	1.30203	-9.92585	4.60412	-8.97008
5483.528	1.31513	-10.02677	4.64771	-8.98430
5487.486	1.24773	-10.07804	4.65249	-8.99226
5491.528	1.25709	-10.17308	4.50868	-9.00613
5495.529	1.38190	-10.09909	4.57798	-9.04910
5499.528	1.32766	-9.90591	4.48115	-9.01804
5503.531	1.30186	-9.98324	4.66588	-9.05841
5507.529	1.19013	-10.29899	4.59477	-9.06491
5511.529	1.34735	-10.11912	4.60878	-9.09524
5515.515	1.26706	-10.30329	4.68905	-9.12022
5519.529	1.37020	-10.47330	4.45096	-9.11612
5523.529	1.19760	-10.40446	4.31035	-9.13631
5527.529	1.56122	-10.40865	4.57901	-9.11362
5531.528	1.50477	-10.51144	5.14702	-9.15821
5535.518	1.56863	-10.63573	4.52427	-9.16815
5539.484	1.49096	-10.50723	4.50034	-9.11649
5543.530	1.38786	-10.43621	4.78853	-9.19995
5547.531	1.57788	-10.59559	4.75701	-9.24739
5551.425	1.57042	-10.47154	4.48268	-9.21644
5555.530	1.47112	-10.50384	4.14700	-9.16968
5559.526	1.47479	-10.31367	4.65234	-9.25819
5563.529	1.45700	-10.17425	4.21160	-9.24129
5567.426	1.46405	-10.29804	4.53393	-9.24320
5571.530	1.45653	-10.11930	5.68258	-9.28980
5575.529	1.47866	-9.87944	4.63250	-9.28761
5579.530	1.48178	-10.03744	4.59603	-9.29795
5583.553	1.56003	-10.03036	4.74035	-9.30232
5587.531	1.48071	-9.45145	3.76211	-9.26142
5591.531	0.62985	-9.41445	2.20352	-8.81377
5595.530	-0.65712	-6.64430	0.41710	-8.65171
5599.526	-4.46021	-6.23842	-2.03987	-8.58852
5603.487	-4.40609	-5.92185	-3.07092	-8.08400
5607.531	-5.48339	-5.75569	-4.69637	-7.65308
5616.942	-8.29387	-3.28501	-7.12043	-7.48916
5621.940	-11.10670	-13.54751	-7.09605	-6.75126
5623.569	-9.57696	-3.04985	-7.96161	-5.64671
5627.531	-9.51787	-2.59720	-7.70821	-5.22868
5631.532	-9.34273	-2.52562	-7.57769	-5.15170
5635.520	-8.72423	-2.63199	-7.65580	-5.29226
5639.516	-8.84995	-2.48684	-7.69471	-5.36765
5643.521	-9.02077	-2.69109	-7.88580	-5.59965
5647.530	-9.17128	-2.89661	-7.73053	-5.73212
5651.430	-9.51966	-3.05608	-7.71535	-5.68546
5655.533	-9.33485	-3.20335	-7.71013	-5.48645
5659.531	-9.33778	-3.17206	-7.59017	-5.31365
5663.531	-8.92583	-3.25021	-7.74827	-5.26213
5667.427	-8.93508	-3.01941	-7.70784	-5.38857
5671.530	-9.30740	-2.65217	-7.51527	-5.21605
5675.535	-8.88227	-3.63302	-7.58625	-5.28486
5679.532	-9.55811	-3.39077	-7.55854	-5.14546
5683.428	-9.43557	-3.56863	-7.51830	-5.36621
5687.512	-9.03239	-3.59994	-7.56022	-5.30188
5691.533	-9.14689	-3.60133	-7.43871	-5.37802
5695.533	-8.89330	-3.47113	-7.49659	-5.36987
5699.429	-9.10489	-3.10514	-7.60758	-5.24901
5703.534	-9.11235	-3.46270	-7.54898	-5.41351
5707.535	-9.16622	-3.45511	-7.59380	-5.55629
5711.532	-9.02220	-3.17642	-7.51957	-5.52434
5715.396	-9.07303	-2.90323	-7.61421	-5.65002
5719.537	-9.00971	-3.45973	-7.67250	-5.66045
5723.515	-9.12290	-3.44634	-7.86698	-5.60139
5727.532	-8.96826	-3.49891	-7.60531	-5.75213
5731.436	-9.07530	-3.45951	-7.71211	-5.69909
5735.532	-8.94200	-3.37466	-7.79719	-5.77455
5739.533	-8.99881	-3.30122	-7.84579	-5.67400
5743.533	-8.92415	-3.30655	-7.66226	-5.72943
5747.429	-8.95259	-3.21938	-7.75814	-5.68743
5751.534	-9.03111	-2.75686	-7.70599	-5.67447
5755.533	-9.09040	-3.08978	-7.64310	-5.71234
5759.533	-9.00547	-3.23883	-7.66921	-5.62445
5763.430	-8.97012	-3.48603	-7.44603	-5.65437
5767.534	-8.95634	-3.35518	-7.58407	-5.65371
5771.535	-9.00687	-3.30751	-7.62199	-5.58325
5775.535	-9.02718	-3.28511	-7.68045	-5.57410
5779.434	-9.20354	-3.34486	-7.59417	-5.54045
5783.535	-9.20480	-3.26324	-7.53023	-5.58349
5787.552	-9.30505	-3.28878	-7.59337	-5.56169
5791.490	-9.43170	-3.42898	-7.58051	-5.61009
5795.431	-9.65247	-3.58731	-7.67355	-5.64037
5799.537	-9.43716	-3.42827	-7.72868	-5.57274
5803.536	-9.52656	-3.38967	-7.71888	-5.50459
5807.513	-9.47261	-3.38901	-7.67908	-4.61513
5811.418	-9.39926	-3.28340	-7.62050	-5.01345
5815.535	-9.36489	-3.40760	-7.53815	-4.90393
5819.534	-9.32985	-3.76076	-7.70231	-4.97202
5823.536	-9.89964	-4.09060	-7.68562	-5.28862
5827.435	-10.18502	-4.05391	-7.71686	-5.15541
5831.534	-9.32838	-3.26490	-7.72069	-4.99949
5835.535	-9.28149	-3.38816	-7.47131	-4.79323
5839.553	-9.22893	-3.79422	-7.38400	-4.86438
5843.432	-9.22438	-4.31458	-7.29750	-4.94807
5847.536	-9.77144	-4.31330	-7.57078	-4.94530
5851.525	-10.58517	-4.09585	-7.57537	-5.01805
5855.533	-9.78787	-3.57556	-7.45382	-5.29091
5859.433	-9.48845	-4.06398	-7.57217	-5.21991
5863.537	-9.51046	-4.31185	-7.57427	-5.30818
5867.535	-9.30068	-4.47265	-7.49010	-5.47787
5871.535	-9.19621	-4.15150	-7.49807	-5.37517
5875.431	-9.33413	-4.24040	-7.44852	-5.40951
5879.538	-9.33502	-4.24890	-7.49085	-5.24417
5883.535	-9.66154	-4.22080	-7.52098	-5.34373
5887.552	-9.60499	-4.09194	-7.53801	-5.45733
5891.436	-9.52309	-4.13322	-7.52735	-5.43607
5895.539	-9.43670	-4.11044	-7.67506	-5.32957
5899.412	-9.41105	-3.98080	-7.66095	-5.22218
5903.413	-9.51133	-3.89366	-7.68371	-5.04496
5907.402	-9.65975	-3.90725	-7.46285	-5.02712
5911.414	-9.45735	-3.81011	-7.60163	-4.91671
5915.413	-9.43013	-3.78452	-7.56032	-4.93850
5919.371	-9.31839	-3.64384	-7.71801	-5.09657
5923.410	-9.24361	-3.56693	-7.76304	-5.14222
5927.414	-9.23256	-3.57447	-7.65534	-5.02719
5931.415	-9.25821	-3.76834	-7.61199	-5.03623
5935.407	-9.32253	-3.71669	-7.58208	-5.08978
5939.403	-9.25258	-3.61328	-7.54998	-5.02636
5943.413	-9.37532	-3.63931	-7.55698	-4.93165
5947.413	-9.28219	-3.03272	-7.41265	-4.80625
5951.413	-9.19329	-2.51653	-7.70024	-5.18751
5955.405	-9.22975	-3.51168	-7.52130	-5.20562
5959.415	-9.16854	-3.71352	-7.65032	-5.24390
5963.413	-9.37825	-3.12368	-7.53444	-4.87416
5967.412	-9.37941	-1.85239	-7.67111	-4.61962
5971.403	-9.39578	-1.16706	-7.82146	-2.27806
5975.417	-9.40243	1.31781	-8.63554	-2.41914
5979.382	-9.43462	2.94593	-8.11206	-1.51691
5983.415	-9.44392	4.30342	-8.08783	1.16560
5987.405	-9.35788	4.56680	-8.48262	2.96335
5991.410	-9.29031	4.69632	-8.26072	3.22423
5995.417	-9.05287	5.00059	-8.33328	4.17310
5999.415	-9.41359	5.04729	-8.35046	4.73102
6003.405	-9.42863	5.23900	-8.24640	4.58581
6007.415	-9.29381	5.34594	-8.24273	4.55665
6011.415	-9.12943	5.41390	-8.12366	4.62647
6015.416	-9.33577	5.98173	-7.84586	4.71438
6019.426	-9.25860	6.72777	-7.74657	7.09254
6023.413	-9.26742	6.91526	-8.09092	5.58959
6027.414	-9.27905	6.00375	-8.40419	7.23980
6031.415	-9.31308	5.83409	-8.29309	7.01886
6035.406	-9.36957	5.86921	-8.37808	5.16336
6039.371	-9.35735	5.98864	-8.30898	5.08475
6043.417	-9.34007	6.40827	-8.48459	4.93786
6047.416	-9.33292	6.36539	-8.24886	4.71072
6051.412	-9.40905	6.09871	-8.31708	5.18216
6055.419	-9.51493	6.21080	-8.45766	5.00121
6059.417	-9.51124	6.46603	-8.44907	4.93421
6063.380	-9.60027	6.31728	-8.48134	5.08726
6067.405	-9.55536	6.38230	-8.54666	4.94699
6071.415	-9.52258	6.46606	-8.39095	4.82979
6075.416	-9.52463	6.39405	-8.41247	4.92418
6079.415	-9.29548	6.55664	-8.43707	4.97308
6083.405	-9.57003	6.44238	-8.44081	4.87358
6087.416	-9.71676	6.49454	-8.34873	4.85684
6091.417	-9.77240	6.42654	-8.28310	4.91573
6095.416	-9.77712	6.40836	-8.08859	4.90246
6099.440	-9.58120	6.39581	-7.69030	4.84025
6103.391	-9.35302	6.24832	-8.24055	5.13899
6107.418	-9.37204	6.35514	-8.34934	6.06345
6111.419	-9.47343	6.36000	-8.13437	5.60300
6115.415	-9.47159	6.34195	-8.29214	5.13422
6119.421	-9.58132	6.18100	-8.99486	5.07211
6123.418	-9.96528	6.14850	-8.65630	5.37684
6127.418	-9.69547	6.54981	-9.33471	8.22285
6131.435	-9.58345	7.44626	-8.64825	8.97213
6135.418	-10.79710	8.44563	-7.92498	11.89819
6139.420	-11.45915	9.28616	NaN	NaN
6143.413	NaN	NaN	NaN	NaN
6147.406	NaN	NaN	NaN	NaN
6151.437	NaN	NaN	NaN	NaN
6155.429	NaN	NaN	NaN	NaN
6159.373	NaN	NaN	NaN	NaN
6167.372	NaN	NaN	NaN	NaN
6171.373	NaN	NaN	NaN	NaN
6175.416	NaN	NaN	NaN	NaN
6179.417	NaN	NaN	NaN	NaN
6183.417	NaN	NaN	NaN	NaN
6187.416	NaN	NaN	NaN	NaN
6191.374	NaN	NaN	NaN	NaN
6195.418	NaN	NaN	NaN	NaN
6199.418	NaN	NaN	NaN	NaN
6203.416	NaN	NaN	NaN	NaN
6207.417	NaN	NaN	NaN	NaN
6211.418	NaN	NaN	NaN	NaN
6215.418	NaN	NaN	NaN	NaN
6219.418	NaN	NaN	NaN	NaN
6223.418	NaN	NaN	NaN	NaN
6227.423	NaN	NaN	NaN	NaN
6231.415	NaN	NaN	NaN	NaN
6235.381	NaN	NaN	NaN	NaN
6239.421	-5.83240	14.75087	NaN	NaN
6243.411	-5.58164	14.84822	NaN	NaN
6247.420	NaN	NaN	NaN	NaN
6251.420	1.72961	-3.98819	5.44638	-5.41887
6255.421	2.43630	-5.80502	0.39018	-7.16573
6259.375	1.61758	-5.90867	6.39712	-7.17980
6263.422	2.28886	-6.02814	4.39183	-7.04700
6267.443	-2.74623	-5.99664	3.80367	-6.46697
6271.385	-3.01284	-5.95796	0.73747	-5.96037
6275.420	-1.90148	-5.66789	0.47986	-5.83986
6279.420	0.46192	-5.77478	0.63823	-5.95108
6283.442	0.36921	-5.76385	1.15466	-6.27680
6287.421	0.71012	-5.28796	0.82106	-6.22501
6291.418	0.60461	-4.90910	1.01055	-6.09577
6295.422	0.13069	-5.89673	1.05694	-6.34382
6299.413	-0.84731	-5.67902	1.00092	-6.27024
6303.420	-2.40706	-5.43254	0.98514	-6.45634
6307.422	-0.54615	-5.83621	1.23228	-6.33239
6311.396	-0.19705	-5.84906	1.60980	-6.24890
6315.411	-0.02775	-5.39360	1.87934	-6.54647
6319.421	-0.33700	-5.32796	1.57471	-6.44805
6323.422	-0.63431	-4.99895	1.88648	-6.48919
6327.420	-0.45388	-4.70050	1.38232	-6.56675
6331.442	-0.60426	-5.05638	1.50924	-6.48474
6335.380	-0.98038	-5.56367	1.74501	-6.57916
6339.422	-0.67729	-5.89083	1.75272	-6.58043
6343.423	-0.73288	-5.93181	1.72227	-6.37713
6347.412	-0.64692	-5.83830	1.76743	-6.49281
6351.425	-0.57918	-6.05613	1.54609	-6.31992
6355.411	-0.70223	-6.19812	1.59028	-6.37703
6359.424	-0.74565	-6.29514	1.51893	-6.32202
6363.413	-0.66074	-6.35156	1.56888	-6.36728
6367.421	-0.84173	-6.09245	1.57858	-6.36868
6371.425	-0.83267	-6.04472	1.55011	-6.45266
6375.424	-0.59883	-6.06572	1.56531	-6.40645
6379.410	-0.61240	-6.21112	1.53022	-6.37631
6383.423	-0.61270	-6.24108	1.47479	-6.41491
6387.425	-0.71119	-6.06185	1.47499	-6.45089
6391.447	-0.74995	-5.97989	1.46884	-6.48633
6395.413	-0.72010	-5.60930	1.54562	-6.52313
6399.423	-0.64920	-5.40540	1.63931	-6.51244
6403.426	-0.61022	-5.25532	1.66239	-6.54874
6407.422	-0.54647	-4.93066	1.78213	-6.53098
6411.422	-0.45175	-4.50342	1.77930	-6.56227
6415.423	-0.59131	-5.48984	1.83496	-6.51287
6419.423	-0.72273	-5.89448	1.73859	-6.50595
6423.426	-0.70551	-6.39401	1.70323	-6.42370
6427.422	-0.92066	-5.75866	1.72406	-6.45367
6431.424	-0.91254	-5.36504	1.64246	-6.49386
6435.404	-1.02387	-5.54376	1.65272	-6.45675
6439.421	-1.13906	-5.54921	1.53327	-6.42683
6443.423	-1.00417	-5.54276	1.45931	-6.43082
6447.425	-1.13953	-5.47551	1.40251	-6.33368
6451.424	-0.96457	-5.59786	1.34135	-6.34294
6455.424	-1.10807	-5.73607	1.25364	-6.35143
6459.413	-1.20837	-5.89227	1.23464	-6.34883
6463.425	-1.26140	-5.91764	1.17972	-6.36812
6467.424	-1.14972	-5.86737	1.13402	-6.33067
6471.426	-1.29258	-5.68381	1.12792	-6.44024
6475.425	-1.26346	-6.10472	0.94301	-6.43618
6479.382	-1.14784	-5.81955	1.00360	-6.40797
6483.424	-1.33577	-6.11801	1.10579	-6.40310
6487.425	-1.24808	-6.22386	1.02955	-6.38937
6491.384	-1.29268	-6.06982	0.99201	-6.50332
6495.423	-1.25280	-6.02606	0.97343	-6.49722
6499.426	-1.25260	-6.13957	1.00223	-6.63914
6503.426	-1.24749	-6.22626	1.02690	-6.48527
6507.422	-1.26220	-5.89240	0.93348	-6.54968
6511.426	-1.21087	-6.38763	1.03171	-6.58453
6515.425	-1.23779	-5.93785	1.02955	-6.59756
6519.402	-1.23560	-5.99888	1.03459	-6.52938
6523.393	-1.29953	-6.28920	1.09837	-6.68061
6527.426	-1.20182	-6.34613	1.05180	-6.80773
6531.426	-1.20105	-6.35195	0.98650	-6.60527
6535.425	-1.18274	-6.53107	0.98005	-6.51889
6539.423	-1.25235	-6.74189	0.98296	-6.59385
6543.381	-1.19954	-6.18397	0.92728	-6.55914
6547.426	-1.07185	-6.24077	1.17401	-6.74956
6551.425	-0.84305	-6.20987	1.59028	-6.76514
6555.425	-0.80342	-6.01656	1.29598	-6.76241
6559.421	-0.85548	-5.84481	1.33795	-6.67651
6563.427	-0.86974	-5.71042	1.14632	-6.58593
6567.427	-0.86654	-5.40451	0.89101	-6.65024
6571.324	-1.04213	-5.34602	0.82446	-6.58408
6575.426	-0.60292	-5.85843	0.70389	-6.62435
6579.428	-0.53391	-5.71364	1.70348	-6.68225
6583.428	-0.55833	-5.69735	1.47938	-6.71113
6587.427	-0.57178	-5.86717	1.37265	-6.71131
6591.456	-0.55138	-5.80844	1.32242	-6.65526
6595.429	-0.48570	-5.78110	1.74531	-6.68762
6599.428	-0.46048	-5.78754	1.55358	-6.69916
6604.147	-0.35854	-5.87674	1.23409	-6.73206
6607.430	-0.31660	-5.55605	0.90761	-6.75253
6611.429	-0.26676	-5.98292	1.21678	-6.78936
6615.430	-0.68744	-6.03591	1.64489	-6.74701
6619.436	-0.46076	-6.08069	1.43119	-6.62881
6623.434	-0.26108	-5.92899	1.14459	-6.39347
6627.430	1.22866	-4.49524	3.77407	-6.63855
6631.429	2.57838	-4.44521	7.98396	-7.85130
6635.430	-1.66579	-5.75626	-3.31341	-6.97437
6639.430	-4.88242	-2.56633	4.35521	-6.34495
6643.411	NaN	NaN	NaN	NaN
6647.425	-20.38892	7.81609	NaN	NaN
6651.428	-20.14589	-12.06605	NaN	NaN
6655.428	-20.10358	-12.06922	NaN	NaN
6659.428	-20.07930	-12.07104	NaN	NaN
6663.429	-20.06345	-12.07222	NaN	NaN
6667.385	-20.05219	-12.07306	NaN	NaN
6671.428	-20.04376	-12.07369	NaN	NaN
6675.420	-20.03715	-12.07419	NaN	NaN
6679.430	-20.03180	-12.07459	NaN	NaN
6683.431	-20.02738	-12.07492	NaN	NaN
6687.394	-20.02595	-12.07502	NaN	NaN
6691.428	NaN	NaN	NaN	NaN
6695.428	NaN	NaN	NaN	NaN
6699.430	NaN	NaN	NaN	NaN
6703.430	NaN	NaN	NaN	NaN
6707.429	NaN	NaN	NaN	NaN
6711.431	NaN	NaN	NaN	NaN
6715.430	NaN	NaN	NaN	NaN
6719.429	NaN	NaN	NaN	NaN
6723.437	NaN	NaN	NaN	NaN
6727.388	NaN	NaN	NaN	NaN
6731.432	NaN	NaN	NaN	NaN
6735.406	NaN	NaN	NaN	NaN
6739.431	NaN	NaN	NaN	NaN
6743.425	NaN	NaN	NaN	NaN
6747.430	NaN	NaN	NaN	NaN
6751.430	NaN	NaN	NaN	NaN
6755.431	-1.64905	8.08542	-7.65624	11.29400
6759.432	-3.96960	6.72418	-7.11599	5.25397
6763.326	-0.34576	10.83771	-7.78981	5.90186
6767.431	-3.77478	6.66836	-0.05420	-4.94144
6771.428	-0.08979	7.92748	-0.67650	-0.96198
6775.431	4.43902	5.85601	0.06051	-0.93201
6779.327	1.05404	5.55936	-0.51619	-1.11221
6783.434	0.03810	4.37825	-0.14024	0.32495
6787.430	-3.00839	3.84996	0.16129	0.87186
6791.432	-4.09355	3.41376	0.03792	0.51084
6795.431	-2.68039	3.51566	-0.39884	0.90620
6799.433	-2.41871	2.62389	0.92659	0.62932
6803.434	-4.07789	2.25018	0.85679	1.53698
6807.432	-2.54781	3.32784	-0.57411	0.85644
6811.330	-3.72677	3.51981	0.95730	0.61473
6815.433	-0.86428	3.88492	-1.39383	1.64862
6819.433	-3.02762	3.77462	-0.64521	2.56199
6823.439	-2.36002	3.56186	-1.05218	1.37361
6827.434	-2.24641	3.72729	-1.11526	1.27727
6831.435	-1.97039	3.70327	-0.76905	1.32326
6835.433	-1.79681	3.52554	-0.92019	1.08427
6839.432	-2.29431	3.81090	-0.28242	1.10407
6843.434	-1.89466	4.08702	-0.85987	0.93643
6847.434	1.69790	3.57358	-0.68771	0.84902
6851.416	-1.90631	7.17899	-0.82116	1.22068
6855.432	-1.38260	7.21369	-0.11208	1.69479
6859.436	-0.91530	7.14137	-0.33325	1.05526
6863.435	-1.31032	3.87067	-1.21378	0.94332
6867.433	1.71429	3.49670	-0.90299	1.19246
6871.435	-1.19978	3.46814	-0.27436	1.26920
6875.332	-0.78498	3.38796	0.09644	1.15990
6879.435	-1.19142	3.46003	-1.91144	0.97189
6883.431	-1.20834	4.17959	-1.65875	0.91287
6887.436	-1.08721	3.61333	-1.19991	1.17743
6891.435	-2.83123	3.48557	0.03956	1.33441
6895.399	-1.20718	3.35812	0.30950	1.25384
6899.433	-1.23307	3.38707	0.02740	1.21154
6903.434	-1.05347	3.34512	-1.56558	1.50009
6907.432	-1.25939	3.55486	-1.58227	1.15320
6911.435	-1.08306	3.38498	-0.36700	1.24512
6915.390	-1.02863	2.34400	0.22135	1.11856
6919.435	-1.18478	2.70297	0.08172	2.31269
6923.300	-1.27733	3.04806	-0.16692	1.19879
6927.313	-1.31997	3.11417	-0.62560	1.12429
6931.309	-1.07423	3.25563	-0.47289	0.93913
6935.311	-0.84806	3.17572	-0.05085	1.19986
6939.328	-1.15694	3.34070	0.06835	0.93265
6943.300	-1.33574	3.16993	-0.10761	1.24494
6947.311	-0.94817	3.25566	-0.31498	1.19043
6951.311	-1.05577	2.87631	-0.51111	0.84557
6955.336	-1.05585	3.22400	-0.13513	1.26794
6959.311	-0.87302	3.43572	-0.11965	0.93526
6963.312	-1.88422	3.12092	-0.42122	1.03925
6967.313	-1.45043	3.15529	-0.60002	0.85316
6971.333	-0.76221	3.22305	-0.59875	0.84871
6975.312	-0.86550	3.38552	-0.19971	0.83792
6979.267	-2.30278	3.22786	0.03688	0.85736
6983.281	-1.56375	3.03265	0.07872	0.93375
6987.304	-1.43783	3.03741	-0.43663	0.85537
6991.314	-0.90793	2.94224	-4.78427	1.20267
6995.312	-0.58607	2.71828	-0.73871	1.08832
6999.311	-1.22717	2.72568	-7.10489	0.95956
7003.333	-1.26877	2.97543	-0.66325	1.45101
7007.311	-0.96544	2.99281	-0.19311	0.76237
7011.312	-1.39363	2.89865	-0.19857	0.73678
7015.313	-1.56372	2.49230	-0.36062	1.10563
7019.332	-1.49775	2.27644	-0.65560	0.58380
7023.293	-1.21846	2.80124	-0.58245	0.99332
7027.313	-1.22196	2.57855	-1.01454	1.30442
7031.313	4.63299	2.76935	-0.67005	0.80836
7035.303	3.81780	6.86884	-0.46411	1.01423
7039.313	1.13692	6.72054	-0.32873	1.00391
7043.311	0.92594	2.64337	0.48833	0.61524
7047.313	0.84530	1.75302	-0.29863	0.62490
7051.332	0.82111	0.41657	0.46954	-0.38711
7055.313	1.72185	1.34887	0.86084	-2.36619
7059.315	1.28589	-0.46083	0.83793	-2.70851
7063.313	1.27403	-1.09095	0.95038	-2.96877
7067.335	1.68481	-1.14445	1.24258	-3.24330
7071.314	1.52355	-1.05296	1.39044	-3.27921
7075.313	1.19698	-0.99204	1.04848	-3.02046
7079.313	1.51177	-1.18745	2.21665	-2.76106
7083.303	1.78637	-1.25653	1.34824	-2.65158
7087.312	1.66390	-1.29752	-0.08498	-7.22880
7091.314	0.70727	3.91546	1.44133	-2.99103
7095.315	1.62748	-1.47475	1.99079	-3.46139
7099.336	1.52694	-1.66031	1.36499	-3.37734
7103.270	1.71588	-1.68559	1.77687	-3.43147
7107.268	1.61768	-1.49615	1.75815	-3.53700
7111.317	1.83786	-1.55534	1.78200	-3.30008
7115.335	1.79460	-1.71594	1.52513	-3.19226
7119.314	1.69078	-1.86713	1.45361	-3.47650
7123.315	1.70559	-1.86275	1.69369	-3.57789
7127.317	1.48429	-1.86285	1.64332	-3.55087
7131.336	1.52727	-1.60052	1.65587	-3.64699
7135.315	1.64154	-1.77688	1.63970	-3.50918
7139.315	1.83571	-1.42338	1.68186	-3.66102
7143.316	1.48292	-1.57292	1.63539	-3.55041
7147.326	1.38205	-1.64125	1.82333	-3.52722
7151.304	1.64719	-1.68516	1.75374	-3.45221
7155.315	1.64166	-1.11448	1.77702	-3.48767
7159.317	1.48205	-1.59030	1.73695	-3.50443
7163.336	1.73951	-1.51311	1.87198	-3.47225
7167.316	1.43163	-1.51361	1.77233	-3.27215
7171.317	1.90093	-0.59057	1.41931	-3.36504
7175.318	2.43880	-1.12011	1.78315	-3.10027
7179.337	1.27123	-0.94013	3.34799	-3.07925
7183.318	0.79818	-0.69751	1.20802	-3.09088
7187.317	-0.29334	4.77320	0.27408	-3.15203
7191.305	2.23871	4.37204	1.26569	1.46748
7195.289	15.09899	2.25634	1.93529	2.92139
7199.315	NaN	NaN	NaN	NaN
7203.315	NaN	NaN	NaN	NaN
7207.316	NaN	NaN	NaN	NaN
7211.316	NaN	NaN	NaN	NaN
7215.315	NaN	NaN	NaN	NaN
7219.314	NaN	NaN	NaN	NaN
7223.314	NaN	NaN	NaN	NaN
7227.272	NaN	NaN	NaN	NaN
7231.298	NaN	NaN	NaN	NaN
7235.270	NaN	NaN	NaN	NaN
7239.316	NaN	NaN	NaN	NaN
7243.283	NaN	NaN	NaN	NaN
7247.318	NaN	NaN	NaN	NaN
7251.317	NaN	NaN	NaN	NaN
7255.316	NaN	NaN	NaN	NaN
7259.317	NaN	NaN	NaN	NaN
7263.318	NaN	NaN	NaN	NaN
7267.319	NaN	NaN	NaN	NaN
7271.306	NaN	NaN	NaN	NaN
7275.277	NaN	NaN	NaN	NaN
7279.319	NaN	NaN	NaN	NaN
7283.317	NaN	NaN	NaN	NaN
7287.320	NaN	NaN	NaN	NaN
7291.316	NaN	NaN	NaN	NaN
7295.318	-2.16530	10.08749	NaN	NaN
7299.276	-2.02815	11.24385	-1.56008	-1.21625
7303.337	-1.27259	8.72774	1.86895	-7.78645
7307.319	2.15239	3.27260	-0.78446	-6.47334
7311.319	2.36014	2.00603	-8.32211	-6.17753
7315.294	2.73969	-0.92397	-6.36405	-3.63654
7319.308	2.48232	-1.54878	-8.98414	-4.19311
7323.319	-0.66697	-4.19306	-5.62535	-3.33234
7327.323	-0.70955	-4.01927	-5.07407	-3.31499
7331.320	-0.12918	-3.11432	1.40668	-3.60760
7335.320	-3.18371	-2.87428	-0.97187	-3.13893
7339.318	-2.25679	-2.14886	-0.17556	-3.31315
7343.320	0.20112	-2.54599	0.23644	-2.91507
7347.320	0.29674	-2.02900	0.34310	-2.79681
7351.324	0.03688	-0.77935	0.55828	-3.60423
7355.317	-0.26743	-1.29361	0.19492	-3.72144
7359.309	-0.45996	-1.84619	0.16851	-3.92823
7363.320	0.00812	-1.85126	0.65186	-3.78067
7367.309	0.16154	-1.73480	0.38742	-3.71477
7371.320	0.24008	-1.77151	0.65819	-3.41314
7375.321	0.09743	-1.89768	0.89498	-3.88519
7379.321	0.17253	-1.86329	1.05997	-3.75148
7383.322	0.06842	-1.82465	0.74315	-3.92730
7387.322	0.03750	-1.90222	0.93396	-3.95021
7391.323	-0.14335	-2.09628	0.73881	-3.99232
7395.321	0.01824	-1.80963	0.79377	-3.93589
7399.312	-0.16973	-1.56917	0.71226	-3.99612
7403.323	-0.22850	-1.38019	1.83866	-4.06548
7407.319	-0.22735	-0.61226	1.07195	-4.00963
7411.321	-0.35194	-0.95885	0.86376	-3.96955
7415.312	-0.15265	-0.41338	0.69910	-3.93904
7419.322	-0.03231	-0.57193	1.12625	-4.06496
7423.322	-0.14928	-1.46091	0.84873	-4.11224
7427.327	-0.23351	-0.86796	0.71392	-4.34313
7431.320	-0.15474	-0.68426	1.89642	-4.28223
7435.323	-0.32910	-0.55732	0.91143	-4.10092
7439.303	-0.19512	-0.90197	0.86783	-3.74790
7443.321	-0.21629	-0.97284	0.95075	-3.11715
7447.313	0.08761	-0.98753	0.67099	-4.00036
7451.322	0.08723	-1.42113	0.76950	-3.79968
7455.334	0.06564	-1.36354	0.88131	-3.18506
7459.321	0.09111	-1.20744	0.82473	-3.34962
7463.322	-0.05599	-1.24196	0.88900	-3.15788
7467.321	-0.39318	-1.10982	0.79022	-3.49258
7471.322	-0.80228	-1.43909	0.72546	-3.13435
7475.324	-0.71295	-0.95683	0.59310	-3.18222
7479.279	0.12880	-0.65569	0.64672	-3.21238
7483.315	-0.08830	-0.60682	1.23441	-3.08879
7487.323	-0.27825	-1.13994	0.72965	-3.21606
7491.322	-0.25694	-1.09580	0.54453	-3.25967
7495.324	0.08180	-1.22942	0.36926	-3.25386
7499.324	-0.01429	-1.18471	0.56873	-3.35129
7503.323	0.01837	-1.21924	0.64186	-3.43944
7507.323	-0.35648	-1.39354	0.87463	-3.43505
7511.325	-0.00223	-1.46084	1.12420	-3.40486
7515.326	-0.11414	-1.70978	1.02980	-3.41155
7519.324	0.48847	-1.89441	0.67459	-3.41355
7523.303	0.10892	-1.91111	0.67796	-3.18667
7527.320	0.31481	-2.28773	0.81987	-3.25884
7531.325	0.22224	-2.62626	0.81851	-3.36278
7535.324	0.22261	-2.41717	0.88659	-3.33692
7539.324	0.21929	-2.01397	0.70387	-3.29271
7543.316	0.18224	-1.93930	0.65781	-3.31191
7547.325	0.13841	-1.98996	0.97777	-3.44750
7551.324	0.35273	-2.11493	0.90589	-3.45901
7555.324	0.24602	-1.81523	0.67047	-3.38998
7559.324	0.51334	-2.06645	1.03560	-3.37166
7563.323	0.35362	-2.00383	1.01119	-3.28839
7567.313	0.36814	-1.70975	1.61014	-3.31922
7571.324	0.26634	-1.65892	1.36320	-3.35714
7575.325	0.42951	-1.94491	1.37302	-3.28149
7579.324	0.45731	-1.81742	1.28832	-3.29550
7583.324	0.53160	-1.79129	1.31761	-3.35270
7587.325	0.66828	-1.59090	1.08634	-3.36715
7591.328	0.61362	-1.84671	0.83965	-3.34523
7595.326	0.52843	-1.56713	0.15015	-3.33215
7599.326	0.27897	-1.73673	0.80955	-3.36452
7603.327	0.20132	-1.65523	0.72757	-3.39863
7607.326	0.14399	-1.68773	0.69310	-3.50979
7611.284	0.08910	-1.75455	0.68042	-3.44372
7615.327	0.42996	-1.40485	0.70513	-3.44660
7619.325	0.25550	-1.44429	0.63144	-3.50726
7623.326	0.37422	-1.26705	0.72896	-3.53236
7627.327	0.30406	-1.34879	0.58081	-3.59788
7631.329	0.34298	-1.32917	0.65967	-3.59832
7635.324	0.34154	-1.25702	0.58719	-3.62124
7639.329	0.11925	-1.45798	0.71717	-3.71437
7643.324	0.29952	-1.30136	0.60491	-3.77898
7647.306	0.42921	-1.29853	0.59019	-3.78913
7651.325	0.34566	-1.33036	0.79280	-3.94850
7655.329	0.51178	-1.38646	1.37952	-3.89579
7659.328	0.50639	-1.36356	1.10591	-4.05641
7663.335	0.72672	-1.39534	1.35172	-4.06256
7667.327	0.69712	-1.46585	1.33639	-4.02111
7671.327	0.60456	-1.47866	1.06520	-3.99268
7675.327	0.62000	-1.59171	0.98303	-3.94877
7679.326	0.59104	-1.64353	0.85895	-3.92504
7683.328	0.59620	-1.52299	0.73260	-3.93162
7687.323	0.38229	-1.45912	0.52528	-3.88075
7691.322	0.24718	-1.40786	0.79707	-3.91845
7695.328	0.26031	-1.34544	0.96886	-3.92794
7699.326	0.25614	-1.43641	0.90468	-3.98313
7703.327	-0.20460	-1.50764	0.91949	-3.91251
7707.327	-0.23835	-1.53634	0.78697	-3.92187
7711.327	-0.35643	-1.64009	0.73258	-3.90016
7715.329	-0.51468	-1.56614	0.69806	-3.92054
7719.330	-0.85419	-1.56600	0.63928	-3.93557
7723.330	-0.84506	-1.41467	0.57838	-3.97672
7727.332	-0.76521	-1.54317	0.55659	-3.98524
7731.310	-0.90584	-1.48906	0.61449	-4.00805
7735.331	-0.99209	-1.56045	0.60002	-4.00816
7739.328	-1.02650	-1.64974	0.54091	-4.00684
7743.329	-0.99928	-1.59099	0.82419	-3.95277
7747.329	-0.98008	-1.61416	0.63667	-3.98051
7751.330	-1.05622	-1.56072	0.67025	-3.92516
7755.330	-0.98993	-1.55072	0.73660	-3.90780
7759.330	-0.93510	-1.51907	0.66228	-3.90477
7763.330	-0.81057	-1.52247	0.92701	-3.92049
7767.329	-0.72263	-1.58643	0.90748	-3.86536
7771.328	-0.58255	-1.58164	1.12444	-3.82068
7775.319	-0.50433	-1.59435	0.94701	-3.88204
7779.328	-0.46281	-1.59686	1.12057	-3.79593
7783.331	-0.42581	-1.59476	1.16979	-3.74241
7787.329	-0.36732	-1.91398	1.15208	-3.71633
7791.329	-0.27101	-2.05052	1.12080	-3.73851
7795.284	-0.19591	-2.25398	1.06282	-3.70986
7799.225	-0.16337	-2.16854	1.02280	-3.69566
7803.331	-0.19797	-2.23136	1.07919	-3.72743
7807.332	-0.20551	-2.09905	0.97576	-3.66587
7811.330	-0.36206	-2.04013	1.01925	-3.63905
7815.330	-0.38057	-2.10043	1.04932	-3.60939
7819.330	-0.34434	-1.97553	1.07083	-3.49235
7823.330	-0.45904	-2.05666	0.96785	-3.53972
7827.330	-0.15154	-2.28999	0.87925	-3.49354
7831.332	0.04678	-2.13413	0.79674	-3.51639
7835.330	0.28399	-2.21015	0.84657	-3.47699
