time (ms)	lx (deg)	ly (deg)	rx (deg)	ry (deg)
0.000	-0.97105	-3.02710	-3.25142	-4.38539
3.978	-4.03186	-1.84646	-4.94095	-4.25578
7.978	-1.99203	-0.78744	-0.50460	2.62769
11.979	-3.38800	-0.20678	-1.09969	0.87449
15.972	-4.40572	0.46553	NaN	NaN
19.977	NaN	NaN	NaN	NaN
23.977	NaN	NaN	NaN	NaN
27.976	NaN	NaN	NaN	NaN
31.979	NaN	NaN	NaN	NaN
35.978	NaN	NaN	NaN	NaN
39.935	NaN	NaN	NaN	NaN
43.978	-5.67651	4.80786	-4.34260	7.64005
47.980	-3.92094	8.00169	NaN	NaN
51.980	-1.31511	7.52074	1.58346	2.56898
55.980	-1.31384	7.15195	1.21298	-1.72886
59.980	-2.00790	5.49005	0.85421	-1.68678
63.951	-1.59442	2.23755	0.21914	-2.22292
67.979	-2.47893	1.50614	0.16452	-2.70440
71.980	-2.51623	-0.44801	1.46152	-2.18171
76.003	-1.84287	-0.65679	1.44081	-2.51763
79.982	-1.07168	-0.77384	-0.16993	-1.88668
83.981	-1.28470	-0.99901	1.07351	-2.55779
87.980	-1.60310	-0.94242	-3.29862	-2.70422
91.970	-1.23156	-0.18988	-3.02608	-2.26654
95.983	-2.48584	0.38700	-0.36300	-2.48830
99.982	-1.43391	1.00058	-0.70399	-1.96716
103.978	-1.07205	-0.33557	-0.75084	-2.27849
108.001	-2.49055	0.35302	-0.70831	-2.18299
111.980	-3.69983	0.03167	-0.78193	-1.94223
115.979	-1.79272	-0.19047	-0.88466	-2.27263
119.980	-1.68635	0.18105	-0.40211	-1.84951
124.000	-1.61979	0.26970	-0.84863	-2.21274
127.981	-1.61406	0.39757	-0.87810	-2.12539
131.980	-1.91139	0.26646	-3.13100	-2.09972
135.980	-1.41608	0.19761	-3.20924	-2.10673
139.984	-1.61109	0.17663	-2.75915	-2.01820
143.983	-1.38587	0.20889	-1.39798	-2.11223
147.946	-3.86235	0.30996	-1.41382	-2.69293
151.981	-3.76863	0.18735	-1.35343	-2.74904
156.003	-3.50551	0.11280	-0.98688	-3.27578
159.982	-3.38031	0.12773	-1.13920	-3.17410
163.983	-3.00460	1.23240	-0.90148	-2.50200
167.982	-2.30164	1.91113	-0.77220	-2.45685
171.979	-2.16337	0.55164	-0.81863	-2.52462
175.981	-2.25543	0.15114	-0.79327	-2.61135
179.983	-1.64067	0.34436	-2.61387	-2.76649
183.982	-1.68463	0.40049	-2.17916	-2.83980
188.008	-2.04746	0.88695	-2.54638	-2.83657
191.983	-1.57751	0.45615	-2.58455	-2.80766
195.983	-1.41462	0.20872	-2.04332	-2.76647
199.984	-3.77921	0.39679	-1.29611	-2.70536
204.003	-3.51394	0.59221	-1.41444	-2.65005
207.983	-1.81488	0.15289	-1.49989	-2.69781
211.981	-1.45663	0.27005	-0.50867	-2.80909
215.983	-1.19921	0.33941	-0.74903	-2.81940
220.007	-1.41048	0.63247	-1.25294	-2.80088
223.985	-1.66435	0.38052	-1.57096	-2.70042
227.981	-1.29797	0.60820	-1.16429	-2.68457
231.973	-1.40899	0.62435	-0.85265	-2.06771
235.977	-1.54926	0.89062	-2.48289	-2.82725
239.985	-1.36799	0.89161	-2.14342	-2.89587
243.987	-1.69108	0.72301	-1.99049	-2.91800
247.984	-1.58086	1.14185	-1.45539	-2.80644
251.984	-3.15703	0.94997	-0.72769	-3.05489
255.985	-4.69310	0.83782	-0.66893	-3.10072
259.984	-3.45648	0.75214	-0.56950	-3.07652
263.987	-3.47732	0.89141	-0.65565	-2.97949
267.988	-1.67715	0.73001	-1.05538	-3.11197
271.955	-1.65126	0.79241	-0.91512	-3.12067
275.984	-1.56409	1.10402	-0.62320	-3.16994
279.984	-1.65572	0.67700	-0.67910	-3.30917
284.006	-1.67318	0.79300	-0.51466	-3.28245
287.986	-1.67908	0.73021	-0.36288	-3.21943
291.985	-1.37729	0.69624	-0.45185	-3.17557
295.984	-1.62175	0.69092	-0.53036	-3.13322
299.982	-1.43468	0.41882	-0.55572	-2.97270
303.985	-1.40708	0.39286	-0.58344	-2.90037
307.986	-1.42662	0.56560	-0.73511	-2.71916
311.973	-1.46229	0.85027	-0.76853	-1.96971
315.974	-1.54217	0.85595	-0.97688	-2.06449
319.985	-1.48324	0.51854	-0.96440	-2.36922
323.947	-1.28906	0.61645	-0.81481	-2.40154
327.986	-1.43630	0.48608	-0.43874	-2.44685
331.991	-1.60449	0.11225	-0.79570	-2.30116
335.984	-1.70931	0.26721	-1.11904	-2.10980
339.986	-1.52434	0.01028	-1.15471	-1.95321
343.988	-1.50497	0.39864	-1.39770	-1.85419
347.992	-1.93113	0.53563	-1.45247	-1.47790
351.986	-1.61272	0.66201	-0.67074	-1.40837
355.986	-1.92575	0.69672	-1.07999	-1.54718
359.986	-1.60595	0.17462	-0.88679	-1.51551
363.991	-1.40204	0.21833	-1.06704	-1.57310
367.987	-1.26716	0.50385	-4.18240	2.96430
371.941	-1.75790	0.43646	-4.86069	3.17941
375.986	-1.24960	0.70636	-3.17698	-1.18168
379.992	-1.11038	0.25157	-0.63806	-1.60364
383.987	-1.41844	0.44503	-3.26770	-2.25722
387.948	-1.23077	0.64290	-0.57925	-2.36055
391.987	-1.13620	0.35425	-0.85768	-1.52285
395.972	-1.36600	0.37623	-6.29345	2.68326
399.989	-1.31548	0.69797	-0.74752	-1.30598
403.988	-1.04414	0.33672	-0.83726	-2.37263
407.987	-1.11665	0.55776	-3.19608	-2.79237
411.993	-1.04553	-0.06017	-0.75459	-1.93003
415.988	-0.99908	0.18408	-4.94450	2.52795
419.989	-1.15662	0.35862	-0.13913	-1.88023
423.988	-1.23315	0.16548	-1.82844	-2.72745
427.991	-1.15875	0.65856	-7.11831	1.40545
431.990	-0.89041	-0.19069	-3.86291	2.65983
435.984	-1.12501	0.01756	-1.05463	-1.82353
439.982	-1.22231	-0.04544	-0.57535	-2.40235
443.981	-0.77218	0.04152	-4.38428	2.01359
447.988	-1.05520	0.48362	-3.91240	2.92973
451.987	-0.83337	0.05759	-0.74972	-2.16479
455.992	-1.11822	0.13262	-7.36982	5.73377
459.981	-1.17002	-0.09838	-0.62863	-2.30402
463.989	-1.16607	-0.29336	-4.27691	8.63683
467.989	-1.05667	-0.11588	-1.56141	5.22387
471.991	-1.15744	-0.14365	-0.94874	-2.32858
475.992	-0.57091	-0.14593	-7.20519	6.23112
479.959	-1.06215	0.15888	-2.00623	8.48710
483.989	-1.15349	0.27853	-1.32240	-2.36483
487.990	-1.01739	-0.11136	-1.24756	-2.37780
491.994	-1.07937	0.50829	-2.05841	-2.41317
495.990	-0.97437	0.31057	-5.85512	6.26604
499.992	-1.18254	-0.06653	-4.62239	7.16780
503.990	-1.21526	0.22036	-5.81322	8.55817
507.993	-0.90341	0.80814	-2.14994	8.91158
511.991	-0.98410	0.36083	-5.35729	9.46809
515.993	-1.07624	-0.01578	-1.24942	-2.43781
519.976	-1.22020	0.25984	-5.44271	10.42339
523.950	-0.97316	-0.40177	-2.93195	-2.38769
527.990	-0.97130	-0.19929	-0.53813	-2.27640
531.991	-1.06567	0.31436	-0.83587	-1.92076
535.990	-1.15560	-0.00887	-5.71804	7.21643
539.993	-1.20889	0.15838	-5.14185	7.74500
543.989	-0.96601	-0.13837	-6.40883	8.83485
547.992	-0.93547	-0.33405	-6.82452	3.75440
551.993	-0.80858	0.07238	-7.11601	3.91127
555.996	-0.96919	-0.03324	-0.08153	-1.32785
559.990	-0.93917	0.20262	-0.01060	-1.70184
563.954	-0.93023	0.26841	-0.17057	-1.57101
567.993	-1.13615	0.30101	-0.23289	-1.33859
571.994	-1.50564	0.56411	-0.78975	-1.57288
575.992	-1.49646	0.56615	-1.47920	-1.57201
579.991	-1.51241	0.37583	-1.73373	-1.55330
583.993	-1.77278	0.40854	-1.91318	-1.53138
587.994	-1.92027	0.35879	-2.08880	-1.60767
591.991	-2.05107	0.46700	-2.08193	-1.58395
595.992	-2.11893	0.52501	-2.09876	-1.68708
599.992	-1.77286	0.63516	-1.38285	-1.51786
603.974	-1.61917	0.65106	-1.14317	-1.56048
607.994	-1.60995	0.51846	-1.34361	-1.55862
611.993	-1.86972	0.58603	-1.32957	-1.75229
615.992	-1.76286	0.47525	-0.86513	-2.06892
619.949	-1.53716	0.18705	-1.85323	-1.38757
623.992	-1.89146	0.68652	-1.74990	-1.61397
627.993	-1.70031	0.63126	-1.60474	-1.47873
631.993	-1.69936	0.41944	-1.33336	-1.52633
635.995	-1.42169	0.39756	-0.92520	-1.26453
639.972	-1.47211	0.50123	-0.84620	-1.38298
643.988	-1.30146	0.75217	-0.66270	-1.73944
647.986	-1.06453	0.34305	-1.18066	-1.39419
651.889	-1.14625	0.73257	-0.84421	-1.63997
655.993	-1.20946	1.03164	-1.15741	-1.33602
659.993	-1.01203	0.98576	-1.00700	-1.35017
663.995	-0.91165	0.98855	-0.97946	-1.61756
667.997	-0.77503	0.89024	-0.79640	-1.59068
671.993	-0.77890	0.68897	-0.69724	-1.84869
675.994	-0.59650	0.56808	-0.68881	-1.71430
679.995	-0.49029	0.42631	-0.87356	-1.82005
683.998	-0.49862	0.49059	-2.53503	-1.67252
687.965	-0.47033	0.53996	-2.82308	-1.37449
691.995	-0.70054	0.13437	-0.84478	-1.43431
695.994	-0.76109	0.37161	-0.84046	-1.29391
699.996	-0.78156	0.10046	-0.74067	-1.56361
703.951	-1.05726	0.57611	-0.68561	-1.66406
707.996	-1.07436	0.26696	-1.04377	-1.94256
711.995	-1.20750	0.30937	-1.33081	-2.17453
715.892	-1.24282	0.09898	-1.49031	-1.64733
719.996	-1.65113	0.43271	-0.92331	-1.38300
723.994	-1.73611	0.45696	-0.72439	-1.35633
727.983	-1.59060	0.51476	-0.70938	-1.38506
731.872	-1.60526	0.42917	-0.59744	-1.70282
735.995	-1.60501	0.51853	-0.40291	-1.78104
740.004	-1.51824	0.56195	-0.64977	-1.37857
743.995	-1.46137	0.52175	-0.48957	-1.50094
748.000	-1.38282	0.30794	-0.50250	-1.53803
751.996	-1.21643	0.37635	-0.31431	-1.47167
755.994	-1.17664	0.37278	-0.26302	-1.23120
759.995	-0.96909	0.41136	-0.27408	-1.22625
764.002	-0.83307	0.32186	-0.21780	-1.08435
767.996	-0.73005	0.41328	-0.11761	-1.17346
771.960	-0.41656	0.38659	-0.10652	-1.02283
775.997	-0.59300	0.45948	-2.74078	-0.86578
780.000	-0.40296	0.51341	-2.52845	-1.10192
783.996	-0.20435	0.65099	-0.26463	-1.35972
787.996	-0.63248	0.20114	-1.20514	-1.30419
791.998	-0.70811	0.30435	-0.81411	-1.29233
796.000	-0.77101	0.27003	-1.02357	-1.26101
799.996	-1.01625	0.31615	-0.72300	-1.28900
803.996	-1.05880	0.40412	-0.87071	-1.44043
807.998	-1.15841	0.28643	-0.65394	-1.44036
811.979	-1.19703	0.37275	-0.71948	-1.39085
815.997	-0.93078	0.25956	-0.53242	-1.34706
819.997	-0.89972	0.40876	-0.36933	-1.35283
823.953	-1.18783	-0.01356	-0.62037	-1.53150
827.894	-0.95098	0.01935	-0.64493	-1.56762
831.998	-0.72541	0.02301	-1.13275	-1.56642
835.872	-0.78975	0.11119	-0.95487	-1.29598
839.872	-1.27048	0.43405	-0.83553	-1.14333
843.897	-1.42191	0.68375	-0.46284	-1.20104
847.873	-1.35861	0.21138	-0.24587	-1.14578
851.871	-1.07656	0.05928	-0.15303	-1.45693
855.872	-0.54324	0.05509	-0.14327	-1.34034
859.895	-0.58863	-0.00286	-0.99978	-1.27478
863.872	-1.38012	0.40713	-0.71444	-1.63890
867.872	-1.16803	0.93800	-0.28687	-2.22645
871.872	-0.82374	0.73018	-0.43733	-1.85506
875.891	-1.20539	0.39322	-0.72109	-1.57464
879.875	-0.81421	0.19018	-0.36548	-1.78557
883.874	-0.63357	-0.10324	-0.24279	-1.93102
887.829	-0.66881	-0.11671	-1.08358	-1.86292
891.873	-1.13427	0.55023	-0.55989	-1.72740
895.873	-1.35685	0.67940	-0.96628	-1.53842
899.873	-1.32384	0.53986	-0.91495	-1.73938
903.832	-1.49376	0.74540	-0.61851	-1.86521
907.874	-1.27800	0.64470	-0.53659	-1.99799
911.875	-1.23687	0.56750	-0.43681	-1.96266
915.876	-0.89455	0.57949	-0.32925	-1.95620
919.874	-0.47386	0.69386	-0.19437	-1.91328
923.863	-0.06301	0.76961	-0.17834	-1.72527
927.875	-0.01348	1.01858	-0.30334	-1.84071
931.875	-0.99730	0.66836	-0.22892	-1.86686
935.877	-1.00970	0.15315	-0.13426	-1.95903
939.899	-0.61751	0.63175	-0.04978	-1.96656
943.837	-0.84637	0.07210	-0.02033	-2.06635
947.851	-0.77116	0.07156	-0.00891	-1.82989
951.829	-0.74990	-0.05809	0.14568	-1.78048
955.876	-0.74888	-0.09303	0.38047	-1.63378
959.876	-0.93013	0.22182	0.41432	-1.75716
963.876	-1.15731	0.86655	0.32191	-1.82472
967.877	-1.30295	1.09590	0.38536	-1.88319
971.900	-1.19356	0.47021	0.41293	-1.99083
975.875	-1.31354	0.30683	0.32814	-2.06468
979.874	-1.38952	0.09343	0.44981	-2.10699
983.851	-1.51487	0.10408	0.20517	-2.07116
987.899	-1.53094	0.01279	-0.29895	-1.80251
991.875	-1.59601	-0.08090	-0.25808	-1.97145
995.876	-1.56903	-0.14631	-0.59538	-1.53630
999.876	-1.60161	-0.23878	-0.65824	-1.57163
1003.873	-1.54262	-0.25431	-0.54632	-1.56856
1007.877	-1.51950	-0.25131	-0.55754	-0.93169
1011.877	-1.61364	0.07208	-0.36457	-1.11278
1015.876	-1.73353	0.01709	-0.34667	-1.17970
1019.901	-1.65133	0.06356	-0.08671	-1.19785
1023.877	-1.49904	0.27558	-0.37765	-1.33189
1027.866	-1.42459	0.21828	-0.06460	-1.36329
1031.878	-1.37213	0.29569	-0.42214	-1.34674
1035.897	-1.07061	0.19048	0.27135	-1.40577
1039.878	-0.91190	0.03426	-0.33496	-1.35599
1043.876	-0.99975	0.46278	-0.27930	-1.39742
1047.881	-0.75233	0.33339	-0.28682	-1.42871
1051.899	-1.44798	0.70235	-0.21251	-1.54752
1055.877	-1.61867	0.78380	-0.17089	-1.88201
1059.878	-1.51338	0.48296	-0.15178	-2.12139
1063.877	-1.44426	0.44227	-0.30808	-1.73829
1067.898	-1.40423	0.25453	-0.25341	-1.92015
1071.876	-1.02206	0.16803	-0.42916	-1.14591
1075.878	-0.82664	0.22334	-0.39105	-1.34669
1079.878	-1.01139	0.38885	-0.34600	-1.52324
1083.899	-1.54014	0.69956	-0.18315	-1.56145
1087.878	-1.36022	0.46784	-0.20698	-1.51064
1091.877	-1.31426	0.48723	0.09654	-1.67857
1095.878	-1.10824	0.36036	-0.42758	-1.36447
1099.901	-0.92269	0.18935	-0.34506	-1.51582
1103.881	-0.77603	0.28529	-0.28833	-1.85692
1107.859	-1.13667	0.49352	-0.11682	-1.98108
1111.871	-1.56570	0.83980	0.13813	-2.16980
1115.904	-1.28772	0.66494	-0.18559	-1.90400
1119.878	-1.26103	0.58831	-0.08510	-1.70733
1123.879	-0.98899	0.71745	-0.43604	-1.63677
1127.878	-0.16861	0.62826	0.02799	-1.54172
1131.900	-0.43743	0.82491	0.20110	-2.28790
1135.881	-1.10460	0.59863	0.60550	-2.38078
1139.833	-1.34423	0.78864	0.23031	-2.72179
1143.835	-1.14982	1.01562	-0.41301	-1.82078
1147.874	-1.06428	0.52262	-0.67851	-1.51027
1151.844	-1.45653	0.17359	-0.26398	-1.53917
1155.878	-1.39842	-0.18614	-0.11979	-1.60754
1159.888	-1.43858	0.50772	0.26617	-1.57535
1163.901	-1.59112	0.90570	-0.15538	-1.45140
1167.878	-1.33998	1.06768	0.04475	-1.52684
1171.879	-1.15769	0.89841	-0.77250	-1.44432
1175.879	-0.65538	1.11919	-0.33141	-1.42784
1179.900	-0.22919	0.85626	-0.38373	-1.49058
1183.879	-1.61885	1.06496	-0.35216	-1.50161
1187.879	-1.95557	0.90339	-0.10855	-1.48167
1191.878	-1.83293	0.67187	0.12136	-1.43801
1195.902	-1.52446	0.24753	-0.20882	-1.44422
1199.882	-1.14357	0.33191	-0.10359	-1.48843
1203.883	-1.30345	0.07483	-0.00804	-1.52565
1207.882	-1.52052	0.85405	-0.13694	-2.02952
1211.903	-1.50294	0.70765	-0.31558	-1.61581
1215.882	-1.35993	0.60374	-0.17397	-1.81762
1219.883	-1.23764	0.46747	0.10421	-1.89386
1223.882	-1.24141	-0.21773	0.27222	-2.11011
1227.904	-1.27056	0.08253	0.18370	-2.14414
1231.873	-1.18391	0.44758	0.04569	-2.12715
1235.871	-1.23506	0.38144	-0.33432	-1.75976
1239.881	-1.29377	0.39944	-0.45855	-1.96818
1243.904	-1.25275	0.34872	-0.01392	-2.12485
1247.881	-1.08733	0.32213	0.53203	-2.16076
1251.883	-1.00097	0.64849	0.28280	-1.96187
1255.881	-1.02863	0.54345	-0.14285	-1.63485
1259.900	-1.04778	0.45212	-0.59397	-1.41323
1263.888	-1.38525	0.30635	-0.15285	-1.26193
1267.883	-1.15756	0.07985	-0.14082	-1.16082
1271.881	-1.34175	0.13867	0.55999	-1.67552
1275.903	-1.23364	0.33185	0.42420	-1.49892
1279.882	-1.22055	0.68992	-0.29190	-1.21239
1283.881	-1.05719	0.60284	-0.33240	-1.49923
1287.883	-0.70766	0.55000	-0.39849	-1.63896
1291.902	-0.17377	0.48676	-0.43003	-1.51836
1295.882	-1.62187	0.51170	0.07552	-1.79144
1299.881	-1.89181	0.36384	0.21735	-1.74639
1303.883	-1.56702	0.29393	0.29915	-1.78004
1307.886	-1.22546	-0.07704	0.11309	-2.14070
1311.884	-1.04513	0.13670	-0.29644	-1.36240
1315.882	-1.04446	0.25620	-0.36546	-1.30622
1319.883	-1.66309	0.56901	-0.27947	-1.87956
1323.888	-1.51137	0.51436	-0.25845	-2.02323
1327.883	-1.22777	0.51584	0.23393	-1.82044
1331.884	-1.01692	0.64558	-0.21767	-1.62603
1335.883	-1.03049	0.12105	-0.33494	-1.57879
1339.875	-1.11499	0.30153	-0.34347	-1.68525
1343.884	-1.24848	0.69612	-0.28404	-1.76366
1347.883	-1.24592	0.59530	-0.03775	-1.33798
1351.887	-1.15729	0.50559	0.34583	-1.58134
1355.889	-1.04386	0.35461	-0.26627	-1.50279
1359.848	-0.98593	0.45379	-0.21107	-1.62034
1363.883	-0.98745	-0.28460	-0.33655	-1.64280
1367.885	-0.80022	-0.02288	-0.46979	-1.53737
1371.888	-1.11102	0.66801	-0.22125	-1.59422
1375.883	-1.17443	0.21430	0.47907	-1.61349
1379.884	-1.17939	0.28968	0.14878	-1.64560
1383.884	-0.98489	0.21648	0.16206	-1.69771
1387.875	-1.08341	-0.25232	-0.38087	-1.73934
1391.884	-0.79399	-0.42070	-0.51220	-1.87239
1395.884	-0.99345	0.55806	-0.57590	-1.88510
1399.859	-1.17793	0.83703	-0.33938	-1.93612
1403.856	-1.26832	0.75161	0.57362	-1.99061
1407.886	-1.14858	-0.12653	0.48292	-1.77184
1411.885	-0.81205	0.11042	0.23433	-1.64676
1415.884	-1.16863	0.11928	-0.53813	-1.20011
1419.890	-0.98708	-0.59438	-0.65091	-1.44344
1423.886	-0.81883	-0.48157	-0.74727	-1.57781
1427.885	-1.05195	0.29588	-0.59287	-1.50131
1431.886	-1.59360	1.01253	-0.53217	-1.50123
1435.890	-1.30188	0.70277	0.54486	-1.63106
1439.886	-1.06937	0.14159	0.09870	-1.22306
1443.877	-1.18061	0.20347	0.29141	-1.40862
1447.886	-1.53240	0.13928	0.02417	-1.28394
1451.893	-1.38116	0.19064	-0.25838	-1.47562
1455.888	-1.41779	0.45596	-0.12975	-1.54365
1459.887	-1.29348	0.64469	-0.14456	-1.58772
1463.887	-1.25684	0.70104	-0.02660	-1.75142
1467.890	-1.24699	0.93375	-0.08798	-1.81293
1471.889	-1.15473	1.02533	-0.05418	-1.87480
1475.889	-1.04225	1.07735	-0.10920	-1.78801
1479.900	-0.95217	1.15609	-0.15973	-1.73999
1483.889	-0.89751	1.37100	-0.24763	-1.84531
1487.885	-0.95331	1.50759	-0.29927	-1.81887
1491.887	-0.81220	1.54695	-0.33759	-2.15533
1495.885	-0.81471	1.61364	-0.32838	-2.19144
1499.890	-0.74595	1.59355	-0.41504	-2.33620
1503.886	-0.69005	1.70961	-0.50364	-2.35838
1507.887	-0.66208	1.79050	-0.54143	-2.05522
1511.887	-0.67796	1.79156	-0.58994	-1.44683
1515.777	-0.66384	1.83138	-0.62548	-1.58304
1519.889	-0.64404	1.82052	-0.65225	-1.47465
1523.845	-0.57153	1.73611	-0.79153	-1.31451
1527.885	-0.50771	1.75617	-0.73893	-1.41384
1531.891	-0.52629	1.66917	-0.80203	-1.75790
1535.888	-0.52989	1.52372	-0.78273	-1.88140
1539.888	-0.53892	1.44195	-0.78010	-1.58892
1543.889	-0.55863	1.16653	-0.73377	-1.59346
1547.891	-0.58461	1.00378	-0.71136	-1.64861
1551.892	-0.59714	0.63421	-0.70392	-1.75566
1555.887	-0.60754	0.60865	-0.81094	-1.71470
1559.891	-0.62049	0.46238	-0.90036	-1.72179
1563.892	-0.72637	0.37427	-0.95095	-1.88491
1567.886	-0.81739	0.46117	-0.79208	-1.85789
1571.890	-0.85503	0.33681	-0.86550	-1.84524
1575.844	-0.84151	0.33448	-0.61878	-1.82055
1579.787	-0.87183	0.44673	-0.60469	-1.66898
1583.890	-0.90607	0.44272	-0.57736	-1.38023
1587.889	-1.00782	0.32858	-0.56935	-1.19923
1591.889	-1.10700	0.35999	-0.59687	-1.19401
1595.892	-1.20480	0.56826	-0.57047	-1.20532
1599.889	-1.29802	0.35485	-0.52416	-1.32449
1603.891	-1.11782	0.41976	-0.47473	-0.97354
1607.866	-0.23989	0.47448	-0.37841	-1.10416
1611.787	-0.41341	0.44741	-0.25292	-1.16456
1615.891	0.04877	0.40138	-0.11327	-1.32320
1619.891	-0.33583	0.38107	-0.01224	-1.50971
1623.890	-0.20440	0.30875	-0.02931	-1.92717
1627.784	-0.48249	0.12618	-0.09227	-2.22874
1631.891	-0.74235	0.10965	-0.26748	-2.35085
1635.848	-0.45651	0.22555	-0.25602	-2.36467
1639.846	-0.48694	0.21302	-0.37710	-1.93346
1643.788	-0.57590	0.36158	-0.28399	-2.01704
1647.880	-0.34643	0.37822	-0.45924	-2.12498
1651.882	-0.51428	0.31694	-0.41221	-2.23302
1655.891	-0.75729	0.25003	-0.58071	-2.14811
1659.895	-0.81540	0.43998	-0.35035	-2.25683
1663.892	-0.99452	0.48475	-0.44512	-1.91783
1667.890	-1.27696	0.63404	-0.54545	-1.82040
1671.891	-1.03109	0.78451	-0.58883	-1.83873
1675.790	-0.71543	0.91311	-0.46262	-1.94982
1679.891	-0.64709	0.90527	-0.46346	-1.81705
1683.892	-1.01588	0.36460	-0.42060	-1.85687
1687.898	-0.79176	0.50607	-0.37745	-2.05482
1691.894	-0.54495	0.85694	-0.31714	-2.07962
1695.891	-0.25329	0.32942	-0.25522	-3.29632
1699.890	-0.13744	-0.87708	-0.19273	-3.63544
1703.891	-0.01209	-1.32196	0.03092	-3.72938
1707.894	0.01804	-3.30717	0.49793	-3.85306
1711.891	-0.08522	-3.55089	0.22882	-3.96967
1715.892	0.01003	-2.58420	0.65898	-4.08147
1719.895	0.00432	-2.01578	0.94371	-4.07080
1723.895	0.02382	-2.47857	0.86359	-4.46655
1727.893	0.18770	-2.26887	0.78282	-4.41643
1731.875	0.19832	-2.47449	0.95571	-4.51906
1735.890	0.19859	-2.03701	0.95003	-4.60913
1739.897	0.20524	-2.20967	1.04079	-5.05637
1743.893	0.11922	-2.50808	0.96993	-4.48973
1747.892	-0.10798	-2.35043	1.00055	-4.48421
1751.895	-0.24197	-2.08681	0.99065	-4.40554
1755.792	-0.31831	-2.01895	1.00521	-4.48013
1759.893	-0.23242	-1.81575	1.00797	-4.46511
1763.863	-0.14935	-2.09039	1.02637	-4.43463
1767.895	-0.22529	-2.20969	1.04689	-4.32891
1771.897	-0.14600	-2.17243	0.99499	-4.35865
1775.892	-0.00769	-2.42080	1.25138	-4.44115
1779.893	0.02541	-2.51848	0.65335	-4.32552
1783.894	-0.01015	-2.58846	0.74568	-4.31360
1787.897	-0.11659	-2.61524	0.58741	-4.23143
1791.892	-0.14920	-2.54704	0.13277	-4.25228
1795.893	0.13910	-2.34278	1.16099	-5.04911
1799.894	0.89049	-2.76326	1.36839	-4.41783
1803.895	1.30193	-2.72696	1.05235	-4.49722
1807.893	3.66258	-2.96374	3.14444	-5.53270
1811.894	5.85561	-3.25007	3.41758	-5.14853
1815.893	6.39548	-4.38156	3.95686	-4.91557
1819.898	7.30188	-5.01674	4.62702	-5.20611
1823.849	8.19757	-5.14879	4.81796	-6.15080
1827.896	8.70941	-5.10149	6.44118	-5.29351
1831.893	10.44780	-5.70782	8.16445	-6.31949
1835.898	11.38037	-6.43008	8.32976	-5.69354
1839.894	12.49218	-6.82356	8.59330	-6.50888
1843.895	11.24998	-6.79551	8.52845	-6.79282
1847.895	11.41089	-6.93807	8.71225	-6.29229
1851.794	11.02772	-6.74671	9.15052	-7.52115
1855.771	9.51956	-5.37663	8.69239	-7.07681
1859.770	10.38809	-5.95653	8.53952	-7.93512
1863.735	10.43899	-6.01184	8.73320	-6.86975
1867.740	10.23368	-6.91347	9.73658	-6.73232
1871.771	10.14292	-6.23051	9.44962	-7.06729
1875.770	10.22687	-5.75503	8.89809	-6.33273
1879.770	10.00451	-5.66895	9.06964	-7.28339
1883.768	10.08779	-5.91675	9.15040	-7.44488
1887.772	10.16663	-5.57714	9.20238	-7.19998
1891.771	10.54409	-7.01679	8.96988	-7.11353
1895.772	10.02456	-5.54451	8.96324	-6.99471
1899.798	10.08168	-5.68636	9.05611	-6.93633
1903.771	9.90395	-5.93267	9.37288	-7.01436
1907.765	9.76956	-6.19938	9.32497	-7.08509
1911.771	9.52258	-6.27077	9.53941	-7.30161
1915.770	9.53035	-6.48188	9.31180	-7.46571
1919.771	9.64719	-6.41697	9.32702	-7.63759
1923.772	9.97274	-6.51600	9.05831	-7.58165
1927.771	9.91717	-6.47126	9.36194	-7.62040
1931.763	9.90195	-6.23649	9.42134	-7.49098
1935.771	9.93417	-6.32945	9.33797	-7.22691
1939.775	9.31054	-6.23796	9.40885	-7.13681
1943.769	9.45911	-6.38863	9.49907	-7.31056
1947.795	9.23311	-6.22900	9.53161	-7.37392
1951.777	9.07712	-6.05373	9.60237	-7.53031
1955.728	9.50226	-6.08881	9.75153	-7.85579
1959.775	9.84751	-6.08401	9.69687	-7.61475
1963.765	9.46568	-6.18196	9.80081	-7.46640
1967.774	9.46054	-5.51867	9.90303	-7.43959
1971.772	9.68279	-6.06430	9.86348	-7.49713
1975.774	9.57119	-5.74195	9.87085	-7.46650
1979.795	9.63076	-6.06366	9.98446	-7.59736
1983.775	9.73318	-5.98455	10.03592	-7.76571
1987.749	9.76432	-5.98560	10.12601	-7.82998
1991.774	9.90366	-6.14704	10.31854	-7.89499
1995.796	9.96289	-6.25386	10.19113	-7.76107
1999.780	10.02398	-6.24182	10.29579	-7.74846
2003.772	9.96665	-6.15839	10.25216	-7.70485
2007.773	10.32436	-6.26803	9.51918	-7.82138
2011.772	10.14881	-6.16324	9.25108	-7.80939
2015.760	9.08072	-5.88986	10.34117	-7.91244
2019.775	7.84725	-6.36488	8.65501	-7.78952
2023.730	7.11667	-6.10958	8.56129	-7.61544
2027.785	5.10263	-5.96133	5.40636	-7.38239
2031.764	4.26376	-5.80022	4.21782	-7.29906
2035.773	3.33349	-5.70737	3.48603	-7.07668
2039.774	2.86972	-5.46516	3.08401	-7.20595
2043.771	1.53391	-5.73142	2.07090	-7.15589
2047.776	-0.10428	-5.17894	1.11499	-6.95779
2051.775	-0.42244	-5.22985	1.03977	-6.88226
2055.776	-0.59513	-5.24585	2.37781	-6.95564
2059.772	-0.61977	-5.19689	1.66046	-6.92573
2063.775	-0.63583	-5.23738	2.35001	-6.95135
2067.775	-0.50039	-5.30051	2.70357	-7.09527
2071.741	-0.06418	-5.18398	3.14533	-7.22734
2075.773	-0.07696	-5.23634	2.81263	-7.29541
2079.777	0.23467	-5.30000	2.53105	-7.33449
2083.776	0.37988	-5.12326	2.37684	-7.21633
2087.775	0.35352	-5.01925	2.61640	-7.37145
2091.772	0.46205	-5.14990	2.63584	-7.42500
2095.777	0.48756	-5.19570	2.37491	-7.30468
2099.776	0.60826	-5.30314	2.17048	-7.31039
2103.776	0.63158	-5.41827	-1.83290	-7.39682
2107.783	0.56970	-5.49511	-1.89942	-7.39491
2111.756	0.59265	-5.55778	-1.86449	-7.41291
2115.775	0.18164	-5.59864	-1.84681	-7.42529
2119.775	-0.02107	-5.70323	2.18116	-7.43421
2123.765	0.12925	-5.32097	2.34072	-7.32765
2127.777	0.06237	-5.58761	2.71446	-7.46985
2131.774	0.13029	-5.57153	2.74809	-7.51170
2135.778	0.17000	-5.55862	2.69950	-7.50146
2139.734	0.12774	-5.59346	3.22195	-7.59591
2143.768	0.03067	-5.63856	3.24509	-7.53949
2147.777	0.12223	-5.27133	3.07946	-7.54946
2151.777	0.86017	-4.98703	3.00522	-7.49632
2155.802	-0.16342	-4.05049	2.89653	-7.02773
2159.776	-0.06110	-4.20427	3.64543	-7.18932
2163.777	-4.08964	-2.42167	12.32047	-7.86249
2167.777	5.25704	1.71924	12.80792	-7.71122
2171.798	-20.05250	13.34404	2.90725	6.56335
2175.778	-20.02302	-12.07524	NaN	NaN
2179.778	-20.01316	-12.07598	NaN	NaN
2183.777	-20.00821	-12.07634	NaN	NaN
2187.775	-20.00518	-12.07657	NaN	NaN
2191.776	-20.00315	-12.07672	NaN	NaN
2195.752	-20.00168	-12.07683	NaN	NaN
2199.775	-20.00054	-12.07692	NaN	NaN
2203.778	-19.99966	-12.07698	NaN	NaN
2207.736	-19.99892	-12.07704	NaN	NaN
2211.802	-19.99832	-12.07708	NaN	NaN
2215.778	NaN	NaN	NaN	NaN
2219.734	NaN	NaN	NaN	NaN
2223.779	NaN	NaN	13.75882	-3.84737
2227.779	-10.17170	11.95310	16.35523	-3.35760
2231.780	15.12374	2.04549	15.83783	-4.90553
2235.780	17.14680	1.68569	19.80258	-1.99367
2239.798	17.18262	1.52411	16.53238	-1.71035
2243.778	13.37336	1.81994	10.01688	-1.14941
2247.778	13.45169	1.68650	9.90065	-1.62615
2251.778	4.14692	0.95001	10.21548	-1.21803
2255.778	4.62439	1.67089	9.74998	-0.72487
2259.779	8.43406	1.74349	9.65553	-0.26942
2263.778	8.17131	1.50041	9.07499	-0.23186
2267.780	8.34822	1.35330	9.34111	-0.28021
2271.772	10.44391	1.09149	9.20255	-0.16420
2275.781	9.81200	1.12852	9.16329	-0.06817
2279.748	9.19418	1.13053	9.34394	-0.47366
2283.778	9.03084	0.96447	9.27482	-0.45641
2287.778	9.00791	0.96952	9.27066	-0.47692
2291.778	8.77817	0.95169	9.17749	-0.28701
2295.780	8.78561	1.00393	9.20550	-0.26101
2299.781	8.84329	1.06865	9.01980	-0.31457
2303.777	8.86858	1.11933	9.04362	-1.15662
2307.781	8.87571	1.18322	9.12268	-0.66472
2311.781	8.77972	1.06820	8.90962	-0.54243
2315.781	8.74265	1.15752	9.02626	-0.52969
2319.772	8.76913	1.02936	8.96644	-0.52047
2323.742	8.71562	1.10074	9.04827	-0.53496
2327.782	8.71239	1.17765	9.10441	-0.58723
2331.781	8.73742	1.22513	9.19834	-0.84415
2335.783	8.89208	1.23477	9.65358	-0.75837
2339.782	8.77296	1.05383	9.14022	-0.97210
2343.780	8.57228	1.05673	8.94535	-0.92293
2347.790	8.61069	1.08012	8.86936	-0.68806
2351.780	8.67609	0.94178	9.03665	-0.67712
2355.784	8.74775	0.90749	9.00268	-0.41315
2359.778	8.68756	0.90177	9.18472	-0.39194
2363.775	8.79368	0.90547	9.55256	-0.92222
2367.781	9.23115	0.90511	9.61542	-0.91828
2371.780	8.85923	0.86696	9.20439	-0.96920
2375.782	8.63558	0.86712	9.05478	-0.76515
2379.781	8.60164	0.81669	9.01808	-0.49294
2383.773	8.42860	0.80711	8.87755	-0.96515
2387.783	8.48476	0.82372	8.89339	-0.85633
2391.784	8.45366	0.82691	8.91677	-0.63046
2395.783	8.52588	0.83302	9.06088	-0.48392
2399.773	8.39098	0.85580	8.99641	-0.59712
2403.757	8.41546	0.90834	9.03101	-0.61628
2407.782	8.31858	0.89954	8.98552	-0.46842
2411.783	8.36676	0.91457	8.94329	-0.35448
2415.783	8.30235	0.86905	8.93435	-0.40422
2419.783	8.33382	0.85959	8.94322	-0.37205
2423.785	8.33996	0.80980	8.94096	-0.19729
2427.784	8.31455	0.83849	8.98811	-0.18801
2431.774	8.31394	0.82212	8.95569	-0.26718
2435.785	8.30753	0.78049	8.96109	-0.37722
2439.784	8.32082	0.74150	9.00547	-0.49094
2443.784	8.33639	0.77686	8.97097	-0.36996
2447.784	8.36608	0.70827	8.94167	-0.22735
2451.792	8.52977	0.70011	8.92999	-0.39929
2455.742	8.47515	0.73213	8.92072	-0.60674
2459.774	8.62891	0.76434	8.99731	-0.63560
2463.778	8.76884	0.77009	9.08694	-0.89039
2467.784	8.82133	0.74747	9.09638	-1.11309
2471.783	8.51729	0.71198	9.03052	-0.92770
2475.783	8.85933	0.75905	9.32932	-1.02217
2479.783	9.10901	0.75745	8.90330	-0.50596
2483.784	9.56762	0.85254	9.40332	0.73270
2487.784	10.59488	1.29853	9.57768	0.86101
2491.787	12.09854	1.87544	11.33562	2.12356
2495.776	11.63718	3.55567	11.90728	2.03145
2499.784	12.05758	3.86872	12.03406	2.77656
2503.784	11.81617	4.51800	12.18789	4.18039
2507.785	11.02187	5.26793	12.09975	4.53992
2511.789	11.18902	5.55015	11.95439	4.75010
2515.784	11.08017	5.48727	11.96961	4.67067
2519.786	11.16533	5.61372	12.08131	3.96793
2523.747	11.33819	5.46637	12.10108	3.46460
2527.682	11.52243	5.48352	12.13899	3.88518
2531.787	11.55757	5.44486	12.11989	3.69093
2535.786	11.51492	5.51442	12.12504	3.71353
2539.785	11.51047	5.51656	12.11890	3.88054
2543.787	11.39196	5.47037	12.09315	3.78352
2547.785	11.47193	5.50585	12.04429	3.65617
2551.786	11.49038	5.49212	12.00445	3.62541
2555.795	11.55247	5.44269	12.05824	3.59968
2559.788	11.50370	5.48472	12.09126	3.54716
2563.788	11.54859	5.50375	12.08962	3.52200
2567.783	11.55907	5.52198	11.99899	3.72780
2571.781	11.57203	5.55730	11.99493	3.67594
2575.679	11.58541	5.53557	12.07557	4.39916
2579.786	11.58956	5.44321	12.08181	4.45193
2583.788	11.56410	5.40420	12.16852	4.63288
2587.786	11.61256	5.31967	12.11750	4.80890
2591.687	11.55490	5.11594	12.03622	4.78637
2595.787	11.54370	4.85901	12.00400	4.62171
2599.787	11.57546	4.88089	11.86823	4.61814
2603.789	11.59665	4.87286	11.95399	4.75974
2607.688	11.62125	4.66081	11.99647	4.67387
2611.761	11.65601	4.57159	11.91766	4.54800
2615.790	11.65939	4.57289	11.96840	4.28233
2619.787	11.70330	4.56324	11.94774	4.04061
2623.747	11.70468	4.42340	11.90243	4.33559
2627.788	11.73583	4.41156	11.90186	3.87802
2631.788	11.88882	4.25105	11.91075	4.10555
2635.764	12.03747	4.18859	12.04991	3.90222
2639.790	11.99122	4.36805	12.05563	3.79501
2643.790	12.02705	4.39166	12.23817	3.90379
2647.788	12.03095	4.45388	12.48343	3.87158
2651.777	11.97140	4.65760	12.72889	3.84102
2655.793	12.00091	4.30835	12.82866	3.76693
2659.797	11.99384	4.36721	12.93278	3.95436
2663.787	11.94783	4.53858	12.70253	3.83203
2667.787	11.82216	4.58825	12.76088	3.90700
2671.688	11.74408	4.73872	12.69096	4.07765
2675.789	12.05986	4.69996	12.74107	4.40272
2679.786	12.10829	4.74395	12.62632	4.49597
2683.787	12.05160	4.69426	12.45589	4.56522
2687.794	12.07718	4.64662	11.83821	4.43187
2691.788	12.29313	4.64035	12.17760	4.35674
2695.788	12.11845	4.61651	12.20619	3.69263
2699.790	12.12364	4.58103	11.90585	3.72489
2703.794	11.82632	4.60498	12.16413	3.41315
2707.790	11.46056	4.60939	12.00481	3.67004
2711.791	11.88097	4.65842	11.91992	4.86987
2715.790	12.05943	4.66520	11.96422	3.53282
2719.794	13.66599	1.33359	11.39487	4.83524
2723.791	9.27687	4.89913	8.49673	5.99354
2727.791	8.88780	5.44531	7.86705	6.21674
2731.791	6.59060	5.83240	5.76932	6.01474
2735.794	5.00095	6.48296	3.82079	6.29984
2739.791	4.26015	7.36255	2.11095	6.01277
2743.790	4.85901	7.50495	3.06729	6.84654
2747.790	4.80408	7.69918	2.35979	6.28510
2751.794	4.71878	7.80535	2.20376	6.20063
2755.789	4.70887	7.77797	2.04270	6.23681
2759.791	4.58580	7.77958	2.02862	6.24712
2763.791	4.20047	8.09367	2.01226	6.18578
2767.802	3.91509	8.03323	2.79186	6.31881
2771.791	3.84204	8.08148	3.10322	6.67086
2775.788	3.85736	8.06933	2.42919	6.15553
2779.783	3.65270	8.07203	2.38001	5.99944
2783.793	3.63505	8.01940	3.61191	6.83830
2787.792	3.57562	7.95889	3.24271	6.19185
2791.791	3.55463	7.87620	3.38852	6.43026
2795.792	3.48192	7.79046	3.41451	6.41170
2799.795	3.47208	7.71824	3.46924	6.33578
2803.794	3.45007	7.57250	3.54989	6.17857
2807.792	3.44550	7.48141	3.41236	5.93368
2811.791	3.44236	7.44037	3.28355	6.06176
2815.796	3.47604	7.36512	3.36461	6.08949
2819.762	3.50620	7.40943	3.32115	5.99438
2823.748	3.51898	7.33983	3.40044	5.91761
2827.794	3.55716	7.30918	3.28504	6.01297
2831.797	3.54954	7.27064	3.27536	6.00584
2835.792	3.57234	7.28898	3.20157	6.02019
2839.792	3.60858	7.28477	3.17910	6.04432
2843.793	3.63184	7.30879	3.11997	6.01948
2847.796	3.62121	7.36749	3.13858	6.13064
2851.793	3.60168	7.41626	3.08124	6.33307
2855.794	3.65428	7.47871	3.12754	6.21818
2859.672	3.70539	7.47973	3.13091	6.23805
2863.690	3.72892	7.48126	3.14795	6.20256
2867.632	3.77295	7.52239	3.34794	6.22650
2871.669	3.82889	7.57296	3.45329	6.20695
2875.668	3.90548	7.58768	3.58316	6.19920
2879.690	3.94853	7.59309	3.60489	6.31710
2883.667	3.98496	7.62288	3.53008	6.22485
2887.623	4.04945	7.61208	3.48355	6.40778
2891.668	4.08318	7.60020	3.95105	6.19354
2895.798	3.98158	7.32175	3.96624	6.48647
2899.667	3.56344	7.61765	3.77142	7.17415
2903.625	3.48318	7.80319	1.90574	7.49786
2907.644	0.44730	8.18805	0.74382	9.28953
2911.693	-0.38504	9.94914	-0.67198	9.90426
2915.670	-1.11933	9.88683	-2.09194	11.05914
2919.671	-4.07241	10.30575	-3.06724	11.21052
2923.671	-4.02492	10.01269	-3.25154	11.57280
2927.692	-4.10957	10.34324	-3.10240	11.99432
2931.671	-4.08910	10.38969	-3.17089	12.05486
2935.672	-3.53125	10.51052	-3.20375	12.07499
2939.671	-3.46162	10.46337	-3.34774	11.79065
2943.693	-3.84448	10.59101	-3.34348	12.55932
2947.661	-4.00566	10.66590	-3.08114	12.62725
2951.660	-3.78926	10.59479	-3.08401	12.24938
2955.671	-3.98257	10.62463	-3.01801	12.38787
2959.694	-3.70556	10.75232	-2.94842	12.34598
2963.670	-3.68097	10.77030	-2.89869	12.33019
2967.671	-3.55538	10.79703	-2.85977	12.48121
2971.670	-3.30985	10.78561	-2.77951	12.38715
2975.695	-3.59201	10.57257	-2.87376	12.39044
2979.669	-3.52900	10.29321	-2.72397	12.20130
2983.671	-3.56717	10.04740	-2.66340	12.34364
2987.670	-3.56927	9.93950	-2.65597	13.03944
2991.693	-3.51804	9.84850	-2.76376	12.46214
2995.669	-3.30918	9.99976	-2.89218	12.38729
2999.670	-3.29350	10.37650	-2.98604	11.97323
3003.670	-3.17307	10.22997	-2.83355	12.56864
3007.692	-3.15911	10.22360	-2.82217	12.50606
3011.671	-3.19031	10.27944	-2.75938	11.92278
3015.672	-3.25684	10.31887	-2.82870	12.35496
3019.671	-3.24365	10.52792	-2.93455	12.74005
3023.661	-3.26930	10.61787	-2.85041	12.97066
3027.672	-3.40855	10.86682	-2.87032	12.94029
3031.653	-3.45957	10.87082	-2.97173	13.04404
3035.665	-3.47688	10.91619	-2.86715	12.65046
3039.693	-3.28095	10.84659	-2.82949	12.59457
3043.672	-3.38548	10.81338	-2.77314	12.57459
3047.672	-3.48395	10.92654	-2.85942	12.52658
3051.673	-3.49273	10.90626	-2.86326	12.12094
3055.693	-3.84940	10.81922	-2.89277	11.89075
3059.675	-4.08137	10.87165	-2.96755	12.05158
3063.673	-3.93712	10.68659	-3.06699	12.09479
3067.674	-3.58850	10.62111	-3.06501	12.79713
3071.696	-3.72593	10.63020	-2.95478	12.45762
3075.642	-3.71869	10.64152	-2.85541	12.29300
3079.674	-3.56635	10.55920	-2.63215	12.16236
3083.674	-3.62019	11.58571	-2.81506	12.15538
3087.695	-4.66696	10.57261	-2.83103	12.34118
3091.672	-3.93450	10.72764	-3.18591	12.69081
3095.674	-4.00964	10.49349	-6.69344	12.33794
3099.673	-6.77805	11.01349	-7.39549	12.16352
3103.693	-8.12405	9.99854	-9.83946	11.03550
3107.674	-10.03549	10.27799	-10.32820	11.69630
3111.673	-10.09374	9.98402	-11.70521	10.90575
3115.674	-11.58837	8.86122	-13.50513	12.01699
3119.700	-12.21715	8.77179	-13.19981	11.19784
3123.674	-13.04302	8.43621	-13.89989	10.33668
3127.674	-13.65545	8.12618	-14.03120	9.73905
3131.675	-13.93707	8.17590	-14.01263	8.83358
3135.695	-13.98760	8.12714	-13.96547	10.72408
3139.629	-13.96776	8.03857	-14.21162	10.46332
3143.674	-13.92639	8.16862	-14.28925	9.87558
3147.675	-13.88146	8.22045	-14.26208	8.95760
3151.697	-13.88399	8.24763	-13.66484	8.85312
3155.675	-13.92482	8.21808	-13.75985	8.53488
3159.668	-13.91032	8.22166	-13.98466	8.82960
3163.676	-13.94504	8.14951	-13.69821	9.51716
3167.693	-13.99447	8.17155	-13.45782	9.10640
3171.675	-13.97337	8.17173	-13.58165	9.22209
3175.676	-13.94093	8.26608	-13.68893	8.90007
3179.675	-13.77296	8.28543	-13.87854	8.95816
3183.700	-13.68806	8.36282	-14.14172	8.89292
3187.677	-13.54889	8.36044	-14.26352	8.74384
3191.685	-13.46073	8.31680	-13.99426	9.09542
3195.673	-13.32355	8.30095	-13.65976	8.88900
3199.685	-13.35534	8.21366	-13.90922	8.81883
3203.630	-13.46134	8.16819	-13.20101	9.04582
3207.675	-13.51858	8.05197	-13.03487	9.29275
3211.676	-13.36316	8.02897	-13.29878	9.35924
3215.698	-13.49228	8.06353	-13.46193	8.98762
3219.675	-13.38872	7.99098	-13.50319	8.94819
3223.675	-13.38538	8.24779	-13.47533	8.67992
3227.675	-13.39285	8.20250	-13.61597	8.76927
3231.699	-13.48430	8.19374	-13.71278	8.75900
3235.676	-13.50776	8.26690	-13.55602	9.17274
3239.676	-13.60128	8.22710	-13.70795	9.10993
3243.672	-13.65233	8.29828	-13.82878	9.10556
3247.697	-13.66695	8.25050	-13.65191	9.09231
3251.677	-13.75149	8.27126	-13.47690	9.09181
3255.677	-13.84654	8.28755	-13.33354	9.12055
3259.676	-13.62854	8.40766	-13.24297	9.09364
3263.681	-13.48418	8.43473	-13.25002	9.01046
3267.678	-13.26841	8.29900	-13.24210	8.90178
3271.677	-13.18096	8.31030	-13.38816	8.81805
3275.679	-13.19000	8.26849	-13.37089	8.71016
3279.682	-13.05696	8.22677	-13.51701	8.92733
3283.642	-13.14183	8.23848	-13.33410	8.72191
3287.678	-13.07516	8.02644	-13.39696	8.67165
3291.678	-13.07422	8.02832	-13.45254	8.66491
3295.681	-13.03614	7.98033	-13.49199	8.71689
3299.678	-13.08355	8.03638	-13.50654	9.27210
3303.677	-13.11071	7.87881	-13.41702	8.79732
3307.678	-13.14562	7.91417	-13.24814	9.32651
3311.698	-13.28785	7.95901	-13.17590	9.52190
3315.677	-13.31349	7.93742	-13.11702	9.13769
3319.679	-13.35224	7.99912	-13.00603	9.51806
3323.653	-13.32479	8.00922	-13.22081	9.47439
3327.701	-13.33168	8.11073	-13.46362	9.68066
3331.678	-13.61665	7.91253	-13.38553	9.62899
3335.678	-14.61285	7.80246	-14.04734	8.95312
3339.678	-14.58113	7.36933	-15.26224	8.26186
3343.682	-14.79252	6.91133	-16.17390	6.66309
3347.678	-15.29095	6.24421	-16.38527	5.81665
3351.678	-15.84204	6.39399	-16.67562	5.82754
3355.678	-15.97493	6.14912	-16.86812	5.51704
3359.685	-16.04948	6.12737	-16.59358	4.75473
3363.675	-15.92515	5.95777	-16.45421	4.20916
3367.669	-16.14968	5.80390	-16.33637	3.96745
3371.680	-16.04421	5.81479	-16.22991	3.88974
3375.683	-16.14920	5.26953	-16.34439	3.78908
3379.679	-16.13106	4.93352	-16.45197	4.10196
3383.679	-16.17242	5.13261	-16.47290	4.41260
3387.680	-16.16218	4.62000	-16.61753	4.51564
3391.684	-16.16820	4.94688	-16.54894	4.52179
3395.680	-16.15669	5.02856	-16.48789	4.17454
3399.680	-16.13042	5.07666	-16.38988	4.23570
3403.681	-16.08078	4.93533	-16.40014	4.48857
3407.683	-16.06176	5.34128	-16.18578	4.55285
3411.677	-16.04803	5.35768	-16.12598	4.33096
3415.678	-16.09002	5.34431	-16.04586	4.51006
3419.679	-16.08882	5.32868	-16.05321	4.51340
3423.683	-16.12967	5.30996	-15.79223	4.51967
3427.680	-16.15575	5.34383	-15.77603	4.64397
3431.679	-16.20986	5.32045	-15.72055	4.44279
3435.681	-16.35941	5.23112	-15.72018	4.45711
3439.685	-16.40996	5.14950	-15.73242	4.45998
3443.679	-16.37426	5.10479	-15.72628	4.35621
3447.676	-16.40596	5.40934	-15.72568	4.10477
3451.636	-16.36781	5.32169	-15.75247	3.76280
3455.685	-16.34003	5.46048	-15.74056	4.28441
3459.680	-16.30700	5.40563	-15.75670	4.16134
3463.682	-16.31907	5.32902	-15.74244	4.02345
3467.683	-16.22467	5.30881	-15.72239	4.91816
3471.685	-16.22421	5.21682	-15.72127	5.03209
3475.682	-16.18620	5.17358	-15.77456	4.83885
3479.681	-16.17235	5.09352	-15.76465	4.81693
3483.684	-16.08697	5.19532	-15.78058	4.05346
3487.686	-16.04253	5.45304	-15.71789	3.89043
3491.647	-16.02376	5.40846	-15.51287	5.12031
3495.681	-15.93749	5.47540	-15.52110	4.87377
3499.682	-15.91319	5.37583	-15.45251	4.46466
3503.685	-15.90479	5.24596	-15.44598	4.27330
3507.683	-15.85285	5.11958	-15.41201	5.20417
3511.683	-15.88635	5.03619	-15.45666	5.16911
3515.726	-15.86055	4.86331	-15.47618	4.44899
3519.685	-15.92370	4.74315	-15.44393	4.63371
3523.649	-15.84493	4.80406	-15.53416	4.15547
3527.684	-15.75532	4.80891	-15.51974	4.14285
3531.658	-15.76846	4.70001	-15.64001	4.04920
3535.687	-15.71421	4.97954	-15.72630	4.06418
3539.683	-15.71871	4.96044	-15.75226	3.95528
3543.682	-15.67310	5.01504	-15.71697	3.80834
3547.682	-15.65845	5.09448	-15.72934	4.13839
3551.686	-15.63451	5.40816	-15.78446	4.10073
3555.684	-15.62547	5.60185	-15.80225	4.32470
3559.683	-15.58838	5.69601	-15.84704	4.14242
3563.685	-15.56169	5.80336	-15.88530	4.00138
3567.688	-15.54614	5.81491	-15.89758	4.44816
3571.684	-15.55312	5.90492	-15.96553	4.42438
3575.675	-15.49462	5.79592	-15.91105	4.40760
3579.684	-15.42871	5.93407	-15.90745	4.62415
3583.689	-14.45770	5.95849	-15.65536	4.84898
3587.685	-11.87128	6.12925	-13.11034	4.91559
3591.683	-9.44952	5.70197	-12.91654	4.90823
3595.686	-9.13552	5.01914	-10.91234	2.10678
3599.686	-8.14117	4.03477	-9.85365	2.04069
3603.685	-6.93435	3.54828	-9.61414	1.66640
3607.686	-6.39528	1.14955	-7.83514	0.95646
3611.685	-5.39623	1.09534	-5.80351	-0.81272
3615.686	-3.91405	-0.07462	-5.46679	-0.68098
3619.683	-3.32899	-0.65042	-3.74760	-1.76945
3623.684	-2.71981	-1.64204	-2.91376	-3.64759
3627.685	-2.22607	-2.09483	-2.37431	-3.61890
3631.686	-1.76487	-2.40565	-1.52947	-3.92245
3635.684	-1.81657	-2.34640	-0.33834	-4.15669
3639.686	-1.34222	-2.47432	-0.47006	-4.23786
3643.684	-1.45410	-2.52905	-0.98050	-4.20489
3647.689	-1.51682	-2.42712	-0.87031	-3.93141
3651.687	-1.52320	-2.36168	-1.50524	-4.10596
3655.686	-1.42789	-2.20468	-1.01409	-4.32575
3659.682	-1.54076	-2.16486	-0.76057	-4.23116
3663.690	-1.90718	-2.15675	-1.18443	-4.12185
3667.687	-1.74486	-2.11451	-1.11772	-4.10353
3671.686	-1.94397	-2.06472	-1.07309	-4.05613
3675.686	-2.00621	-1.98579	-1.08592	-3.81163
3679.690	-2.20996	-2.11370	-1.22702	-3.70292
3683.686	-2.10042	-2.01785	-1.22342	-3.75745
3687.686	-2.13351	-1.89912	-1.14677	-3.77769
3691.687	-2.28209	-1.87073	-1.05652	-3.81268
3695.694	-2.28333	-1.83995	-1.03707	-3.82544
3699.652	-2.42589	-1.95166	-0.80803	-3.77614
3703.688	-2.58677	-2.01608	-0.84414	-3.71903
3707.660	-2.38784	-2.23915	-0.68829	-3.73827
3711.692	-2.42398	-2.13559	-0.70975	-3.73271
3715.689	-2.30301	-2.18398	-0.61206	-3.72711
3719.696	-2.37397	-2.22160	-0.64446	-3.70762
3723.687	-2.38781	-2.19230	-0.59488	-3.73247
3727.690	-2.35702	-2.15640	-0.63943	-3.74760
3731.687	-2.52374	-2.15816	-0.69841	-3.67813
3735.687	-2.54596	-2.21787	-0.74754	-3.61083
3739.663	-2.45510	-2.29231	-0.74789	-3.56757
3743.691	-2.78040	-2.22830	-0.84247	-3.52523
3747.642	-2.70441	-1.97151	-1.00883	-3.49356
3751.687	-2.61803	-1.89838	-1.26602	-3.47283
3755.690	-2.81150	-1.76069	-1.18021	-3.49178
3759.584	-2.87487	-1.71770	-1.10621	-3.50818
3763.693	-2.98505	-1.76112	-1.29286	-3.55471
3767.687	-2.98411	-1.75596	-1.35797	-3.58867
3771.689	-3.05870	-1.69471	-1.38684	-3.58596
3775.586	-3.11311	-1.70840	-1.34313	-3.63261
3779.688	-3.15943	-1.59268	-1.47766	-3.69789
3783.688	-3.18225	-1.73479	-1.49555	-3.71166
3787.689	-3.16708	-1.75926	-1.49870	-3.74458
3791.690	-3.14325	-1.80111	-1.39817	-3.83574
3795.688	-3.14046	-1.91434	-1.39485	-3.86564
3799.688	-3.10794	-1.99088	-1.40055	-3.91138
3803.688	-3.08765	-2.13016	-1.36665	-3.92916
3807.692	-2.99980	-2.14602	-1.40829	-3.95421
3811.688	-3.03158	-2.25605	-1.35665	-4.02814
3815.690	-2.94574	-2.43334	-1.30087	-4.07518
3819.690	-2.96921	-2.55495	-1.34296	-4.18101
3823.682	-2.89227	-2.97042	-1.28976	-4.19750
3827.690	-2.83853	-2.77932	-1.22414	-4.32257
3831.688	-2.78540	-2.81406	-1.18061	-4.37506
3835.689	-2.79104	-3.04474	-1.16312	-4.37091
3839.590	-2.74625	-3.07458	-1.07088	-4.49954
3843.689	-2.75029	-3.18971	-1.00586	-4.52010
3847.690	-2.81964	-3.26019	-1.05290	-4.53285
3851.689	-2.77290	-3.21101	-0.92554	-4.61857
3855.590	-2.74744	-3.27357	-0.78883	-4.66163
3859.691	-2.70500	-3.31216	-0.71533	-4.67531
3863.674	-2.66367	-3.33419	-0.72963	-4.66426
3867.683	-2.67028	-3.26542	-0.64196	-4.67679
3871.555	-2.67174	-3.05556	-0.75853	-4.62039
3875.566	-2.40810	-2.90604	-0.74580	-4.86187
3879.566	-2.27097	-2.91982	-0.68106	-4.89914
3883.565	-2.24364	-3.21683	-0.53845	-5.13431
3887.648	-2.18201	-3.53472	-0.70990	-5.18183
3891.568	-2.05325	-4.76466	-0.74503	-5.73635
3895.566	-1.24669	-5.14949	-0.46572	-6.68432
3899.566	-1.18309	-5.47469	-0.21120	-7.61821
3903.523	-1.01295	-6.43859	1.13858	-8.20379
3907.566	-0.91068	-6.80894	0.47190	-8.25681
3911.541	-0.72476	-6.89518	0.94172	-8.38846
3915.565	-1.09177	-7.57252	0.77057	-8.35736
3919.694	-0.65764	-7.84452	1.21663	-8.40099
3923.567	-0.91433	-7.67464	1.37087	-8.45615
3927.576	-1.13387	-7.93790	1.40666	-8.40846
3931.568	-1.01836	-7.88296	1.52238	-8.48857
3935.563	-1.00347	-7.90148	1.57146	-8.48400
3939.567	-1.07641	-7.91175	1.21134	-8.46185
3943.568	-1.20383	-7.57103	1.41660	-8.48229
3947.567	-1.27264	-7.73499	1.36337	-8.43282
3951.526	-1.33247	-7.74749	1.26249	-8.36355
3955.558	-1.32989	-7.76309	1.37258	-8.30068
3959.566	-1.42203	-7.44306	1.09924	-8.23232
3963.567	-1.46794	-7.30544	0.78727	-8.08968
3967.568	-1.48290	-7.29456	0.71563	-8.00250
3971.568	-1.46216	-7.13891	0.67176	-7.96612
3975.568	-1.46884	-6.98248	0.43475	-7.85866
3979.568	-1.44679	-6.88468	0.43738	-7.81140
3983.559	-1.42667	-6.99047	0.28230	-7.68647
3987.571	-1.41467	-6.97190	0.13004	-7.60963
3991.568	-1.36620	-6.85583	0.21671	-7.56997
3995.533	-1.31037	-6.80786	0.06259	-7.49699
3999.537	-1.30196	-6.79784	-0.02755	-7.40022
4003.569	-1.24275	-6.73373	-0.05276	-7.33113
4007.570	-1.15573	-6.67758	-0.12277	-7.32053
4011.571	-1.12025	-6.54359	-0.18288	-7.24816
4015.526	-1.03307	-6.69082	-0.29421	-7.20563
4019.569	-0.96678	-6.70448	-0.30190	-7.16568
4023.570	-0.93554	-6.63817	-0.42040	-7.09826
4027.569	-0.94678	-6.67778	-0.39196	-7.06216
4031.579	-0.94135	-6.65642	-0.48552	-6.98554
4035.550	-0.94450	-6.63050	-0.49212	-6.94251
4039.569	-0.91555	-6.66478	-0.56406	-6.82897
4043.568	-0.89257	-6.69197	-0.59709	-6.75173
4047.569	-0.87054	-6.66067	-0.63074	-6.62374
4051.570	-0.86696	-6.61954	-1.47362	-6.75282
4055.570	-0.89274	-6.59694	-1.47112	-6.72585
4059.569	-0.90713	-6.72538	-1.79782	-6.67981
4063.570	-0.95931	-6.75725	-2.02768	-6.60251
4067.571	-1.05714	-6.73270	-1.88812	-6.65821
4071.572	-1.14228	-6.67818	-1.88940	-6.67881
4075.569	-1.17843	-6.83788	1.41521	-6.67640
4079.541	-1.18031	-6.78259	1.81731	-6.70020
4083.571	-1.27234	-6.83020	1.64697	-6.71025
4087.572	-1.36154	-6.69966	1.56729	-6.75473
4091.570	-1.32704	-6.92991	1.29814	-6.75363
4095.570	-1.26626	-6.89352	1.26693	-6.84550
4099.569	-1.28482	-6.83546	1.19668	-6.80333
4103.572	-1.32662	-6.96719	1.02938	-6.77767
4107.570	-1.32307	-7.00154	1.03010	-6.96601
4111.570	-1.23074	-7.05283	0.86649	-6.99625
4115.571	-1.14429	-7.07241	0.81937	-7.00657
4119.547	-1.13963	-7.04046	0.72642	-7.05883
4123.575	-0.98648	-6.95837	0.68464	-7.14489
4127.564	-0.74082	-6.88717	0.55280	-7.17711
4131.571	-0.66310	-6.91868	0.46932	-7.18166
4135.572	-0.68213	-6.96662	0.55518	-7.26320
4139.573	-0.70739	-6.84958	0.50920	-7.29256
4143.593	-0.78077	-6.84826	0.48463	-7.27291
4147.571	-1.01387	-5.89693	0.83009	-7.26953
4151.571	-1.67211	-5.21659	0.71496	-7.31140
4155.571	-1.44574	-5.64468	0.70754	-7.23809
4159.531	-1.18381	-5.60181	0.04517	-5.70977
4163.561	-1.28127	-2.78169	-2.39616	-4.10809
4167.570	-2.77359	-0.85399	-1.63412	-3.12495
4171.572	-4.09330	0.62059	-2.92730	-1.59959
4175.596	-3.45895	2.22557	-3.68495	0.20852
4179.573	-4.68119	2.16367	-4.50930	2.46752
4183.572	-4.38196	3.78277	-3.69437	1.18870
4187.573	-4.34726	4.41633	-4.10930	2.14473
4191.595	-4.10809	4.38733	-4.28192	3.07680
4195.574	-4.10940	4.60035	-4.52113	3.16865
4199.577	-4.05942	4.48085	-4.40725	3.86757
4203.528	-4.23804	4.16062	-4.33510	3.87941
4207.570	-4.12774	3.94922	-4.55837	4.26394
4211.576	-4.24966	4.03687	-5.22077	3.08806
4215.575	-4.30467	3.95913	-5.08781	2.89415
4219.575	-4.36335	3.99990	-5.79403	3.30158
4223.572	-4.27523	4.04657	-6.21948	3.34083
4227.573	-4.21785	3.93972	-4.42770	4.17117
4231.573	-4.25897	3.88739	-4.36387	3.89534
4235.573	-4.22923	3.72505	-3.80139	3.22629
4239.578	-3.87907	3.68076	-3.81340	3.05805
4243.554	-3.97106	3.63165	-3.46916	2.71748
4247.587	-3.79168	3.58065	-3.56759	2.77532
4251.573	-3.82781	3.47966	-3.40591	2.60635
4255.576	-3.92541	3.40144	-3.53229	2.51796
4259.575	-3.89011	3.45045	-3.57290	2.26525
4263.574	-3.93144	3.32978	-3.66906	2.08295
4267.576	-3.88085	3.28575	-3.78531	2.02129
4271.577	-4.03895	3.23506	-3.74847	1.99218
4275.574	-4.14917	3.17930	-3.99509	1.90939
4279.575	-4.05668	3.21303	-3.60778	3.23834
4283.572	-4.14564	3.22986	-3.75810	3.07232
4287.577	-4.29537	3.22549	-4.06629	3.64601
4291.575	-4.26168	3.20821	-4.16564	3.74483
4295.577	-4.25275	3.26059	-4.33315	3.72329
4299.575	-4.16937	3.25351	-4.55137	3.89679
4303.578	-4.28496	3.32364	-4.45335	3.74317
4307.575	-4.32094	3.45175	-4.48063	3.27220
4311.575	-4.45207	3.45658	-4.36180	2.08552
4315.574	-4.56410	3.43904	-4.45419	1.93744
4319.580	-4.99255	3.47937	-4.52831	1.73465
4323.576	-4.70806	3.51066	-4.47180	2.81500
4327.550	-4.89730	3.32301	-4.32748	2.91547
4331.579	-4.56671	2.90877	-4.11703	2.48455
4335.597	-4.33478	2.66328	-4.11293	2.63728
4339.576	-4.28698	2.59290	-3.96933	2.65962
4343.576	-4.33053	2.99101	-4.16231	2.48859
4347.576	-3.65238	3.26003	-4.09014	2.56370
4351.579	-3.68302	2.91396	-4.22422	2.44320
4355.575	-4.04305	2.87015	-4.38430	2.43567
4359.575	-3.83411	3.20397	-4.20114	2.29931
4363.577	-4.17117	3.12772	-4.27449	2.43760
4367.568	-4.50076	3.15681	-4.19694	2.33295
4371.566	-4.92464	3.25275	-3.44738	2.00629
4375.578	-4.90767	2.95021	-3.60689	2.01800
4379.577	-4.16221	3.31329	-3.43993	1.88557
4383.579	-4.07955	3.31927	-3.83304	1.59119
4387.538	-4.03315	3.44647	-4.28446	1.48667
4391.578	-4.31901	3.46327	-4.47824	1.38948
4395.577	-4.60841	3.58067	-4.39780	1.50960
4399.580	-4.48086	3.64814	-4.37850	1.66415
4403.581	-4.42365	3.57795	-4.07792	1.60271
4407.578	-4.37890	3.59075	-4.28819	1.51158
4411.578	-4.17662	3.62816	-4.45365	1.57227
4415.584	-4.08567	3.43516	-3.79843	1.84428
4419.579	-4.19180	3.53527	-3.96155	1.80873
4423.578	-4.15796	3.39227	-3.85133	1.95997
4427.578	-4.07732	3.34964	-4.13142	2.18771
4431.580	-4.05717	3.15350	-4.13604	2.09593
4435.578	-4.05685	3.22913	-4.11796	2.08100
4439.579	-4.07950	3.09234	-4.29349	2.10233
4443.579	-4.06831	3.02407	-4.09545	1.99387
4447.586	-3.80589	2.97226	-3.79756	2.95564
4451.560	-3.87188	3.05377	-3.87166	3.08079
4455.578	-3.95221	3.04082	-3.84631	3.25832
4459.578	-3.92971	2.98584	-3.76351	2.58935
4463.586	-3.96296	3.00491	-3.65767	2.35785
4467.581	-3.97042	2.97002	-3.69496	2.27826
4471.579	-4.14295	2.95347	-3.72837	1.93506
4475.579	-3.97116	2.77354	-3.81370	1.76119
4479.583	-3.86096	2.98485	-3.92277	1.82900
4483.579	-3.92806	2.96478	-3.70462	1.71674
4487.582	-3.76398	2.98212	-3.70715	1.96074
4491.579	-3.97244	2.85902	-3.80858	1.96477
4495.582	-3.79529	3.17067	-4.08750	2.05845
4499.580	-4.19558	4.25723	-2.76547	2.25668
4503.581	-3.75781	3.26602	-3.78042	2.37448
4507.579	-4.29685	3.34339	-3.98314	1.63381
4511.584	-5.00871	6.55561	-6.47117	6.29005
4515.578	-4.10402	6.82329	-3.89444	2.91340
4519.579	NaN	NaN	-3.88438	10.05707
4523.535	NaN	NaN	NaN	NaN
4527.581	NaN	NaN	NaN	NaN
4531.582	NaN	NaN	NaN	NaN
4535.556	NaN	NaN	NaN	NaN
4539.581	NaN	NaN	NaN	NaN
4543.579	NaN	NaN	NaN	NaN
4547.581	NaN	NaN	NaN	NaN
4551.581	NaN	NaN	NaN	NaN
4555.536	NaN	NaN	NaN	NaN
4559.582	NaN	NaN	NaN	NaN
4563.581	NaN	NaN	NaN	NaN
4567.580	NaN	NaN	NaN	NaN
4571.537	NaN	NaN	NaN	NaN
4575.582	NaN	NaN	NaN	NaN
4579.580	NaN	NaN	NaN	NaN
4583.581	NaN	NaN	NaN	NaN
4587.536	NaN	NaN	NaN	NaN
4591.609	NaN	NaN	NaN	NaN
4595.582	NaN	NaN	NaN	NaN
4599.581	NaN	NaN	NaN	NaN
4603.581	NaN	NaN	2.18907	-2.66884
4607.581	-2.92767	13.12014	-2.61800	14.58104
4611.586	2.22902	0.42181	7.28251	-4.85663
4615.582	-6.93039	0.37635	7.35273	-5.26763
4619.547	-5.32766	-1.82399	7.08571	-5.38477
4623.582	-4.54821	-2.26595	4.32636	-5.14493
4627.483	-2.23469	-2.41644	2.56515	-4.78598
4631.583	-2.27268	-2.57863	-1.17741	-4.03436
4635.583	-2.19764	-2.20486	-1.76172	-4.49704
4639.583	-1.85710	-1.99351	-2.77916	-4.12140
4643.587	0.79784	-2.17863	1.83201	-3.02881
4647.583	0.31173	-2.45954	-0.90746	-4.16734
4651.585	0.17506	-2.70829	0.76069	-3.74523
4655.583	-0.09666	-2.90880	-0.32985	-3.52546
4659.481	-0.77317	-2.99666	-0.89647	-3.59624
4663.582	-1.47732	-2.95791	0.49555	-3.84710
4667.583	-1.57260	-2.84896	0.96169	-3.81705
4671.585	-0.06768	-2.86128	0.58724	-3.74650
4675.588	-0.06294	-2.71091	0.81004	-3.73767
4679.584	0.07403	-2.71567	0.27175	-3.64134
4683.584	0.01829	-2.72167	0.01534	-3.60547
4687.585	-0.09317	-2.63193	0.25743	-3.83731
4691.483	-0.09282	-2.59999	0.55146	-3.90680
4695.585	-0.18588	-2.65020	0.68039	-4.13877
4699.585	-0.40770	-2.50254	0.87490	-4.71894
4703.595	-0.29605	-2.42105	0.90138	-4.81104
4707.543	-0.53773	-2.38580	0.96909	-4.88251
4711.584	-0.49513	-2.06345	1.15374	-4.74034
4715.582	-0.47249	-1.88531	0.92202	-4.70918
4719.584	-0.54170	-1.71592	0.74464	-4.35844
4723.588	-0.52999	-1.99514	0.44239	-4.27599
4727.584	-0.64846	-1.84487	0.63620	-4.38631
4731.540	-0.72345	-1.68008	0.70451	-4.32992
4735.586	-0.81446	-1.45947	1.01657	-5.01033
4739.480	-3.06810	-1.86396	1.03937	-4.84518
4743.558	-2.92502	-1.68542	0.82962	-4.87692
4747.585	-0.76047	-1.75802	0.58275	-4.68118
4751.585	0.11086	-1.71199	0.37767	-4.65400
4755.590	-0.41390	-1.84710	0.34811	-4.76031
4759.587	-0.43346	-1.65638	0.41244	-4.78125
4763.587	-0.64967	-1.80907	0.27850	-4.62943
4767.585	-0.58131	-1.85075	0.29533	-4.81988
4771.483	-0.60950	-1.86990	0.67739	-4.89650
4775.585	-0.74625	-1.69425	0.82784	-4.94951
4779.586	-0.32429	-1.65139	0.72000	-4.84478
4783.571	-0.46264	-1.73200	0.71739	-4.76696
4787.483	-0.54562	-1.71537	0.61076	-4.61234
4791.586	-0.53495	-1.60045	0.75804	-4.40087
4795.585	-0.69429	-1.46108	0.97981	-4.44154
4799.586	-0.65357	-1.57988	0.90805	-4.46151
4803.497	-0.74352	-1.53833	0.86376	-4.35748
4807.586	-0.94274	-1.54476	0.94656	-4.49564
4811.585	-1.00147	-1.52991	0.98474	-4.46457
4815.586	-1.09894	-1.48093	0.96107	-4.37379
4819.485	-1.08115	-1.58325	0.94368	-4.46178
4823.586	-1.16161	-1.61530	0.90267	-4.54016
4827.555	-0.97866	-1.93384	0.92224	-4.43363
4831.588	-0.86180	-2.13528	0.90582	-4.49969
4835.485	-0.92413	-2.25323	0.84967	-4.56282
4839.587	-0.72766	-2.21722	0.88021	-4.57542
4843.587	-0.73077	-1.82580	0.84853	-4.49766
4847.586	-0.67568	-1.78235	0.85972	-4.53096
4851.590	-0.67171	-2.03743	0.84478	-4.43286
4855.588	-0.71980	-1.88470	0.77315	-4.28237
4859.587	-0.74975	-1.86297	1.01625	-4.55569
4863.589	-0.81493	-1.80712	1.04262	-4.42868
4867.482	-0.91535	-1.76475	1.16972	-4.36277
4871.589	-0.72335	-1.61432	1.12469	-4.35316
4875.588	-0.67069	-1.69207	1.07696	-4.29295
4879.588	-0.68106	-1.65611	1.37761	-4.25924
4883.485	-0.79746	-1.63070	1.35588	-4.22655
4887.589	-0.94753	-1.69962	1.29355	-4.19129
4891.463	-0.85602	-1.66960	1.31699	-4.18498
4895.463	-0.76843	-1.65618	1.35040	-4.18650
4899.453	-0.77622	-1.60995	1.37769	-4.19404
4903.464	-0.68618	-1.57210	1.33964	-4.15521
4907.478	-0.58002	-1.56173	1.23486	-4.08803
4911.464	-0.41576	-1.62145	1.34041	-4.11107
4915.463	-0.70551	-1.67624	1.31449	-3.96260
4919.465	-0.00879	-1.62296	0.79039	-3.87495
4923.466	1.65106	-1.41466	1.04689	-3.11302
4927.463	2.99878	1.70839	2.90280	-1.99321
4931.488	2.79733	2.02475	2.02314	0.14006
4935.463	3.79601	4.65987	4.81148	2.49867
4939.465	5.78669	6.06030	4.82782	4.71981
4943.465	5.15194	5.91881	5.66285	4.96958
4947.487	5.32752	6.70928	6.26704	5.40685
4951.422	4.90676	7.33902	6.09508	7.74962
4955.464	5.23782	7.43573	5.70475	7.82901
4959.460	5.25517	7.54992	5.41817	8.18294
4963.487	5.31428	7.69311	5.32816	8.36844
4967.467	5.29221	7.68325	5.48484	9.52005
4971.469	5.39660	7.71531	5.36863	9.26688
4975.467	5.36021	7.67774	5.42820	9.44406
4979.489	5.40112	7.68552	5.45449	9.49066
4983.468	5.43101	7.73023	5.49082	8.80197
4987.467	5.52342	7.70090	5.46394	8.38393
4991.469	5.57222	7.70617	5.42663	8.39791
4995.487	5.57697	7.63696	5.36875	8.21848
4999.429	5.49333	7.66706	5.29701	8.16064
5003.466	5.45545	7.66615	5.24769	8.09978
5007.467	5.38629	7.60434	5.23989	7.95544
5011.489	5.26578	7.63786	5.19190	7.88651
5015.465	5.20349	7.62937	5.13456	8.23704
5019.467	5.19635	7.58056	5.22655	8.15139
5023.437	5.21525	7.49991	5.18737	8.16630
5027.466	5.09377	7.55567	5.20425	7.97679
5031.466	4.97980	7.58666	5.13427	7.83226
5035.467	4.94494	7.59190	5.22473	7.73608
5039.443	4.91688	7.61398	5.18365	7.71402
5043.489	4.85664	7.53109	5.19778	7.67978
5047.466	4.89190	7.50736	5.27528	7.56119
5051.466	4.94805	7.53922	5.35638	7.78033
5055.467	4.92639	7.58661	5.49748	7.63513
5059.489	4.97985	7.58350	5.61320	7.54904
5063.469	4.98236	7.66090	5.68598	7.58878
5067.468	5.10229	7.70199	5.75775	7.48906
5071.470	5.10566	7.73306	5.94438	7.42550
5075.472	5.09187	7.76958	5.82152	7.20769
5079.468	5.17112	7.70465	6.02921	7.35094
5083.459	5.21727	7.86163	6.01760	7.54926
5087.468	5.27105	7.93003	5.95511	7.86956
5091.491	5.31913	8.01452	5.77524	8.25319
5095.468	5.36799	8.05699	5.83210	7.78539
5099.467	5.46913	8.05925	5.67964	7.80396
5103.467	5.40889	8.13490	5.79126	7.57070
5107.490	5.50928	8.09365	5.78227	7.58447
5111.468	5.61168	8.07268	5.86578	7.14417
5115.469	5.72197	8.07959	5.58557	7.28147
5119.471	5.81034	7.93908	5.56274	8.17328
5123.489	5.80442	7.82644	5.52844	8.04182
5127.467	5.74532	7.92705	5.56175	7.93407
5131.468	5.49453	7.82072	5.55873	8.25704
5135.468	5.46891	7.90368	5.60327	8.22449
5139.490	5.39502	7.73642	5.98128	8.14103
5143.470	5.36415	7.55760	5.66887	8.28039
5147.468	5.63776	7.66979	5.59319	8.32582
5151.468	5.82341	7.63872	5.43878	8.51945
5155.490	5.69077	7.79954	5.47798	8.36960
5159.470	5.48150	7.60245	5.41868	8.38472
5163.455	5.30168	7.54535	5.45536	8.24496
5167.467	5.13085	7.62036	5.54127	8.20609
5171.470	5.05321	7.56645	5.49524	8.22220
5175.469	5.10561	7.63877	5.49605	8.16839
5179.469	5.20676	7.56366	5.51951	8.05579
5183.470	5.35920	7.61185	5.46303	7.76540
5187.492	5.15544	7.46945	5.41283	7.77680
5191.471	4.24956	7.90575	2.96973	8.40577
5195.471	2.64235	8.63797	2.48064	10.93132
5199.475	1.75971	9.87853	0.12123	11.64219
5203.461	-1.06423	10.70341	-0.79957	13.35800
5207.470	-1.31920	10.81662	-1.99498	13.05884
5211.471	-2.85915	11.33219	-1.96256	12.61896
5215.471	-2.40659	10.98158	-1.99677	13.18946
5219.476	-2.80053	11.23724	-1.74831	13.50684
5223.471	-2.49421	11.23016	-1.93043	13.47811
5227.471	-3.00960	11.29245	-1.93606	13.73076
5231.481	-3.25392	11.28032	-2.02887	13.89689
5235.491	-3.20790	11.45778	-2.05516	14.10924
5239.471	-3.39075	11.46476	-2.13314	14.17014
5243.472	-3.21889	11.42360	-2.14092	14.18443
5247.448	-4.71585	11.31734	-2.14667	14.13932
5251.495	-4.79218	11.26768	-2.38100	14.01000
5255.472	-4.66280	11.25532	-2.60877	14.11066
5259.472	-3.62682	11.05752	-2.58551	13.96442
5263.473	-3.64049	10.88965	-2.53895	13.80200
5267.475	-3.47109	10.86629	-2.64334	13.81121
5271.473	-3.30438	10.62584	-2.59866	13.85033
5275.474	-3.27242	10.63389	-2.65664	13.93319
5279.471	-3.09386	10.55267	-2.61602	13.82583
5283.493	-2.85289	10.50582	NaN	NaN
5287.472	-2.69220	10.38903	-2.76076	13.95923
5291.461	-0.40278	10.33697	-2.70072	13.98311
5295.429	-0.14019	10.27633	-2.63482	14.08733
5299.476	-0.01519	10.22954	-2.55604	14.20595
5303.474	0.09140	10.22139	-2.50776	14.17991
5307.472	0.16432	10.19270	-2.47113	14.24694
5311.473	0.27892	10.16821	-2.40139	14.58486
5315.476	0.43609	10.16087	-2.42265	14.30151
5319.472	0.59508	10.11321	-2.34153	14.28049
5323.474	0.71692	10.05333	-2.30125	14.37146
5327.474	0.00675	10.10970	-2.27771	14.23777
5331.494	-0.04914	10.15679	-2.22404	14.23382
5335.482	-3.45017	11.35872	-2.14840	14.28342
5339.473	-3.45170	11.64219	-2.23806	14.53553
5343.473	-3.64489	11.11765	-2.31032	12.55653
5347.493	-3.76873	10.62558	-5.28150	12.65970
5351.429	-4.44687	10.30559	-6.71104	11.69641
5355.473	-6.62912	10.10213	-7.81878	11.65022
5359.472	-7.38554	8.95227	-9.60193	10.12426
5363.477	-8.07784	9.05587	-9.78472	9.14500
5367.474	-9.86596	8.11611	-10.07264	7.81847
5371.461	-9.89990	6.36190	-11.33464	7.20496
5375.472	-10.75576	6.16655	-11.90797	6.11420
5379.477	-10.91968	5.97970	-12.29173	5.04247
5383.474	-11.03798	5.90091	-12.20257	5.22299
5387.435	-11.09289	6.03568	-12.03237	4.78062
5391.475	-11.28641	6.01744	-12.19195	4.93221
5395.473	-11.39263	6.23456	-12.28960	5.21200
5399.475	-11.40248	5.89214	-12.01129	4.78143
5403.476	-11.46659	5.67526	-11.95612	4.57535
5407.477	-11.44101	5.50534	-11.92493	4.53367
5411.480	-11.50875	4.93636	-12.05589	4.49583
5415.438	-11.49743	4.60076	-12.01787	4.71508
5419.477	-11.56181	4.53449	-11.96391	4.67241
5423.477	-11.59915	4.56096	-11.97460	4.98257
5427.478	-11.57877	4.48199	-11.86096	4.55919
5431.476	-11.58808	4.53129	-11.75586	4.36434
5435.477	-11.52903	4.45640	-11.79606	4.46802
5439.476	-11.49035	4.56168	-11.68593	4.54440
5443.479	-11.50103	4.44806	-11.60242	4.43912
5447.474	-11.51943	4.45249	-11.58055	4.79282
5451.477	-11.64625	4.56851	-11.64137	5.19167
5455.474	-11.66020	4.59914	-11.62616	5.27114
5459.481	-11.77066	4.95308	-11.58875	5.12173
5463.475	-11.61461	5.22922	-11.53677	4.71082
5467.475	-11.37099	5.18076	-11.48671	4.87766
5471.476	-11.21064	5.12723	-11.52529	5.17527
5475.469	-11.08588	5.23405	-11.67067	4.90646
5479.477	-11.25156	5.35200	-11.57915	4.93783
5483.477	-11.34964	5.41031	-11.65715	4.91041
5487.475	-11.44003	5.40959	-11.80326	4.89667
5491.481	-11.35568	5.41553	-11.77746	5.02618
5495.466	-11.37295	5.31830	-11.61644	4.98143
5499.466	-11.37579	5.14438	-11.60580	4.89774
5503.477	-11.33800	5.28312	-11.35931	4.84351
5507.482	-11.29226	5.08950	-11.38027	4.86248
5511.478	-11.28519	5.23434	-11.41857	4.89107
5515.778	-11.40145	5.34658	-11.42093	4.83043
5519.479	-11.47770	5.37418	-11.30481	4.84871
5523.480	-11.46025	5.21399	-11.33104	4.81133
5527.479	-11.48401	5.28252	-11.36169	4.78687
5531.479	-11.47145	5.30453	-11.45269	4.70818
5535.482	-11.24676	5.17617	-11.52853	4.67710
5539.482	-11.29293	5.17506	-11.61661	4.62923
5543.477	-11.21255	5.14209	-11.75270	4.48736
5547.477	-11.28118	4.88119	-11.60711	4.67359
5551.478	-11.17137	4.89030	-11.65337	4.67463
5555.480	-11.24375	5.14016	-11.76126	4.75628
5559.477	-11.02414	5.31442	-11.75833	5.26191
5563.478	-10.98411	5.15195	-11.44869	4.83622
5567.477	-11.07936	5.17102	-11.47672	4.98953
5571.480	-11.03559	5.12308	-11.42630	4.99085
5575.438	-11.02081	5.02886	-11.41440	4.82756
5579.459	-11.09817	4.97987	-11.14321	4.60813
5583.475	-11.17739	4.93323	-11.18327	4.68373
5587.484	-11.39802	4.91306	-11.22511	4.71143
5591.479	-11.56645	4.99585	-11.16667	4.52562
5595.480	-11.87170	5.01637	-11.24280	4.37658
5599.479	-11.84606	5.08615	-11.28359	4.36293
5603.483	-12.01630	4.92911	-11.23005	4.32758
5607.480	-11.52169	5.19806	-11.18599	4.58236
5611.478	-11.71734	5.21974	-11.28486	4.39639
5615.482	-11.82193	5.70467	-11.26689	4.38394
5619.485	-11.95717	5.85425	-11.19616	5.60690
5623.442	-11.87216	5.89787	-11.24022	4.97488
5627.480	-11.95460	5.87494	-11.27562	5.09286
5631.481	-11.92652	5.87574	-11.29421	5.23685
5635.483	-11.94254	5.98627	-11.30608	5.15329
5639.482	-11.99092	5.99002	-11.26629	4.84191
5643.479	-11.80982	5.95664	-11.25715	5.06855
5647.480	-11.81313	5.88623	-11.27808	4.90428
5651.491	-11.83700	5.92526	-11.31042	4.66943
5655.480	-11.86766	5.87229	-11.29651	4.78551
5659.480	-11.83928	5.82105	-11.35599	4.87922
5663.481	-11.77877	5.70686	-11.40760	4.71803
5667.485	-11.84404	5.64714	-11.41977	4.49487
5671.480	-11.42685	5.59286	-11.42885	4.42219
5675.483	-11.04699	5.39587	-11.33690	4.40209
5679.482	-10.74513	4.82678	-11.29395	4.43247
5683.485	-10.17848	3.31133	-10.54912	3.77049
5687.481	-10.56354	4.52859	-10.67234	3.81860
5691.482	-10.56968	2.57013	-10.54505	0.74327
5695.481	-10.61049	2.22503	-10.87599	3.29251
5699.488	-10.20529	3.07740	-10.67967	2.55792
5703.475	-10.21805	2.83593	-10.57140	2.63656
5707.437	-10.18476	3.13041	-10.23452	1.41378
5711.482	-10.08837	2.94426	-10.13664	-0.18258
5715.485	-9.97125	2.83437	-9.89241	-0.29429
5719.482	-9.86440	2.69194	-9.82884	-0.40264
5723.482	-9.79609	2.54134	-9.85288	-0.45209
5727.481	-9.74343	2.31263	-9.85103	0.23937
5731.487	-9.66829	2.04677	-9.86264	1.02191
5735.485	-9.43520	2.19497	-9.73511	0.88796
5739.486	-8.44591	1.94834	-9.49313	0.60684
5743.483	-9.26152	2.32805	-9.45348	0.21286
5747.485	-9.44293	2.44958	-9.27370	-0.03144
5751.482	-9.04197	2.08043	-9.50597	0.59653
5755.482	-8.94179	1.96970	-9.61624	0.29684
5759.483	-9.15744	2.24590	-9.66009	0.25675
5763.485	-9.25151	2.29582	-9.77671	0.13549
5767.483	-9.33314	2.17091	-9.65592	0.22603
5771.485	-9.14239	2.40919	-9.38163	-0.02265
5775.486	-9.19024	2.52208	-9.58996	1.96046
5779.485	-9.34210	2.89817	-9.27095	2.15717
5783.485	-9.53200	2.23049	-9.24419	1.68281
5787.465	-9.11515	2.62063	-9.43718	1.00755
5791.472	-9.20289	2.41165	-9.40847	0.39378
5795.486	-9.67350	2.73115	-9.34072	0.34722
5799.484	-9.26689	2.70472	-9.32891	1.46015
5803.485	-9.54539	2.84007	-9.21435	2.23493
5807.484	-9.73159	2.80447	-12.94134	3.92621
5811.381	-12.38848	3.52422	-9.80942	3.36004
5815.484	-10.55982	5.57803	-9.53267	1.73907
5819.484	-10.37866	7.48243	-10.53106	3.73563
5823.488	-7.10721	2.98319	-9.19239	5.48327
5827.384	NaN	NaN	NaN	NaN
5831.449	NaN	NaN	NaN	NaN
5835.484	NaN	NaN	NaN	NaN
5839.440	NaN	NaN	NaN	NaN
5843.485	NaN	NaN	NaN	NaN
5847.383	NaN	NaN	NaN	NaN
5851.482	NaN	NaN	NaN	NaN
5855.482	NaN	NaN	NaN	NaN
5859.483	NaN	NaN	NaN	NaN
5863.484	NaN	NaN	NaN	NaN
5867.485	NaN	NaN	NaN	NaN
5871.441	NaN	NaN	NaN	NaN
5875.488	NaN	NaN	NaN	NaN
5879.484	NaN	NaN	NaN	NaN
5883.484	NaN	NaN	NaN	NaN
5887.453	NaN	NaN	NaN	NaN
5891.486	NaN	NaN	NaN	NaN
5895.441	NaN	NaN	NaN	NaN
5899.485	NaN	NaN	NaN	NaN
5903.385	NaN	NaN	15.49723	-1.65010
5907.361	8.62054	4.56420	11.48611	-1.95892
5911.363	13.02834	4.17019	9.01907	-1.85668
5915.362	13.29090	3.31120	7.65771	-2.40853
5919.363	8.63706	-1.88901	5.08288	-2.51471
5923.361	10.01506	-2.48609	1.89607	-3.18037
5927.361	12.33790	-1.64856	1.92257	-3.32648
5931.362	10.71094	-1.84869	4.65498	-3.24215
5935.362	1.55712	-3.38639	4.99701	-3.51669
5939.363	4.01709	-2.94745	4.99381	-3.72239
5943.362	6.71965	-2.46258	5.26516	-3.76703
5947.363	6.21760	-3.08977	7.25365	-3.92002
5951.386	7.14932	-3.30501	6.10399	-3.95457
5955.319	7.30857	-3.07445	5.96647	-3.95559
5959.321	6.28991	-2.90100	6.28940	-3.97285
5963.365	9.20335	-3.42200	6.56165	-4.05190
5967.354	10.09727	-3.49191	6.42714	-4.13044
5971.363	9.66055	-3.57336	6.56745	-4.09370
5975.362	10.40406	-3.47902	6.68661	-4.17627
5979.363	11.55938	-3.43822	6.43621	-4.18975
5983.356	8.40123	-2.78078	6.64773	-4.22177
5987.363	9.01188	-2.63500	6.71725	-4.15020
5991.364	9.47570	-2.59054	6.67255	-3.99502
5995.372	9.91551	-2.33684	6.59520	-4.13461
5999.351	11.23604	-2.09752	6.64946	-4.11350
6003.353	12.10915	-1.89228	6.60681	-4.09512
6007.364	7.26749	0.20563	6.70269	-4.06164
6011.364	9.88246	-0.25425	6.79065	-4.03871
6015.356	9.95095	-0.05421	6.51679	-3.99109
6019.363	10.86514	-2.78909	6.48617	-3.89198
6023.320	11.35327	0.55892	6.72670	-3.84494
6027.363	12.24085	-2.23774	5.84603	-3.76764
6031.364	7.08820	-0.90551	6.66719	-3.76483
6035.364	6.62370	-2.41050	6.93606	-3.81578
6039.364	10.13143	-0.83555	6.80431	-3.87458
6043.339	10.41297	-0.87310	6.81106	-3.84201
6047.363	10.11091	-0.73271	7.12085	-3.95952
6051.363	10.65156	-0.54218	6.94000	-3.81386
6055.364	11.06389	-0.48569	7.00900	-3.83319
6059.366	6.19204	0.55914	5.67620	-3.75734
6063.364	6.44077	0.85748	6.55645	-3.69616
6067.365	6.94893	0.39550	6.99915	-3.78480
6071.365	9.27346	3.56450	6.83281	-3.80784
6075.365	9.89424	3.41655	6.87814	-3.87941
6079.358	10.23490	3.29239	7.05765	-4.03786
6083.352	8.46026	3.30568	6.65223	-4.03468
6087.356	10.16052	2.74992	6.47759	-3.99867
6091.367	10.59531	2.23131	6.26816	-3.92635
6095.365	10.55085	1.94854	6.72083	-3.86523
6099.365	10.82131	1.47009	6.91077	-4.01151
6103.366	11.06167	1.19162	6.56196	-3.89259
6107.365	4.39365	-0.48258	6.82462	-4.03592
6111.364	7.54666	-1.29065	6.35028	-3.92187
6115.364	8.17408	-1.53675	7.01717	-4.17868
6119.367	10.29932	-3.03267	8.17284	-4.30671
6123.367	11.37689	-3.50716	8.00932	-4.53202
6127.357	9.30194	-3.74072	10.98937	-8.74225
6131.365	10.39390	-1.64355	10.94930	-4.88387
6135.367	10.41357	-1.81371	11.03530	-5.03500
6139.366	11.03172	-1.81091	11.36362	-5.29192
6143.330	10.98281	-4.09220	11.30180	-5.37848
6147.369	10.54003	-4.11480	11.25311	-5.40448
6151.368	10.60275	-4.04166	11.29283	-5.66321
6155.365	10.79945	-4.08990	11.31312	-5.65326
6159.357	10.97100	-4.07787	11.39454	-5.73931
6163.368	11.15537	-4.14830	11.41302	-5.87317
6167.348	10.99573	-4.24590	11.47257	-5.90441
6171.368	10.84008	-4.34503	11.49807	-5.87405
6175.359	12.88206	-4.36433	11.46308	-5.86829
6179.371	12.94966	-4.34524	11.45536	-5.91799
6183.367	13.25237	-4.27576	11.36031	-5.92251
6187.367	8.09102	-2.08268	11.26638	-5.84774
6191.357	10.40461	-2.39744	10.78563	-5.93274
6195.367	10.48034	-2.26206	10.68152	-5.88725
6199.370	10.32880	-2.10675	10.92782	-5.88875
6203.324	10.34782	-2.07794	10.77052	-5.86724
6207.361	10.40985	-2.05078	10.48579	-5.83595
6211.363	10.37498	-2.02059	10.25930	-5.64312
6215.368	10.27042	-2.01918	10.47571	-5.47293
6219.367	10.41057	-2.00891	10.52756	-5.37156
6223.391	10.54200	-2.00659	10.43870	-5.23867
6227.367	10.64134	-1.99697	10.50220	-5.19968
6231.367	10.75766	-1.97738	10.44701	-5.21386
6235.368	10.74566	-1.97109	10.36149	-5.00081
6239.357	10.89733	-2.00200	10.37337	-4.96537
6243.369	10.82327	-2.07743	10.40480	-4.93676
6247.370	11.02722	-4.25950	10.42274	-4.96357
6251.370	11.09900	-4.19487	10.41054	-4.90525
6255.338	10.92035	-3.71748	10.48104	-4.91400
6259.371	10.99585	-3.92334	10.47585	-4.93797
6263.330	11.03210	-3.87520	10.43793	-4.94075
6267.372	10.94782	-3.69204	10.44345	-4.94501
6271.374	10.79382	-3.60273	10.41350	-4.94628
6275.370	10.93318	-3.98390	10.38752	-4.93815
6279.328	10.81987	-4.07355	10.40339	-4.93957
6283.370	10.74297	-4.05571	10.40387	-4.91858
6287.369	10.73931	-4.04481	10.35954	-4.89824
6291.359	10.67310	-4.07570	10.34686	-4.84618
6295.359	10.56817	-3.92951	10.34093	-4.91639
6299.371	10.64906	-3.76948	10.33757	-4.86552
6303.359	10.61747	-3.63377	10.45195	-4.89366
6307.371	10.54869	-3.61441	10.51422	-4.89283
6311.370	10.56186	-3.15208	10.72304	-4.93429
6315.370	10.50014	-3.40649	11.35310	-5.09101
6319.373	10.59411	-3.39187	11.59923	-5.07667
6323.369	10.63001	-3.57090	11.34118	-5.01939
6327.325	10.64933	-3.36773	11.21317	-5.02266
6331.371	10.67020	-3.15130	10.86443	-4.93012
6335.369	10.53974	-2.95647	11.11217	-5.11844
6339.369	10.74106	-2.93611	11.17589	-5.00964
6343.371	10.74949	-3.15177	11.07023	-4.95200
6347.371	10.94808	-3.27068	11.15795	-5.04263
6351.330	11.02976	-3.03896	11.22702	-5.16079
6355.370	10.93904	-3.11120	11.09162	-5.17443
6359.372	10.95727	-2.87995	11.08842	-5.30214
6363.372	10.78566	-2.61681	10.96294	-5.15297
6367.362	10.78942	-2.45391	10.79104	-4.92366
6371.373	10.67770	-2.25987	10.91676	-4.96631
6375.352	10.61766	-2.30550	10.77775	-5.08365
6379.375	10.60133	-3.12226	10.25310	-5.15003
6383.372	10.52650	-2.78179	10.59387	-4.97071
6387.372	10.47276	-2.54621	10.79658	-5.06565
6391.372	10.52897	-2.05038	10.62787	-4.82396
6395.375	10.46625	-0.29572	10.08986	-2.48966
6399.372	10.33668	0.86331	10.74642	-2.11677
6403.372	10.31612	1.71995	10.65726	0.27341
6407.372	10.29522	3.96432	10.61713	0.96233
6411.374	10.21805	4.34577	10.75155	2.14531
6415.372	10.12469	5.37256	10.63835	4.21976
6419.368	10.08462	5.73848	10.29762	5.25050
6423.381	10.09867	5.73424	10.61063	4.92784
6427.372	9.96403	5.80086	10.38673	4.88498
6431.375	10.06479	5.97413	10.17995	5.23790
6435.372	10.11216	6.09086	10.27419	5.35927
6439.373	10.16137	6.33794	10.29344	6.34641
6443.373	10.16168	6.38947	10.26189	7.06021
6447.376	10.05714	6.26289	10.16747	6.91123
6451.374	10.04415	6.45057	10.12690	6.70984
6455.374	9.98937	6.36394	10.02138	5.84072
6459.351	9.99132	6.37457	10.00504	5.88407
6463.370	9.94318	6.42914	10.21483	4.57353
6467.374	9.83007	6.42463	10.10850	4.54113
6471.375	9.80310	6.44237	10.27422	4.49618
6475.374	9.66400	6.45216	10.50935	4.45345
6479.377	9.61399	6.44837	10.63705	4.45248
6483.375	9.57225	6.45789	10.74592	4.44693
6487.375	9.48540	6.45971	10.60934	5.09484
6491.377	9.51247	6.47573	10.69132	5.08257
6495.376	9.76963	6.21782	10.76149	4.93793
6499.355	10.15115	5.87617	10.97906	4.77903
6503.362	10.63226	5.92328	11.00164	5.09582
6507.375	10.58934	5.90728	10.95244	5.17125
6511.377	10.51878	5.98435	11.01395	5.22865
6515.713	10.67241	6.12394	11.02380	5.45576
6519.376	10.73869	6.27564	10.97296	5.66034
6523.378	10.80436	6.43799	10.68914	5.43394
6527.377	10.82742	6.17424	10.37534	5.53559
6531.373	9.79373	5.98493	10.35988	5.72849
6535.377	9.86912	5.94778	6.11844	5.67264
6539.374	10.07124	6.05635	6.30732	5.58234
6543.374	9.97012	6.13619	6.42886	5.64821
6547.376	10.19435	6.17883	6.82506	5.76917
6551.375	10.75385	6.17279	10.54608	5.31798
6555.375	10.96545	6.19206	6.43322	5.55997
6559.375	10.36514	5.88384	9.29768	5.08979
6563.376	10.71962	5.39995	9.60910	5.18833
6567.376	10.14670	6.11712	6.43555	9.89472
6571.375	10.65997	6.06723	6.80406	9.68098
6575.273	10.56812	6.05573	9.66889	5.00225
6579.379	10.58512	5.67845	10.59179	4.87380
6583.357	10.48778	6.12482	11.06239	4.46220
6587.377	10.80134	6.02094	10.96476	5.58115
6591.379	10.65379	5.55219	8.79632	6.26712
6595.378	10.61270	5.60543	11.05433	5.75001
6599.375	10.71245	5.80126	11.00735	5.78611
6603.376	10.68154	5.57408	9.26747	5.57806
6607.381	10.69244	5.62518	10.82114	4.76289
6611.378	10.74501	5.65218	10.95509	4.91373
6615.378	10.67392	5.45875	10.85677	5.63409
6619.380	10.75210	5.25314	11.39160	5.20102
6623.379	10.70855	5.86607	10.88743	4.92756
6627.382	10.89439	5.40943	10.93937	5.00097
6631.376	10.71171	5.23278	11.15945	4.98667
6635.378	10.70188	5.71642	11.02775	4.61622
6639.334	10.51981	5.73265	10.97827	4.73822
6643.377	10.57013	5.50229	7.40941	2.38578
6647.376	10.72764	5.47365	10.93315	4.09541
6651.376	10.43812	5.48625	11.07534	5.26011
6655.279	10.03291	5.27164	8.20291	5.05092
6659.378	9.47966	4.78159	5.39669	3.64751
6663.377	7.48341	3.34173	4.28017	2.04523
6667.353	5.47508	2.21698	2.78156	0.56677
6671.267	3.66708	1.91178	2.19306	-1.21899
6675.378	3.88782	0.17079	0.38705	-1.88188
6679.379	0.74226	-1.08830	0.96867	-1.73744
6683.379	1.26217	-2.09826	0.26607	-2.69987
6687.274	0.74824	-2.21634	1.90886	-0.48055
6691.379	-0.03613	-3.08294	0.49803	-6.02820
6695.378	0.33260	-2.21310	0.32124	-6.12760
6699.333	-0.15645	-2.33251	0.60888	-5.81729
6703.281	0.40762	-2.46519	0.69702	-5.95882
6707.368	0.38526	-2.65645	0.48076	-5.91097
6711.376	0.01025	-2.54950	0.51202	-5.83012
6715.380	0.27389	-2.79933	0.63826	-5.70096
6719.267	0.64496	-2.93285	1.51293	-5.81899
6723.378	0.02472	-2.67798	0.94214	-5.73926
6727.379	0.29870	-2.87922	0.55960	-5.90315
6731.380	0.26977	-2.87345	0.95390	-5.78214
6735.277	-0.12997	-2.83017	1.28345	-5.86924
6739.379	0.69092	-2.85300	0.96291	-5.83091
6743.383	0.22172	-2.93421	-2.50853	-1.29889
6747.380	0.00819	-3.08705	-3.06424	-1.27593
6751.276	0.72362	-3.01384	1.03553	-5.81136
6755.378	0.17980	-3.24390	-2.18134	-1.34069
6759.379	0.10227	-3.27081	-2.92668	-1.38180
6763.339	0.06842	-2.95557	-3.22804	-1.40583
6767.276	0.15079	-2.80982	0.79697	-5.99870
6771.380	-0.11836	-2.81128	1.11333	-5.97073
6775.380	-0.11838	-2.96776	-1.83766	-1.45063
6779.380	-0.22125	-3.12144	-2.15346	-1.54522
6783.384	-0.23197	-3.05003	-2.15633	-1.66523
6787.382	-0.23180	-3.09302	0.69248	-6.25942
6791.361	-0.21847	-2.62391	0.48011	-6.23404
6795.375	-0.08463	-2.65412	0.64263	-6.27654
6799.274	0.01628	-2.84507	0.59856	-6.04002
6803.382	-0.13771	-3.03620	0.74082	-6.29208
6807.381	0.08316	-3.12899	0.85314	-6.26765
6811.381	-0.01874	-2.92727	2.19422	-6.22808
6815.278	-0.23155	-2.92744	0.83868	-5.95231
6819.372	0.23937	-3.16162	1.12616	-5.56755
6823.382	0.11620	-3.00017	0.73295	-5.73876
6827.338	-0.02174	-2.93183	0.84510	-6.03011
6831.385	0.17903	-2.95459	0.98628	-5.74681
6835.384	0.26902	-2.85491	1.00194	-6.05827
6839.383	0.38194	-3.10874	0.97876	-5.77713
6843.338	0.21207	-3.02585	1.02317	-6.05983
6847.280	0.47852	-2.93187	1.04369	-6.10489
6851.382	0.17251	-2.99843	1.58423	-6.05336
6855.382	0.46294	-2.96417	1.10182	-6.00049
6859.381	0.24473	-3.01968	1.22467	-6.01612
6863.385	0.40646	-2.93537	1.24151	-6.23433
6867.382	0.11210	-3.00637	1.04977	-6.13392
6871.382	0.29210	-2.96537	-0.17826	-5.97420
6875.360	0.34640	-3.00889	1.09336	-6.02807
6879.265	0.19814	-3.01884	1.40477	-6.09840
6883.386	0.24425	-3.06906	1.18207	-5.91585
6887.383	0.27781	-3.03914	1.48439	-6.05563
6891.339	0.13908	-2.93264	1.06991	-5.77436
6895.257	0.17690	-2.86784	1.41000	-5.71096
6899.384	0.15603	-2.90549	1.06959	-5.77837
6903.385	0.25016	-2.85960	1.15903	-5.90307
6907.383	0.28659	-2.92706	1.41586	-5.86163
6911.282	0.30766	-2.82409	1.37168	-6.00752
6915.373	0.42023	-2.83139	1.38520	-6.08691
6919.259	0.30801	-2.76578	1.53255	-5.84399
6923.223	0.13210	-3.05057	1.51777	-5.85256
6927.253	0.27815	-3.00054	1.27572	-5.78638
6931.259	0.31285	-2.95582	1.46616	-6.07179
6935.258	0.23038	-2.77658	1.24431	-5.99797
6939.260	0.26103	-2.76002	1.33584	-5.97473
6943.389	0.23870	-3.17032	1.52637	-5.95591
6947.260	0.19571	-3.21819	1.50688	-5.98503
6951.260	0.18263	-2.62632	-0.54734	-6.10344
6955.258	0.33240	-3.13006	1.62993	-5.97178
6959.285	0.15365	-3.17695	-2.95176	-2.73465
6963.236	0.09733	-3.04924	-3.50259	-2.38608
6967.260	0.20971	-3.24050	-1.24664	-4.68797
6971.261	0.06003	-3.00639	-3.70638	-1.06920
6975.254	-0.26570	-2.81612	-4.18373	-0.35746
6979.261	-0.40221	-3.09495	-0.37747	-5.95380
6983.264	1.33239	-2.74589	1.97218	-5.83990
6987.260	4.76603	-2.71153	2.14689	-5.84089
6991.390	4.32585	-2.58278	4.28905	-5.54742
6995.260	7.23338	-2.61156	4.59093	-4.95032
6999.262	9.32581	-2.98373	8.26067	-5.03062
7003.255	11.02143	-3.48573	8.86248	-5.42001
7007.251	11.25452	-3.42826	9.11934	-5.44491
7011.261	13.19715	-3.89011	11.13604	-5.69418
7015.260	14.36187	-4.31251	11.69014	-5.50973
7019.261	14.03493	-4.03945	12.49320	-6.03112
7023.251	14.02825	-3.73216	12.47794	-5.48565
7027.261	13.80652	-5.68561	12.47023	-5.61775
7031.262	13.51989	-4.57472	12.75743	-5.78249
7035.262	13.78836	-4.80846	12.76671	-6.21882
7039.282	13.32985	-4.50221	12.73163	-5.96063
7043.263	13.46977	-4.83066	13.05105	-6.08493
7047.233	13.22723	-4.65252	12.63005	-6.01108
7051.261	13.40868	-4.73066	11.91731	-5.81059
7055.283	13.26227	-4.71975	12.60091	-5.89234
7059.262	13.29074	-4.74108	9.64929	-5.72504
7063.260	12.84765	-4.53167	8.16292	-5.61345
7067.262	13.14896	-4.72023	12.39312	-5.95083
7071.251	13.45951	-4.89490	9.45868	-5.68214
7075.262	12.87037	-4.96858	8.63692	-5.63004
7079.263	12.90315	-4.48380	12.00645	-5.87495
7083.265	13.64837	-4.83654	12.53781	-6.49243
7087.251	12.88704	-4.99101	8.17318	-4.89684
7091.260	12.84055	-4.84097	11.72462	-6.41015
7095.263	13.59016	-4.79751	12.48764	-7.21760
7099.262	13.13404	-5.16897	9.32647	-6.94566
7103.253	12.56082	-4.94466	8.18339	-5.45182
7107.264	13.38926	-4.56495	12.17786	-6.43017
7111.263	12.85039	-5.11816	9.35358	-7.25118
7115.263	12.92663	-5.06704	9.67353	-7.41120
7119.276	12.70227	-4.66934	8.70306	-5.99975
7123.267	13.07429	-4.94312	12.11289	-7.69899
7127.265	12.66171	-4.60791	9.17360	-7.61215
7131.227	12.88949	-4.72710	9.48145	-7.69229
7135.261	13.12917	-4.94036	9.97012	-7.77209
7139.263	12.85364	-4.65047	10.83625	-7.92483
7143.265	12.69774	-4.53808	9.80896	-7.89498
7147.264	12.78309	-4.51879	9.05780	-7.88569
7151.261	12.48809	-4.23242	9.33420	-7.90388
7155.275	12.48509	-4.29839	9.93436	-8.00821
7159.265	12.59049	-4.23798	9.87760	-8.03166
7163.263	12.77938	-4.29158	10.14448	-8.02971
7167.263	12.65670	-4.23002	10.13400	-8.11286
7171.263	12.57148	-4.20682	10.51921	-8.11585
7175.265	12.30080	-4.34130	10.98025	-8.19926
7179.264	12.02190	-4.15182	11.04367	-8.28626
7183.265	12.29341	-4.21181	8.54416	-8.14526
7187.265	12.27488	-4.17728	8.25652	-8.17845
7191.265	12.38171	-4.17073	8.54962	-8.20514
7195.265	12.52743	-4.21511	11.96695	-4.69802
7199.258	11.91491	-4.13998	11.65192	-5.29949
7203.221	11.94769	-4.28529	11.54821	-5.09020
7207.221	12.23822	-4.39942	12.51222	-4.80597
7211.258	13.04827	-4.00921	13.42045	-4.80655
7215.286	12.51801	-1.89256	12.41580	-4.05565
7219.266	15.26790	-0.79879	12.89909	-2.16979
7223.268	13.85758	-0.46610	13.19769	-1.51506
7227.266	14.76143	0.01117	13.57084	-0.02353
7231.290	12.99036	2.20128	13.67335	1.12383
7235.268	12.97964	2.39059	13.61818	1.11421
7239.268	13.10024	2.29208	13.35071	0.90528
7243.265	13.48103	2.15704	13.64450	0.81897
7247.290	13.56319	2.09693	13.81167	0.85182
7251.267	13.62669	1.97447	13.63850	2.15081
7255.266	13.78167	1.96403	13.57626	1.86366
7259.266	13.89302	1.85968	13.62873	2.18170
7263.272	13.67443	1.71411	13.62945	1.93175
7267.266	13.59769	1.79089	13.62854	1.62261
7271.268	13.53122	1.97058	13.66133	1.50309
7275.266	13.40171	1.95902	13.67675	1.57011
7279.287	13.31452	2.01310	13.66208	1.41931
7283.266	13.30867	2.05390	13.68406	1.56584
7287.269	13.20915	2.24759	13.73313	1.37934
7291.268	13.17670	2.32929	13.68996	1.54650
7295.276	13.04099	2.34696	13.70430	1.52368
7299.264	13.09555	2.41574	13.76057	1.50762
7303.267	13.04464	2.50011	13.74020	1.45492
7307.268	12.98841	2.52791	13.73191	1.43821
7311.290	12.92705	2.53329	13.73847	1.40936
7315.267	12.89046	2.50656	13.67520	1.45636
7319.267	12.87869	2.50419	13.61661	1.42202
7323.269	12.86537	2.51946	13.58407	1.47232
7327.261	12.87199	2.52853	13.56667	1.46253
7331.271	12.88739	2.50538	13.45104	1.50048
7335.269	12.84932	2.49396	13.39786	1.56171
7339.232	12.86102	2.46921	13.71107	1.03204
7343.261	12.85053	2.44791	13.54218	1.20612
7347.269	12.80629	2.40451	13.67555	0.73104
7351.269	12.78179	2.38295	13.69476	0.77694
7355.268	12.76017	2.41402	13.65545	0.59481
7359.292	12.77745	2.38517	13.75779	0.66567
7363.270	12.79864	2.45504	13.71355	0.64509
7367.269	12.82524	2.35637	13.72688	0.61519
7371.269	12.88270	2.27471	13.65638	0.54169
7375.293	12.85628	2.26567	13.75697	0.67702
7379.268	12.87346	2.23905	13.78602	0.66255
7383.269	12.94044	2.20607	13.73219	0.65450
7387.224	12.92206	2.22457	13.77137	0.77818
7391.270	12.91067	2.16125	13.71453	0.83815
7395.269	12.89499	2.19980	13.56019	0.81706
7399.269	12.88690	2.16721	13.62838	0.79461
7403.269	12.98506	1.98611	13.64626	0.82657
7407.271	13.05296	2.00716	13.61574	0.84589
7411.270	13.01590	2.02170	13.64928	0.90651
7415.271	12.92580	2.04923	13.67023	1.04704
7419.270	12.94752	2.03795	13.70010	1.03293
7423.275	12.98612	2.10131	13.73004	1.13451
7427.270	12.94438	2.03899	13.88937	1.00856
7431.269	12.96128	2.05042	13.82988	1.07889
7435.270	12.93948	2.04605	13.79648	1.20831
7439.274	12.93688	2.10586	13.90721	1.20620
7443.271	13.11137	1.79893	13.88827	1.17271
7447.273	13.22542	2.02365	13.79590	1.18116
7451.274	13.25961	2.03436	13.51499	1.14086
7455.277	13.25630	2.04557	13.58008	1.04963
7459.273	13.40962	2.09521	13.37122	1.05589
7463.241	13.44702	2.19914	13.38602	1.17177
7467.271	13.63381	2.09163	13.52022	1.07234
7471.272	13.71057	2.15712	13.59171	1.09169
7475.269	13.61748	2.20927	13.55768	1.14046
7479.269	13.62760	2.28930	13.58151	1.12718
7483.271	13.65191	2.31098	13.79737	0.98483
7487.275	13.63145	2.21991	13.62034	1.00409
7491.271	13.48134	2.25910	13.69073	0.92149
7495.272	13.43247	2.24708	13.48852	1.04943
7499.271	13.26904	2.47725	13.44360	1.13963
7503.261	13.09689	3.73329	13.66006	1.20489
7507.269	13.68441	5.18909	13.74680	1.45162
7511.272	13.35729	5.81293	13.68940	4.09664
7515.273	13.97241	6.74331	13.95000	8.71311
7519.275	13.30649	7.31417	14.24310	9.27873
7523.230	13.22836	8.27159	15.17184	10.09484
7527.272	13.58303	8.21052	15.43035	9.65446
7531.272	13.12331	8.34353	15.24046	10.21918
7535.276	13.24866	8.33256	15.00357	10.38282
7539.276	13.37068	8.47459	14.41587	10.67339
7543.274	13.52477	8.59571	14.25368	11.02395
7547.271	13.43559	8.73678	14.08019	11.75918
7551.277	13.28437	8.82775	14.11895	12.53866
7555.273	13.43571	9.05592	14.03641	12.73273
7559.273	13.58350	9.06632	13.96921	11.89711
7563.274	13.78511	9.01470	13.83933	12.52535
7567.277	13.97596	9.08884	14.18540	11.08361
7571.275	13.89393	9.21785	14.01293	11.23715
7575.274	14.14665	9.20226	14.31423	11.42465
7579.282	14.00849	9.28405	14.40211	11.94356
7583.276	14.06401	9.46242	13.99816	11.61447
7587.250	14.14198	9.54761	14.12357	11.80428
7591.275	14.33448	9.62930	14.22871	13.02282
7595.274	14.34678	9.55066	14.33045	11.88774
7599.278	14.37277	9.49003	14.54653	11.85534
7603.275	14.74813	9.48978	14.51409	11.61715
7607.274	14.65233	9.49132	14.63086	11.66018
7611.273	14.92934	9.24580	14.62015	10.57090
7615.278	15.18818	9.06959	14.50670	11.57260
7619.275	15.08937	9.17732	14.50142	11.68142
7623.278	14.91467	9.24429	14.43461	10.76411
7627.275	14.91265	8.94636	14.45158	10.26631
7631.278	14.82915	8.89812	14.58571	11.01772
7635.275	14.63184	8.91511	14.59170	11.36337
7639.236	14.78855	8.94952	14.67472	11.02272
7643.278	14.75744	8.88727	14.71329	10.77031
7647.278	14.67258	8.88929	14.74479	11.00970
7651.275	15.05286	8.54910	14.67871	10.93307
7655.276	14.90765	8.58224	14.43838	10.91905
7659.275	14.66157	8.57803	14.26429	10.99760
7663.181	14.56088	8.68595	14.25035	10.94501
7667.275	14.52581	8.59481	14.09072	11.08398
7671.244	14.44990	8.73084	13.99150	11.85953
7675.276	14.65202	8.44079	14.49602	11.03884
7679.279	14.74386	8.54801	14.55028	10.96308
7683.275	14.59154	8.58011	14.40896	10.96289
7687.234	14.72631	8.52415	14.22946	11.21680
7691.274	14.63764	8.59282	14.43517	10.54954
7695.279	13.72388	8.82569	13.55320	12.07549
7699.277	12.98178	9.07046	10.56512	13.02985
7703.275	10.86701	8.95621	6.62375	12.94961
7707.276	8.78663	9.82288	5.66710	13.62883
7711.261	6.50075	9.65525	2.97086	13.84586
7715.268	4.49324	9.98017	1.24783	12.39984
7719.277	3.65418	9.93726	2.65067	12.81772
7723.279	0.45257	9.97191	-1.88802	11.94488
7727.282	-1.30223	9.69721	-3.22878	11.17769
7731.278	-2.73298	9.77909	-5.46153	11.26172
7735.277	-4.26578	9.50849	-6.77374	10.95632
7739.278	-5.22072	9.53487	-7.65880	11.20121
7743.278	-6.37773	9.40064	-8.98487	13.96170
7747.278	-8.16909	9.25940	-9.89092	10.94672
7751.279	-8.86170	9.47319	-10.25872	11.01007
7755.278	-9.34167	9.18284	-10.46918	10.91364
7759.281	-9.27491	9.33263	-10.45550	11.23221
7763.277	-9.40760	9.37339	-10.36089	11.33688
7767.280	-9.56634	9.32671	-10.12565	11.22874
7771.279	-9.96441	9.31404	-10.02422	11.62847
7775.283	-10.78726	9.37337	-10.19849	11.49078
7779.280	-11.37426	9.29492	-10.22411	11.32072
7783.279	-11.36155	9.41259	-10.20531	11.23999
7787.281	-9.32219	9.52132	-10.22584	11.01043
7791.294	-9.33258	9.60728	-10.24264	11.66955
7795.251	-9.43288	9.66157	-10.12962	11.08495
7799.278	-9.21343	9.46857	-9.95832	11.29187
7803.279	-9.18937	9.37787	-9.85618	12.60038
7807.282	-9.18516	9.20003	-9.66115	10.81548
7811.277	-9.08636	9.23054	-9.75432	10.97070
7815.279	-9.14152	9.16631	-9.83199	11.80607
7819.279	-9.12469	9.12113	-9.56677	11.05063
7823.282	-9.08469	9.21915	-9.53410	10.15144
7827.279	-9.04328	9.32704	-9.60444	11.25476
7831.282	-9.03265	9.36265	-9.57886	10.88088
7835.278	-9.02808	8.98794	-9.51075	11.15874
7839.179	-9.04614	8.85333	-9.60806	10.67383
7843.280	-8.99796	8.59826	-9.73829	10.19959
7847.280	-9.30691	8.78208	-9.86948	11.37524
7851.279	-9.92389	8.76847	-9.50119	11.72736
7855.284	-8.86379	9.14531	-9.72262	11.52975
7859.280	-8.82160	9.05304	-9.85033	11.42856
7863.279	-8.82822	9.12712	-9.20828	10.85026
7867.280	-8.89581	9.23813	-9.35469	10.37678
7871.286	-9.18847	9.51147	-9.27467	11.16410
7875.282	-8.95169	9.52534	-9.17442	10.68910
7879.251	-9.06710	9.44116	-9.11365	11.69211
7883.281	-8.96118	9.35142	-9.10381	10.43992
7887.240	-9.05688	9.26437	-9.21246	10.58733
7891.283	-8.91432	9.25944	-9.14677	10.70517
7895.280	-8.84070	9.22191	-9.32659	10.33842
7899.290	-9.00544	9.27996	-9.17498	10.44564
7903.238	-9.01358	9.18199	-9.18047	10.48396
7907.279	-9.27416	9.49276	-9.98509	11.88818
7911.281	-10.48644	9.08720	-11.40627	10.58286
7915.281	-11.07202	8.27821	-14.17077	10.14876
7919.266	-12.51120	8.53812	-14.19273	9.96901
7923.278	-13.03896	7.83971	-15.12927	8.96611
7927.282	-14.46161	7.29217	-14.81978	7.92202
7931.156	-14.57792	8.01650	-14.90065	8.23871
7935.182	-14.93758	8.04617	-14.96571	8.54291
7939.158	-14.93300	7.92508	-15.03645	8.15534
7943.158	-14.83344	7.63523	-15.14514	7.84462
7947.158	-14.84297	7.38896	-15.31133	7.47338
7951.169	-14.87228	7.19799	-15.45760	6.75490
7955.159	-14.79468	6.95232	-15.59266	6.35330
7959.157	-14.82896	6.65456	-15.44435	6.67630
7963.159	-14.79507	6.86586	-15.36264	7.05826
7967.286	-14.76748	6.82975	-14.86782	7.51285
7971.159	-14.86963	6.84704	-15.14474	7.06329
7975.158	-14.89794	6.86338	-15.18520	6.84593
7979.157	-14.70767	6.62812	-14.80864	7.09746
7983.184	-14.78292	6.73438	-14.85746	7.11872
7987.159	-14.61613	6.57703	-15.00721	7.01188
7991.161	-14.58480	6.54623	-15.17057	7.12528
7995.158	-14.53819	6.61031	-15.10395	7.13275
7999.186	-14.53826	6.62956	-15.06366	6.83934
8003.159	-14.51702	6.50420	-14.87364	6.88323
8007.147	-14.41701	6.80219	-14.98461	5.81142
8011.148	-14.44555	6.56333	-14.92146	5.78541
8015.179	-14.42905	6.75085	-14.99686	6.07521
8019.159	-14.40223	6.60034	-14.96390	7.51925
8023.113	-14.37936	6.77145	-15.01772	7.11710
8027.115	-14.29664	7.18733	-14.91281	6.17597
8031.178	-14.32936	7.31277	-14.83232	6.62611
8035.160	-14.33688	6.81915	-14.73516	6.86975
8039.157	-14.36565	7.24156	-14.72241	7.06410
8043.159	-14.19739	7.04655	-14.60776	6.98899
8047.181	-14.20931	7.16547	-14.61915	7.35137
8051.130	-14.29026	6.92200	-14.67455	7.50830
8055.158	-14.28557	7.14478	-14.69427	7.87069
8059.161	-14.16147	7.03560	-14.52444	7.19070
8063.179	-14.15703	7.07233	-14.55681	7.18403
8067.160	-14.27646	7.08723	-14.55195	7.38248
8071.159	-14.37452	6.94938	-14.52898	7.08891
8075.160	-14.21628	6.86946	-14.64782	7.54928
8079.156	-14.11379	6.88704	-14.76570	7.82695
8083.161	-14.26909	6.86760	-14.71062	7.17807
8087.163	-14.24965	6.86798	-14.63795	6.83767
8091.143	-14.34371	6.82412	-14.72034	6.92426
8095.158	-14.25499	6.87769	-14.75864	6.85217
8099.161	-14.26678	6.89822	-14.75372	6.84541
8103.160	-14.25184	6.77471	-14.90447	6.89503
8107.161	-14.20266	6.85213	-14.81481	6.69089
8111.184	-14.10468	7.04971	-14.85709	6.58957
8115.160	-13.98505	7.20976	-14.84983	6.56720
8119.115	-13.99655	7.25892	-14.90999	6.64651
8123.160	-13.99730	7.21780	-14.55139	6.90093
8127.181	-14.15941	6.56646	-14.52116	6.64849
8131.159	-14.10702	7.36168	-14.79310	6.72452
8135.132	-14.17094	-0.34532	-14.97122	6.11718
8139.118	-14.11946	4.76501	-14.79574	3.28518
8143.130	-14.02300	4.14589	-14.82620	2.84121
8147.160	-14.15370	3.38069	-14.99480	2.71997
8151.161	-14.13456	3.48137	-14.87292	2.66649
8155.161	-14.18638	3.12521	-15.03186	2.52662
8159.184	-14.21745	3.27745	-15.19653	2.71421
8163.163	-14.28448	3.25373	-15.10004	2.27034
8167.162	-14.36101	3.19944	-15.08141	2.10791
8171.163	-14.46114	3.05347	-15.09180	1.81073
8175.184	-14.52877	2.91817	-15.07868	1.95805
8179.163	-14.58592	2.72027	-14.97819	2.01834
8183.164	-14.51332	2.83319	-15.00102	1.90937
8187.164	-14.48062	2.91936	-14.97087	1.98685
8191.161	-14.39902	3.06097	-14.90503	1.86360
8195.162	-14.37981	3.09673	-14.91022	1.75004
8199.164	-14.33443	3.18415	-14.91573	1.68536
8203.162	-14.35251	3.27031	-14.88076	1.57753
8207.184	-14.44955	3.13225	-14.88853	1.49363
8211.166	-14.32178	3.02644	-14.91715	1.18925
8215.156	-14.34417	2.86704	-14.94342	0.89579
8219.151	-14.26142	2.70904	-15.38055	1.39288
8223.184	-14.35426	2.77832	-15.63187	1.14038
8227.162	-14.22458	3.02135	-15.11678	2.28901
8231.162	-14.09724	3.06700	-15.19639	2.18160
8235.163	-13.89512	3.30490	-15.19875	1.82505
8239.183	-13.80002	3.17633	-15.21573	1.50116
8243.162	-14.33425	3.07866	-15.39165	1.30067
8247.163	-14.45463	2.97787	-15.30748	2.19311
8251.164	-14.19571	2.96420	-15.59789	1.46552
8255.185	-13.70898	2.66274	-15.16546	2.23013
8259.133	-13.66487	0.66123	-15.10843	1.56991
8263.164	-13.32486	-0.92607	-14.45020	-1.79488
8267.165	-12.87850	-3.55045	-13.39687	-2.69644
8271.184	-13.08505	-3.16937	-14.16357	-3.70208
8275.165	-12.54661	-3.63435	-14.05285	-6.57421
8279.165	-12.88107	-5.46409	-13.26725	-6.51664
8283.164	-13.52053	-5.56247	-11.52693	-6.31577
8287.186	-12.51489	-6.84451	-11.72745	-7.29280
8291.169	-12.55649	-8.17677	-12.19178	-8.20225
8295.166	-12.54299	-8.67959	-12.21961	-8.80812
8299.164	-12.49878	-11.09486	-11.73195	-9.65531
8303.187	-12.48592	-10.08393	-11.50074	-8.83009
8307.164	-12.29346	-9.03500	-12.33740	-10.37442
8311.166	-12.42347	-8.74509	-11.54142	-10.85158
8315.165	-14.48776	-10.68486	-11.17121	-10.32895
8319.190	-14.87860	-10.68002	-11.06122	-10.28694
8323.165	-12.20906	-10.25499	-11.39067	-10.30819
8327.164	-12.52963	-11.13180	-11.36005	-9.98162
8331.165	-12.74452	-11.48085	-11.29001	-9.95567
8335.169	-12.65985	-11.54025	-11.28407	-9.91967
8339.164	-12.60174	-11.32871	-11.41478	-10.00577
8343.128	-12.81481	-10.79571	-11.60306	-9.99624
8347.164	-12.88980	-11.01111	-11.39821	-9.87865
8351.189	-12.89798	-10.85741	-11.30760	-9.78443
8355.165	-12.99991	-11.29215	-11.22690	-9.78253
8359.165	-13.02608	-10.71447	-11.28641	-9.75584
8363.166	-13.05489	-10.80337	-11.34604	-9.69001
8367.188	-13.05790	-10.85693	-11.30646	-9.65638
8371.166	-13.02561	-10.84182	-11.31443	-9.57485
8375.169	-12.98282	-10.73570	-11.30052	-9.54827
8379.168	-12.96213	-10.74172	-11.35131	-9.56072
8383.157	-13.01074	-10.64405	-11.35318	-9.51185
8387.123	-13.04723	-10.57224	-11.35821	-9.47919
8391.168	-13.01072	-10.49665	-11.41662	-9.46619
8395.166	-13.11053	-10.39717	-11.46032	-9.41644
8399.155	-13.12827	-10.34780	-11.51707	-9.39834
8403.168	-13.12512	-10.38973	-11.48265	-9.32927
8407.168	-13.08486	-10.29402	-11.52881	-9.27587
8411.168	-13.05950	-10.24260	-11.51316	-9.18808
8415.170	-13.13960	-10.14767	-11.68895	-9.05578
8419.169	-13.06873	-10.03427	-11.61556	-9.01415
8423.160	-13.14569	-9.97281	-11.59425	-8.94446
8427.169	-13.06077	-10.06120	-11.63394	-8.86738
8431.160	-13.06475	-9.83828	-11.67265	-8.84003
8435.168	-13.08997	-9.89220	-11.47205	-8.90577
8439.169	-13.03338	-9.67675	-11.40779	-8.88284
8443.168	-12.98633	-9.42403	-11.08892	-8.81131
8447.157	-12.97707	-9.27932	-11.15298	-8.69259
8451.169	-12.96830	-9.20285	-11.24089	-8.66196
8455.168	-12.97519	-9.54918	-11.17605	-8.52447
8459.169	-12.94417	-9.34681	-11.20627	-8.30025
8463.172	-12.93000	-9.72432	-11.02206	-8.22803
8467.137	-12.93516	-9.67454	-11.14060	-8.36201
8471.168	-12.95647	-9.60540	-11.04379	-8.41456
8475.168	-12.94415	-9.41600	-11.09150	-8.31260
8479.167	-12.92484	-9.38714	-11.09095	-8.20904
8483.168	-12.86091	-9.13099	-11.13587	-8.19958
8487.169	-12.87065	-8.73902	-11.16743	-8.06073
8491.171	-12.84819	-8.69616	-11.16827	-7.98596
8495.168	-12.83416	-8.79027	-11.03870	-7.83625
8499.170	-12.71446	-7.94326	-10.85416	-6.47011
8503.170	-11.59577	-7.75041	-10.82713	-6.67124
8507.169	-8.61149	-5.88529	-10.67138	-6.92358
8511.173	-8.06908	-6.39593	-7.61041	-6.46338
8515.172	-6.20465	-5.79162	-7.33059	-6.23899
8519.129	-4.53569	-5.96274	-5.96782	-5.30625
8523.131	-2.49964	-5.96699	-3.97543	-5.94284
8527.171	-0.77089	-5.54234	-1.89791	-5.56757
8531.169	-0.10753	-6.21527	0.01169	-5.50591
8535.168	1.36593	-6.20356	-1.13620	-4.18412
8539.169	1.36447	-5.91175	2.93750	-5.43006
8543.162	1.62971	-5.90364	2.48933	-5.05506
8547.171	1.35782	-5.85577	2.63903	-5.01681
8551.162	1.32890	-5.84962	2.62776	-5.03698
8555.169	1.18609	-5.70216	2.64208	-5.07187
8559.172	1.02350	-5.77270	2.63324	-5.05797
8563.170	0.98561	-5.75842	2.74437	-5.10277
8567.171	1.05012	-5.72397	2.70067	-5.06254
8571.171	1.03784	-5.76163	2.76220	-5.10742
8575.128	1.17054	-5.68397	2.67650	-5.11113
8579.172	1.15650	-5.63973	2.61412	-5.17726
8583.171	1.17044	-5.61107	2.62412	-5.23374
8587.171	1.13194	-5.58641	2.62828	-5.28965
8591.072	1.08440	-5.66949	2.61352	-5.34784
8595.172	1.06441	-5.64813	2.59854	-5.40199
8599.171	0.94227	-5.65370	2.53672	-5.44449
8603.171	0.82620	-5.67624	2.51670	-5.51731
8607.070	0.76263	-5.59173	2.50915	-5.59183
8611.173	0.70965	-5.53439	2.48752	-5.69737
8615.171	0.52438	-5.59686	2.48985	-5.79746
8619.172	0.43616	-5.58610	2.53773	-5.88162
8623.176	0.50031	-5.57931	2.50974	-5.96781
8627.173	0.42328	-5.68553	2.53865	-5.99552
8631.172	0.34526	-5.63546	2.53803	-6.07546
8635.169	0.34159	-5.58727	2.52763	-6.14072
8639.128	0.31915	-5.58281	2.52106	-6.18244
8643.171	0.29446	-5.61723	2.53427	-6.18604
8647.172	0.31595	-5.63459	2.60030	-6.20056
8651.172	0.27922	-5.62356	2.60562	-6.25804
8655.175	0.45703	-5.69867	1.28350	-6.28502
8659.171	0.34332	-5.67313	2.23643	-6.22256
8663.174	0.77002	-5.68547	2.56037	-6.19401
8667.173	4.00907	-5.67920	2.51450	-6.00798
8671.132	7.09976	-5.97322	4.51970	-6.05889
8675.137	9.24946	-7.09484	4.25739	-5.79183
8679.173	8.68798	-6.27063	6.96101	-5.96621
8683.174	9.84262	-6.53546	8.16486	-6.09525
8687.070	11.78557	-7.42261	10.12527	-6.50987
8691.175	12.35550	-7.17110	10.87187	-7.16198
8695.177	13.18357	-7.51541	12.41689	-7.50827
8699.174	13.51818	-7.69816	13.03673	-7.45153
8703.071	13.74381	-7.72164	13.19040	-7.56248
8707.175	13.56840	-7.69442	13.15990	-7.17435
8711.174	12.86718	-7.80028	13.21197	-7.58948
8715.156	12.70697	-7.94135	13.18760	-7.73346
8719.071	12.46476	-7.95841	13.16075	-7.71046
8723.174	12.39894	-7.99922	13.07220	-7.72685
8727.175	12.24505	-8.06490	13.09221	-7.77882
8731.175	12.30346	-8.18030	13.01079	-7.83796
8735.071	12.26453	-8.23589	12.98805	-7.84366
8739.175	12.27415	-8.23688	12.93559	-7.73688
8743.175	12.23815	-8.27738	12.86027	-7.71511
8747.177	12.23706	-8.33155	12.64905	-7.66661
8751.073	12.09047	-8.32343	12.64416	-7.67090
8755.175	12.03895	-8.27232	12.58096	-7.62026
8759.138	11.98683	-8.26116	12.54289	-7.61845
8763.138	11.93667	-8.16296	12.48324	-7.53689
8767.073	11.97341	-8.16813	12.43017	-7.48997
8771.177	11.92928	-8.09966	12.34953	-7.47169
8775.176	11.95353	-8.01307	12.29713	-7.44025
8779.175	11.85775	-7.95347	12.26081	-7.39576
8783.071	11.79879	-7.86011	12.22630	-7.40541
8787.175	11.81132	-7.71352	12.13704	-7.38343
8791.175	11.78029	-7.69933	12.14983	-7.36167
8795.178	11.84439	-7.58808	12.07903	-7.34871
8799.075	11.87881	-7.56269	12.01271	-7.35146
8803.176	11.85654	-7.43355	12.03123	-7.37358
8807.177	11.85540	-7.25783	11.99576	-7.41116
8811.176	11.85507	-7.23773	11.92997	-7.43948
8815.072	11.99108	-7.25687	11.93251	-7.45989
8819.176	12.10537	-7.17763	11.91334	-7.46312
8823.178	12.19365	-7.13481	11.90963	-7.46802
8827.178	12.20107	-7.11142	11.96261	-7.54868
8831.074	12.22580	-7.07350	11.98681	-7.61907
8835.178	12.36478	-7.04018	12.16878	-7.79202
8839.166	12.49897	-6.98606	12.18377	-7.86628
8843.176	12.47129	-6.95226	12.23988	-7.97905
8847.028	12.48381	-6.96856	12.31263	-8.02628
8851.176	12.54124	-7.00254	12.39000	-8.15235
8855.177	12.20257	-6.98452	12.49453	-8.21636
8859.177	12.29344	-6.90426	12.55907	-8.27655
8863.076	12.27775	-6.84269	12.65909	-8.30135
8867.177	11.91728	-6.80902	12.70669	-8.33984
8871.176	11.75557	-7.01716	12.78151	-8.36203
8875.179	11.62694	-7.00298	12.83859	-8.38566
8879.079	11.07310	-7.26351	12.86485	-8.38600
8883.146	11.44504	-7.14805	12.93535	-8.39733
8887.133	11.44680	-7.31301	13.01209	-8.39333
8891.177	11.42468	-7.41384	9.89270	-7.97275
8895.075	11.29479	-7.26952	9.53692	-7.88665
8899.179	11.30541	-7.48559	9.35764	-7.68733
8903.132	11.17316	-7.64314	9.76114	-7.69208
8907.180	11.12101	-7.52521	9.76011	-7.48804
8911.079	11.11932	-7.47971	9.77305	-7.27978
8915.179	11.13872	-7.54532	10.10179	-7.19324
8919.180	11.19390	-7.51081	10.46541	-7.16032
8923.161	11.22613	-7.49424	10.31626	-7.12774
8927.070	11.28944	-7.45536	10.41566	-7.07347
8931.181	11.22506	-7.33992	10.87635	-7.08806
8935.181	11.35065	-7.29744	10.99927	-7.09757
8939.181	11.34437	-7.27554	11.33430	-7.11859
8943.076	11.05268	-7.17743	11.64109	-7.12437
8947.055	11.04097	-7.18626	12.10098	-7.15339
8951.011	11.05297	-7.15817	12.07201	-7.11751
8955.054	10.98920	-7.12354	10.65827	-7.07106
8959.138	11.06124	-7.17523	10.81865	-7.00866
8963.056	11.27304	-7.17770	10.57934	-6.84348
8967.054	11.70345	-7.19836	10.76650	-6.93422
8971.029	11.71810	-7.19368	11.01852	-6.91289
8975.024	11.25280	-7.22011	11.65154	-6.92480
8979.055	10.89418	-7.13915	12.13591	-7.07319
8983.054	10.81568	-7.09429	12.52220	-7.07929
8987.054	11.01560	-7.17852	12.72917	-7.20941
8991.078	11.19569	-7.08075	10.53219	-6.93322
8995.055	11.65435	-7.23752	10.45142	-6.80805
8999.055	12.02314	-7.26197	10.68813	-6.86884
9003.056	11.26562	-7.11536	11.02366	-7.04453
9007.055	11.19702	-7.11079	11.88532	-7.17210
9011.044	10.89497	-6.94559	12.75283	-7.37428
9015.054	11.03310	-6.87166	12.89435	-7.40866
9019.056	11.04159	-6.83783	12.81580	-7.55770
9023.056	11.42565	-6.94649	10.33490	-7.30027
9027.057	12.04153	-7.04397	10.69398	-7.27345
9031.057	11.65356	-6.89098	11.69500	-7.45129
9035.059	11.16679	-6.89195	12.02152	-7.55123
9039.054	10.87661	-6.75951	12.51544	-7.67172
9043.057	10.96471	-6.73563	12.34503	-7.57775
9047.059	10.97901	-6.76357	12.77950	-7.61120
9051.057	11.41771	-6.78412	10.41467	-7.42848
9055.057	11.80288	-6.94412	11.55302	-7.37890
9059.062	11.70564	-7.06757	11.67908	-7.41712
9063.057	11.78286	-6.91698	12.09128	-7.53503
9067.057	10.86335	-6.72890	11.81004	-7.42303
9071.056	10.88635	-6.44014	12.06790	-7.50120
9075.018	11.15838	-6.60493	12.49623	-7.55941
9079.058	11.18465	-6.67615	12.74050	-7.57776
9083.057	11.18348	-6.70266	12.31758	-7.54244
9087.049	11.37896	-6.82080	11.10378	-7.47721
9091.059	11.70728	-6.74718	11.72665	-7.44442
9095.039	11.87836	-6.82624	11.87132	-7.47267
9099.059	11.25810	-6.81385	11.96876	-7.48971
9103.055	11.68876	-7.08449	12.16958	-7.45271
9107.058	11.42942	-7.33009	12.11958	-7.47516
9111.059	11.29930	-7.34864	12.17162	-7.48731
9115.059	11.34358	-7.87799	12.17568	-7.51379
9119.051	11.34201	-7.29006	12.39686	-7.53565
9123.059	11.40446	-7.21455	12.01397	-7.39008
9127.058	11.21802	-7.67321	12.10198	-7.34967
9131.061	11.25003	-7.90874	11.89117	-7.32486
9135.084	11.26097	-7.88195	11.96591	-7.36262
9139.015	11.14099	-7.55460	12.00502	-7.40505
9143.060	11.27524	-7.73072	12.08509	-7.46991
9147.060	11.20214	-7.65053	12.13512	-7.53586
9151.051	11.23779	-7.74981	12.22914	-7.56924
9155.060	11.16982	-7.59700	12.19368	-7.47788
9159.059	11.18673	-7.23487	11.44091	-7.39275
9163.060	11.25225	-6.65821	12.02456	-6.70558
9167.091	10.82157	-2.59406	10.87225	-3.67757
9171.060	10.54464	-1.07192	10.57481	-2.15719
9175.060	9.40496	0.41888	11.62132	-1.55875
9179.033	9.55065	2.17456	10.90968	1.23150
9183.053	9.17853	3.61555	10.14415	1.60902
9187.060	9.38528	4.43711	10.01287	4.40274
9191.059	8.93706	6.78920	10.01539	4.99694
9195.063	9.11387	6.90875	9.78115	6.06115
9199.080	9.21868	6.92914	9.60567	7.14805
9203.060	8.99913	7.10020	9.43407	6.79360
9207.060	8.84993	7.06187	9.17544	7.39109
9211.060	8.90953	7.12381	7.17463	14.64896
9215.051	8.79787	7.10530	NaN	NaN
9219.047	8.82727	7.15384	NaN	NaN
9223.055	8.88244	7.23040	9.15918	9.92222
9227.061	9.00767	7.21492	8.90202	7.68781
9231.051	9.02622	7.20494	8.80856	7.87942
9235.061	9.12556	7.26483	NaN	NaN
9239.061	9.31789	7.28890	8.71530	7.81994
9243.061	9.12909	7.37229	NaN	NaN
9247.059	9.28013	7.38311	NaN	NaN
9251.060	9.47802	7.43822	NaN	NaN
9255.063	9.51225	7.43546	NaN	NaN
9259.063	9.62058	7.40488	NaN	NaN
9263.020	9.63788	7.24402	NaN	NaN
9267.063	9.65459	7.19952	NaN	NaN
9271.019	9.61392	7.09326	8.82061	9.03290
9275.063	9.62774	7.03644	9.03374	9.41269
9279.084	9.72833	6.98270	NaN	NaN
9283.062	9.67109	6.89060	NaN	NaN
9287.062	9.71476	6.89396	NaN	NaN
9291.060	9.77664	6.91768	9.22881	6.87172
9295.062	9.87945	6.90906	9.27629	6.92279
9299.063	9.95769	6.77436	9.32912	7.02026
9303.038	9.96000	6.73326	9.45578	7.13371
9307.062	9.89508	6.75298	9.53207	7.13139
9311.084	9.79330	6.74900	9.57824	7.04185
9315.063	9.83303	6.81913	9.71196	6.91608
9319.061	9.84609	6.81495	9.81602	6.41482
9323.064	9.78409	6.81957	9.94611	6.29711
9327.084	9.68503	6.84565	10.11142	6.57657
9331.064	9.70082	6.84290	9.88278	6.71276
9335.062	9.60444	6.81942	10.24072	6.70836
9339.065	9.54138	6.78601	8.98000	9.18168
9343.077	9.48524	6.79540	8.62326	9.06400
9347.063	9.40789	6.80385	8.50930	9.34328
9351.064	9.38743	6.84771	8.44059	9.84966
9355.062	9.39470	6.87898	8.43960	10.16508
9359.055	9.32956	6.90305	8.37560	10.10109
9363.064	9.33683	6.96396	8.56248	10.32284
9367.065	9.31893	7.06111	8.32509	10.51808
9371.065	9.29556	7.15474	8.36338	10.87957
9375.067	9.26662	7.23921	10.02673	7.09759
9379.066	9.28502	7.21161	9.85527	7.63349
9383.065	9.27148	7.27516	9.62835	6.22492
9387.027	9.25801	7.31204	9.67914	6.56606
9391.065	9.28434	7.33406	9.65129	6.57368
9395.066	9.29125	7.38066	9.66315	7.04980
9399.067	9.33442	7.40489	9.18971	7.15286
9403.065	9.46247	7.33962	9.38501	7.17177
9407.056	9.83763	7.16144	9.36329	7.34643
9411.063	10.02391	7.02808	9.21094	7.47101
9415.063	9.91117	6.91580	9.17263	7.80092
9419.064	9.95322	6.78715	9.52285	7.07622
9423.070	9.97628	6.78617	9.51343	7.26044
9427.054	9.98925	6.71622	9.41250	7.64385
9431.060	9.97505	6.65700	9.35897	7.73047
9435.065	9.95076	6.66621	9.26225	8.05202
9439.065	9.91563	6.61693	9.25195	7.85131
9443.065	9.66535	6.59971	7.86802	7.83409
9447.065	9.37042	6.60666	7.98863	7.14623
9451.065	9.76235	6.62200	5.56741	13.42317
9455.068	9.60613	6.64350	5.48211	7.38969
9459.065	9.55285	6.66595	5.37173	7.61672
9463.069	9.35413	6.71164	5.10172	7.91205
9467.066	9.25835	6.71457	6.66413	7.47123
9471.071	9.11077	6.72852	9.17428	7.15379
9475.067	9.03757	6.77178	9.10891	7.14036
9479.065	9.04021	6.75510	8.93406	6.49965
9483.067	9.25349	6.68016	9.27748	6.84508
9487.069	9.32243	6.57202	9.69810	7.32497
9491.066	9.37962	6.49523	9.40318	7.12464
9495.065	9.36612	6.61257	9.40460	7.13717
9499.067	9.51841	6.67922	9.35984	7.46028
9503.067	9.65664	6.70569	9.21981	7.46198
9507.067	9.65645	6.75947	9.59648	7.02615
9511.056	9.73388	6.93243	9.51867	6.96810
9515.066	9.74707	7.02754	9.55804	7.33318
9519.066	9.35957	6.59264	9.52676	7.39022
9523.024	8.38070	6.78570	9.46447	7.45817
9527.067	9.98769	6.54300	9.42760	7.51976
9531.068	10.05098	6.47730	9.43305	7.56382
9535.059	10.11457	6.74033	7.01370	7.47312
9539.068	9.99912	6.67426	7.82889	6.91847
9543.067	10.01746	6.83043	7.42544	6.96752
9547.069	10.05979	6.68989	7.13505	6.87667
9551.064	10.02386	6.67769	7.00296	7.42436
9555.059	10.06727	6.52818	9.41934	6.51303
9559.069	10.24848	6.50467	9.49441	7.61349
9563.066	10.39957	6.63981	9.49448	7.56054
9567.071	11.45891	6.72985	9.82279	8.14456
9571.069	12.08404	6.77203	11.28455	9.98881
9575.069	13.67529	6.86962	12.02758	9.98691
9579.069	12.48324	7.11318	11.88689	9.56041
9583.071	13.07815	7.47116	12.75254	10.16351
9587.071	12.99609	7.94525	13.17158	9.78001
9591.069	12.62939	8.28238	13.24612	10.05727
9595.076	15.07382	7.97752	13.31368	8.46412
9599.073	15.12765	7.80493	13.55271	9.95014
9603.068	14.90734	8.19092	13.52233	10.15932
9607.069	14.87670	5.49498	13.77181	9.92951
9611.069	14.87967	5.08106	13.69003	9.95530
9614.968	14.81242	4.89049	13.62915	10.00813
9619.024	14.17229	8.29517	13.85150	10.10042
9623.069	14.59463	8.32013	13.91399	10.31293
9627.069	14.68203	8.27489	13.90964	10.15970
9631.074	14.55776	8.19833	14.17411	10.32074
9635.055	14.49567	8.12047	14.08573	10.04672
9639.067	14.33793	8.09500	14.07968	10.14933
9643.070	14.17756	8.07072	13.99216	10.11679
9647.073	14.03736	7.99123	14.02917	10.21311
9651.070	13.90417	8.04724	13.90586	9.73321
9655.072	13.78616	8.04396	13.88263	9.51720
9659.070	14.00111	7.92234	13.99043	9.81317
9663.075	16.70497	7.40843	14.02342	9.65026
9667.072	18.89363	6.19396	14.00926	10.00318
9671.074	18.77834	5.61348	14.02419	9.66780
9675.074	13.74938	7.89408	13.92629	9.61839
9678.972	13.68811	7.87577	13.92629	9.67249
9683.073	13.69101	7.75678	13.89561	9.44165
9687.071	17.13819	5.63212	13.87087	9.20756
9691.071	14.22195	5.87399	13.51161	9.32010
9694.972	14.38533	5.79474	13.90565	9.96407
9699.034	14.35260	7.98232	14.05430	9.58937
9703.072	14.35382	8.12556	14.01877	9.74301
9707.070	14.34948	8.18598	14.14448	10.02673
9711.076	14.53065	7.18380	14.09184	9.62930
9715.071	14.35866	7.53795	13.73580	9.73878
9719.070	14.22204	8.13396	13.77750	9.36005
9723.070	14.36064	7.47203	14.15405	9.42827
9727.073	15.23884	7.59820	13.37982	9.68224
9731.072	15.47690	9.01641	14.27823	11.45558
9735.073	14.51232	8.83209	13.94004	12.42429
9739.071	12.13455	12.47843	12.45620	9.42331
9742.969	14.19077	8.87304	8.95540	9.38263
9747.072	8.35682	11.68937	4.97196	4.84363
9751.073	NaN	NaN	NaN	NaN
9755.075	NaN	NaN	NaN	NaN
9759.068	NaN	NaN	NaN	NaN
9763.074	NaN	NaN	NaN	NaN
9767.071	NaN	NaN	NaN	NaN
9771.072	NaN	NaN	NaN	NaN
9775.044	NaN	NaN	NaN	NaN
9779.075	NaN	NaN	NaN	NaN
9783.074	NaN	NaN	NaN	NaN
9787.075	NaN	NaN	NaN	NaN
9791.031	NaN	NaN	NaN	NaN
9795.032	NaN	NaN	NaN	NaN
9799.076	NaN	NaN	NaN	NaN
9803.053	NaN	NaN	21.97748	-3.16708
9807.071	-3.51322	-2.77018	2.85489	-8.23789
9811.074	-4.66196	3.21454	3.93142	-7.10022
9814.967	-3.69931	-7.67461	-1.16917	-6.39965
9819.046	-1.43637	-7.91804	-2.12736	-6.69149
9823.073	-0.84885	-7.90640	-5.48462	-7.29078
9827.072	-1.30273	-7.40075	-2.10677	-6.51706
9830.973	-2.76346	-3.97891	-1.95785	-6.18429
9835.075	-0.85969	-6.53145	-2.35258	-7.16471
9839.075	-1.41953	-6.10991	-1.98727	-7.32550
9843.074	-1.23364	-6.04144	-1.39163	-6.76717
9846.976	-1.16287	-5.90825	0.57074	-5.95985
9851.075	-0.93966	-5.72229	0.82781	-6.00099
9855.075	-0.80823	-6.15693	1.09194	-6.27345
9859.075	-0.87810	-5.94874	1.10249	-6.52436
9862.976	-1.13888	-6.02009	0.44269	-6.28873
9867.076	-0.96524	-5.98575	0.39090	-6.33698
9871.076	-0.86667	-5.95822	0.31501	-6.53203
9875.075	-0.65737	-6.00869	0.79687	-6.76345
9879.081	0.04177	-5.99888	1.17624	-6.63501
9883.077	-0.86250	-5.94350	1.49785	-6.58209
9887.049	-0.93748	-5.74692	1.88702	-6.66187
9891.031	-0.92706	-5.63500	1.99188	-6.66768
9894.979	-0.97968	-5.41064	2.21881	-6.69900
9899.079	-1.13211	-5.17896	2.27342	-6.75388
9903.030	-0.97432	-5.17116	0.39383	-6.77438
9907.076	-0.90907	-5.23939	0.58927	-6.76708
9911.078	-1.17446	-5.10751	0.62570	-6.87205
9915.077	-1.07612	-5.09370	1.38049	-6.93913
9919.078	-1.13367	-5.02182	0.60804	-6.68581
9923.078	-0.80436	-4.97129	0.93790	-6.58491
9927.081	-0.88014	-4.95662	1.12874	-6.59521
9931.078	-0.69119	-4.94811	-3.35820	-6.96963
9935.076	-0.92994	-4.95090	-3.63638	-7.00802
9939.077	-1.06312	-4.90937	-3.05979	-7.20743
9943.080	-0.90123	-4.86862	-2.99287	-7.44307
9947.078	-0.91453	-4.87356	-0.10825	-7.54400
9951.078	-0.87525	-4.83286	-3.40254	-7.84973
9955.077	-0.79213	-5.00422	-4.01196	-8.04401
9958.974	-0.88654	-4.99752	-3.40591	-8.23925
9962.952	-0.80719	-5.25000	-3.17896	-8.24506
9966.955	-0.95256	-5.12616	-2.83029	-8.55555
9970.953	-0.83116	-5.22060	-2.58898	-8.63089
9975.080	-0.95792	-5.29342	-1.41253	-8.79606
9978.955	-1.22732	-5.16946	-3.00722	-9.09309
9982.954	-1.01660	-5.13570	-1.50276	-9.22557
9986.953	-0.90728	-5.31416	-0.77191	-9.30798
9990.947	-0.78947	-5.33994	1.39319	-7.86466
9994.952	-0.92944	-5.31942	1.64823	-8.20347
9998.952	-0.67608	-5.30729	1.94337	-8.15543
10002.956	-0.79019	-5.37055	-4.09113	-7.96378
10006.981	0.17598	-5.25537	-1.89164	-8.00721
10010.960	0.50334	-5.14457	2.14178	-6.80232
10014.953	-0.78774	-5.19998	7.72919	-8.91014
10018.908	-3.61008	-5.32949	2.14634	-8.44409
10022.945	-3.08988	-5.21367	-2.89284	-8.05369
10026.952	0.83431	8.22940	1.58964	-2.30801
10030.954	-23.06067	11.33400	NaN	NaN
10034.952	-19.99377	-12.07742	NaN	NaN
10038.950	-19.99374	-12.07742	NaN	NaN
10042.955	-19.99374	-12.07742	NaN	NaN
10046.951	NaN	NaN	NaN	NaN
10050.952	NaN	NaN	NaN	NaN
10054.912	NaN	NaN	NaN	NaN
10058.953	NaN	NaN	NaN	NaN
10062.954	NaN	NaN	NaN	NaN
10066.954	NaN	NaN	NaN	NaN
10070.952	NaN	NaN	NaN	NaN
10074.953	NaN	NaN	NaN	NaN
10078.954	NaN	NaN	NaN	NaN
10082.953	NaN	NaN	NaN	NaN
10086.954	NaN	NaN	NaN	NaN
10090.955	NaN	NaN	NaN	NaN
10094.911	NaN	NaN	NaN	NaN
10098.949	NaN	NaN	NaN	NaN
10102.954	NaN	NaN	NaN	NaN
10106.956	NaN	NaN	NaN	NaN
10110.955	-6.39481	14.92341	-4.62190	6.27653
10114.977	-5.32001	10.27755	-6.58773	-3.57218
10118.912	-5.55821	14.38513	-0.13362	-8.56563
10122.956	-0.30064	0.97455	-4.03191	-7.89401
10126.956	-1.17984	1.04812	-0.92912	-7.72848
10130.956	-5.26374	-4.52313	-6.46167	-7.17962
10134.957	0.10207	-2.98575	-6.97020	-6.98939
10138.912	-1.18297	-2.38716	-7.10438	-6.69255
10142.948	-4.92634	-3.57736	-4.86512	-4.84583
10146.950	-4.59164	-3.77422	-4.77328	-4.96897
10150.956	-2.10230	-3.40065	-1.85864	-5.10881
10154.956	-2.88812	-2.22829	-2.81501	-5.20927
10158.956	-1.34450	-2.66116	-1.47437	-4.53160
10162.976	-2.06376	-2.31293	-1.76043	-5.27005
10166.957	-1.66517	-3.75420	-1.79373	-5.35168
10170.957	-1.88127	-3.41294	-1.77340	-5.10222
10174.958	-1.99000	-3.31058	-1.77070	-5.13424
10178.947	-2.11502	-3.37197	-1.88973	-5.06538
10182.925	-2.16672	-3.59078	-1.80370	-5.12077
10186.956	-2.28187	-3.73805	-1.91571	-5.05838
10190.955	-2.58291	-3.61544	-1.71605	-5.12527
10194.948	-2.44868	-3.72077	-1.68513	-5.25153
10198.958	-2.53942	-3.20223	-0.91840	-4.76083
10202.958	-2.52815	-3.22847	-0.64516	-4.84796
10206.958	-2.53050	-2.93734	-0.33270	-4.84427
10210.917	-2.55955	-3.49317	-0.54940	-4.74126
10214.958	-2.74237	-3.43229	-0.65191	-4.79595
10218.960	-2.77369	-3.46314	-0.45418	-4.89627
10222.938	-2.92658	-3.35404	-0.27989	-4.92535
10226.952	-3.03153	-3.51802	-0.08232	-5.11984
10230.959	-2.63787	-3.38549	-0.09565	-5.16504
10234.958	-2.70748	-3.22917	-0.14350	-4.99374
10238.958	-2.69601	-3.25223	-0.18913	-5.16697
10242.981	-2.41653	-3.29115	-0.31536	-4.94669
10246.958	-2.85182	-3.15935	-0.54694	-5.01111
10250.959	-2.54415	-3.38460	-0.79650	-5.07764
10254.966	-2.59027	-3.45473	-1.28554	-5.18096
10258.982	-2.79944	-3.53942	-1.18351	-5.09184
10262.962	-2.22869	-3.66658	-1.71977	-5.06873
10266.958	-2.16882	-3.98720	-0.48944	-5.24288
10270.959	-2.31331	-3.87798	-0.89547	-5.13482
10274.956	-2.52153	-4.11971	-0.61501	-5.14516
10278.959	-2.22634	-3.88288	-0.38976	-5.12616
10282.960	-2.39267	-3.72156	0.35792	-5.07073
10286.960	-2.33309	-3.36192	0.26205	-5.13160
10290.963	-2.27354	-2.92766	0.04065	-5.20786
10294.961	-2.49345	-2.93728	-0.47009	-5.15931
10298.960	-2.81276	-2.86809	-0.38732	-5.23532
10302.962	-2.74928	-3.03863	-0.22586	-5.19939
10306.963	-2.89393	-3.74515	-0.46341	-5.26207
10310.960	-2.87784	-3.61890	-0.61838	-5.24819
10314.959	-2.47573	-3.98261	-0.57583	-5.27243
10318.958	-2.58256	-4.16300	-0.66565	-5.29535
10322.963	-2.59472	-3.62928	-0.35246	-5.36857
10326.961	-2.68301	-3.24500	-0.42222	-5.39335
10330.962	-2.89663	-3.41732	-0.52332	-5.44851
10334.960	-2.71889	-3.40330	-0.66441	-5.45360
10338.965	-2.18711	-3.15930	-0.56198	-5.55459
10342.963	-2.32394	-3.28919	-0.60106	-5.42524
10346.946	-2.44831	-3.66811	-0.56828	-5.49188
10350.950	-2.39614	-3.47577	-0.74776	-5.49979
10354.963	-2.40535	-3.59021	-0.76345	-5.38679
10358.959	-2.48946	-3.18567	-0.66285	-5.44948
10362.960	-2.39096	-3.18185	-0.88805	-5.41623
10366.959	-2.22584	-3.03449	-0.72481	-5.42351
10370.964	-2.35940	-2.96996	-0.93765	-5.43427
10374.960	-2.25838	-2.74931	-0.88982	-5.34966
10378.961	-1.95666	-2.73931	-0.71134	-5.28266
10382.962	-2.06664	-2.70231	-0.75573	-5.24622
10386.965	-2.19955	-2.75854	-0.82622	-5.19530
10390.962	-2.29406	-2.78811	-0.85798	-5.26422
10394.960	-2.39403	-2.64857	-0.91396	-5.23987
10398.962	-2.46905	-2.63014	-0.81196	-5.55954
10402.962	-2.07445	-2.66034	-0.59563	-5.30340
10406.964	-2.33663	-2.68235	-0.69278	-5.11203
10410.964	-1.78188	-2.56201	-0.81305	-5.04555
10414.963	-1.98643	-2.54795	-0.82659	-4.82707
10418.956	-2.11893	-2.75487	-0.86967	-4.70478
10422.964	-2.16981	-3.21293	-0.76881	-4.71139
10426.964	-2.11232	-3.32176	-0.79039	-4.87366
10430.943	-2.10620	-3.14885	-0.89344	-5.02707
10434.968	-2.12089	-3.37755	-0.74146	-5.33758
10438.963	-2.05692	-3.09871	-0.70794	-5.49269
10442.963	-1.75505	-2.21591	-0.70868	-5.37349
10446.963	-1.98908	-2.09510	-1.06180	-5.49436
10450.967	-2.12617	-2.10305	-1.17617	-5.14373
10454.920	-2.41207	-2.18708	-1.05741	-5.17430
10458.964	-2.71089	-2.04947	-1.18334	-5.14313
10462.963	-2.46263	-2.00997	-1.02719	-5.12615
10466.966	-2.33541	-3.22130	-0.59627	-5.24218
10470.961	-2.23709	-3.49676	-0.92036	-5.33651
10474.963	-2.57377	-2.61700	-1.07847	-5.11788
10478.964	-2.19876	-2.05191	-0.86198	-5.10901
10482.967	-2.32241	-1.74500	-1.04012	-5.02341
10486.964	-2.12560	-1.70965	-0.66387	-4.82614
10490.963	-1.08016	1.25724	-0.61967	-1.93636
10494.964	-0.37315	2.88103	-0.76168	-1.29038
10498.923	0.29937	3.43718	-0.32672	1.09965
10502.966	-0.24006	4.13606	-0.20278	3.65811
10506.964	0.34834	5.95158	-0.26443	4.61894
10510.966	-0.05306	6.46236	-0.10858	6.66936
10514.939	-0.11357	7.66780	0.01497	6.70915
10518.923	-0.05179	8.25944	0.84840	6.87360
10522.921	0.04594	8.18442	0.42830	7.06091
10526.965	-0.01248	8.14900	0.08699	6.80582
10530.970	0.01566	8.13834	-0.29481	7.16634
10534.966	-0.00819	8.02851	-0.05552	8.25462
10538.965	-0.10508	8.15111	-0.20919	9.16856
10542.964	-0.14709	8.08678	-0.21959	9.11965
10546.968	-0.20542	8.12699	0.01449	8.08118
10550.966	-0.24468	8.38281	-0.53198	8.53255
10554.955	-0.37556	8.59521	-0.69548	7.94551
10558.965	-0.32724	8.62010	0.29486	8.57409
10562.969	-0.36072	8.29905	0.54198	6.92698
10566.965	-0.04090	8.79153	0.21909	8.90899
10570.966	-0.19293	8.59201	0.52252	8.49947
10574.921	0.06130	8.55976	0.79292	8.65151
10578.954	0.38253	9.06951	0.78632	7.90747
10582.966	0.22430	8.87314	0.71397	8.22520
10586.966	0.19159	8.83087	0.64287	7.80201
10590.967	0.09860	8.84279	0.76069	8.24870
10594.968	0.17328	8.77504	0.28880	7.95822
10598.965	0.15337	8.71625	0.53007	8.57765
10602.972	0.23554	8.63855	0.25721	7.56086
10606.967	0.31255	8.71919	0.42321	6.43731
10610.971	0.16129	8.55172	0.34533	7.59384
10614.968	0.21914	8.46200	0.21296	6.96353
10618.967	0.18921	8.48625	0.20134	6.34689
10622.966	0.13885	8.37338	0.23919	8.14423
10626.970	0.09614	8.29732	0.21825	7.54232
10630.967	0.05678	8.04736	0.13843	7.73068
10634.971	-0.00916	7.91552	0.15106	7.78696
10638.924	0.01524	7.99829	0.26068	7.72431
10642.857	-0.01429	7.91055	0.19065	7.73459
10646.970	-0.05787	8.00565	NaN	NaN
10650.969	-0.11513	7.86158	NaN	NaN
10654.969	-0.10391	8.03495	0.11893	8.26863
10658.969	-0.06745	8.21239	0.06165	8.19574
10662.970	-0.14203	8.00529	0.60454	8.14317
10666.972	0.03097	7.81611	0.44286	7.96501
10670.970	3.94382	7.65711	1.11211	8.19547
10674.974	0.11456	8.09042	1.87441	8.30210
10678.966	-1.08289	8.02341	10.64870	4.15379
10682.971	0.79600	8.11258	1.88140	8.27332
10686.968	-0.12453	8.14238	-0.06971	7.84003
10690.967	-0.20194	10.29218	1.13015	9.14723
10694.967	-2.26071	11.43782	NaN	NaN
10698.866	NaN	NaN	NaN	NaN
10702.926	NaN	NaN	NaN	NaN
10706.968	NaN	NaN	NaN	NaN
10710.968	NaN	NaN	NaN	NaN
10714.967	NaN	NaN	NaN	NaN
10718.838	NaN	NaN	NaN	NaN
10722.946	NaN	NaN	NaN	NaN
10726.968	NaN	NaN	NaN	NaN
10730.969	NaN	NaN	NaN	NaN
10734.867	NaN	NaN	NaN	NaN
10738.925	NaN	NaN	NaN	NaN
10742.971	NaN	NaN	NaN	NaN
10746.967	NaN	NaN	NaN	NaN
10750.970	NaN	NaN	NaN	NaN
10754.926	NaN	NaN	NaN	NaN
10758.974	NaN	NaN	NaN	NaN
10762.955	NaN	NaN	NaN	NaN
10766.961	NaN	NaN	NaN	NaN
10770.929	NaN	NaN	NaN	NaN
10774.970	-7.11780	14.42722	NaN	NaN
10778.838	0.27339	11.34207	0.92217	7.55379
10782.970	-1.60806	12.44870	-0.62580	3.54008
10786.971	-2.25293	10.62804	-0.59473	1.67377
10790.970	-2.16283	4.03162	-0.51654	2.02508
10794.973	-1.35457	4.17068	1.16590	2.04370
10798.970	-1.34209	2.57992	0.03177	1.69747
10802.969	-1.32600	1.64422	0.56712	1.37760
10806.941	-1.74469	1.57270	-0.67211	1.09206
10810.974	-1.93747	1.95417	1.65225	0.12670
10814.970	-0.80146	3.43420	1.51735	1.43436
10818.970	1.51239	3.65731	-0.75642	1.78130
10822.973	1.35638	3.60473	-0.47098	1.77537
10826.868	1.56060	4.24474	0.80126	0.15552
10830.972	1.36960	3.41516	0.93579	0.91385
10834.971	0.53525	2.39389	0.97564	0.94616
10838.971	-0.55426	2.62973	0.55967	1.17596
10842.975	-0.89165	2.60360	0.73494	1.27894
10846.953	-0.78114	3.86037	-0.23247	1.55501
10850.972	-1.05193	2.90935	0.45760	1.10852
10854.972	-1.11812	3.22762	0.38636	1.06692
10858.871	-1.25828	2.85695	0.32699	1.23171
10862.973	-1.22739	2.99823	0.17037	0.65862
10866.973	-1.01131	4.00419	0.24537	0.66672
10870.973	-0.90753	3.27405	0.20025	0.77701
10874.870	-0.73536	3.69490	0.17846	0.80093
10878.972	-0.73069	3.02375	0.16717	0.79318
10882.975	-0.64300	2.81443	0.08766	0.65532
10886.977	-0.48567	2.98607	0.05090	0.61783
10890.882	-0.68208	2.87273	-0.03455	0.57735
10894.979	-0.86577	3.31056	-0.00241	0.60061
10898.974	-0.83131	3.25220	-0.14015	0.53153
10902.926	-0.68707	3.82463	-0.18246	0.50584
10906.979	-0.56922	4.02959	-0.15583	0.25055
10910.974	-0.44810	3.76606	-0.05755	0.70039
10914.974	-0.48150	3.90073	0.05581	0.63298
10918.973	-0.41363	3.85229	0.20440	0.66881
10922.976	-0.53510	4.02163	0.46991	0.73574
10926.974	-0.52086	3.89015	1.73316	0.68954
10930.973	-0.46602	3.91457	1.47615	0.71344
10934.974	-0.37407	3.98576	1.75959	0.83897
10938.980	-0.38638	4.10543	1.84696	0.72642
10942.975	-0.28825	4.30860	1.51348	0.74227
10946.974	-0.18085	4.24505	1.87837	0.81679
10950.975	-0.07262	4.06334	1.96945	1.06428
10954.872	0.01695	3.96740	1.95416	1.16767
10958.976	-0.03663	4.09494	2.00259	1.09303
10962.974	-0.07507	4.66012	1.97475	0.83336
10966.976	-0.18149	4.17054	1.96501	1.55927
10970.872	-0.13339	4.09391	2.03157	1.54643
10974.851	-0.08006	4.00906	2.03819	1.71225
10978.812	-0.12900	3.96153	2.05806	1.33203
10982.850	-0.29689	3.56188	2.06939	1.29956
10986.873	-0.29600	3.58416	2.14996	1.17519
10990.851	-0.31528	2.95946	2.09415	1.18345
10994.852	-0.40911	3.45844	2.00884	1.81041
10998.850	-0.39157	3.69163	1.86199	1.58337
11002.977	-0.44229	3.09080	1.84614	1.62641
11006.851	-0.44472	2.88113	1.53597	1.31583
11010.850	-0.46852	2.76952	1.65780	1.41557
11014.848	-0.39353	2.97852	1.61143	1.11418
11018.824	-0.37526	2.76651	1.59628	1.27249
11022.852	-0.37159	2.80159	1.50946	1.26239
11026.850	-0.31047	2.84288	1.59787	1.08181
11030.852	-0.21547	3.10668	1.53800	1.12497
11034.874	-0.20606	3.08386	1.51248	1.30477
11038.852	-0.18300	3.00435	1.50368	1.28057
11042.850	-0.13034	2.87394	1.53317	1.28624
11046.851	-0.09763	2.89665	1.32617	1.13580
11050.874	-0.08038	2.86364	1.21923	1.13677
11054.855	-0.05812	2.75362	1.14903	1.14665
11058.849	-0.07321	2.61914	1.14228	1.12435
11062.846	-0.11806	2.47626	1.21573	1.13940
11066.875	-0.13317	2.39912	0.99293	1.18091
11070.853	-0.19253	2.20461	1.00191	1.23380
11074.857	-0.22574	2.28990	0.77814	1.25126
11078.809	-0.29744	2.20246	0.86374	1.25921
11082.852	-0.33183	2.18471	0.80570	1.27952
11086.854	-0.35216	2.18478	0.66255	1.30561
11090.853	-0.37087	2.17512	0.64719	1.41448
11094.854	-0.35077	2.15940	0.75796	1.35987
11098.878	-0.43237	2.13585	0.78149	1.02482
11102.825	-0.40254	2.19343	0.78660	1.01148
11106.861	-0.42822	2.26919	0.83920	0.90466
11110.853	-0.40683	2.29160	0.66794	0.97343
11114.874	-0.39723	2.41951	0.54180	0.44189
11118.854	-0.34119	2.44150	0.63551	0.64238
11122.855	-0.11431	2.51518	0.62699	-0.05626
11126.854	-0.34496	2.48845	0.57416	0.23312
11130.876	-0.37851	2.62568	0.52523	0.37195
11134.854	-0.65697	2.54988	0.57903	0.26798
11138.854	-0.73394	2.67555	0.65682	0.19547
11142.841	-0.46401	3.52342	0.94671	0.25623
11146.850	-0.81275	2.69883	1.04039	0.43920
11150.854	-1.30960	2.84411	1.56861	0.59782
11154.854	-1.10931	2.82253	1.79557	0.68370
11158.854	-1.25220	2.76915	0.95050	0.76135
11162.877	-1.21519	2.72745	0.90309	0.87985
11166.856	-0.62689	2.78581	0.77255	0.49012
11170.855	-0.31965	2.94806	0.61938	0.71262
11174.855	0.13605	2.92364	0.51699	0.38666
11178.877	0.25535	2.99868	0.56684	0.24741
11182.854	0.05443	2.86379	0.28173	0.53078
11186.820	-0.32704	2.96910	0.31044	0.65797
11190.855	-0.24487	3.13596	0.39095	0.57267
11194.876	-0.33739	2.91621	0.31513	0.23820
11198.811	-0.18591	2.82974	0.39271	0.50449
11202.855	-0.10806	2.93636	0.39881	0.26615
11206.859	-0.12369	2.96441	0.55436	0.27169
11210.879	-0.25048	2.82155	0.83091	0.28663
11214.854	-0.25031	2.85853	0.35618	0.45169
11218.854	-0.34020	2.63685	1.12065	0.23438
11222.856	-0.33312	2.61696	-2.05226	0.17530
11226.863	-0.38817	2.35539	0.09401	0.43878
11230.856	-0.33747	1.86550	0.09091	-0.12375
11234.856	-0.47706	1.21870	1.31258	-1.72155
11238.855	-0.57664	0.31805	0.92197	-1.17309
11242.877	-0.57860	-0.15776	0.08393	-1.87782
11246.855	-0.58722	-0.21926	0.35414	-1.83112
11250.856	-0.57952	-0.66835	0.65295	-1.92444
11254.856	-0.51622	-0.29867	0.46443	-2.17296
11258.878	-0.69863	-0.82510	0.81359	-2.14930
11262.859	-0.53458	-0.60709	0.37519	-2.34802
11266.855	-0.60667	-0.39932	0.52418	-2.52839
11270.812	-0.52741	-0.51797	0.35531	-2.53849
11274.878	-0.52997	-0.46569	0.48738	-2.48595
11278.856	-0.41040	-0.37518	0.41467	-2.66169
11282.856	-0.35519	-0.36120	0.39589	-2.54523
11286.858	-0.41398	-0.16974	0.37794	-2.64918
