time (ms)	lx (deg)	ly (deg)	rx (deg)	ry (deg)
0.000	-1.94637	3.30413	-1.59779	0.07581
3.897	-2.10045	3.66525	-1.77127	0.02066
7.998	-2.03856	3.21645	-1.71375	-0.03996
12.000	-1.91442	2.93190	-1.54043	-0.00499
16.001	-2.17975	2.38914	-1.37067	0.07063
19.895	-2.26477	2.72247	-1.69969	-0.04302
24.000	-2.27855	3.00781	-1.66787	0.10710
27.998	-2.24616	3.20527	-1.67288	0.00979
31.999	-2.23216	3.50261	-1.72924	0.17044
36.000	-2.35350	3.77601	-1.65627	-0.12613
40.000	-2.34513	2.81771	-1.57659	0.06712
43.981	-2.38615	2.41549	-1.83137	-0.03932
48.000	-2.07831	2.32625	-1.86246	0.07540
52.001	-2.19410	1.89696	-1.96856	0.10448
56.012	-1.97203	1.79353	-1.96281	-0.36996
60.000	-1.87079	0.30327	-1.75793	-0.50791
64.000	-1.38195	-0.15725	-1.78471	-2.08495
68.000	-1.92252	-0.47295	-1.63660	-2.70713
71.999	-1.92954	-0.33599	-1.34718	-2.78290
75.999	-2.07152	-0.44025	-1.78577	-1.86815
80.002	-2.03189	-0.42241	-1.23878	-2.07016
83.898	-1.89615	-0.57021	-1.60796	-1.48543
87.966	-2.02121	-0.48420	-1.40207	-2.68360
92.001	-1.84245	-0.43435	-1.48565	-1.77843
96.001	-1.86984	-0.40343	-1.32503	-2.67023
100.002	-1.65761	-0.35243	-1.54567	-2.20583
104.001	-1.86580	-0.47935	-1.41447	-2.68723
108.002	-2.06768	-0.40365	-1.43816	-2.05246
112.001	-2.06265	-0.40651	-1.50323	-2.18638
116.001	-1.96908	-0.44078	-1.45852	-2.16715
120.003	-2.14897	-0.45046	-1.56769	-2.08285
124.004	-1.99835	-0.30901	-1.46782	-2.26062
127.982	-2.14927	-0.37453	-1.48389	-2.11141
131.901	-1.69116	-0.24985	-1.38776	-2.08498
136.000	-1.46420	-0.18743	-0.92438	-2.43582
140.005	-1.96204	-0.12139	-0.78637	-2.24657
143.999	-1.77323	-0.09359	-0.85523	-2.35952
148.005	-1.40599	-0.13608	-0.35797	-2.11835
152.007	-2.02666	-0.31546	-0.52617	-2.19088
155.958	-1.68649	-0.12966	-0.88014	-2.44485
160.003	-1.56218	0.23213	-0.48708	-2.15943
164.006	-1.61438	0.05338	-0.51890	-2.24773
167.995	-1.19490	-0.21982	-0.62059	-1.73848
171.993	-1.47174	0.10930	-0.48284	-2.08043
176.002	-1.47635	-0.49184	-0.76027	-1.94472
180.004	-1.68203	-0.23296	-1.18366	-2.15454
184.001	-1.93968	-0.37786	-1.13680	-2.07185
188.003	-1.83811	-0.47128	-0.95053	-2.04044
192.003	-1.67033	-0.36477	-1.14111	-2.18781
195.899	-1.69897	-0.13194	-1.10939	-2.12073
199.879	-1.82281	0.01977	-1.15910	-2.18304
203.877	-1.93467	-0.04478	-1.20780	-2.06550
207.880	-1.71984	0.16244	-1.19636	-1.89580
211.876	-1.43191	0.23776	-1.09485	-1.97774
215.837	-1.54894	0.30936	-1.21593	-2.08080
219.875	-1.54522	0.19199	-1.18274	-2.02644
223.878	-1.85346	0.22909	-1.17265	-1.92932
227.877	-1.70804	0.10203	-1.12350	-1.92057
231.834	-1.40978	-0.09840	-1.21554	-1.74162
235.881	-1.22271	0.08623	-1.36536	-1.70617
239.879	-1.38111	0.57239	-1.16091	-1.62697
243.866	-1.57987	0.09474	-1.17088	-1.66299
247.879	-1.32751	0.10369	-1.30630	-1.67685
251.883	-1.62341	0.65506	-1.16228	-1.73944
255.878	-1.64930	0.06237	-1.37875	-1.65724
259.901	-1.65225	-0.08413	-1.14687	-1.64086
263.880	-1.53495	0.31430	-1.22543	-1.63622
267.878	-1.54827	0.01776	-1.50155	-1.50770
271.880	-1.58299	0.85586	-1.20264	-1.65214
275.902	-1.77588	0.19336	-1.09961	-1.71089
279.877	-1.73723	0.37268	-1.37218	-1.64201
283.879	-1.88876	0.22692	-1.15823	-1.71450
287.880	-1.82723	0.11335	-1.29303	-1.65869
291.902	-1.86761	0.21210	-1.21003	-1.57797
295.880	-1.97317	0.24991	-1.33475	-1.72590
299.851	-1.95592	0.31833	-1.32803	-1.62873
303.880	-1.98227	-0.20205	-1.17924	-1.56068
307.901	-1.90378	0.16073	-1.43620	-1.53756
311.880	-2.09048	-0.09171	-1.37255	-1.53842
315.881	-2.12687	0.13764	-1.26768	-1.51376
319.880	-1.95646	0.30030	-1.27316	-1.58379
323.903	-1.89109	0.27478	-1.28988	-1.49505
327.881	-2.04535	-0.05431	-1.44644	-1.50114
331.883	-1.37144	0.39446	-0.99668	-1.54538
335.882	-1.62242	0.52407	-0.90374	-1.01498
339.901	-2.52919	0.56428	-1.37526	-0.53210
343.836	-2.11219	0.20328	0.76714	-1.15749
347.882	-1.52069	-0.77771	0.01134	-0.66009
351.881	-3.61740	-0.66663	0.99814	-1.15905
355.900	-4.15157	-0.69372	-1.73631	-0.76374
359.882	-3.88038	4.31062	-0.08038	-0.87224
363.882	-2.21338	3.69399	-0.68129	3.49418
367.879	NaN	NaN	NaN	NaN
371.879	NaN	NaN	NaN	NaN
375.913	NaN	NaN	NaN	NaN
379.879	NaN	NaN	NaN	NaN
383.852	NaN	NaN	NaN	NaN
387.880	NaN	NaN	NaN	NaN
391.879	NaN	NaN	NaN	NaN
395.881	NaN	NaN	NaN	NaN
399.881	NaN	NaN	NaN	NaN
403.882	NaN	NaN	NaN	NaN
407.839	NaN	NaN	NaN	NaN
411.881	NaN	NaN	NaN	NaN
415.883	NaN	NaN	NaN	NaN
419.882	NaN	NaN	NaN	NaN
423.863	NaN	NaN	NaN	NaN
427.880	NaN	NaN	NaN	NaN
431.883	NaN	NaN	NaN	NaN
435.882	NaN	NaN	NaN	NaN
439.883	NaN	NaN	NaN	NaN
447.883	NaN	NaN	NaN	NaN
451.883	NaN	NaN	NaN	NaN
455.883	NaN	NaN	1.42422	1.47826
459.884	-2.36378	2.56193	1.55740	-4.64558
463.883	-3.24073	2.00591	-0.53327	-5.00017
467.840	-0.60183	0.34444	-0.89585	-4.70084
471.839	-0.48349	-0.52212	0.28136	-3.89912
475.884	-2.77970	-0.49562	-1.03704	-2.73835
479.883	-2.50922	-3.02451	-1.05426	-2.80082
483.905	-3.96664	-2.63585	-0.32402	-2.55420
487.887	-3.66263	-0.83654	-1.11358	-1.75680
491.885	-4.07871	-2.52104	-0.38981	-1.82245
495.885	-3.82897	-0.85611	-0.39035	-0.96836
499.882	-4.27513	-1.61622	-0.99395	-1.46583
503.885	-0.68377	-0.18678	-1.43399	-2.36619
507.884	-0.85798	0.27127	-1.26922	-2.57615
511.843	-1.00958	-0.39133	-1.36355	-2.42414
515.914	-1.03002	-0.36169	-1.34202	-2.09633
519.887	-1.39629	0.10498	-0.98566	-2.40038
523.887	-1.77164	-0.77140	-1.15518	-2.44370
527.893	-1.27713	-0.85468	-1.07535	-2.44833
531.846	-1.18612	-0.31017	-0.85647	-2.52586
535.915	-1.09805	-0.81542	-1.06265	-2.56977
539.886	-1.20901	-0.34194	-1.11507	-2.55552
543.887	-1.41750	-0.33034	-1.22142	-2.56740
547.902	-1.42908	-0.68154	-1.22104	-2.43357
551.876	-1.58557	-0.30244	-0.88327	-2.31833
555.885	-1.51380	-0.35256	-0.63091	-2.37514
559.886	-1.27477	-0.45660	-0.93659	-2.45538
563.883	-1.19423	-0.40741	-0.87791	-2.57313
567.886	-1.39014	-0.28565	-0.75253	-2.64168
571.885	-1.53166	-0.20771	-1.00692	-2.56872
575.886	-1.70492	-0.22240	-0.65302	-2.35588
579.907	-1.13752	-0.17294	-0.70084	-2.44597
583.890	-1.15682	-0.22760	-0.73362	-2.71537
587.888	-1.21938	-0.19850	-0.51292	-2.69220
591.884	-1.68813	-0.14051	-0.57238	-2.63751
595.907	-1.49932	-0.20138	-0.87133	-2.77150
599.888	-1.60888	-0.18925	-0.54989	-2.92056
603.888	-1.50824	-0.23581	-0.48820	-2.74889
607.892	-1.48513	-0.25496	-0.88719	-2.78611
611.888	-1.55844	-0.36653	-0.59049	-2.87343
615.887	-1.66162	-0.28192	-0.67360	-2.76821
619.888	-1.60546	-0.36752	-0.82724	-2.83214
623.887	-1.59549	-0.32435	-0.61672	-2.66860
627.885	-1.61644	-0.45172	-0.78111	-2.80961
631.865	-1.60913	-0.45540	-0.72672	-2.63710
635.889	-1.63045	-0.38746	-0.62585	-2.56359
639.884	-1.54517	-0.59348	-0.73317	-2.46319
643.879	-1.42719	-0.36705	-0.69853	-2.61193
647.890	-1.57324	-0.31790	-0.68226	-2.43936
651.844	-1.61741	-0.53885	-0.63841	-2.51443
655.890	-1.40943	-0.54153	-0.71067	-2.41444
659.909	-1.58103	-0.45995	-0.69570	-2.21148
663.889	-1.56970	-0.65169	-0.55079	-2.59487
667.889	-1.30099	-0.39373	-0.60402	-2.56089
671.881	-1.62502	-0.59922	-0.61883	-2.40077
675.877	-1.35990	-0.45311	-0.73067	-2.45325
679.889	-1.30288	-0.38940	-1.14451	-2.51584
683.889	-1.76195	-0.37303	-0.95643	-2.36769
687.889	-1.49240	-0.45217	-0.72908	-2.01844
691.879	-1.41876	-0.42841	-0.89170	-1.94957
695.889	-1.77529	-0.46087	-0.97576	-2.01442
699.890	-1.62889	-0.26131	-0.82987	-2.52821
703.889	-1.69507	-0.43496	-0.75161	-2.03126
707.879	-1.59980	-0.32937	-1.05682	-2.21846
711.891	-1.85961	-0.31802	-1.04558	-2.29626
715.864	-1.62914	-0.30649	-0.93331	-2.28200
719.844	-1.30556	-0.24137	-0.65846	-2.12545
723.879	-1.54631	-0.36942	-0.96646	-1.96015
727.890	-1.38674	-0.40829	-0.96408	-2.07512
731.891	-1.88117	0.10448	-0.79900	-2.24505
735.895	-1.37565	-0.03130	-0.47765	-2.33852
739.891	-1.18314	-0.24851	-0.55250	-2.60275
743.890	-1.41544	-0.35704	-1.03789	-2.15075
747.890	-1.32193	-0.44142	-1.09286	-2.20598
751.890	-1.53166	-0.49781	-1.19532	-2.33623
755.878	-1.18937	-0.99308	-0.38655	-2.04675
759.880	-1.22514	-0.20300	-0.92497	-2.01412
763.891	-1.25218	0.50177	-0.99283	-2.03642
767.892	-1.35209	0.35916	-0.90917	-1.76570
771.892	-1.47233	-0.09546	-1.36437	-1.55121
775.890	-1.50750	0.12373	-0.97226	-1.43709
779.891	-1.42236	0.27576	0.05346	-1.79164
783.848	-1.49483	0.03766	-0.57667	-1.81533
787.882	-1.45951	0.25979	-1.03518	-1.81654
791.892	-1.42288	0.58286	-0.87282	-2.02544
795.892	-1.37245	0.63668	-0.98975	-1.95356
799.857	-1.47871	0.71327	-1.02327	-1.78060
803.859	-1.34671	0.33857	-1.11249	-1.73036
807.892	-1.34690	0.34637	-1.13117	-2.13282
811.895	-1.33572	0.14110	-1.13739	-2.25529
815.892	-1.33577	0.23933	-1.12109	-2.16731
819.894	-1.24248	0.24389	-1.14503	-2.28312
823.893	-1.18411	0.09552	-1.13067	-2.33745
827.892	-1.11422	0.19346	-1.15764	-2.33938
831.893	-1.12256	-0.11279	-1.09539	-2.33745
835.894	-1.20385	-0.23291	-1.19505	-2.31095
839.892	-1.22662	-0.24028	-1.16850	-2.40941
843.893	-1.23521	-0.13363	-1.15337	-2.44742
847.892	-1.40269	-0.41738	-1.12363	-2.45303
851.881	-1.42781	-0.38327	-0.92877	-2.48859
855.893	-1.27854	-0.55679	-0.84059	-2.48270
859.892	-1.08683	-0.61367	-0.74627	-2.55732
863.892	-1.09889	-0.60820	-0.75568	-2.58048
867.883	-1.34601	-0.55687	-0.64330	-2.59462
871.892	-1.42501	-0.69953	-0.40187	-2.62582
875.895	-1.50113	-0.70042	-0.22825	-2.66288
879.892	-1.51645	-0.64607	-0.48058	-2.81635
883.885	-1.39418	-0.53150	-0.35700	-2.81294
887.891	-1.34371	-0.66453	-0.38837	-2.74258
891.894	-1.35608	-0.63112	-0.29426	-2.71219
895.890	-2.02185	-0.60252	-0.18104	-2.56013
899.897	-1.58341	-0.66391	-0.25021	-2.48758
903.895	-1.47094	-0.70825	-0.33126	-2.64181
907.896	-1.47211	-0.91114	-0.32126	-2.54185
911.896	-1.53843	-0.71034	-0.36521	-2.44898
915.850	-1.58396	-0.65378	-0.37035	-2.38546
919.895	-1.60486	-0.62019	-0.45922	-2.44052
923.871	-1.69850	-0.46004	-0.60116	-2.40172
927.895	-1.70179	-0.29296	-0.71551	-2.35823
931.894	-1.76214	-0.22557	-0.84009	-2.31585
935.851	-1.80191	-0.31910	-1.01769	-2.28902
939.895	-1.93871	-0.22803	-1.09013	-2.23789
943.895	-2.13299	-0.19116	-1.13935	-2.18724
947.903	-2.19948	-0.19182	-1.15163	-2.02172
951.896	-2.38610	-0.09104	-1.25284	-1.98817
955.895	-2.56109	-0.09674	-1.29415	-1.90636
959.895	-2.32964	-0.13688	-1.31250	-1.88443
963.884	-2.36666	-0.07401	-1.33656	-1.78787
967.850	-2.37984	-0.02468	-1.40921	-1.86353
971.895	-2.33581	-0.19297	-1.40207	-1.86726
975.896	-2.09968	-0.18930	-1.34457	-1.75143
979.894	-2.16590	-0.20853	-1.31260	-1.77439
983.896	-2.22929	-0.02605	-1.38815	-1.74197
987.895	-4.27997	0.22257	-1.64699	-1.56719
991.895	-3.16946	2.71018	-4.38023	-0.65345
995.896	-4.40855	4.09709	-4.78328	0.43908
999.899	-4.19993	4.21464	-4.71055	2.27584
1003.896	-4.31913	4.22656	-4.68900	2.26206
1007.860	-4.44677	4.08007	-4.49314	2.35400
1011.781	-4.47370	3.57741	-4.37004	1.62738
1015.924	-4.57098	3.41606	-4.45431	1.37168
1019.894	-4.62402	3.35368	-4.50291	1.18878
1023.897	-5.03036	3.47293	-4.59233	1.13937
1027.897	-4.55043	3.77508	-4.84883	0.94627
1031.898	-4.83590	3.48174	-4.72206	1.58202
1035.898	-4.86505	3.31550	-4.79541	1.39230
1039.897	-4.70148	3.23705	-4.85290	1.30661
1043.898	-4.77293	3.23691	-5.02679	1.08974
1047.898	-4.76773	3.32525	-4.78003	0.83009
1051.892	-4.50266	3.32121	-4.78597	1.27194
1055.897	-4.70789	3.38566	-4.52358	1.87636
1059.897	-4.86559	3.52054	-4.78257	1.47087
1063.897	-5.03354	3.50246	-4.88380	1.39509
1067.898	-5.10778	3.37044	-5.14599	1.61798
1071.896	-4.93800	3.41229	-5.15428	1.54565
1075.899	-4.84400	3.27690	-5.26514	1.42317
1079.898	-4.72268	3.29224	-4.84777	1.78827
1083.901	-4.72608	3.22671	-5.12001	1.46795
1087.892	-4.78459	3.34824	-5.10470	1.43288
1091.796	-4.66307	3.25224	-5.30365	1.27310
1095.900	-4.60668	3.37615	-5.21543	1.58101
1099.898	-4.92964	3.33289	-5.25500	1.64354
1103.901	-4.91563	3.27539	-5.36742	1.68662
1107.901	-5.57269	3.23483	-5.12762	1.61832
1111.903	-5.44112	3.22050	-5.42842	1.67839
1115.900	-5.68647	3.15132	-5.42191	1.45772
1119.897	-4.94418	3.18449	-5.41610	0.81774
1123.902	-4.72738	3.19249	-5.27988	0.39206
1127.901	-5.11516	3.28495	-5.02140	0.92388
1131.876	-5.32936	3.26936	-4.91513	1.15373
1135.898	-5.49635	3.19762	-4.84713	1.65113
1139.899	-5.28926	3.11516	-4.80997	1.82174
1143.899	-5.18436	3.07455	-4.93393	1.69024
1147.902	-5.01928	3.03051	-4.75028	1.33794
1151.856	-5.04915	3.02822	-5.26516	1.41538
1155.797	-4.93447	3.07003	-5.01401	1.73119
1159.914	-4.86857	3.11482	-5.62869	1.61899
1163.896	-4.87495	3.02527	-5.31310	1.87681
1167.901	-5.05225	2.90367	-5.19138	2.39540
1171.796	-5.30121	2.95657	-5.36174	2.75075
1175.888	-5.68185	3.09240	-5.18355	2.89786
1179.902	-5.59614	3.08378	-5.23866	2.92476
1183.901	-5.56787	3.26217	-5.38166	2.48423
1187.796	-5.78293	3.22113	-5.46438	2.16386
1191.901	-5.83228	3.18847	-5.48073	1.87117
1195.899	-5.57510	3.23985	-5.39059	1.65074
1199.901	-5.37138	3.25804	-5.68738	1.41807
1203.901	-2.03942	3.49793	-5.25119	1.52882
1207.901	-3.36532	0.44655	-4.69371	1.53135
1211.905	-4.98756	7.27096	-5.22010	2.04069
1215.866	-5.89753	3.24679	-5.53744	10.61894
1219.858	NaN	NaN	NaN	NaN
1223.896	NaN	NaN	NaN	NaN
1227.778	NaN	NaN	NaN	NaN
1231.777	NaN	NaN	NaN	NaN
1235.798	NaN	NaN	NaN	NaN
1239.776	NaN	NaN	NaN	NaN
1243.778	NaN	NaN	NaN	NaN
1247.776	NaN	NaN	NaN	NaN
1251.734	NaN	NaN	NaN	NaN
1255.778	NaN	NaN	NaN	NaN
1259.794	NaN	NaN	NaN	NaN
1263.768	NaN	NaN	NaN	NaN
1267.734	NaN	NaN	NaN	NaN
1271.778	NaN	NaN	NaN	NaN
1275.777	NaN	NaN	10.83048	2.54368
1279.798	3.56373	5.90405	9.87078	-6.35034
1283.776	1.62867	2.40153	6.14123	-6.09404
1287.777	1.53547	5.98633	2.12154	-2.59152
1291.776	-2.27862	14.59227	12.06007	-0.59277
1295.799	11.56190	8.43818	11.77353	1.21879
1299.778	3.01405	4.55082	6.77396	0.34501
1303.747	1.95024	1.86433	2.90948	-1.22112
1307.776	8.71079	0.06767	3.38778	-0.94737
1311.770	2.57226	1.16585	3.71854	-0.30210
1315.777	-2.07923	-0.15967	5.21498	0.03140
1319.780	-0.74355	-0.58853	4.98322	0.40392
1323.778	-0.53761	-1.17108	3.87929	-1.23151
1327.776	2.87522	-0.96709	3.83902	-0.94799
1331.777	4.13957	-0.46916	4.66817	-1.01986
1335.779	4.36466	-0.29826	4.36417	-0.41736
1339.780	3.33985	0.43518	4.29233	-0.37134
1343.736	3.19125	0.30261	4.53144	-0.04845
1347.779	3.28996	0.33587	4.37636	0.31796
1351.780	3.09141	0.55624	4.22125	0.21803
1355.778	3.60467	-0.15936	3.90355	-0.58501
1359.800	3.43524	0.20647	3.99336	-0.84556
1363.781	3.93361	0.37371	3.98941	-0.82085
1367.781	3.84854	0.06523	4.46677	-0.86174
1371.780	3.67865	0.25819	4.44531	-0.66226
1375.780	3.40185	0.34335	4.38753	-0.23951
1379.782	2.83355	0.43623	4.15877	0.40573
1383.777	3.03494	0.52225	4.53359	0.40164
1387.744	3.14716	0.64220	4.32106	-0.27970
1391.768	3.19204	0.31725	4.32185	-0.08224
1395.777	3.09371	0.36800	4.52513	-0.34076
1399.781	3.26102	0.41085	4.12219	-0.34314
1403.781	3.59021	0.53666	4.04221	-0.39064
1407.770	3.36327	0.74879	3.99904	-0.26040
1411.780	3.33777	0.59837	4.49526	-0.30478
1415.738	3.20083	0.55564	4.12633	-0.28867
1419.781	3.41832	0.45035	3.92065	-0.33681
1423.771	3.96484	0.36827	3.86237	-0.31172
1427.760	3.96185	0.24289	3.99734	-0.30857
1431.781	3.98225	0.26289	3.76949	-0.27022
1435.782	3.78993	0.23617	3.79225	-0.32134
1439.802	3.78395	0.20773	3.75477	-0.33871
1443.782	3.63109	0.24048	3.81387	-0.49889
1447.781	3.39646	0.26688	3.82289	-0.56243
1451.783	3.42542	0.11219	3.83831	-0.51405
1455.803	3.45806	0.10901	3.81286	-0.41619
1459.783	3.46570	0.03639	3.77449	-0.40168
1463.784	3.47749	0.19188	3.84839	-0.34963
1467.738	4.04875	0.13958	5.52682	-0.80725
1471.800	6.81089	-0.12302	5.20900	-0.89036
1475.782	9.33396	-1.96535	7.83117	-0.93366
1479.781	9.63387	-2.52653	8.05932	-1.07120
1483.782	10.01599	-3.48611	8.66496	-2.02417
1487.737	10.25802	-3.14049	10.56965	-3.29423
1491.782	12.22874	-4.99603	12.55065	-4.23533
1495.780	14.17649	-6.42119	12.79524	-4.22526
1499.781	13.68769	-6.14379	13.16605	-4.55488
1503.738	13.47758	-6.19023	13.41850	-4.69583
1507.781	13.08098	-5.97851	13.10845	-4.60981
1511.782	12.79640	-5.52769	12.92538	-4.58083
1515.762	12.45416	-5.42301	12.74374	-4.48015
1519.804	12.59318	-5.57391	12.64652	-4.31106
1523.783	12.90508	-5.85341	12.62719	-4.54427
1527.781	12.55947	-5.87944	12.50562	-4.53867
1531.781	12.52301	-5.92714	12.43951	-4.50889
1535.773	12.42512	-6.01182	12.34962	-4.45280
1539.784	12.45930	-5.89423	12.24585	-4.65479
1543.784	12.31341	-5.73628	12.41431	-5.06480
1547.784	12.35789	-5.48273	12.38770	-4.97288
1551.789	12.42981	-5.55598	12.36037	-4.88878
1555.739	12.45835	-5.42850	12.42378	-4.82418
1559.784	12.16375	-5.52918	12.47745	-4.69845
1563.783	12.13002	-5.17282	12.39717	-4.53289
1567.776	11.94622	-5.22663	12.22846	-4.40239
1571.785	11.99861	-5.03010	12.13130	-4.34450
1575.783	12.05051	-5.11116	12.19794	-4.35849
1579.784	12.01053	-4.93023	12.56224	-4.70325
1583.787	11.84111	-5.05917	12.88607	-4.66898
1587.785	11.88052	-4.88180	12.67105	-4.80426
1591.786	11.65627	-4.69579	12.27661	-4.27421
1595.749	11.99614	-4.85379	11.86681	-4.24317
1599.806	11.49984	-4.53203	12.94827	-4.73349
1603.783	11.60451	-4.61318	13.00688	-4.36221
1607.783	11.57131	-4.46807	11.87760	-4.30576
1611.784	11.69157	-4.52361	11.95185	-4.25169
1615.811	11.54113	-4.48677	12.79829	-4.39171
1619.785	11.48246	-4.52493	12.76463	-4.57547
1623.784	11.36427	-4.31619	12.47929	-4.46465
1627.785	11.59277	-4.46669	11.96356	-4.34508
1631.810	11.44070	-4.20936	12.38147	-4.34421
1635.763	11.35656	-4.35731	12.23742	-4.42437
1639.786	11.16256	-4.12528	12.35739	-4.47716
1643.787	11.49710	-4.51567	12.18476	-4.36375
1647.785	11.62118	-4.20381	12.79218	-4.51718
1651.787	11.42055	-4.42763	12.49732	-4.52932
1655.786	11.15076	-4.14938	12.55777	-4.55232
1659.784	11.32075	-4.02690	12.36710	-4.43504
1663.776	12.20883	-4.27072	12.42815	-4.61892
1667.786	11.37419	-3.97209	12.35062	-4.65279
1671.787	11.18339	-4.16485	12.32480	-4.60120
1675.781	11.24531	-3.94910	12.72837	-4.71865
1679.775	11.20665	-3.91011	12.11861	-4.61489
1683.786	11.16841	-3.93584	12.91821	-4.74154
1687.785	11.40670	-4.04818	12.82991	-4.63011
1691.787	11.37836	-4.21457	12.50281	-4.64705
1695.807	11.39501	-4.20514	12.61509	-4.56314
1699.787	11.31195	-4.16314	12.99434	-4.91563
1703.786	11.43185	-4.09239	12.21283	-4.86938
1707.786	11.46404	-3.96904	12.06287	-4.71378
1711.785	11.51690	-4.04588	11.98042	-4.30839
1715.819	11.44587	-3.99993	12.43386	-4.43077
1719.744	11.30264	-3.87551	12.57139	-4.57059
1723.788	11.20209	-3.79375	12.46722	-4.50388
1727.787	11.18346	-3.56931	12.91739	-4.61339
1731.788	10.70160	-3.32892	12.81714	-4.55343
1735.789	11.03088	-3.34621	12.80695	-4.47692
1739.788	11.14311	-3.55593	12.79633	-4.51475
1743.789	11.13812	-3.40711	12.84524	-4.45998
1747.789	11.13456	-3.70087	12.38285	-4.38753
1751.789	11.21618	-3.82506	12.23614	-4.31418
1755.788	11.20543	-3.73084	11.75695	-4.37780
1759.769	11.35933	-3.79791	11.75967	-4.38327
1763.788	11.45758	-3.86058	11.86400	-4.35158
1767.789	11.56007	-3.81684	11.89694	-4.35151
1771.789	11.63594	-3.91124	11.92351	-4.32807
1775.791	11.56688	-3.75138	11.71663	-4.30261
1779.789	11.66256	-3.79347	11.77658	-4.29946
1783.788	11.60780	-3.81137	11.74185	-4.27014
1787.789	11.70997	-3.88220	11.75270	-4.26591
1791.790	11.63411	-3.86606	11.75650	-4.16607
1795.790	11.57996	-3.83116	11.73333	-4.15734
1799.790	11.41547	-3.56454	11.80921	-4.21980
1803.754	11.03693	-3.34021	12.01226	-4.33698
1807.788	10.97566	-3.15593	12.33712	-4.44580
1811.788	11.06169	-3.10023	12.32395	-4.48168
1815.784	10.77768	-2.96006	12.38507	-4.54716
1819.790	11.01715	-3.37483	11.97819	-4.41034
1823.787	10.36737	-2.06302	11.60925	-4.32976
1827.789	9.84766	-1.36039	10.37544	-3.13326
1831.789	9.14535	-0.09850	11.05137	-2.92649
1835.790	9.25265	1.70350	10.33874	-0.68467
1839.784	8.88697	2.22187	9.96713	0.24046
1843.746	8.72197	2.93830	10.03549	1.36259
1847.791	8.84285	2.96931	9.83445	1.64896
1851.792	8.80597	3.02730	9.83378	2.38323
1855.780	8.57233	3.03073	9.84011	1.72711
1859.791	8.65642	3.10028	9.73983	1.48833
1863.789	8.49442	3.31712	9.63274	1.72385
1867.790	8.55095	3.48219	9.55560	2.44992
1871.781	8.48908	3.51938	9.63373	2.62775
1875.792	8.48379	3.56399	9.58979	3.18622
1879.792	8.49462	3.75510	9.50718	2.85816
1883.792	8.52938	3.86432	9.54981	2.40268
1887.782	8.55853	3.98726	9.53970	2.80474
1891.788	8.52477	4.04464	9.51121	2.88018
1895.788	8.47362	4.15785	9.56769	2.35119
1899.794	8.56828	3.83124	9.59346	2.18950
1903.695	8.55486	3.90249	9.59047	2.22549
1907.747	8.67667	3.82995	9.58654	2.52617
1911.791	8.82116	3.80901	9.65088	2.57080
1915.748	8.77070	3.58688	9.67066	2.40488
1919.684	8.78891	3.66720	9.63045	2.47222
1923.793	8.76639	3.71687	9.66067	1.91704
1927.763	8.93241	3.33148	9.75666	1.78269
1931.790	8.97930	3.30397	9.68455	1.93043
1935.782	9.11719	3.27529	9.60572	2.26487
1939.792	8.98888	3.17338	9.23858	2.45008
1943.792	8.90185	3.17431	9.40426	2.23025
1947.793	8.90570	3.05603	9.43904	1.83403
1951.689	8.82398	2.98204	9.32929	1.75612
1955.793	8.72697	3.16467	9.58108	1.87329
1959.794	8.46798	3.27255	9.36858	1.65887
1963.794	8.34261	3.31546	9.36911	1.78267
1967.749	8.43853	3.15844	9.37955	2.25141
1971.791	8.72546	3.09241	9.09856	2.33556
1975.795	8.77911	3.04292	9.36307	1.56026
1979.794	8.86379	3.04976	9.47937	2.12342
1983.690	8.87995	3.14104	9.43716	2.16314
1987.793	9.04894	2.97913	9.58193	1.63901
1991.794	9.13477	3.05683	9.41059	1.65632
1995.792	9.25033	2.89812	9.33265	1.63096
1999.688	9.22927	2.82448	9.51128	1.81161
2003.797	9.22269	2.82179	9.49492	1.78378
2007.796	9.17674	2.98301	9.37670	1.94961
2011.758	9.23074	3.11064	9.28693	1.94387
2015.702	9.25552	2.93511	9.28719	2.78320
2019.794	9.28978	2.91873	9.30351	2.38542
2023.793	9.22646	2.82266	9.07196	2.62683
2027.790	9.25110	3.10313	9.55089	2.10692
2031.689	9.19408	3.53860	9.54252	2.12139
2035.794	14.71064	6.15829	10.53248	3.28021
2039.794	9.49492	6.17924	15.12673	3.41106
2043.793	7.54249	7.24438	11.36670	3.17343
2047.795	NaN	NaN	11.78968	8.17231
2051.773	NaN	NaN	NaN	NaN
2055.795	NaN	NaN	NaN	NaN
2059.796	NaN	NaN	NaN	NaN
2063.795	NaN	NaN	NaN	NaN
2067.749	NaN	NaN	NaN	NaN
2071.795	NaN	NaN	NaN	NaN
2075.794	NaN	NaN	NaN	NaN
2079.793	NaN	NaN	NaN	NaN
2083.751	NaN	NaN	NaN	NaN
2087.798	NaN	NaN	NaN	NaN
2091.794	NaN	NaN	NaN	NaN
2095.785	NaN	NaN	NaN	NaN
2099.753	NaN	NaN	NaN	NaN
2103.794	NaN	NaN	NaN	NaN
2107.798	NaN	NaN	NaN	NaN
2111.795	NaN	NaN	NaN	NaN
2115.751	NaN	NaN	NaN	NaN
2119.797	NaN	NaN	NaN	NaN
2123.797	NaN	NaN	NaN	NaN
2127.797	NaN	NaN	NaN	NaN
2131.799	NaN	NaN	NaN	NaN
2135.764	NaN	NaN	NaN	NaN
2139.798	-4.70621	10.25056	-5.88213	3.78494
2143.796	-4.94383	12.44676	-4.78454	6.14295
2147.797	-7.65520	-4.22396	-5.50124	3.53522
2151.799	-4.55608	0.37544	-4.91528	5.73321
2155.694	-2.55455	-0.27418	-1.97099	0.13897
2159.797	-5.13673	0.82276	-4.29436	2.96365
2163.796	-4.00218	1.34295	-4.67475	3.69720
2167.797	-4.13404	1.54420	0.27873	3.22112
2171.691	-4.86645	2.05753	1.43828	2.51030
2175.780	-4.94632	2.31101	0.19561	2.63757
2179.795	-5.29115	2.19988	-2.15346	2.59122
2183.800	-5.11602	2.29218	-4.35282	2.69492
2187.795	-4.06224	2.61165	-3.27069	2.81956
2191.800	-4.49598	2.94753	-3.31556	2.40591
2195.798	-4.28162	3.16236	-3.32899	1.87557
2199.798	-4.18435	3.22047	-3.20676	1.80846
2203.694	-4.16384	3.27453	-3.10752	1.46935
2207.798	-4.18936	3.26884	-2.83799	1.61879
2211.799	-4.15023	3.14191	-2.80332	1.10433
2215.801	-3.99847	3.20829	-2.76529	1.15205
2219.660	-4.02596	3.22328	-2.73125	1.09382
2223.795	-4.00875	3.17217	-2.58145	1.00514
2227.801	-3.98351	3.31170	-2.31173	0.88751
2231.799	-3.99776	3.32202	-2.45406	1.04081
2235.802	-3.94787	3.21565	-2.55525	1.15110
2239.798	-3.95323	3.15570	-2.90802	1.16565
2243.801	-4.04048	3.05562	-2.97215	1.27956
2247.799	-4.09261	3.03780	-2.78466	1.42248
2251.694	-4.16050	3.04999	-2.89975	1.45984
2255.674	-4.11493	3.00724	-2.89463	1.46391
2259.685	-4.20827	3.00562	-3.00141	1.62892
2263.674	-4.23103	3.00899	-3.13019	1.78770
2267.702	-4.23646	2.99590	-3.11517	1.76817
2271.674	-4.21772	3.04031	-3.21728	1.89311
2275.674	-4.11952	3.07044	-3.22176	2.07233
2279.674	-4.13749	3.05510	-3.23907	2.19543
2283.667	-3.83290	3.04493	-3.20132	2.15696
2287.676	-3.62603	3.11901	-3.19006	2.34947
2291.675	-3.50034	3.14778	-3.18732	2.24972
2295.674	-3.41496	3.07856	-3.23178	2.25941
2299.697	-3.30188	3.10274	-3.22901	2.19694
2303.677	-3.24553	3.05507	-3.18715	2.25621
2307.639	-3.27079	3.12821	-3.13024	2.20181
2311.675	-3.26329	3.09413	-3.14380	2.13354
2315.698	-3.11329	3.13166	-3.13702	2.01757
2319.678	-3.18410	2.99261	-3.03709	1.94112
2323.676	-3.07266	2.96009	-3.08844	1.99649
2327.676	-3.10975	2.84307	-3.04870	1.80933
2331.693	-3.13902	2.78891	-3.04880	1.80157
2335.676	-3.19276	2.71943	-2.96119	1.67014
2339.676	-3.17190	2.80266	-2.88621	1.64897
2343.679	-3.39082	2.81617	-2.85588	1.56907
2347.683	-3.28936	2.81498	-2.80021	1.31580
2351.677	-3.37301	2.81991	-2.88490	1.42729
2355.677	-3.47228	2.80552	-2.86346	1.45150
2359.676	-3.46946	2.74376	-2.84078	1.44612
2363.699	-3.52593	2.76183	-2.73239	1.19354
2367.677	-3.54840	2.60826	-2.77562	1.22600
2371.676	-3.59216	2.55547	-2.76913	1.21253
2375.676	-3.62145	2.47809	-2.75185	1.17201
2379.695	-3.64904	2.41553	-2.73853	1.10667
2383.680	-3.73359	2.32990	-2.71476	1.11441
2387.677	-3.74014	2.37565	-2.69678	1.20988
2391.673	-3.88448	2.42785	-2.68928	0.88512
2395.701	-3.93082	2.36117	-2.67682	0.31149
2399.677	-3.95283	2.43789	-2.63485	0.32237
2403.678	-3.99837	2.41863	-2.60884	0.47047
2407.679	-4.01519	2.33071	-2.66399	0.58646
2411.700	-4.08572	2.37935	-2.67826	0.79361
2415.633	-4.11419	2.38560	-2.67434	0.74286
2419.683	-4.14265	2.40543	-2.65795	0.78029
2423.680	-4.14744	2.40668	-2.64205	0.74005
2427.699	-4.07982	2.44560	-2.61976	0.51673
2431.655	-4.07742	2.37121	-2.63358	0.85293
2435.679	-4.18065	2.28812	-4.18109	1.27443
2439.678	-4.27466	2.03938	-6.21016	2.38299
2443.702	-7.62726	2.12744	-8.92314	2.12502
2447.678	-8.78634	2.13309	-9.00360	1.15942
2451.680	-8.65494	2.32438	-9.32055	1.92200
2455.678	-8.98508	2.05754	-9.85577	1.33965
2459.700	-10.12335	1.98281	-10.01414	1.00556
2463.691	-10.58363	1.86293	-10.69551	1.10402
2467.635	-10.74290	1.76355	-11.21042	0.64857
2471.634	-10.90561	1.81049	-11.15064	0.34234
2475.676	-10.97538	1.82518	-10.74611	1.06969
2479.678	-11.03803	2.32718	-10.57289	0.84940
2483.680	-11.10651	2.41955	-10.60382	0.38649
2487.680	-11.04173	2.00555	-10.55346	0.21036
2491.699	-11.14194	2.11992	-10.71176	0.21091
2495.678	-11.13824	2.14719	-10.69637	0.57528
2499.679	-11.09915	2.16435	-10.59172	0.46684
2503.679	-11.10687	1.95479	-10.58714	0.33295
2507.699	-11.06856	2.03275	-10.65410	0.25307
2511.679	-11.10515	1.99932	-10.60728	-0.00703
2515.645	-11.01474	2.15228	-10.54353	-0.27283
2519.685	-10.99989	1.82076	-10.57157	0.33060
2523.700	-11.09076	1.70360	-10.58824	0.22567
2527.680	-11.05596	1.68565	-10.62217	0.05090
2531.682	-11.06944	1.86377	-10.61315	0.09398
2535.681	-11.09604	1.95740	-10.55661	0.20127
2539.701	-11.11296	1.93829	-10.50733	0.23267
2543.681	-11.07427	1.91679	-10.58349	0.22047
2547.681	-11.04986	2.06958	-10.59296	0.23546
2551.682	-11.02863	2.27164	-10.56330	0.33735
2555.689	-11.00393	2.35689	-10.59047	0.85514
2559.678	-10.94701	2.44580	-10.57347	0.42581
2563.681	-10.81683	2.57252	-10.55255	0.53434
2567.680	-10.83850	2.55682	-10.51391	0.59319
2571.705	-10.78060	2.44243	-10.44376	0.66921
2575.681	-10.77332	2.47483	-10.39991	0.72808
2579.681	-10.75174	2.80400	-10.29426	0.71613
2583.681	-10.68250	2.79005	-10.23627	0.81029
2587.702	-10.67421	3.02538	-10.12801	0.80951
2591.680	-10.65024	3.16843	-10.05045	0.83434
2595.683	-10.78439	3.15815	-10.04706	0.81911
2599.681	-10.80656	3.23147	-9.96836	0.78801
2603.675	-10.93629	3.04893	-9.90185	0.82246
2607.682	-10.99393	2.95154	-9.89781	-0.11850
2611.681	-11.02459	3.02632	-9.84975	-0.60441
2615.683	-11.17190	2.97126	-9.80877	-0.20132
2619.707	-11.35737	2.49181	-9.76394	-0.33665
2623.684	-11.37223	2.34483	-9.77551	-0.26815
2627.682	-11.42558	2.57647	-9.83539	-0.21159
2631.685	-11.46645	2.37327	-9.86763	-0.13098
2635.680	-11.55571	2.48314	-9.84332	-0.17711
2639.659	-11.48299	2.33336	-9.92162	0.09235
2643.685	-11.49126	2.38977	-9.97240	0.10034
2647.685	-11.47479	2.36593	-10.06869	-0.04066
2651.639	-11.30460	2.41554	-10.11875	0.11436
2655.682	-11.28326	2.37623	-10.05341	-0.01497
2659.684	-11.10462	2.23480	-10.11166	0.11248
2663.683	-10.92880	2.32212	-10.20966	0.16464
2667.704	-10.78970	2.37408	-10.15807	0.18844
2671.685	-10.70752	2.37298	-10.16228	0.28835
2675.687	-10.66529	2.40873	-10.10766	0.28231
2679.684	-10.59582	2.37338	-10.17428	0.38531
2683.685	-10.75598	2.44919	-10.09366	0.37961
2687.683	-10.62802	2.47628	-10.00456	0.39313
2691.684	-10.60030	2.58915	-10.02086	0.45548
2695.683	-10.57327	2.77009	-9.93619	0.49752
2699.684	-10.64477	2.48721	-9.82028	0.58140
2703.684	-10.71374	2.42379	-9.76257	0.56314
2707.684	-10.81240	2.21809	-9.83057	0.50613
2711.683	-10.83735	2.12674	-9.90366	0.53345
2715.689	-10.84599	1.98272	-10.01700	0.65389
2719.644	-10.84757	2.04126	-10.25632	0.64653
2723.653	-10.88604	1.92676	-10.47907	0.69745
2727.685	-10.89846	2.06124	-10.39866	0.74844
2731.690	-10.91574	2.24727	-10.37854	0.80357
2735.688	-10.89140	2.09533	-10.29637	0.88987
2739.685	-10.85657	2.32113	-10.52871	0.82917
2743.685	-10.69709	2.24305	-10.50196	0.81552
2747.683	-10.54272	2.48797	-10.56735	0.91215
2751.688	-10.61658	2.41518	-10.52005	1.01067
2755.687	-10.66220	1.74721	-10.45593	1.03866
2759.688	-10.68010	2.08605	-10.31155	1.04847
2763.684	-10.67202	2.17138	-10.38629	0.98169
2767.681	-10.62533	2.15176	-10.28335	0.93225
2771.685	-10.50685	1.91748	-10.32618	0.80048
2775.685	-10.46385	2.13349	-10.30917	0.62193
2779.688	-10.47525	2.05855	-10.36329	0.56395
2783.687	-10.54996	1.94874	-10.22262	0.57337
2787.687	-10.64029	1.88959	-10.21938	0.49848
2791.685	-10.65738	1.93942	-10.18873	0.46399
2795.687	-10.63631	1.91582	-10.10603	0.42128
2799.688	-10.62926	2.01642	-10.06629	0.31821
2803.685	-10.68616	2.09976	-10.17288	0.32772
2807.685	-10.65879	2.13428	-10.15329	0.26160
2811.686	-10.70529	2.16190	-10.17221	0.26239
2815.686	-10.81183	2.29698	-10.06542	0.27447
2819.689	-10.84350	2.28921	-10.00199	0.33281
2823.687	-10.78032	2.34818	-10.01299	0.37246
2827.685	-10.56438	1.95955	-10.06075	0.46983
2831.688	-10.40552	1.45541	-10.07386	0.49516
2835.690	-10.98970	2.65786	-10.16377	0.69620
2839.687	-10.83462	2.49103	-10.08515	0.57579
2843.643	-10.35412	2.90645	-10.04350	0.86288
2847.663	-9.66668	3.00693	-9.92394	1.34581
2851.687	-4.57063	2.59923	-9.86119	1.06323
2855.687	-3.74943	1.95785	-9.89053	1.28720
2859.678	-6.68597	8.38213	-2.21888	-0.79018
2863.689	1.08497	0.14390	-1.94236	8.83305
2867.689	NaN	NaN	-5.43074	7.77181
2871.689	NaN	NaN	NaN	NaN
2875.677	NaN	NaN	NaN	NaN
2879.689	NaN	NaN	NaN	NaN
2883.690	NaN	NaN	NaN	NaN
2887.677	NaN	NaN	NaN	NaN
2891.676	NaN	NaN	NaN	NaN
2895.694	NaN	NaN	NaN	NaN
2899.644	NaN	NaN	NaN	NaN
2903.691	NaN	NaN	NaN	NaN
2907.644	NaN	NaN	NaN	NaN
2911.689	NaN	NaN	NaN	NaN
2915.687	NaN	NaN	NaN	NaN
2919.688	NaN	NaN	NaN	NaN
2923.692	NaN	NaN	NaN	NaN
2927.688	NaN	NaN	NaN	NaN
2931.587	NaN	NaN	NaN	NaN
2935.648	NaN	NaN	NaN	NaN
2939.690	NaN	NaN	NaN	NaN
2943.688	NaN	NaN	NaN	NaN
2947.689	NaN	NaN	5.56468	0.38431
2951.691	0.11754	7.05666	NaN	NaN
2955.692	2.44796	11.37502	0.94847	-1.64540
2959.690	-1.63658	15.10715	9.29703	-0.63602
2963.690	5.77959	7.38901	-1.23518	-2.53433
2967.649	5.30518	3.64522	0.62848	-1.63458
2971.691	4.94016	2.94557	2.08684	-0.09002
2975.688	-0.71216	-0.37588	2.36148	-0.44722
2979.691	-1.63214	-0.06023	1.02528	-0.50693
2983.587	-1.87024	0.88377	1.19053	-0.05413
2987.691	-2.74469	1.21432	1.73343	-0.94179
2991.691	-2.27853	-0.42505	2.35528	-0.84757
2995.690	2.16922	0.09774	2.15190	-0.95878
2999.585	0.99705	0.68955	2.25513	-0.76551
3003.693	1.06853	0.27558	2.02064	-0.44022
3007.693	1.53163	0.86117	2.13703	-0.07003
3011.689	1.05605	1.24444	2.09160	0.08076
3015.593	0.91877	0.96013	2.83511	-0.49080
3019.691	1.03925	1.20766	2.44224	-0.36276
3023.693	1.07336	1.31279	2.15871	-0.21266
3027.691	1.16364	1.52462	2.19522	-0.51289
3031.692	1.22052	1.63036	2.10736	-0.30397
3035.693	1.20668	1.60907	2.13750	-0.25172
3039.691	1.16746	1.57717	2.19930	-0.67738
3043.691	1.16463	1.56769	2.50910	-0.57203
3047.587	1.07612	1.67235	2.31287	-0.46571
3051.693	1.10544	1.69075	2.40739	-0.48571
3055.669	1.17374	1.69168	2.38521	-0.40384
3059.693	1.23583	1.63547	2.14897	-0.29761
3063.589	1.32805	1.47033	2.36450	-0.35226
3067.694	1.26860	1.26895	2.32436	-0.23880
3071.694	1.27457	1.11899	2.27416	-0.03223
3075.694	1.17339	1.12404	2.12429	0.51043
3079.589	1.09495	1.17414	2.59321	-0.03758
3083.698	0.96169	1.00374	2.73207	0.14056
3087.694	0.85458	1.05836	3.28333	0.19214
3091.693	0.81620	1.00080	3.08750	-0.21111
3095.589	0.83647	0.98728	2.65986	-0.01410
3099.683	0.91994	1.04714	2.70166	-0.34695
3103.694	0.91741	0.95298	2.28987	-0.38177
3107.693	0.86071	0.99773	2.03645	-0.42497
3111.696	0.87989	1.05267	2.45535	-0.45665
3115.695	1.01479	1.01254	2.66677	-0.52582
3119.703	0.96368	1.05058	2.51569	-0.41797
3123.697	0.93864	1.10267	2.75920	-0.59763
3127.589	0.94929	1.20673	2.59817	-0.53434
3131.695	0.94110	1.25191	2.55148	-0.56846
3135.694	0.94899	1.27472	2.46550	-0.46029
3139.695	1.06421	1.18838	2.50994	-0.38831
3143.587	1.11189	1.13445	2.48017	-0.32886
3147.697	1.11864	1.21560	2.64054	-0.35516
3151.696	1.08363	1.24897	2.64988	-0.25093
3155.695	1.02526	1.31281	2.59054	-0.27164
3159.590	0.76838	1.23731	2.55004	-0.28752
3163.696	0.89302	1.24904	2.55695	-0.87953
3167.697	1.01675	1.24542	2.61461	-1.31855
3171.697	0.83781	1.20845	2.13509	-0.23816
3175.590	-0.64412	1.23692	-0.21661	-0.13856
3179.676	-1.42067	1.28459	-2.72652	-0.14724
3183.693	-3.60178	1.23351	-4.19395	-1.03454
3187.696	-4.79839	1.12826	-6.02151	-0.67236
3191.591	-6.44863	0.43422	-7.59300	-1.59761
3195.695	-7.80840	-0.22083	-8.07343	-1.73336
3199.697	-9.38373	-2.34826	-10.27475	-2.26901
3203.696	-9.86076	-2.09405	-10.82268	-3.12862
3207.590	-11.03958	-2.80027	-11.61042	-3.24819
3211.696	-12.23673	-2.39152	-11.36789	-4.84608
3215.730	-12.62991	-2.41126	-12.49701	-5.27306
3219.652	-13.30858	-2.76114	-12.61391	-5.32116
3223.593	-13.56378	-2.98728	-12.87692	-5.52147
3227.696	-13.64987	-2.86857	-12.92783	-5.37491
3231.696	-13.82358	-2.96065	-12.58992	-5.37332
3235.697	-13.48179	-2.92416	-12.54833	-5.39693
3239.594	-13.54671	-3.06059	-12.28469	-5.21285
3243.697	-13.36368	-3.04942	-11.41137	-5.19423
3247.697	-13.23163	-2.96431	-11.97344	-4.43915
3251.696	-13.07971	-2.97469	-11.97522	-4.55416
3255.592	-13.18722	-2.91350	-12.23640	-5.05203
3259.698	-12.98695	-2.77812	-11.69519	-4.91329
3263.675	-12.75849	-2.65365	-12.13802	-5.01716
3267.697	-12.75380	-2.55654	-12.02682	-4.96132
3271.595	-12.84279	-2.50740	-11.95781	-5.12299
3275.571	-12.83762	-2.48789	-11.93313	-5.06222
3279.573	-12.85756	-2.37713	-11.79544	-5.02334
3283.527	-12.77813	-2.42021	-11.87087	-4.96445
3287.565	-12.76888	-2.38747	-11.96914	-5.72281
3291.571	-12.82023	-2.42012	-12.07199	-5.34646
3295.572	-12.85142	-2.44241	-12.17338	-5.40940
3299.572	-12.84751	-2.48530	-12.21949	-5.37079
3303.565	-12.92644	-2.55206	-12.37989	-5.49317
3307.574	-12.97450	-2.61432	-12.47603	-5.49596
3311.573	-13.02836	-2.71828	-12.52986	-5.63145
3315.585	-13.06226	-2.78256	-12.53135	-5.64131
3319.571	-13.08465	-2.90989	-12.75930	-5.63600
3323.578	-13.06311	-2.92601	-12.79569	-5.67510
3327.573	-13.07276	-3.00155	-12.80619	-5.70174
3331.574	-13.09706	-3.01199	-12.80487	-5.70081
3335.699	-13.07387	-3.09557	-12.85076	-5.70887
3339.573	-13.07683	-3.09681	-12.93054	-5.67351
3343.572	-13.10132	-3.12105	-12.98697	-5.62413
3347.574	-13.04071	-3.15618	-13.02078	-5.56471
3351.562	-13.00990	-3.11773	-13.05013	-5.51914
3355.574	-12.98063	-2.86776	-13.01232	-5.46730
3359.572	-12.94789	-2.86163	-13.02756	-5.39148
3363.574	-12.92378	-2.58232	-13.03044	-5.27776
3367.573	-12.89169	-2.32905	-13.08265	-5.23359
3371.572	-12.91241	-2.39245	-13.06108	-5.10886
3375.575	-12.87371	-2.13216	-13.03051	-5.01208
3379.571	-12.85815	-1.99680	-12.95494	-4.98632
3383.567	-12.80884	-2.19032	-12.86836	-4.88248
3387.577	-12.74374	-1.95551	-12.91661	-4.84894
3391.572	-12.73394	-2.17642	-12.89447	-4.73730
3395.565	-12.63350	-2.24885	-12.82566	-4.65629
3399.573	-12.55167	-2.25838	-12.86560	-4.53404
3403.577	-12.47103	-2.64120	-12.80891	-4.42924
3407.530	-12.61885	-2.85402	-12.89831	-4.29729
3411.576	-12.60994	-2.79487	-12.70768	-4.15173
3415.531	-12.65229	-3.04937	-12.69984	-4.04521
3419.577	-12.65198	-2.73890	-12.57666	-4.20217
3423.576	-12.61656	-2.65362	-12.59484	-4.25680
3427.577	-12.62967	-2.65702	-12.68364	-4.32497
3431.568	-12.45175	-2.71444	-12.57694	-4.39544
3435.575	-12.24818	-2.56154	-12.46907	-4.29291
3439.574	-12.28166	-2.49496	-12.31833	-4.27040
3443.575	-12.33979	-2.60937	-12.46252	-4.28199
3447.565	-12.68508	-2.59872	-12.34609	-4.20657
3451.576	-12.65061	-2.73572	-12.17207	-4.31814
3455.576	-12.46249	-2.63134	-12.07218	-4.14630
3459.576	-12.52312	-2.64779	-11.79684	-4.16050
3463.565	-12.32757	-2.72419	-11.33927	-4.13921
3467.531	-12.19382	-2.72860	-11.60887	-4.10828
3471.576	-12.08430	-2.75532	-11.72072	-4.00688
3475.559	-11.99039	-2.73377	-11.60554	-3.99861
3479.574	-12.00782	-2.84090	-11.55511	-3.95390
3483.578	-12.31549	-2.83740	-11.91089	-3.93566
3487.577	-12.36610	-2.81230	-11.72320	-3.92888
3491.576	-12.33447	-2.80116	-11.51761	-3.93298
3495.567	-12.31206	-2.76628	-11.55285	-3.92435
3499.579	-12.47099	-2.85430	-11.41872	-3.94289
3503.578	-12.34775	-2.94145	-11.31689	-3.95913
3507.577	-12.46138	-2.72727	-11.26338	-3.95024
3511.567	-12.41630	-2.67411	-11.57951	-3.90544
3515.608	-12.52459	-2.45053	-11.34225	-3.90284
3519.542	-12.49311	-2.21766	-11.59639	-3.96878
3523.577	-12.62710	-2.82954	-11.41705	-4.01888
3527.534	-12.59550	-2.80076	-11.43829	-4.00346
3531.579	-12.54807	-2.62921	-11.38686	-3.93285
3535.579	-12.61824	-2.87613	-11.46459	-3.87341
3539.577	-12.60933	-2.51363	-11.52886	-3.75722
3543.532	-12.27313	-2.17133	-11.61554	-2.74101
3547.576	-10.67584	0.60816	-11.07355	-1.96824
3551.578	-10.63298	2.84235	-10.00124	-0.06037
3555.578	-10.29928	5.45315	-9.32770	1.08314
3559.509	-9.58724	5.03582	-9.01905	2.89610
3563.579	-9.74451	4.98993	-8.58117	3.75026
3567.579	-9.19716	5.25532	-8.24337	6.07069
3571.579	-8.85342	5.26064	-8.52411	5.62681
3575.577	-9.43136	5.47887	-8.36985	5.36259
3579.580	-9.31798	5.53014	-8.40839	5.44482
3583.580	-9.05838	5.65475	-8.33919	6.02869
3587.580	-8.90139	5.58898	-8.31382	6.85007
3591.568	-9.08994	5.54170	-8.20807	7.32950
3595.581	-9.02752	5.77419	-8.13079	6.42695
3599.573	-9.10838	5.66048	-8.25549	7.58226
3603.573	-9.20601	5.73233	-8.31921	7.13429
3607.568	-9.17682	5.76026	-8.23777	6.86273
3611.580	-9.34609	5.83845	-8.22234	7.35738
3615.579	-9.29751	5.90431	-8.26500	6.77581
3619.580	-9.32799	6.04637	-8.24298	6.75821
3623.570	-9.29249	5.90772	-8.23717	6.75971
3627.582	-9.40982	5.94823	-8.40259	6.70328
3631.581	-9.44189	5.99581	-8.38384	6.80036
3635.582	-9.51471	5.94905	-8.34643	6.59424
3639.605	-9.53586	5.93348	-8.32002	6.52164
3643.551	-9.58634	5.97115	-8.26354	6.60169
3647.581	-9.59349	5.94504	-8.27035	6.43054
3651.546	-9.52838	5.92438	-8.23277	5.88013
3655.579	-9.52420	5.95087	-8.25916	5.33104
3659.583	-9.48371	5.88595	-8.15747	6.10057
3663.581	-9.46524	5.84603	-8.23918	6.36775
3667.581	-9.47541	5.83601	-8.35646	6.00683
3671.602	-9.50660	5.80997	-8.31137	5.69370
3675.580	-9.54223	5.85319	-8.28925	5.87114
3679.580	-9.54517	5.81116	-8.42746	5.70862
3683.566	-9.58096	5.77468	-8.45376	5.90823
3687.569	-9.55671	5.75258	-8.43091	5.76094
3691.581	-9.57766	5.76329	-8.45028	5.82444
3695.582	-9.58188	5.77745	-8.45655	5.84317
3699.583	-9.55533	5.74435	-8.39756	5.88831
3703.580	-9.55908	5.72188	-8.32303	5.72713
3707.581	-9.57503	5.72862	-8.26733	5.69115
3711.582	-9.57660	5.72483	-8.32891	5.62722
3715.580	-9.55736	5.73047	-8.32697	5.55638
3719.603	-9.50402	5.72022	-8.27190	5.60487
3723.537	-9.55690	5.71294	-8.29579	5.55711
3727.586	-9.52217	5.71948	-8.28517	5.51100
3731.552	-9.52521	5.71300	-8.22095	5.42423
3735.573	-9.47133	5.70477	-8.18127	5.38796
3739.582	-9.62881	5.66234	-8.19664	5.45337
3743.586	-9.59592	5.67133	-8.20741	5.46319
3747.583	-9.61822	5.69192	-8.27462	5.35564
3751.581	-9.58113	5.73424	-8.48250	5.27682
3755.582	-9.52765	5.69042	-8.63978	5.23193
3759.583	-9.70304	5.72178	-8.76316	5.37969
3763.583	-9.74569	5.67789	-8.77111	5.26843
3767.571	-9.66822	5.67587	-8.84162	5.30018
3771.582	-9.65753	5.71297	-8.71128	5.27025
3775.584	-9.60299	5.85031	-8.67992	5.23391
3779.581	-9.65372	5.95111	-8.77174	5.27590
3783.581	-9.53212	5.97723	-8.71540	5.36940
3787.585	-9.54672	5.88459	-8.79606	5.27741
3791.584	-9.54884	6.09564	-8.89787	5.42397
3795.584	-8.98750	6.25772	-8.79380	5.63986
3799.581	-6.27216	6.43893	-7.07798	6.23869
3803.585	-3.18126	6.83291	-5.85826	6.75513
3807.574	-2.36611	6.42628	-2.64287	6.50387
3811.586	0.73690	6.66238	-1.34896	5.79447
3815.586	1.82014	6.85345	0.36134	6.33421
3819.585	3.14917	6.83713	2.09264	6.22891
3823.586	4.93233	6.78586	4.44516	5.87769
3827.588	5.20292	6.66103	4.88722	6.39346
3831.585	6.20352	6.67473	7.26749	5.92646
3835.585	7.05657	6.50820	6.70744	6.83107
3839.539	7.72512	6.26380	7.11997	6.93023
3843.588	7.56508	6.23077	7.04335	7.02132
3847.587	7.23430	6.18387	6.99829	7.27713
3851.555	7.33310	6.23930	6.98306	7.42960
3855.585	7.41748	6.08438	6.97487	7.36680
3859.587	7.34206	6.04956	6.96927	7.50789
3863.576	7.34167	5.86820	7.00846	7.63262
3867.585	7.32597	5.78255	6.98069	7.57939
3871.586	7.27309	5.75785	6.97040	7.33628
3875.585	7.32263	5.72520	6.92141	7.19003
3879.585	7.31655	5.71708	7.02455	7.30664
3883.586	7.27367	5.72248	7.00524	7.41797
3887.591	7.24854	5.77031	7.00592	7.49238
3891.568	7.22830	5.74714	7.21103	7.31217
3895.570	7.19622	5.72949	7.22619	6.77084
3899.582	7.15139	5.78494	7.26605	6.65934
3903.545	7.12214	5.81813	7.75658	6.72427
3907.583	7.09074	5.76427	7.77690	6.36775
3911.591	7.00067	5.81814	7.86666	6.40344
3915.542	7.01709	5.77731	7.70953	5.41032
3919.587	6.99560	5.78951	7.65005	4.94703
3923.587	6.96917	5.86195	7.59936	5.62570
3927.581	6.98631	5.89671	7.62533	5.62780
3931.590	7.04941	5.87954	7.54766	5.80144
3935.551	7.10394	5.90323	7.43764	5.71209
3939.588	7.13363	5.99886	7.38693	5.33993
3943.575	7.08757	6.04976	7.30529	5.47651
3947.587	7.09947	6.04729	7.22009	5.40863
3951.588	7.07131	6.27134	7.18030	5.35424
3955.587	7.02714	6.31501	7.17321	5.34515
3959.485	6.94858	6.46712	7.08106	5.38325
3963.591	6.83416	6.56994	7.08248	5.48898
3967.553	6.69177	6.69149	7.02973	5.52455
3971.542	6.48786	6.75602	6.99299	5.66741
3975.486	6.38574	6.82233	7.00988	5.61422
3979.589	6.28011	6.82233	7.11723	5.28562
3983.586	6.29972	6.86753	7.20563	5.36454
3987.589	6.48739	6.88115	7.33820	5.29216
3991.589	6.31073	6.85013	7.39837	5.42529
3995.590	6.38991	6.77543	7.38515	5.36866
3999.587	6.21958	6.89166	7.38090	5.31230
4003.589	6.20492	6.96254	7.31408	5.89475
4007.484	6.46779	6.87642	7.67184	5.39718
4011.590	10.33737	6.57246	9.76796	5.68045
4015.589	12.55826	5.47785	10.27652	5.28338
4019.581	12.85678	4.75497	12.26825	5.36911
4023.483	13.35576	5.04113	12.34820	5.28123
4027.594	14.28156	4.49811	12.95605	5.22311
4031.590	14.45162	4.15515	13.14244	5.17929
4035.562	14.51988	4.16235	13.59509	5.08121
4039.484	14.60737	4.09757	13.53463	5.02130
4043.590	14.62482	4.10756	13.67850	5.10019
4047.590	14.57632	4.14174	13.59696	5.12677
4051.592	14.64824	4.07148	13.56772	5.08762
4055.488	14.63042	4.07416	13.67342	5.08138
4059.591	14.63256	4.01385	13.64846	5.03474
4063.589	14.71048	3.98172	13.68305	4.97470
4067.590	14.70365	3.94563	13.76579	4.99535
4071.591	14.68784	3.90517	13.82052	4.81966
4075.590	14.64636	3.90787	13.87222	4.89651
4079.589	14.62324	3.87417	13.87040	4.84398
4083.591	14.56836	3.91315	13.93433	4.75724
4087.486	14.16231	4.17714	13.99391	4.64365
4091.593	13.80723	4.19610	14.02192	4.55673
4095.592	13.92332	4.25038	14.16361	4.48108
4099.591	13.98802	4.21857	14.23307	4.42148
4103.486	14.04556	4.29181	14.35419	4.30100
4107.591	13.67035	4.32592	14.37755	4.62361
4111.591	13.44878	4.47158	14.43989	4.61242
4115.591	13.12211	4.58457	14.54512	4.65025
4119.591	13.29539	4.66537	14.52767	4.26608
4123.592	13.19120	4.73506	14.62194	3.87795
4127.592	13.17423	4.78820	14.67952	3.97998
4131.594	13.24906	4.79243	14.78090	3.99839
4135.595	13.23520	4.85260	14.87485	3.81752
4139.596	13.29342	4.95842	14.66866	3.82936
4143.554	13.29624	5.01044	14.71932	4.02427
4147.592	13.41577	4.97744	14.50188	3.79221
4151.455	13.47287	4.99957	14.03865	3.59992
4155.594	13.33142	5.01202	14.11425	3.24663
4159.593	13.37799	4.83020	13.98470	3.39256
4163.593	12.98523	4.89864	14.14544	3.31922
4167.489	13.09254	4.73647	14.20136	3.16357
4171.595	13.25418	4.68171	14.17801	3.30811
4175.595	13.15063	4.67441	14.04622	3.59380
4179.593	13.20498	4.60699	14.08944	3.65463
4183.493	13.29734	4.54765	14.03566	3.62765
4187.593	13.32103	4.55473	13.98587	3.55458
4191.592	13.42780	4.47209	14.01704	3.64699
4195.593	13.43467	4.52612	14.03260	3.94833
4199.490	13.56495	4.46036	14.05500	4.16366
4203.593	13.81296	4.46119	14.09476	4.34107
4207.592	14.18552	4.40018	14.08475	4.64486
4211.593	14.07265	4.39143	14.12130	4.77232
4215.595	14.09999	4.47133	14.07020	4.33885
4219.550	14.13535	4.48994	14.09084	4.15507
4223.593	14.03199	4.48224	14.10044	4.08882
4227.586	13.89582	4.45877	13.97057	4.00967
4231.595	14.02657	4.46538	14.03935	4.04844
4235.594	13.98746	4.47807	14.08729	3.86251
4239.595	14.04694	4.49220	14.05462	3.96882
4243.594	13.96860	4.48762	14.10996	4.06019
4247.491	13.92192	4.50923	14.13272	3.92672
4251.595	13.88958	4.53275	14.16588	3.95929
4255.595	13.86275	4.49395	14.02190	3.98889
4259.597	13.82962	4.46644	13.80938	3.96236
4263.492	13.82960	4.43106	13.52003	4.02780
4267.565	13.82597	4.41568	13.93260	3.92344
4271.596	13.86399	4.42873	13.98847	3.99897
4275.593	13.88067	4.42602	13.89603	4.01094
4279.489	13.89837	4.41683	14.00835	4.06815
4283.596	13.90735	4.32606	13.97550	4.05326
4287.595	13.91626	4.51864	13.94182	4.04965
4291.595	12.83463	4.57435	12.93743	4.42113
4295.458	12.77400	5.00044	10.92224	6.52551
4299.471	9.05865	6.22497	8.20318	7.66504
4303.469	8.68182	5.92376	5.47178	6.82873
4307.470	5.98282	6.84997	2.69668	6.51422
4311.452	3.70769	7.42897	2.36289	6.31275
4315.466	2.86081	7.33874	-0.33409	6.27899
4319.470	-0.11431	7.19947	-1.03206	7.15616
4323.471	-1.58874	7.22444	-2.59728	6.46443
4327.491	-3.67136	7.14688	-2.83286	7.58085
4331.472	-2.19165	7.43504	-3.12959	7.73910
4335.470	-2.38801	7.63453	-3.12145	7.55716
4339.471	-2.29646	7.71789	-3.25800	7.73492
4343.495	-2.40372	7.65942	-3.22883	7.51625
4347.473	-2.43035	7.65947	-3.28249	7.51057
4351.472	-2.62524	7.62500	-3.19679	7.22747
4355.470	-2.78644	7.55103	-3.23059	7.50819
4359.491	-2.87537	7.48450	-3.15280	7.16547
4363.471	-2.86660	7.52934	-3.18799	7.13660
4367.472	-3.12103	7.49120	-3.16532	7.15308
4371.471	-3.10030	7.52554	-3.15988	6.99045
4375.493	-3.41553	7.54030	-3.09228	6.82960
4379.473	-3.57520	7.43027	-3.04353	6.79257
4383.474	-3.52848	7.39435	-2.99428	6.87466
4387.474	-3.62665	7.36411	-2.94500	6.75292
4391.494	-3.85148	7.34944	-2.94730	6.69000
4395.462	-3.93566	7.34122	-2.83336	6.75245
4399.472	-4.02327	7.34028	-2.76886	6.68232
4403.475	-4.13174	7.35137	-2.64574	6.68630
4407.493	-4.18102	7.35686	-2.60471	6.69878
4411.472	-4.22281	7.37507	-2.61689	6.70068
4415.427	-4.29209	7.39415	-2.54744	6.63340
4419.473	-4.32866	7.36278	-2.54435	6.63954
4423.495	-4.38410	7.34601	-2.49384	6.59915
4427.474	-4.41063	7.37794	-2.49535	6.50758
4431.475	-4.43011	7.36915	-2.50301	6.54494
4435.474	-4.45091	7.35479	-2.47504	6.47224
4439.495	-4.47319	7.37723	-2.48458	6.35351
4443.472	-4.41388	7.34421	-2.54289	6.40077
4447.474	-4.37374	7.32634	-2.61365	6.30151
4451.429	-4.31580	7.29811	-2.43929	6.26506
4455.496	-4.28779	7.25183	-2.34738	6.23417
4459.474	-3.35958	7.23414	-2.45862	6.22879
4463.473	-2.73670	7.20797	-2.43387	6.28312
4467.471	-2.72459	7.22136	-2.41460	6.33153
4471.497	-2.50429	7.17772	-2.41938	6.35627
4475.474	-2.57922	7.14119	-2.31800	6.32250
4479.474	-2.69168	7.13730	-2.36847	6.42980
4483.474	-2.62083	7.09662	-2.38942	6.54593
4487.449	-4.16433	7.15320	-2.27729	6.44975
4491.475	-2.53942	7.17030	-2.04049	6.47431
4495.475	-0.98459	7.07872	-1.50080	5.82190
4499.474	1.71960	6.55686	-0.38509	6.45633
4503.498	3.62316	5.18595	1.60318	5.74029
4507.481	4.85329	5.47017	2.48240	4.71061
4511.474	5.39635	6.31780	4.03441	4.83373
4515.476	5.65435	5.42582	4.69485	4.85768
4519.497	5.44112	5.71887	5.21269	4.56304
4523.470	5.61438	5.18272	5.64240	4.63248
4527.474	5.82940	5.02843	5.55966	4.44677
4531.478	5.62960	4.90390	5.53436	4.00139
4535.496	5.69254	4.81018	5.77708	4.01269
4539.475	5.67927	4.77648	5.87535	4.15239
4543.475	5.62871	4.59131	5.96102	4.09176
4547.475	5.63365	4.68070	6.08976	4.10605
4551.466	5.70330	4.55186	6.24855	4.18334
4555.477	5.69234	4.60494	6.19324	4.23199
4559.475	5.67489	4.56336	6.33915	4.19541
4563.476	5.64744	4.54640	6.37373	4.27431
4567.495	5.73247	4.56695	6.25340	4.31485
4571.476	5.71927	4.56210	6.47845	4.02751
4575.477	5.71893	4.59927	6.46662	4.13272
4579.477	5.73903	4.61301	6.52027	3.39594
4583.498	5.72618	4.63979	6.53877	3.25684
4587.476	5.88105	4.67256	6.53838	2.68234
4591.434	5.95651	4.66139	6.51701	3.12066
4595.432	5.94234	4.71393	6.52365	2.67601
4599.468	5.93993	4.71996	6.50031	2.73164
4603.466	5.95798	4.73021	6.56238	2.73132
4607.464	5.97256	4.73937	6.64687	2.76716
4611.476	6.01665	4.69058	6.76097	2.74310
4615.497	6.02156	4.67274	6.69189	2.69924
4619.478	6.12757	4.69544	6.82393	3.08751
4623.477	6.13782	4.74688	6.78267	3.66094
4627.477	6.13498	4.75954	6.87328	4.86153
4631.478	6.14364	4.75537	6.95504	3.73856
4635.479	6.12188	4.86994	6.99551	2.78776
4639.480	6.12772	4.92867	7.07820	2.88738
4643.473	6.17531	5.09502	7.11288	3.10678
4647.501	6.24803	4.85424	7.23658	3.23182
4651.478	6.29465	4.88458	7.37636	3.33719
4655.477	6.28783	4.85605	7.28942	3.28795
4659.479	6.34594	4.88147	7.27338	3.18951
4663.499	6.33968	4.82948	7.27008	3.12028
4667.479	6.32289	4.79645	7.16556	2.98793
4671.478	6.36719	4.75849	7.08121	2.94246
4675.477	6.39030	4.71933	6.94169	2.79199
4679.501	6.37861	4.69830	6.57000	2.81578
4683.480	6.37239	4.61798	6.76121	2.99621
4687.460	6.31384	4.58108	6.60135	2.93593
4691.476	6.31225	4.53677	6.47840	2.98839
4695.500	6.21821	4.52598	6.43687	2.99957
4699.479	6.22002	4.45803	6.28616	2.87663
4703.480	6.20717	4.44930	6.41430	2.94996
4707.479	6.25627	4.43936	6.33059	2.85343
4711.500	6.16488	4.42335	6.28832	2.92102
4715.479	6.15850	4.39356	6.27496	3.10305
4719.435	6.15073	4.51297	6.38224	3.11351
4723.480	6.17796	4.44642	6.43893	3.29842
4727.477	6.47710	4.15552	7.81008	3.02604
4731.480	7.75020	3.33691	9.05422	1.99597
4735.481	8.42224	2.33068	7.03457	2.53081
4739.480	9.01034	0.28710	8.18035	1.16396
4743.469	8.97443	-0.04808	8.78765	-0.37850
4747.481	9.05572	-0.80786	9.19188	-1.17318
4751.481	9.80385	-1.09996	9.64888	-1.58381
4755.480	10.25331	-1.32584	10.35102	-1.74921
4759.500	9.77189	-0.98675	10.48639	-1.84285
4763.483	9.87437	-0.78819	10.96332	-1.90647
4767.482	9.85216	-0.80063	10.82371	-1.79333
4771.459	9.83414	-0.93690	10.41683	-1.92358
4775.446	9.83867	-0.92810	10.58857	-2.00351
4779.481	10.07451	-1.05380	10.45375	-2.11740
4783.436	10.10081	-1.02217	10.72762	-2.22910
4787.474	10.19524	-1.07103	10.67099	-2.27057
4791.479	10.06879	-1.07627	10.65491	-2.24743
4795.481	10.15884	-0.99465	10.64542	-2.27118
4799.482	10.12392	-0.99280	10.49922	-2.21315
4803.482	10.14547	-0.93901	10.32438	-2.32318
4807.478	10.02820	-0.84543	10.39083	-2.25309
4811.480	9.92023	-0.91732	10.27770	-2.40610
4815.471	9.94127	-0.84943	10.39964	-2.45393
4819.482	9.78228	-0.76207	10.28044	-2.63634
4823.468	9.71548	-0.71669	10.28003	-2.59606
4827.481	9.75837	-0.67238	10.29599	-2.64253
4831.482	9.71018	-0.66484	10.10439	-2.58365
4835.483	9.64345	-0.54778	10.11769	-2.63166
4839.472	9.55784	-0.47517	10.07463	-2.56667
4843.483	9.44607	-0.42057	9.96679	-2.58719
4847.485	9.32676	-0.43815	10.03007	-2.52898
4851.483	9.32535	-0.38166	10.13248	-2.44333
4855.472	9.29858	-0.28949	10.07776	-2.26643
4859.482	9.17568	-0.27028	10.10502	-2.06946
4863.482	9.09464	-0.27564	10.18697	-2.10667
4867.483	9.06944	-0.20956	10.15973	-1.91286
4871.439	9.09033	-0.16312	10.23267	-1.85985
4875.484	9.05371	-0.09590	10.33221	-1.71451
4879.486	9.05120	-0.05885	10.31311	-1.71892
4883.485	9.04236	-0.03259	10.26864	-1.63934
4887.476	9.07215	0.00341	10.30809	-1.60738
4891.481	9.13003	-0.51940	10.37794	-1.62068
4895.486	9.16165	-0.73080	10.36086	-1.56175
4899.484	9.15584	-0.57591	10.41599	-1.55112
4903.481	9.23418	-0.78622	10.41078	-1.54815
4907.484	9.25166	-0.35915	10.38718	-1.53390
4911.485	9.27445	-0.86238	10.39542	-1.55281
4915.439	9.25884	-0.43184	10.37191	-1.47853
4919.474	9.27327	-0.92525	10.38680	-1.47887
4923.484	9.24902	-0.52055	10.41782	-1.45909
4927.483	9.21319	-0.67632	10.51928	-1.50344
4931.486	9.21275	-0.61395	10.61790	-1.46635
4935.488	9.12166	-0.53737	10.66702	-1.49210
4939.476	9.11007	-0.45537	10.75579	-1.74347
4943.484	9.11922	-0.22263	10.87577	-1.94387
4947.484	9.04609	-0.20469	10.90748	-1.98148
4951.474	8.99867	-0.04702	10.99625	-2.13924
4955.485	8.96629	0.04035	10.96504	-2.44806
4959.484	8.93847	0.09249	10.93612	-2.50536
4963.487	8.90308	0.14251	10.91614	-2.44713
4967.440	8.95813	-0.03719	10.82878	-2.61024
4971.442	8.95532	-0.02131	10.82672	-2.59884
4975.488	9.01481	0.03357	10.76896	-2.69151
4979.453	9.14402	-0.14063	10.77658	-2.76802
4983.379	9.20429	-0.08465	10.64482	-2.77188
4987.487	9.38999	-0.21260	10.58040	-2.78984
4991.486	9.42805	-0.28894	10.43421	-2.78613
4995.485	9.48987	-0.33469	10.44396	-2.69303
4999.486	9.63797	-0.43004	10.43244	-2.53276
5003.488	9.96908	-0.50219	10.33070	-2.29502
5007.485	9.84407	-0.56525	10.31487	-2.16937
5011.486	9.91621	-0.60630	10.25769	-1.92052
5015.490	10.03077	-0.63295	10.28111	-1.88609
5019.472	10.06961	-0.68084	10.25055	-1.86346
5023.476	10.05113	-0.67119	10.20433	-1.80786
5027.479	10.10598	-0.69980	10.17106	-1.72697
5031.441	10.07793	-0.73295	10.21678	-1.69984
5035.487	10.09689	-0.73736	10.20373	-1.69053
5039.486	10.04194	-0.75992	10.27936	-1.64471
5043.486	9.99241	-0.75642	10.27607	-1.60317
5047.385	9.87403	-0.76384	10.34758	-1.60813
5051.487	9.87295	-0.74042	10.49601	-1.61752
5055.488	9.76167	-0.69020	10.49073	-1.62026
5059.487	9.69663	-0.72298	10.62687	-1.65383
5063.486	9.64215	-0.70122	10.60970	-1.66961
5067.488	9.58736	-0.69485	10.64511	-1.65603
5071.485	9.53791	-0.67789	10.68696	-1.65968
5075.486	9.44757	-0.63577	10.76539	-1.66864
5079.383	9.38965	-0.66402	10.69515	-1.66093
5083.488	9.39803	-0.64934	10.82629	-1.85535
5087.489	9.40059	-0.66444	10.97571	-2.03726
5091.479	9.41774	-0.69107	11.01859	-2.04878
5095.383	9.40149	-0.67167	11.10976	-2.37252
5099.490	9.37999	-0.71649	11.24354	-2.24872
5103.471	9.36353	-0.68064	11.36548	-2.65770
5107.488	9.28685	-0.63410	11.39802	-2.76983
5111.384	9.29456	-0.59368	11.52302	-2.83341
5115.501	9.25038	-0.53938	11.45271	-2.77540
5119.489	9.17759	-0.39377	11.24304	-2.78830
5123.488	9.23357	-0.55462	11.23270	-2.62364
5127.384	9.19752	-0.55896	11.36005	-2.71845
5131.490	9.23964	-0.51434	11.40393	-2.57533
5135.491	9.20937	-0.34936	11.18656	-2.43976
5139.495	9.10071	-0.17880	11.19702	-2.05895
5143.386	8.98845	-0.07231	10.95928	-2.05382
5147.485	8.90383	-0.17006	10.93772	-2.33211
5151.451	9.27682	0.03389	10.93265	-2.17910
5155.490	13.88200	2.25996	11.05120	-2.08672
5159.384	15.22618	2.64706	13.87049	-1.49893
5163.491	13.23845	5.99889	14.56574	-1.48306
5167.491	NaN	NaN	12.39371	-0.70838
5171.491	NaN	NaN	16.53840	1.82158
5175.489	NaN	NaN	NaN	NaN
5179.385	NaN	NaN	NaN	NaN
5183.489	NaN	NaN	NaN	NaN
5187.489	NaN	NaN	NaN	NaN
5191.489	NaN	NaN	NaN	NaN
5195.491	NaN	NaN	NaN	NaN
5199.490	NaN	NaN	NaN	NaN
5203.447	NaN	NaN	NaN	NaN
5207.492	NaN	NaN	NaN	NaN
5211.490	NaN	NaN	NaN	NaN
5215.490	NaN	NaN	NaN	NaN
5219.489	NaN	NaN	NaN	NaN
5223.492	NaN	NaN	NaN	NaN
5227.480	NaN	NaN	NaN	NaN
5231.492	NaN	NaN	NaN	NaN
5235.494	NaN	NaN	NaN	NaN
5239.490	2.17108	12.47436	NaN	NaN
5243.491	1.25225	10.57465	NaN	NaN
5247.492	3.06914	10.81839	4.85162	6.20429
5251.491	2.94243	11.24288	3.16629	3.68872
5255.493	3.05909	10.84513	4.34539	5.89028
5259.494	4.50567	10.58797	3.72393	6.34686
5263.384	3.10183	9.28613	2.13715	5.34556
5267.492	1.80536	8.04547	1.81446	6.49142
5271.490	1.36590	6.26682	1.47868	6.85851
5275.492	1.45509	6.36580	0.90604	7.73619
5279.390	-2.85465	5.61040	0.93209	5.84658
5283.493	-2.75891	5.04324	1.16798	6.37447
5287.492	-2.32171	5.19194	1.29881	5.74105
5291.492	-1.74600	5.20844	1.36439	5.52701
5295.449	1.67112	6.02055	1.20737	5.93839
5299.492	1.80992	6.28453	1.74779	6.18033
5303.491	1.71518	6.35934	1.51013	6.66372
5307.494	1.72716	6.44442	1.58594	6.52408
5311.470	1.48860	6.25130	1.79842	6.64935
5315.489	1.52739	6.36233	2.12788	5.86130
5319.494	1.65976	6.42019	2.21459	5.99817
5323.494	1.83149	6.56351	2.37615	5.61004
5327.366	1.78535	6.58973	2.47239	5.72588
5331.369	1.80826	6.64976	2.56325	5.86345
5335.373	1.56248	6.72692	2.38432	5.48942
5339.323	1.47856	6.68778	2.41754	5.34212
5343.356	1.39145	6.84648	2.54028	5.30062
5347.369	1.52870	6.81957	2.56419	5.13622
5351.370	1.42876	7.33335	2.59804	5.28512
5355.370	1.57327	6.84589	2.42265	5.87866
5359.359	1.56685	7.20056	2.53201	5.18877
5363.371	1.92550	8.21527	2.83331	5.86525
5367.380	2.60845	11.20162	3.95246	9.24337
5371.371	4.69660	11.49469	4.73919	11.26669
5375.393	5.01901	13.23559	NaN	NaN
5379.366	NaN	NaN	NaN	NaN
5383.366	NaN	NaN	NaN	NaN
5387.370	NaN	NaN	NaN	NaN
5391.390	NaN	NaN	NaN	NaN
5395.371	NaN	NaN	NaN	NaN
5399.350	NaN	NaN	NaN	NaN
5403.368	NaN	NaN	NaN	NaN
5407.391	NaN	NaN	NaN	NaN
5411.370	NaN	NaN	NaN	NaN
5415.370	NaN	NaN	NaN	NaN
5419.370	NaN	NaN	NaN	NaN
5423.362	NaN	NaN	NaN	NaN
5427.371	NaN	NaN	NaN	NaN
5431.371	NaN	NaN	NaN	NaN
5435.375	NaN	NaN	NaN	NaN
5439.392	NaN	NaN	NaN	NaN
5443.371	NaN	NaN	NaN	NaN
5447.371	NaN	NaN	NaN	NaN
5451.371	NaN	NaN	NaN	NaN
5455.368	NaN	NaN	NaN	NaN
5459.373	NaN	NaN	NaN	NaN
5463.371	NaN	NaN	NaN	NaN
5467.423	NaN	NaN	NaN	NaN
5471.395	NaN	NaN	NaN	NaN
5475.372	NaN	NaN	NaN	NaN
5479.374	NaN	NaN	NaN	NaN
5483.371	NaN	NaN	NaN	NaN
5487.369	NaN	NaN	NaN	NaN
5491.371	NaN	NaN	NaN	NaN
5495.370	NaN	NaN	NaN	NaN
5499.371	NaN	NaN	NaN	NaN
5503.362	NaN	NaN	NaN	NaN
5507.372	NaN	NaN	NaN	NaN
5511.373	NaN	NaN	NaN	NaN
5515.371	NaN	NaN	NaN	NaN
5519.394	NaN	NaN	NaN	NaN
5523.362	NaN	NaN	NaN	NaN
5527.362	NaN	NaN	NaN	NaN
5531.375	NaN	NaN	NaN	NaN
5535.375	NaN	NaN	NaN	NaN
5539.373	NaN	NaN	NaN	NaN
5543.373	NaN	NaN	NaN	NaN
5547.373	NaN	NaN	NaN	NaN
5551.394	NaN	NaN	NaN	NaN
5555.373	NaN	NaN	NaN	NaN
5559.376	NaN	NaN	NaN	NaN
5563.374	NaN	NaN	NaN	NaN
5567.365	NaN	NaN	NaN	NaN
5571.373	NaN	NaN	NaN	NaN
5575.375	NaN	NaN	NaN	NaN
5579.375	NaN	NaN	NaN	NaN
5583.330	NaN	NaN	NaN	NaN
5587.374	10.31799	14.82831	NaN	NaN
5591.372	NaN	NaN	NaN	NaN
5595.374	NaN	NaN	NaN	NaN
5599.364	NaN	NaN	NaN	NaN
5603.375	NaN	NaN	NaN	NaN
5607.354	10.26578	14.92907	NaN	NaN
5611.375	10.34674	14.89360	NaN	NaN
5615.366	NaN	NaN	NaN	NaN
5619.372	10.28489	14.93546	NaN	NaN
5623.376	10.26047	14.92086	NaN	NaN
5627.377	10.13838	14.91653	NaN	NaN
5631.398	10.05091	14.89513	NaN	NaN
5635.377	NaN	NaN	NaN	NaN
5639.377	10.11899	14.91314	NaN	NaN
5643.378	10.05719	14.93550	NaN	NaN
5647.401	10.04052	14.94928	NaN	NaN
5651.342	10.04093	14.95367	NaN	NaN
5655.377	NaN	NaN	NaN	NaN
5659.378	NaN	NaN	NaN	NaN
5663.398	NaN	NaN	NaN	NaN
5667.376	NaN	NaN	NaN	NaN
5671.376	NaN	NaN	NaN	NaN
5675.376	NaN	NaN	NaN	NaN
5679.396	NaN	NaN	NaN	NaN
5683.378	10.32601	15.01977	NaN	NaN
5687.388	10.25439	14.92536	NaN	NaN
5691.351	NaN	NaN	NaN	NaN
5695.374	NaN	NaN	NaN	NaN
5699.375	NaN	NaN	NaN	NaN
5703.376	10.16572	14.91764	NaN	NaN
5707.376	11.08376	14.72783	NaN	NaN
5711.397	NaN	NaN	NaN	NaN
5715.377	NaN	NaN	NaN	NaN
5719.334	NaN	NaN	NaN	NaN
5723.381	NaN	NaN	NaN	NaN
5727.396	NaN	NaN	NaN	NaN
5731.374	NaN	NaN	NaN	NaN
5735.334	NaN	NaN	NaN	NaN
5739.381	NaN	NaN	NaN	NaN
5743.395	NaN	NaN	NaN	NaN
5747.378	NaN	NaN	NaN	NaN
5751.332	NaN	NaN	NaN	NaN
5755.378	NaN	NaN	NaN	NaN
5759.375	NaN	NaN	NaN	NaN
5763.379	NaN	NaN	NaN	NaN
5767.333	NaN	NaN	NaN	NaN
5771.379	NaN	NaN	NaN	NaN
5775.345	NaN	NaN	NaN	NaN
5779.375	NaN	NaN	NaN	NaN
5783.381	NaN	NaN	NaN	NaN
5787.380	NaN	NaN	NaN	NaN
5791.377	NaN	NaN	NaN	NaN
5795.401	NaN	NaN	NaN	NaN
5799.349	NaN	NaN	NaN	NaN
5803.378	NaN	NaN	NaN	NaN
5807.377	NaN	NaN	NaN	NaN
5811.380	NaN	NaN	NaN	NaN
5815.369	20.33797	10.04721	NaN	NaN
5819.379	14.92058	10.32951	NaN	NaN
5823.378	18.40993	9.31042	20.10712	13.60234
5827.378	19.53525	5.16481	NaN	NaN
5831.366	21.45417	7.29255	NaN	NaN
5835.379	NaN	NaN	NaN	NaN
5839.381	NaN	NaN	NaN	NaN
5843.335	NaN	NaN	NaN	NaN
5847.369	NaN	NaN	NaN	NaN
5851.382	NaN	NaN	23.53432	8.85628
5855.382	NaN	NaN	23.12506	8.20328
5859.345	NaN	NaN	22.72279	7.82457
5863.370	NaN	NaN	22.87842	7.12988
5867.379	NaN	NaN	22.67110	6.58775
5871.380	NaN	NaN	22.74850	7.51300
5875.380	NaN	NaN	22.65633	7.48594
5879.379	NaN	NaN	22.69439	7.53515
5883.382	NaN	NaN	23.06048	7.21192
5887.380	NaN	NaN	NaN	NaN
5891.380	NaN	NaN	23.07550	6.74227
5895.382	NaN	NaN	NaN	NaN
5899.359	23.23114	4.44464	23.14225	6.88151
5903.382	22.96743	4.54775	NaN	NaN
5907.383	23.00060	4.56557	22.82573	7.25230
5911.386	23.01364	4.59554	22.95428	7.63494
5915.337	23.02806	4.66446	22.90997	7.41438
5919.382	23.08141	4.68108	22.81747	7.84445
5923.382	23.07611	4.66882	22.78547	8.04636
5927.381	23.10669	4.75918	22.77646	8.04859
5931.381	23.07389	4.79280	22.73225	7.86737
5935.383	23.11861	4.78059	22.74148	7.88569
5939.378	23.12485	4.85702	22.69137	7.93249
5943.369	22.92062	4.97193	22.63261	7.81830
5947.380	22.68365	5.26688	22.60445	8.03401
5951.381	22.21198	5.44483	22.64699	7.97907
5955.381	22.92896	5.46801	22.63883	7.94823
5959.383	22.92376	5.59791	22.64498	7.86566
5963.385	22.86451	5.69317	22.68790	7.90869
5967.338	22.99831	5.69266	22.75454	7.86689
5971.382	NaN	NaN	22.78041	7.78117
5975.386	NaN	NaN	22.79956	7.85051
5979.383	NaN	NaN	22.76319	7.84610
5983.352	NaN	NaN	22.77056	7.75349
5987.386	NaN	NaN	22.77999	7.96866
5991.383	NaN	NaN	22.78794	8.08712
5995.384	NaN	NaN	22.83193	8.25136
5999.384	NaN	NaN	22.73567	7.79322
6003.384	22.28029	6.10302	20.17749	7.94634
6007.384	22.14151	6.29834	20.28183	8.36831
6011.384	21.98646	6.53032	20.32756	8.50830
6015.383	21.65170	6.58772	20.28198	8.62502
6019.385	21.88915	6.58825	20.86435	8.43726
6023.363	21.92331	6.59684	20.89241	8.64867
6027.385	21.79608	6.56783	21.44252	7.88131
6031.383	21.63564	6.54352	21.92551	7.49803
6035.385	21.85333	6.46871	21.66718	7.43721
6039.386	21.85889	6.38126	21.85543	7.48122
6043.383	21.92410	6.36057	21.86599	7.27403
6047.384	21.61625	6.53052	21.40914	7.91805
6051.385	21.84987	6.36888	21.19615	8.72785
6055.385	21.61306	6.41875	20.79183	9.00045
6059.386	21.47158	6.49265	20.94325	9.01455
6063.384	21.29300	6.55339	20.85067	8.63444
6067.382	21.41344	6.47768	20.81126	8.90862
6071.387	21.44985	6.55294	20.72154	8.90494
6075.348	21.31213	6.64884	20.63334	9.10022
6079.385	21.18987	6.77142	20.60536	9.03945
6083.386	21.07628	6.88453	20.50491	9.15068
6087.385	NaN	NaN	20.52957	9.27469
6091.385	21.02486	7.04284	20.49470	9.23024
6095.385	NaN	NaN	20.42132	9.41247
6099.386	NaN	NaN	20.40312	9.28810
6103.281	NaN	NaN	20.63374	9.00941
6107.362	NaN	NaN	20.48054	9.07570
6111.388	NaN	NaN	21.05197	8.68189
6115.385	NaN	NaN	21.03751	7.50907
6119.388	NaN	NaN	21.83413	7.39342
6123.387	23.55432	3.79748	22.16919	7.60794
6127.397	NaN	NaN	21.95342	8.10950
6131.386	22.33923	6.90474	22.17008	8.19511
6135.386	20.88051	6.78184	22.04442	8.48781
6139.386	21.49395	6.71929	21.95210	5.86060
6143.387	21.76295	6.67633	22.39575	6.21281
6147.376	21.83022	6.43486	22.17502	5.93381
6151.284	22.08986	5.86939	22.15891	6.17455
6155.383	21.93532	6.17634	22.16915	6.09257
6159.387	21.89146	6.33477	22.11185	6.39705
6163.387	21.23344	6.44821	21.86334	6.82678
6167.389	21.25966	6.37158	21.72582	7.05639
6171.386	21.52884	6.23577	21.66611	6.79246
6175.388	22.20683	5.74881	21.55634	7.71463
6179.388	22.09670	5.90157	21.90518	7.06847
6183.391	22.26781	5.78272	21.65035	7.04026
6187.388	21.80250	5.82358	21.84758	7.20940
6191.356	21.60010	5.95322	21.83452	7.11527
6195.386	22.20030	5.82657	21.82190	7.32511
6199.389	22.06714	5.78493	21.86656	7.07702
6203.389	22.21364	5.77016	22.73103	6.98869
6207.388	22.12499	5.78075	22.63441	6.65668
6211.388	22.09308	5.75718	22.69555	6.27731
6215.389	22.14300	5.74885	22.87509	6.55728
6219.344	22.12997	5.77857	23.02802	6.30234
6223.390	22.06134	5.81224	NaN	NaN
6227.388	22.05418	5.85596	NaN	NaN
6231.370	22.02725	5.92259	23.21785	6.65951
6235.389	22.10137	5.88534	23.29752	6.56436
6239.389	21.78996	5.94901	NaN	NaN
6243.389	21.82233	5.99653	23.33375	6.70712
6247.387	21.71593	5.93989	NaN	NaN
6251.389	21.72995	5.84450	23.32109	6.79689
6255.388	21.61001	5.84615	23.42370	6.36369
6259.389	21.55737	5.76244	NaN	NaN
6263.390	21.59950	5.67195	23.24355	6.68189
6267.392	21.43211	5.68756	22.68999	6.26669
6271.390	21.41577	5.66476	22.85063	6.66496
6275.355	21.37452	5.64183	22.42409	6.57594
6279.390	21.29845	5.66232	22.48071	6.72179
6283.390	21.26783	5.65909	22.40657	6.48606
6287.390	21.30762	5.71742	21.15267	6.48187
6291.390	21.33659	5.68873	21.37301	6.61973
6295.390	21.50306	5.83902	20.83890	6.84923
6299.391	21.70046	5.90109	20.67617	7.08182
6303.390	21.79081	5.83944	20.71770	7.41745
6307.389	21.84153	5.91024	20.73763	7.15150
6311.287	21.80543	5.90546	22.20819	6.59223
6315.416	22.09372	5.86385	22.17530	6.00115
6319.392	22.21693	6.00469	22.32908	5.37964
6323.390	22.05879	5.98291	22.25993	6.37361
6327.260	21.90872	6.00071	22.12725	6.68393
6331.391	21.96958	6.01275	21.96185	7.03645
6335.392	21.96766	5.92142	22.06384	6.55672
6339.392	21.93235	5.83867	21.87411	7.12635
6343.257	21.64645	5.88396	21.77637	6.57931
6347.266	21.65779	5.95312	22.45008	6.74542
6351.266	21.45853	5.95063	22.67738	6.69187
6355.268	21.43256	6.10424	22.58651	6.62706
6359.280	21.25093	6.16940	22.54327	6.94427
6363.231	21.18942	6.13187	22.56245	6.81588
6367.267	21.15150	6.19441	22.60170	7.07137
6371.268	21.18854	6.11928	22.71280	7.03757
6375.264	21.06452	6.22994	22.36159	7.40553
6379.264	21.03031	5.68224	22.45036	7.21791
6383.266	20.98112	6.15634	22.51672	7.07704
6387.263	21.69615	6.22830	22.46255	6.98039
6391.292	21.07148	7.83947	22.28949	6.93638
6395.268	20.96753	9.89557	22.66236	6.64806
6399.270	NaN	NaN	22.87585	7.17290
6403.257	20.98233	12.01960	NaN	NaN
6407.349	17.87677	14.20582	22.96360	11.10755
6411.268	NaN	NaN	NaN	NaN
6415.222	NaN	NaN	NaN	NaN
6419.268	NaN	NaN	NaN	NaN
6423.289	NaN	NaN	NaN	NaN
6427.268	NaN	NaN	NaN	NaN
6431.267	NaN	NaN	NaN	NaN
6435.223	NaN	NaN	NaN	NaN
6439.269	NaN	NaN	NaN	NaN
6443.267	NaN	NaN	NaN	NaN
6447.259	NaN	NaN	NaN	NaN
6451.267	NaN	NaN	NaN	NaN
6455.222	NaN	NaN	NaN	NaN
6459.280	NaN	NaN	NaN	NaN
6463.266	NaN	NaN	NaN	NaN
6467.264	NaN	NaN	NaN	NaN
6471.266	NaN	NaN	NaN	NaN
6475.268	NaN	NaN	NaN	NaN
6479.265	NaN	NaN	NaN	NaN
6483.268	NaN	NaN	NaN	NaN
6487.227	NaN	NaN	NaN	NaN
6491.266	1.66368	6.31345	4.83632	-2.19540
6495.268	1.78491	9.60047	3.03655	-1.99069
6499.259	4.65010	4.86165	2.35271	-2.97807
6503.268	2.31482	2.56120	5.56819	-2.22678
6507.270	2.55631	2.63504	2.27446	-2.14519
6511.269	1.95668	1.76687	0.83538	-3.04362
6515.261	-0.29381	-0.11361	-1.20901	-2.88793
6519.270	-2.69052	0.04168	3.43479	-2.03634
6523.271	0.12312	1.01309	1.86444	-1.94892
6527.256	-0.26768	0.50350	1.51926	-1.90404
6531.264	0.82138	0.49309	2.49728	-2.31923
6535.269	0.27726	0.29329	2.75933	-2.26920
6539.271	0.20517	0.35188	2.32860	-2.06376
6543.274	1.12313	0.39959	1.79668	-1.89211
6547.294	0.60228	0.49170	2.33395	-2.26658
6551.270	0.68136	0.57960	1.99853	-2.36524
6555.271	0.81813	0.59230	2.15341	-2.44688
6559.226	0.87093	0.57731	2.14141	-2.30206
6563.272	0.84639	0.65405	2.24433	-2.29355
6567.272	1.02407	0.33903	2.51336	-2.40264
6571.237	1.16791	0.01980	2.35494	-2.46592
6575.270	1.03476	-0.15600	2.47705	-2.46813
6579.297	0.94043	-0.06688	2.49307	-2.37307
6583.271	0.96184	-0.13792	2.90465	-2.53506
6587.272	0.83384	-0.18426	2.72204	-2.58349
6591.268	0.80967	-0.19626	2.61072	-2.62217
6595.293	0.90967	-0.16833	2.50397	-2.65075
6599.270	0.87726	-0.25733	2.37570	-2.54162
6603.272	0.95576	-0.42242	2.66922	-2.60634
6607.271	0.90274	-0.44163	2.44222	-2.68826
6611.277	0.90952	-0.57850	2.58447	-2.73352
6615.268	0.78436	-0.57591	2.60329	-2.73828
6619.273	0.70042	-0.73601	2.35125	-2.73362
6623.273	0.63129	-0.68755	2.23836	-2.73282
6627.297	0.70409	-0.68608	2.52354	-2.87654
6631.273	0.82831	-0.86204	2.45257	-2.89279
6635.275	1.08155	-0.65530	2.40761	-2.79759
