time (ms)	lx (deg)	ly (deg)	rx (deg)	ry (deg)
0.000	-2.93965	3.90781	-1.10566	2.29669
4.000	-2.40322	2.99673	-2.29265	1.67986
8.023	-2.43969	1.11356	-1.46427	-0.34921
11.956	-2.41606	0.84120	-1.39835	-1.10239
16.002	-2.31421	0.75451	-1.73291	-1.46749
19.999	-2.23298	0.76413	-1.63092	-0.90943
24.019	-1.98157	0.52980	-0.87046	-1.40011
27.959	-2.06674	0.55284	-0.59461	-1.46948
32.001	-2.08711	0.14500	-0.66394	-1.20440
36.000	-2.03112	0.02029	-0.23711	-1.47116
40.024	-1.93537	0.09435	-0.24676	-1.57401
44.002	-1.90386	0.16133	-0.38226	-1.56579
48.001	-1.86347	0.44808	-0.67121	-1.54504
52.001	-1.73720	0.58595	-0.25981	-1.63027
56.021	-1.62869	1.86129	-0.54962	-1.51128
60.000	-1.31069	1.03496	-0.76104	-1.60323
64.002	-1.71898	0.65495	-0.37953	-1.56798
68.003	-1.75109	0.47888	-0.35099	-1.51740
72.001	-1.81843	0.48279	-0.28783	-1.44423
75.965	-1.68982	0.56277	-0.64082	-1.49382
79.998	-1.63596	0.45517	-0.52781	-1.48586
84.003	-1.46149	0.72140	-0.60612	-1.50739
87.991	-1.40011	0.73053	-0.55605	-1.48659
92.002	-1.61359	0.49891	-1.01394	-1.35086
95.957	-2.38234	0.35200	-0.87101	-1.23459
100.001	-1.97602	0.20426	-0.79545	-1.23335
104.023	-1.81260	0.32657	-0.75402	-0.90138
108.003	-1.75847	0.26563	-0.61766	-0.82601
112.003	-2.02780	0.64917	-0.49374	-1.09629
115.978	-1.77774	0.86233	-1.00112	-1.09743
119.977	-1.63063	0.78335	-0.78938	-1.28680
124.002	-2.04490	-0.03832	-0.53237	-1.36971
128.003	-2.13866	-0.12145	-0.86897	-1.17437
132.001	-2.12057	0.03089	-1.05882	-1.35332
136.022	-1.99337	0.19003	-0.81893	-1.38620
140.005	-2.16488	1.05951	-0.85004	-1.42043
144.003	-2.02725	1.11893	-0.83349	-1.59749
147.959	-1.88685	0.98705	-0.68327	-1.67143
152.026	-2.07281	0.30517	-1.00380	-1.51030
155.999	-2.16535	0.06081	-0.66067	-1.60910
160.003	-2.18835	0.10245	-0.37370	-1.69830
163.967	-2.15043	0.34540	-0.50279	-1.66056
168.004	-2.13968	0.83598	-0.67233	-1.94709
172.003	-2.06121	1.10546	-0.73079	-1.78762
176.003	-2.09328	0.28252	-1.45514	-1.98022
180.003	-2.14627	-0.16399	-1.34274	-2.20622
184.006	-2.05551	-0.12143	-0.83920	-1.87762
188.003	-1.94749	0.60056	-0.25798	-1.77077
192.007	-2.04800	0.77219	-0.21127	-1.82561
196.005	-1.97557	1.05668	-0.45691	-0.13714
200.010	-1.93497	0.79998	-0.65761	-0.64564
204.004	-2.02904	0.27135	-1.10370	-1.64279
208.007	-2.02991	0.03777	-1.38843	-1.51560
211.965	-1.99905	-0.21658	-1.11747	-1.63822
216.000	-1.94949	0.79466	-0.06850	-1.86789
220.007	-1.99337	0.97730	-1.42451	-1.52272
224.006	-1.91127	1.24840	-1.03600	-1.31696
228.007	-1.78381	1.08813	-1.05637	-1.58520
232.009	-1.65927	0.17566	-0.60312	-1.61860
236.007	-1.98534	-0.03787	-0.82101	-1.50211
239.992	-1.84017	-0.05941	0.19082	-1.41121
244.003	-1.86605	0.75139	0.29960	-1.42561
248.010	-1.70462	0.64927	-0.78794	-2.33160
252.007	-1.47744	0.56539	-0.35938	-2.17044
256.005	-1.22293	0.83207	-0.51240	-1.67844
260.006	-1.34122	0.34277	-1.72304	-1.46045
264.008	-1.47124	0.72291	-1.30198	-1.15737
268.005	-1.33550	0.76845	-0.67811	-1.65743
272.008	-1.62329	0.58827	-0.19469	-1.70399
275.961	-1.64117	0.62381	-0.23376	-1.57033
279.963	-1.48126	0.50510	-0.51743	-1.13772
283.968	-1.40894	0.36355	-0.68650	-1.19854
288.006	-1.25644	0.38665	-0.40921	-1.44096
292.005	-1.02434	0.23444	-0.35228	-1.30508
296.010	-0.88671	0.16341	-0.36387	-1.01387
300.008	-1.02454	0.45821	-0.29979	-0.88842
304.008	-1.39810	0.77333	-0.34997	-1.42545
308.008	-1.37225	0.86270	-0.50294	-1.38998
312.010	-1.69532	0.74560	-0.35295	-1.67204
316.007	-2.06146	0.50666	-0.24043	-1.88059
320.008	-2.05358	0.03879	-0.18628	-1.33537
323.984	-1.67211	0.15810	-0.48644	-1.10139
328.005	-0.98973	0.09466	-0.45619	-1.14737
332.008	-1.08128	0.30797	-0.41405	-1.03311
336.009	-1.16488	0.46057	-0.36333	-1.59917
340.010	-0.94775	0.27504	-0.41413	-1.09238
344.011	-1.07118	0.43408	-0.40331	-1.54811
348.008	-1.34569	0.60315	-0.12384	-1.45485
352.009	-1.67149	0.35052	-0.68129	-1.63365
356.009	-1.90706	0.43846	-0.44542	-1.42225
359.998	-1.57756	0.41149	-0.37653	-1.46051
364.001	-1.53461	0.27486	-0.18157	-1.56222
368.007	-1.13211	0.28186	-0.55957	-1.60992
372.019	-1.05771	0.25610	-0.60605	-1.70291
376.011	-0.86691	0.34280	-0.36727	-1.74359
380.009	-1.07959	0.52066	-0.43318	-1.76281
384.007	-1.30010	0.58316	-1.13990	-1.62450
388.007	-1.34916	0.82180	-0.71293	-1.69808
392.012	-1.63179	0.59795	-0.37506	-1.67005
396.010	-1.73589	0.43835	-0.00074	-1.77677
400.012	-1.31337	0.29374	0.03420	-1.77903
404.001	-1.05185	0.28326	-0.29947	-1.99977
408.013	-1.01841	0.20664	-0.31734	-1.86079
412.009	-0.96209	0.26200	-1.09232	-1.96588
416.010	-1.16865	0.21013	-1.07550	-1.72271
420.009	-1.41638	0.57839	-1.21836	-1.75403
424.013	-1.47647	0.58188	-1.14126	-1.83601
428.009	-1.77479	0.29640	-0.11649	-1.67996
432.010	-1.76621	0.42727	0.58597	-1.70677
436.010	-1.48451	0.62224	-0.01817	-1.82301
439.907	-1.26311	0.51325	-0.18060	-2.01621
444.010	-1.06004	0.55820	-0.43172	-1.90639
448.010	-0.97142	0.68789	-1.28608	-1.67272
452.007	-1.57751	0.44408	-1.41154	-1.44173
456.013	-1.42585	0.66709	-1.31466	-1.50502
460.010	-1.41769	0.65599	-0.48704	-1.44489
464.011	-1.56223	0.72151	0.12635	-1.45055
468.011	-1.43778	0.59940	-0.39494	-1.21817
472.015	-1.13982	0.66363	-0.36204	-0.85888
476.010	-0.99375	0.75136	-0.89190	-1.54083
479.966	-0.98951	0.69330	-1.23404	-1.50308
484.013	-0.92130	0.80207	-1.34172	-1.48710
488.013	-1.05384	0.70864	-1.12439	-1.59879
491.974	-1.21598	0.72020	-1.07741	-1.58392
496.009	-1.13531	0.63072	-0.61739	-1.67049
500.011	-1.20683	0.72284	-0.08833	-1.37220
503.909	-1.26299	0.76706	0.32729	-1.43874
508.012	-1.00672	0.75662	0.46631	-1.79572
512.013	-0.76327	0.76370	-0.32188	-1.72110
515.983	-0.92430	0.91497	-0.30997	-1.36163
519.909	-1.05136	0.85552	-1.03027	-1.76762
524.013	-0.94381	0.81700	-0.96115	-1.71409
528.015	-0.92937	0.86333	-0.56193	-1.71827
532.011	-0.99350	0.88761	-1.03754	-1.49288
536.015	-0.94341	0.82430	-0.81550	-1.64154
540.015	-0.87892	0.74159	-0.78171	-1.72110
544.012	-1.46422	0.70510	-0.57198	-1.63783
548.013	-0.96876	0.51635	0.04415	-1.45158
552.017	-1.34926	0.45890	-0.30868	-1.84722
556.012	-1.68240	0.44343	-0.37544	-1.48410
560.013	-1.36022	0.37201	-0.45711	-1.57335
564.011	-1.15853	0.44910	-0.32258	-1.54363
568.018	-1.20919	0.36736	-0.58369	-1.45686
572.007	-1.10795	0.49064	-0.58888	-1.48385
576.006	-1.05359	0.35704	-0.57369	-1.46377
580.012	-1.04515	0.37990	-0.93321	-1.86894
583.911	-1.04302	0.50529	-0.92760	-1.44319
588.013	-0.92907	0.77979	-0.99762	-1.54414
592.012	-0.92624	0.61327	-0.95661	-1.41296
595.968	-0.89565	0.71856	-1.07245	-1.37418
599.908	-0.87808	0.56434	-0.95232	-1.45724
604.014	-0.93388	0.77788	-0.88173	-1.39404
608.016	-0.85123	0.71286	-0.82116	-1.46272
612.014	-0.79751	0.78965	-0.70699	-1.30930
615.913	-0.73074	0.72301	-0.63694	-1.12009
620.015	-0.78955	0.60050	-0.67635	-1.17256
624.014	-0.73628	0.54677	-0.54865	-1.13742
628.014	-0.93604	0.49616	-0.33469	-1.10645
632.017	-0.99695	0.31496	-0.32642	-1.09175
636.015	-1.28732	0.27759	-0.49634	-1.13420
640.018	-1.45306	0.39114	-0.27550	-1.06810
644.015	-1.39145	0.47869	-0.20534	-1.11650
648.019	-1.34517	0.49164	0.23589	-1.17459
652.016	-1.61590	0.59403	-0.00216	-1.00082
656.001	-1.66584	0.54333	0.03720	-1.11012
660.014	-1.72076	0.36506	0.44366	-1.22660
664.018	-1.66445	0.19719	-0.05683	-1.18745
668.016	-1.78200	0.30741	0.12317	-1.30979
672.015	-1.85194	0.55788	0.22162	-1.49102
676.015	-1.86471	0.51111	0.12888	-1.61809
680.019	-1.86610	0.58777	0.02420	-1.35144
684.015	-1.87837	0.62735	0.00955	-1.41326
688.015	-1.90480	0.53583	-0.07145	-1.33746
692.017	-2.00143	0.53652	-0.08741	-1.36498
695.914	-1.95904	0.51069	-0.22284	-1.32056
700.016	-1.99295	0.45602	-0.25349	-1.55566
704.015	-2.00207	0.52937	-0.13382	-1.74734
707.888	-2.02331	0.57024	-0.15102	-2.12797
711.880	-2.00395	0.69601	-0.10716	-1.75214
715.892	-1.92654	0.61991	-0.15645	-1.57836
719.892	-1.87931	0.43268	-0.17206	-1.62057
723.892	-1.92156	0.34729	-0.07718	-1.70092
727.915	-1.71635	0.49719	-0.16893	-1.70670
731.892	-1.72131	0.39991	-0.19566	-1.76985
735.892	-1.77675	0.31858	-0.19318	-1.80799
739.896	-1.70405	0.33737	-0.20680	-1.81446
743.869	-1.63628	0.36774	-0.07599	-1.88780
747.882	-1.62344	0.35517	-0.11525	-1.80966
751.892	-1.69693	0.26634	-0.10031	-1.79017
755.891	-1.59207	0.36762	-0.14739	-1.54179
759.882	-1.51065	0.25337	-2.52322	-0.63356
763.894	-1.50328	0.28303	-0.10932	-1.53248
767.892	-1.12985	0.35187	-0.28021	-0.59531
771.891	-1.56444	0.15940	1.09403	-1.10932
775.914	-1.55050	0.12957	0.74908	-0.93546
781.637	-2.04602	1.09166	14.75679	-0.76594
783.862	-2.11844	3.11580	-0.18583	-1.28537
787.861	NaN	NaN	0.27974	1.39188
791.889	NaN	NaN	-4.77148	3.97863
795.860	NaN	NaN	NaN	NaN
799.892	NaN	NaN	NaN	NaN
803.892	NaN	NaN	NaN	NaN
807.891	NaN	NaN	NaN	NaN
811.882	NaN	NaN	NaN	NaN
815.893	NaN	NaN	NaN	NaN
819.892	NaN	NaN	NaN	NaN
823.894	NaN	NaN	NaN	NaN
827.851	NaN	NaN	NaN	NaN
831.890	NaN	NaN	NaN	NaN
835.892	-10.35680	10.94838	-13.30757	13.30284
839.894	-9.62063	5.58117	NaN	NaN
843.896	-9.14029	3.06549	NaN	NaN
847.894	-8.94992	1.98132	-11.92360	5.26545
851.895	-9.31448	3.06692	-13.29969	6.30536
855.895	-8.05394	1.52209	-10.40384	1.57158
859.894	-8.11119	2.57731	-10.40898	1.91508
863.896	-8.62947	1.49020	-10.64389	2.03025
867.914	-4.49265	1.34440	-6.45973	0.18202
871.859	-9.45404	1.19690	-10.44132	0.88592
875.893	-3.88750	1.05875	-9.45643	0.44862
879.895	-3.80619	1.25586	-5.78101	0.52164
883.916	-3.65430	1.87981	-8.14392	0.41145
887.896	-4.44753	2.58211	-8.91776	0.13546
891.895	-8.37740	2.27995	-9.94108	0.18844
895.897	-8.09190	2.28319	-9.65669	0.27231
899.882	-8.32070	1.96425	-9.57971	0.14849
903.849	-8.92064	1.65541	-9.67256	0.18230
907.895	-8.71715	2.06414	-9.53108	0.21004
911.870	-8.66600	1.65199	-9.35259	0.39563
915.887	-8.87714	1.53629	-9.49352	0.50332
919.895	-8.94711	1.56844	-9.31743	0.35739
923.894	-9.08278	1.85623	-9.54713	0.72533
927.893	-9.06155	1.38582	-9.30617	0.53717
931.916	-9.07414	1.35752	-9.24027	0.76735
935.896	-9.06782	1.33059	-9.14261	0.60968
939.897	-9.00469	1.33219	-9.08733	0.83914
943.898	-9.01058	1.13134	-9.04781	0.79288
947.919	-8.97886	1.20958	-9.00988	1.09027
951.885	-9.12089	1.20294	-8.95854	1.20911
955.889	-9.06327	1.26576	-9.31117	1.00747
959.899	-9.07266	1.30180	-9.62521	1.11610
963.916	-9.13020	1.32050	-9.35573	0.98987
967.898	-9.15001	1.44145	-9.41610	0.95756
971.897	-9.21133	1.45427	-9.69388	0.76988
975.898	-9.26292	1.50662	-9.40651	0.62952
979.890	-9.38825	1.50243	-9.44100	0.51046
983.897	-9.51015	1.49994	-9.53781	0.49081
987.898	-9.43936	1.53687	-9.63267	0.31265
991.896	-9.26793	1.56067	-9.61636	0.65542
995.919	-8.93009	1.64743	-9.79204	0.63659
999.896	-9.22240	1.69152	-9.88073	0.45687
1003.896	-9.17515	1.63611	-9.89940	0.42554
1007.895	-9.00666	1.61015	-9.70936	0.50861
1011.897	-8.98198	1.67721	-9.74608	0.40952
1015.896	-8.81935	1.67334	-9.76105	0.34045
1019.897	-8.81973	1.69704	-9.74367	0.69842
1023.901	-8.76612	1.73473	-9.80433	0.55917
1027.884	-8.89964	1.73739	-9.68616	0.66437
1031.855	-9.04974	1.78332	-9.69766	0.73770
1035.877	-9.20608	1.83094	-9.72059	0.79392
1039.895	-9.37868	1.81475	-9.67478	0.62719
1043.920	-9.44486	1.83713	-9.55143	0.53647
1047.899	-9.62519	1.91832	-9.37457	0.34044
1051.899	-9.44187	1.97130	-9.21123	0.40742
1055.899	-9.53098	2.00912	-9.29302	0.45509
1059.919	-9.39020	2.06041	-9.16530	0.37597
1063.899	-9.37025	1.99069	-9.11426	0.33329
1067.898	-9.46428	2.03399	-9.15766	0.34554
1071.901	-9.31658	1.99631	-9.14985	0.24685
1075.916	-9.27665	1.98243	-9.16300	0.20462
1079.894	-9.19280	1.99054	-9.24298	0.15611
1083.898	-9.18780	2.06346	-9.14249	0.13614
1087.898	-9.07646	1.98992	-9.25449	-0.12383
1091.901	-9.10054	2.09420	-9.34730	-0.32147
1095.856	-9.11409	2.14519	-9.42830	-0.21984
1099.901	-9.04580	2.00698	-9.47312	-0.72434
1103.900	-9.06981	2.06223	-9.49443	-0.65222
1107.901	-8.97746	2.04550	-9.58671	-0.34134
1111.898	-8.99624	2.15273	-9.66501	-0.43867
1115.900	-8.89499	2.17205	-9.67439	-0.56174
1119.898	-8.82725	2.13234	-9.69137	-0.57249
1123.923	-8.79310	2.16133	-9.64034	-0.52077
1127.899	-8.79780	2.09788	-9.69742	-0.44133
1131.900	-8.76755	2.03200	-9.67010	-0.32550
1135.898	-8.85342	1.85193	-9.75133	-0.06240
1139.921	-9.16777	1.67565	-9.59151	0.06277
1143.902	-8.85955	1.70929	-8.98286	-0.09967
1147.857	-8.18237	1.59345	-8.44725	-0.03525
1151.900	-5.90190	1.41555	-7.60802	-0.08369
1155.904	-5.91796	0.00858	-5.48460	-0.36014
1159.890	-5.38420	-1.03687	-5.15157	-1.48783
1163.855	-2.99814	-2.11312	-4.55657	-2.09661
1167.901	-2.44583	-2.20148	-1.41650	-3.23134
1171.898	-1.65312	-1.83273	-1.18455	-3.14460
1175.902	-1.26827	-1.87950	0.30838	-3.51014
1179.902	-1.01930	-2.01652	0.84697	-3.88519
1183.901	-0.66913	-2.04252	0.90887	-4.11944
1187.906	-0.68015	-2.05202	0.84009	-4.22238
1191.903	-0.79724	-2.14084	0.93458	-4.41601
1195.904	-0.96095	-2.23252	0.66640	-4.38638
1199.904	-1.89310	-2.32926	0.75957	-4.52692
1203.894	-1.42660	-2.41053	0.50272	-4.50272
1207.903	-1.12206	-2.47978	0.55133	-4.59831
1211.862	-0.97544	-2.37561	0.32163	-4.68715
1215.903	-1.93737	-2.36173	0.07612	-4.58452
1219.896	-1.88697	-2.39669	-0.15092	-4.61256
1223.904	-1.94092	-2.50311	-0.27031	-4.59452
1227.904	-1.92850	-2.54573	-0.50691	-4.52768
1231.901	-1.79876	-2.60957	-0.16380	-4.53182
1235.902	-1.68940	-2.70054	-0.38646	-4.47698
1239.904	-1.52846	-2.74293	-0.44559	-4.38786
1243.887	-1.54755	-2.75086	-0.41015	-4.46837
1247.904	-1.72232	-2.82085	-0.63084	-4.55121
1251.903	-1.85502	-2.77057	-0.68124	-4.61635
1255.903	-1.76229	-2.70752	-0.63444	-4.55608
1259.905	-1.77692	-2.73233	-0.46227	-4.62561
1263.903	-1.61684	-2.63989	0.14245	-4.73509
1267.908	-1.78538	-2.86822	0.17625	-4.76588
1271.904	-1.87413	-2.79564	0.61876	-4.83911
1275.904	-1.97473	-2.82672	0.05812	-4.57082
1279.905	-1.77739	-2.83737	-0.04894	-4.54151
1283.894	-1.85462	-2.69103	-0.00030	-4.53107
1287.899	-1.82785	-2.54660	0.16717	-4.52483
1291.905	-1.86823	-2.55457	0.14253	-4.51767
1295.904	-2.03365	-2.29669	0.30473	-4.37459
1299.905	-1.95207	-2.16250	0.16978	-4.27068
1303.905	-1.94848	-2.17419	0.09180	-3.92822
1307.905	-1.91789	-2.29412	0.04983	-3.83982
1311.906	-1.89952	-2.23111	0.05519	-3.92187
1315.903	-1.79314	-2.37187	0.02695	-3.93349
1319.904	-1.67484	-2.39426	0.06018	-3.90683
1323.905	-1.65386	-2.52474	0.11585	-3.94889
1327.904	-1.73596	-2.57079	0.13754	-3.91464
1331.904	-1.99639	-2.56734	0.13019	-3.96163
1335.904	-1.80583	-2.72671	0.08679	-3.93463
1339.904	-1.69731	-2.72223	-0.04189	-3.93384
1343.908	-1.77397	-2.60792	-0.24808	-3.98648
1347.895	-1.87007	-2.70362	-0.98469	-3.88813
1351.904	-1.89642	-2.62356	-0.17779	-4.01113
1355.906	-2.00839	-2.40623	-0.29739	-3.97625
1359.906	-2.02175	-2.49976	-0.58548	-3.96954
1363.895	-2.00031	-2.52614	-0.48661	-3.96652
1367.906	-2.04418	-2.49023	-0.43827	-3.96029
1371.906	-1.99367	-2.36674	-0.37372	-3.97607
1375.906	-1.88658	-2.25940	-0.27815	-4.01904
1379.801	-1.93827	-2.39369	-0.31483	-4.03752
1383.906	-1.95554	-2.37894	-0.13565	-4.13100
1387.906	-1.98244	-2.65058	0.15104	-4.11112
1391.907	-1.88340	-2.86638	0.21348	-4.20157
1395.803	-1.84203	-2.96844	-0.14424	-4.19254
1399.906	-1.75667	-2.91522	-0.19715	-4.39436
1403.910	-1.75312	-2.54464	0.24790	-4.33666
1407.906	-1.77995	-2.63416	0.23686	-4.34356
1411.804	-1.69292	-2.11191	0.20690	-4.11625
1415.906	0.45631	-0.34887	0.32627	-3.79832
1419.906	2.12525	1.32220	3.31180	-0.73997
1423.914	3.14117	2.09269	3.07184	-0.06218
1427.911	5.02812	2.69679	4.88503	1.03285
1431.907	5.24779	2.95186	5.66907	1.56094
1435.907	5.48919	3.69609	6.27572	2.30632
1439.907	5.99097	3.99221	6.73174	2.87182
1443.910	6.00013	4.64764	7.02088	2.96119
1447.908	6.08394	5.12227	6.89245	3.13174
1451.888	6.24026	4.98628	6.90642	3.11539
1455.904	6.04102	5.55933	6.73923	3.10668
1459.873	6.00391	5.33511	6.81006	3.02122
1463.910	6.09511	4.93729	6.88022	2.87445
1467.910	6.17121	4.54720	6.86393	2.69842
1471.908	5.98155	4.56488	6.73233	3.48376
1475.914	6.02006	4.58015	6.76280	3.16553
1479.910	5.89154	4.58768	6.80553	3.27177
1483.910	5.89606	4.84490	6.60909	3.25405
1487.910	5.74814	5.19906	6.47943	3.53437
1491.809	5.70642	5.20431	6.41415	3.83004
1495.872	5.57876	4.65925	6.45564	4.06199
1499.909	5.63048	4.58629	6.46260	3.97338
1503.909	5.58830	4.69745	6.44714	3.98296
1507.912	5.60831	4.81135	6.29308	4.14475
1511.909	5.58924	4.76966	6.26579	4.07950
1515.908	5.58110	4.86859	6.24658	3.79031
1519.909	5.61873	4.89597	6.28155	3.79923
1523.913	5.71834	4.98422	6.31169	3.51151
1527.909	5.81604	5.01621	6.36614	3.99374
1531.909	5.81422	4.98377	6.43584	3.62890
1535.884	5.83712	4.99009	6.55719	3.40961
1539.912	5.86163	5.01465	6.49793	3.47100
1543.910	5.92361	5.00630	6.52723	3.30517
1547.911	5.90981	5.02536	6.58146	3.25630
1551.908	5.81747	5.05547	6.53860	3.35743
1555.807	5.75556	5.05271	6.54269	3.54120
1559.910	5.72684	5.03412	6.54950	3.96179
1563.910	5.64434	5.03695	6.51621	3.96694
1567.911	5.57778	5.01740	6.43660	3.84059
1571.914	5.42016	5.03249	6.39756	3.72245
1575.910	5.37746	5.00537	6.31745	3.57517
1579.899	5.35812	5.01945	6.33611	3.75907
1583.911	5.25586	4.99995	6.34498	3.66410
1587.807	5.21484	5.01680	6.33544	3.82834
1591.912	5.18751	5.00226	6.36596	3.82526
1595.866	5.21193	4.99278	6.30816	3.94857
1599.911	5.21385	5.01273	6.42104	3.92303
1603.875	5.18611	5.02226	6.44601	3.83966
1607.910	5.17742	5.02955	6.46914	3.85605
1611.913	5.22416	5.05901	6.51991	3.73675
1615.912	5.25953	5.04822	6.61024	3.67816
1619.809	5.32725	5.08513	6.48536	3.72830
1623.911	5.51069	5.06784	6.43182	3.71886
1627.912	5.59809	5.05173	6.53732	3.56672
1631.912	5.60263	4.99309	6.59887	3.47111
1635.815	5.70175	5.01304	7.08075	3.50206
1639.912	5.56881	5.20907	6.96240	3.70886
1643.911	5.29209	4.81738	8.03042	4.30517
1647.867	5.11122	9.08097	6.56314	3.65667
1651.916	5.63980	9.70142	8.37609	6.54439
1655.913	NaN	NaN	NaN	NaN
1659.892	NaN	NaN	NaN	NaN
1663.913	NaN	NaN	NaN	NaN
1667.915	NaN	NaN	NaN	NaN
1671.913	NaN	NaN	NaN	NaN
1675.912	NaN	NaN	NaN	NaN
1679.868	NaN	NaN	NaN	NaN
1683.810	NaN	NaN	NaN	NaN
1687.913	NaN	NaN	NaN	NaN
1691.868	NaN	NaN	NaN	NaN
1695.868	NaN	NaN	NaN	NaN
1699.910	NaN	NaN	NaN	NaN
1703.909	NaN	NaN	NaN	NaN
1707.916	NaN	NaN	NaN	NaN
1711.915	NaN	NaN	NaN	NaN
1715.911	NaN	NaN	NaN	NaN
1719.914	NaN	NaN	NaN	NaN
1723.914	NaN	NaN	NaN	NaN
1727.790	NaN	NaN	NaN	NaN
1731.788	14.74558	8.52757	20.63319	0.45335
1735.788	-3.42567	14.23582	12.64503	-1.68564
1739.812	-3.18744	6.74414	7.91565	-2.09756
1743.791	-2.08000	4.40234	8.16012	-2.14007
1747.774	0.84267	0.29003	4.36794	-2.29053
1751.778	0.55875	-0.36961	-0.21214	-1.99496
1755.799	0.44606	-1.04521	-0.05862	-1.93784
1759.789	-0.31933	-1.08946	2.38883	-1.71902
1763.789	0.86386	-0.66240	3.73445	-0.66528
1767.789	3.45279	-0.46737	4.16574	-1.93327
1771.788	3.77273	-0.26801	3.76270	-2.07602
1775.799	3.59982	-0.09746	3.85642	-2.10620
1779.790	3.25743	-0.56781	3.80755	-2.15888
1783.795	3.00975	-0.31676	4.13177	-1.87579
1787.784	2.46275	-0.15601	3.93327	-1.41793
1791.755	1.89426	-0.33935	3.90876	-1.61039
1795.794	2.06200	-0.11460	3.87764	-1.33272
1799.789	2.25464	-0.19635	3.82840	-0.97259
1803.790	2.31941	-0.09063	3.87097	-1.27598
1807.789	2.55121	0.12469	4.20220	-2.12142
1811.792	2.57258	-0.05273	4.28473	-2.06514
1815.792	2.41928	0.07840	3.96990	-1.60225
1819.782	2.25543	-0.15980	4.11725	-1.87694
1823.792	1.88080	0.08598	4.06451	-1.97655
1827.793	1.98797	0.06216	3.89066	-1.63290
1831.767	2.03665	0.09794	4.58994	-1.80502
1835.766	2.02830	0.32353	4.29330	-1.70266
1839.793	2.04884	0.80641	4.21345	-1.66132
1843.793	2.11948	-0.13114	4.55090	-1.61624
1847.794	2.26735	0.13187	4.27812	-1.54683
1851.791	2.45478	-0.04434	3.98978	-1.35355
1855.803	2.74457	0.00509	4.07303	-1.57624
1859.790	2.67878	-0.00978	4.07367	-1.61237
1863.791	2.92624	0.25370	4.07737	-1.80124
1867.791	2.79998	0.22417	3.97247	-1.66226
1871.789	2.82875	-0.02604	4.18334	-1.86495
1875.784	2.99604	0.08576	4.14520	-1.94461
1879.791	2.84799	0.24362	4.07641	-1.83779
1883.813	2.93871	0.12051	3.96446	-1.71357
1887.791	2.95829	0.04397	3.94122	-1.89070
1891.792	2.95698	0.08045	3.97308	-1.54698
1895.792	2.93114	-0.02829	4.11838	-1.56117
1899.791	2.92703	-0.04936	4.10745	-1.58474
1903.793	2.87198	-0.07862	4.12473	-1.31502
1907.793	2.92938	-0.12396	4.17571	-1.06090
1911.795	3.13053	-0.11838	4.19013	-1.44128
1915.785	3.10272	-0.07466	4.19037	-1.54186
1919.794	2.84289	-0.00730	4.19119	-1.47026
1923.793	2.92985	-0.06877	4.23406	-1.36004
1927.796	2.95163	-0.11403	4.36205	-1.61522
1931.793	2.81969	-0.13323	4.37707	-1.32759
1935.793	2.75212	-0.13664	4.46270	-1.50679
1939.794	2.94720	-0.29826	4.26151	-1.23828
1943.796	2.94064	-0.29732	4.29542	-1.31912
1947.793	2.82051	-0.07364	4.26459	-1.43619
1951.796	2.66682	-0.10611	4.24016	-1.38883
1955.782	2.66337	-0.13506	3.90634	-1.53251
1959.754	0.97522	-0.00407	2.24582	-1.21036
1963.786	1.66110	-0.13130	0.39415	-1.28940
1967.796	-1.38513	-0.13720	-0.25885	-1.64601
1971.794	-1.68964	-0.20991	-3.41657	-1.52948
1975.795	-4.07518	-0.15132	-3.24687	-1.88031
1979.793	-4.61945	-0.50695	-5.62262	-1.89044
1983.792	-6.11422	-0.42210	-7.00079	-2.00327
1987.794	-7.17473	-0.78281	-7.68254	-2.20590
1991.795	-7.51459	-0.69280	-7.84467	-2.18507
1995.817	-7.48978	-0.30296	-7.70970	-2.36498
1999.759	-7.81926	-0.89898	-7.52113	-2.07106
2003.795	-7.96042	-1.05478	-7.54886	-2.37132
2007.793	-7.97167	-1.15824	-7.13390	-2.51112
2011.794	-8.12023	-1.37915	-7.04528	-2.67339
2015.795	-7.99197	-1.41110	-6.76684	-2.92837
2019.796	-7.99447	-1.36886	-6.31505	-3.18412
2023.795	-8.03470	-1.37079	-6.17879	-3.14413
2027.753	-7.99068	-1.46661	-6.08917	-3.42259
2031.751	-7.98522	-1.33507	-5.92771	-3.47504
2035.796	-7.85022	-1.30176	-5.91079	-3.44589
2039.772	-7.71250	-1.37656	-5.87862	-3.54558
2043.793	-7.54369	-1.35056	-5.90043	-3.20979
2047.800	-7.37604	-1.40733	-5.90664	-3.31959
2051.796	-7.35617	-1.49790	-5.91410	-3.29754
2055.797	-7.24034	-1.23810	-5.84409	-3.27076
2059.791	-7.42341	-1.21658	-5.78394	-3.17802
2063.796	-7.51254	-1.18469	-5.70138	-3.10847
2067.795	-7.34189	-1.13024	-5.78337	-2.92630
2071.797	-7.33440	-1.06660	-6.12634	-3.17511
2075.795	-7.25648	-0.96767	-6.64971	-2.99605
2079.795	-7.52005	-1.07548	-6.29891	-3.00429
2083.788	-7.64976	-0.98379	-6.83445	-2.91787
2087.796	-7.55386	-1.00583	-7.05833	-2.94929
2091.795	-7.60251	-0.90732	-7.14282	-2.98866
2095.752	-7.73638	-0.80332	-6.98827	-3.09601
2099.795	-7.71277	-0.71520	-7.08844	-3.05937
2103.797	-7.70207	-0.76912	-7.05190	-3.02683
2107.796	-7.75824	-0.84252	-6.94746	-3.03447
2111.796	-7.89330	-0.86365	-7.06308	-3.08155
2115.799	-7.88624	-0.98865	-7.05567	-3.09394
2119.798	-7.91969	-1.05953	-7.03012	-3.12121
2123.795	-7.66421	-1.24473	-6.92092	-3.10519
2127.797	-7.68615	-1.14328	-6.82939	-3.15724
2131.799	-7.75434	-1.25665	-6.88624	-3.24668
2135.796	-7.88897	-1.27807	-6.72249	-3.22545
2139.788	-7.93732	-1.20604	-6.48066	-3.22535
2143.798	-7.66275	-1.35410	-6.41334	-3.16396
2147.758	-7.56703	-1.36277	-6.51371	-2.08715
2151.801	-7.50208	-1.41614	-6.46226	-1.39962
2155.803	-7.30012	-1.30024	-6.35493	-1.92553
2159.798	-7.30312	-1.06581	-6.31681	-1.91876
2163.753	-7.25445	-0.77050	-6.19846	-2.20551
2167.796	-7.40062	-0.87820	-6.15865	-2.27216
2171.791	-7.62494	-0.89656	-6.15286	-1.95480
2175.798	-7.46851	-0.51350	-6.11081	-2.06543
2179.799	-7.76754	-0.36040	-6.09118	-2.14773
2183.798	-7.60897	-0.44932	-6.17256	-2.11160
2187.790	-7.73926	-0.50906	-6.36334	-2.23625
2191.798	-7.94973	-0.75926	-6.97455	-2.16126
2195.798	-8.44103	-0.90353	-7.55508	-2.15584
2199.800	-4.01371	-0.55026	-2.63106	-2.28117
2203.800	-4.13216	-0.90275	-2.76039	-2.28011
2207.801	-16.96500	3.69473	-9.41127	3.68437
2211.758	-11.70088	8.73954	NaN	NaN
2215.802	-19.99361	-12.07743	NaN	NaN
2219.806	-19.99368	-12.07743	NaN	NaN
2223.801	-19.99368	-12.07743	NaN	NaN
2227.756	-19.99370	-12.07743	NaN	NaN
2231.800	-19.99370	-12.07743	NaN	NaN
2235.800	-19.99370	-12.07743	NaN	NaN
2239.799	-19.99370	-12.07743	NaN	NaN
2243.798	-19.99370	-12.07743	NaN	NaN
2247.798	-19.99370	-12.07743	NaN	NaN
2251.801	NaN	NaN	NaN	NaN
2255.799	NaN	NaN	NaN	NaN
2259.799	NaN	NaN	NaN	NaN
2263.801	NaN	NaN	NaN	NaN
2267.799	NaN	NaN	NaN	NaN
2271.803	NaN	NaN	NaN	NaN
2275.755	NaN	NaN	NaN	NaN
2279.774	NaN	NaN	NaN	NaN
2283.802	NaN	NaN	NaN	NaN
2287.795	NaN	NaN	NaN	NaN
2291.760	NaN	NaN	NaN	NaN
2295.802	NaN	NaN	NaN	NaN
2299.802	NaN	NaN	NaN	NaN
2303.802	NaN	NaN	NaN	NaN
2307.800	NaN	NaN	NaN	NaN
2311.800	-0.47076	13.10973	17.00500	-5.12144
2315.810	-2.16463	7.35610	17.13108	-4.79175
2319.802	-4.03171	11.94972	12.08981	-3.21802
2323.801	-0.92951	-5.03514	8.35357	-5.05612
2327.806	-0.61809	-5.20990	4.39234	-5.54964
2331.772	-0.44232	-5.88924	3.30928	-5.41795
2335.802	-0.23028	-6.25022	4.45873	-5.28028
2339.802	3.72054	-5.71164	6.63404	-5.19321
2343.771	4.18467	-6.48044	5.66671	-5.27306
2347.802	7.54996	-6.25798	6.98206	-5.47579
2351.805	7.08561	-5.99316	7.16593	-5.70021
2355.804	5.89036	-5.87089	7.96875	-5.84626
2359.806	5.57837	-5.89087	8.00684	-5.85444
2363.804	5.48172	-5.59912	8.11520	-6.10736
2367.805	5.28620	-5.56253	7.79179	-6.03746
2371.789	5.78440	-5.87209	7.52379	-5.93474
2375.803	5.94870	-5.73798	7.28190	-5.76179
2379.804	6.17992	-5.64576	7.29980	-5.92182
2383.805	6.05366	-5.60013	7.06985	-5.89258
2387.804	5.96583	-5.54332	7.14499	-5.88572
2391.805	5.59860	-5.44832	7.36176	-6.16291
2395.804	5.62210	-5.43979	7.62555	-6.16636
2399.804	5.41800	-5.31559	7.49593	-6.13742
2403.804	5.70237	-5.69500	7.46702	-6.10182
2407.702	5.65948	-5.96391	7.30527	-5.92494
2411.805	5.66118	-5.87677	7.20590	-5.66170
2415.769	5.51150	-5.64674	7.27604	-5.70212
2419.805	5.54317	-5.84741	7.35500	-5.76265
2423.710	5.42085	-5.97543	7.33720	-5.58622
2427.804	5.38004	-6.07372	7.36608	-5.65947
2431.804	5.38931	-6.05550	7.37963	-5.52180
2435.803	5.36693	-5.94779	7.60295	-5.75526
2439.795	5.37674	-5.94385	7.51974	-5.70719
2443.805	5.37856	-6.02080	7.57447	-5.68089
2447.804	5.27981	-5.77821	7.57391	-5.67416
2451.807	5.25175	-5.76149	7.51837	-5.67960
2455.801	5.22224	-5.71357	7.40243	-5.71852
2459.806	5.16863	-5.28867	7.34716	-5.68997
2463.808	5.10780	-5.35862	6.96663	-5.63922
2467.807	5.07629	-5.19611	6.89192	-5.59896
2471.702	4.99231	-5.07923	6.49220	-5.34426
2475.806	5.08308	-5.20899	6.98448	-5.58284
2479.807	5.09591	-5.19537	7.46755	-5.71826
2483.806	5.19913	-5.41429	7.51300	-5.66717
2487.699	5.37123	-5.10941	6.93423	-5.58715
2491.806	5.32904	-5.25126	6.62498	-5.33719
2495.798	5.36917	-5.13488	6.40155	-5.10774
2499.798	5.24484	-4.98663	6.15414	-5.01803
2503.703	5.27092	-5.06168	6.96225	-5.70676
2507.807	5.21695	-5.10167	6.57267	-5.81907
2511.807	5.49453	-5.52091	6.44209	-5.83592
2515.807	5.34658	-5.38413	6.67537	-5.77490
2519.703	5.14087	-5.44523	6.37270	-5.30587
2523.807	4.80490	-5.29466	7.06914	-5.82146
2527.781	4.71504	-5.16103	7.30627	-5.86654
2531.809	4.56955	-4.87570	7.13390	-5.38222
2535.704	4.70961	-4.72711	7.11831	-5.12460
2539.778	5.13582	-5.16856	7.19683	-5.54087
2543.807	5.17513	-5.01240	7.33718	-5.56945
2547.808	4.98536	-5.28241	7.14587	-5.36842
2551.706	4.99802	-5.01893	6.90784	-5.36062
2555.806	4.96642	-5.10139	7.30236	-5.45322
2559.808	5.03341	-4.92209	7.14179	-5.38098
2563.807	4.92036	-4.98645	7.37650	-5.51371
2567.704	5.05353	-5.00026	7.26373	-5.49067
2571.808	5.14074	-5.01923	7.14350	-5.42006
2575.808	5.18166	-5.13573	6.91843	-5.39309
2579.792	5.17932	-5.18279	6.66474	-5.01737
2583.704	5.11369	-5.18079	7.12268	-5.02671
2587.811	5.04740	-4.90623	7.04931	-5.33419
2591.808	5.07956	-4.86370	6.70284	-5.18085
2595.765	3.36132	-4.61786	5.06370	-4.96362
2599.705	2.55636	-0.90607	1.15404	-2.87954
2603.809	-0.57709	-1.02469	-1.36022	-1.90514
2607.808	-1.19567	0.01349	-2.12174	-1.96080
2611.810	-5.07382	-0.00963	-4.33747	-1.45938
2615.813	-4.84437	0.33466	-5.65218	-1.51329
2619.810	-6.81231	0.50123	-6.66697	-1.55117
2623.810	-7.52559	0.42115	-7.48851	-1.97276
2627.810	-8.27674	0.22807	-8.59817	-1.83221
2631.707	-9.06739	0.42444	-8.58699	-1.18858
2635.809	-9.07194	0.57747	-8.10080	-0.50367
2639.810	-9.19645	0.84129	-7.97894	-0.36629
2643.815	-9.13826	0.69437	-7.60748	-0.20596
2647.769	-9.19075	0.70989	-7.52301	-0.11024
2651.813	-9.24636	1.13123	-7.85156	-0.15971
2655.808	-9.13700	1.02619	-8.03971	-0.13562
2659.810	-8.80793	1.43837	-8.42282	0.02638
2663.787	-8.76675	1.41833	-8.67328	-0.03677
2667.811	-8.92151	1.31586	-8.63920	-0.43640
2671.810	-9.09055	1.40326	-8.36508	-0.43204
2675.809	-9.28881	1.38020	-8.00703	-0.41437
2679.709	-9.21215	1.32554	-7.99566	-0.23995
2683.809	-8.86786	1.29147	-8.34757	-0.07924
2687.812	-8.75785	1.28665	-8.44424	-0.07777
2691.810	-8.85628	1.49636	-8.42539	-0.62082
2695.814	-8.87653	1.41803	-8.42860	-0.47528
2699.813	-8.80023	1.35358	-8.59982	-0.62810
2703.808	-8.73109	1.28966	-8.44963	-0.73921
2707.812	-8.84460	1.20904	-8.42576	-0.65481
2711.815	-8.84879	1.14978	-8.20445	-0.39167
2715.813	-8.89967	1.21031	-8.26723	-0.39874
2719.811	-8.75962	1.27997	-8.29640	-0.39229
2723.812	-8.79143	1.23869	-8.33496	-0.27916
2727.815	-8.81452	1.32273	-8.47587	-0.25939
2731.813	-8.78668	1.32111	-8.52848	-0.25397
2735.811	-8.75238	1.44919	-8.49270	-0.28415
2739.687	-8.71460	1.52407	-8.47131	-0.31049
2743.707	-8.68858	1.55680	-8.42816	-0.31805
2747.688	-8.69455	1.72794	-8.38855	-0.36742
2751.668	-8.68497	1.70158	-8.34098	-0.35873
2755.686	-8.68705	1.74876	-8.32969	-0.42230
2759.686	-8.63617	1.80064	-8.25882	-0.43327
2763.686	-8.66930	1.96585	-8.24650	-0.55473
2767.687	-8.65101	2.00736	-8.12019	-0.58920
2771.686	-8.62217	2.12362	-7.99055	-0.72004
2775.711	-8.61775	2.15451	-7.92276	-0.72985
2779.687	-8.64701	2.14694	-7.86556	-0.69678
2783.664	-8.66290	2.20299	-7.79822	-0.72114
2787.689	-8.65691	2.24684	-7.63667	-0.75650
2791.719	-8.68128	2.25486	-7.56279	-0.72269
2795.652	-8.66028	2.25621	-7.63859	-0.69698
2799.689	-8.63534	2.22636	-7.57890	-0.76047
2803.689	-8.61972	2.22243	-7.64106	-0.67885
2807.710	-8.60968	2.08419	-7.78189	-0.62371
2811.688	-8.58648	1.99345	-7.95531	-0.56348
2815.688	-8.60393	1.87529	-7.91439	-0.55546
2819.689	-8.58350	1.80796	-8.03616	-0.51426
2823.688	-8.58920	1.72968	-8.19129	-0.52136
2827.689	-8.56663	1.64859	-8.19895	-0.56823
2831.690	-8.57498	1.60534	-8.29404	-0.51297
2835.671	-8.55362	1.54545	-8.27997	-0.55680
2839.647	-8.59575	1.50690	-8.33370	-0.61816
2843.689	-8.60999	1.44532	-8.36040	-0.52119
2847.689	-8.70153	1.51485	-8.36625	-0.53507
2851.698	-8.64914	1.53733	-8.36037	-0.55679
2855.712	-8.60560	1.61310	-8.35580	-0.49674
2859.688	-8.61329	1.62195	-8.32813	-0.39508
2863.688	-8.53173	1.63703	-8.16158	-0.40863
2867.689	-8.42619	1.68024	-7.86016	-0.40837
2871.712	-8.60997	1.65879	-8.03801	-0.51775
2875.679	-8.55154	1.65796	-8.05229	-0.46528
2879.645	-8.78995	1.49321	-8.39919	-0.33570
2883.688	-8.52224	1.27748	-8.54797	-0.31842
2887.682	-8.38911	1.26598	-8.43550	-0.13777
2891.689	-8.40898	1.48820	-7.72683	-0.33409
2895.691	-8.46706	1.62414	-7.99574	-0.13716
2899.689	-8.66998	1.48856	-7.98544	-0.07592
2903.713	-8.39178	1.36273	-8.34346	-0.18346
2907.691	-8.50263	1.05554	-7.97532	-0.09472
2911.694	-8.78806	1.14069	-7.71766	-0.03607
2915.693	-8.78408	1.25239	-7.68491	-0.03751
2919.715	-8.91425	1.21018	-7.58115	-0.14688
2923.689	-8.60524	1.07965	-7.81773	-0.35553
2927.692	-8.66219	1.14066	-7.71801	-0.40176
2931.691	-8.73247	1.45182	-7.75982	-0.31666
2935.690	-8.72360	1.43648	-7.91005	-0.33456
2939.691	-8.74745	1.36759	-7.68696	-0.35889
2943.691	-8.83100	1.58084	-7.76187	-0.33354
2947.691	-8.75727	1.33120	-7.71074	-0.35057
2951.717	-8.71710	1.37993	-7.75965	-0.23073
2955.694	-8.56088	1.16140	-7.88541	-0.20929
2959.679	-8.57512	1.18739	-8.03280	-0.01570
2963.688	-8.52639	1.13645	-8.13347	0.10233
2967.682	-8.58461	1.17957	-8.26561	0.23521
2971.691	-8.51406	0.85432	-8.19936	0.46629
2975.692	-8.50071	0.65839	-8.38044	0.60110
2979.691	-8.67097	0.67133	-7.82988	0.39614
2983.713	-8.49920	1.34295	-7.56991	0.48860
2987.691	-8.42729	1.59963	-8.00255	0.53937
2991.692	-8.55061	1.48081	-7.86646	0.58624
2995.695	-8.61792	0.84434	-8.05042	0.61260
2999.715	-8.80602	0.70453	-8.21480	0.55790
3003.688	-8.99719	0.78642	-8.03935	0.44273
3007.648	-8.68587	1.92773	-8.05937	0.24513
3011.693	-8.70318	1.57186	-7.91977	-0.06591
3015.692	-8.68691	1.25748	-7.72766	0.24798
3019.693	-8.33841	2.08151	-7.27814	1.18000
3023.696	-6.37672	2.65949	-6.46899	1.44170
3027.649	-5.79622	4.11567	-5.93679	2.36693
3031.689	-5.48300	4.89763	-5.30247	4.42032
3035.695	-5.31558	5.48123	-4.56604	4.62246
3039.695	-5.23433	5.54061	-5.46354	4.81478
3043.669	-5.05082	5.23586	-4.80773	5.06360
3047.685	-5.08530	5.60776	-4.32577	5.06797
3051.693	-4.73254	5.88259	-4.41100	5.77146
3055.696	-4.90057	5.77838	-4.27101	5.10091
3059.693	-4.74220	5.66353	-4.58639	5.11789
3063.658	-4.60693	5.88582	-4.41030	5.34923
3067.693	-4.31400	6.17496	-4.13599	5.19747
3071.693	-4.48651	6.18470	-3.95088	5.31745
3075.692	-4.61479	6.07156	-3.78472	5.02607
3079.700	-4.84171	5.96916	-3.75763	4.73207
3083.682	-4.81093	6.01072	-3.90788	4.90038
3087.683	-4.78348	6.18200	-3.50007	4.97722
3091.694	-4.79881	6.17261	-3.31571	4.89233
3095.690	-4.68964	6.23629	-3.73005	5.10285
3099.695	-4.90984	6.27280	-3.54126	5.06679
3103.696	-4.97041	6.22981	-3.50056	4.64959
3107.694	-4.92834	6.23985	-3.61389	4.60908
3111.697	-4.96103	6.15302	-3.56487	4.70399
3115.694	-4.95901	6.02982	-3.54415	5.46637
3119.696	-4.84992	6.00274	-3.81296	5.34966
3123.695	-4.80948	6.26230	-3.82427	4.96920
3127.717	-4.81488	6.23857	-3.97279	4.98890
3131.694	-4.76916	6.23213	-4.10876	5.33726
3135.694	-4.81946	6.14511	-4.03488	5.20530
3139.696	-4.92839	6.04376	-3.93445	4.86796
3143.698	-4.97509	5.94356	-4.06345	5.57518
3147.651	-4.96536	6.12824	-4.04322	5.17390
3151.695	-5.04004	6.08876	-4.15566	5.41284
3155.698	-5.00339	6.09688	-4.18766	5.59916
3159.693	-5.00812	6.04451	-4.24606	5.51579
3163.652	-4.84120	6.19041	-4.30487	5.34597
3167.680	-5.04166	6.07837	-4.18287	5.38995
3171.697	-5.05555	6.05058	-4.20442	5.29212
3175.688	-5.15155	5.94454	-4.21054	5.33619
3179.697	-5.07382	5.90393	-4.21854	5.12839
3183.696	-4.93383	5.92421	-4.28165	5.21641
3187.696	-4.29414	5.88080	-4.34601	5.19724
3191.699	-4.61257	5.88932	-4.31195	5.03710
3195.698	-0.87195	5.88046	-2.31522	5.12376
3199.695	-0.03514	5.85307	-2.22163	5.06711
3203.699	3.67324	5.49941	1.59760	4.97977
3207.699	3.92262	5.37733	2.23147	4.69000
3211.698	6.77981	4.90385	3.90775	4.42896
3215.699	6.78485	4.85103	6.15576	2.14552
3219.697	7.83778	4.62834	7.11232	4.28977
3223.686	10.59565	4.31326	7.76874	2.81235
3227.696	10.91344	3.81885	9.82101	2.58699
3231.699	11.18554	3.67021	10.45989	2.52517
3235.698	10.76836	3.41618	10.65575	3.00209
3239.700	10.65436	3.49357	10.51160	2.92903
3243.699	10.36804	3.82075	9.71992	2.79951
3247.701	10.40749	3.92795	9.91963	2.68671
3251.672	10.63761	3.75029	10.51887	2.53437
3255.666	10.68763	3.82609	10.44288	2.48372
3259.698	10.52413	3.72662	10.35138	2.23946
3263.699	10.09744	3.50809	10.31014	2.29839
3267.699	9.86249	3.67347	10.26220	2.32425
3271.707	10.15093	3.49150	10.39875	2.39990
3275.653	10.11478	3.49404	10.40670	2.12600
3279.698	10.18411	3.52232	10.42576	2.09319
3283.697	10.24216	3.46087	10.54526	1.96243
3287.702	10.07228	3.54907	10.60212	1.94397
3291.685	10.06188	3.42584	10.57421	1.78568
3295.688	9.70719	3.47726	10.61445	1.82727
3299.699	9.36469	3.37631	10.53466	1.71364
3303.702	9.22871	3.38304	10.62703	1.75990
3307.698	9.46387	3.41027	10.63971	1.71942
3311.700	9.53639	3.37009	10.88522	1.66778
3315.699	9.40479	3.49583	10.88001	1.67536
3319.704	9.51657	3.50561	10.58308	1.69480
3323.699	9.60362	3.51441	10.48720	1.68529
3327.702	9.71599	3.57726	10.34960	1.59115
3331.703	9.91707	3.60530	10.04754	1.69360
3335.690	9.70745	3.60346	10.06270	1.81750
3339.703	9.59131	3.69994	9.96145	1.86516
3343.700	9.66040	3.75460	10.04824	1.95204
3347.701	9.61322	3.75903	10.02990	1.96859
3351.704	9.69207	3.76835	9.84129	2.36161
3355.705	9.77507	3.78712	9.82344	2.36238
3359.701	9.81831	3.76349	9.79477	2.30716
3363.702	9.90910	3.77064	9.81024	2.35003
3367.697	9.93564	3.79924	9.80667	2.47312
3371.703	10.07692	3.74186	9.85948	2.46024
3375.681	9.65126	3.73292	9.93769	2.53944
3379.700	9.63464	3.70615	9.96593	2.61655
3383.702	9.54484	3.60487	10.11712	2.72066
3387.699	9.34457	3.70481	10.13573	2.68863
3391.701	9.23710	3.74424	10.30432	2.76526
3395.703	9.13545	3.82592	10.28935	2.65588
3399.704	9.12940	3.80327	10.24091	2.59077
3403.700	9.12004	3.86377	10.26674	2.43271
3407.700	9.18840	3.90327	10.34624	2.09689
3411.704	9.15935	3.90686	10.33793	1.72176
3415.704	9.11975	3.92122	10.41770	1.70081
3419.702	9.15531	3.90791	10.42075	1.64346
3423.705	9.20289	3.96154	10.50014	1.65002
3427.702	9.23749	3.91980	10.53703	1.47328
3431.707	9.30907	3.84484	10.52890	2.22106
3435.704	9.40924	3.77013	10.53898	1.76641
3439.702	9.36812	3.81210	10.31006	2.04872
3443.703	9.38784	3.91851	10.30562	1.94363
3447.706	9.57312	3.73578	10.22978	1.62151
3451.703	9.61653	3.39412	10.63243	0.95632
3455.704	10.26141	3.64827	10.61843	1.26594
3459.684	11.78840	1.47902	10.76444	-1.10924
3463.702	11.70706	-1.52894	11.01890	-2.05168
3467.705	11.71387	-1.39274	12.91128	-3.75450
3471.703	11.86462	-2.39828	11.71427	-3.43086
3475.704	12.52991	-1.52455	12.17158	-3.97694
3479.703	11.48587	-2.11699	12.93877	-4.92696
3483.704	11.44668	-2.69284	13.80570	-5.37094
3487.704	11.62182	-2.87580	13.75603	-5.38232
3491.711	11.77066	-2.90083	13.93735	-5.58732
3495.708	12.30798	-3.29763	14.26483	-5.75518
3499.703	11.92507	-3.38893	14.36376	-5.81314
3503.692	11.77891	-3.31838	14.31545	-5.86414
3507.703	11.50625	-3.64164	14.37950	-5.88396
3511.603	12.07685	-3.91764	14.43156	-5.85974
3515.703	12.27958	-3.71756	14.44064	-5.82568
3519.703	12.29310	-3.89235	14.51451	-5.82921
3523.703	12.66221	-4.02516	14.51393	-5.88317
3527.574	12.19451	-3.94370	14.58980	-5.89370
3531.704	12.74530	-3.93935	14.51619	-5.79371
3535.705	12.96953	-3.98298	14.60186	-5.85992
3539.705	12.71340	-3.92602	14.28578	-5.70225
3543.604	12.75578	-3.90190	14.42756	-5.80049
3547.707	12.92637	-3.87727	14.34594	-5.76592
3551.705	12.95551	-3.79022	14.29473	-5.70868
3555.704	13.06190	-3.75339	14.10433	-5.71865
3559.603	13.09235	-3.73247	14.08274	-5.73477
3563.705	13.17240	-3.62446	13.95451	-5.70374
3567.705	13.25886	-3.52310	13.75001	-5.69171
3571.661	13.16974	-3.45676	13.77668	-5.67613
3575.603	13.20388	-3.38835	13.70341	-5.68908
3579.705	13.07792	-3.33926	13.49990	-5.66860
3583.685	12.80603	-3.28813	13.36384	-5.70661
3587.699	11.86505	-3.20489	13.35285	-5.65479
3591.602	11.93284	-3.18247	13.29043	-5.62468
3595.677	11.52607	-3.06362	13.16776	-5.63372
3599.705	11.43626	-2.81137	13.16268	-5.57783
3603.705	11.42787	-2.80815	12.92962	-5.46786
3607.708	11.24841	-2.74210	12.74473	-5.37058
3611.660	11.40601	-2.59804	12.77457	-5.34632
3615.706	11.32536	-2.55072	12.80490	-5.22221
3619.707	11.49350	-2.44565	12.73033	-5.26415
3623.710	11.40450	-2.35057	12.82675	-5.28982
3627.669	11.37930	-2.30435	12.84923	-5.21255
3631.706	11.48137	-2.28643	12.85272	-5.23127
3635.706	11.74968	-2.25188	13.03984	-5.24897
3639.606	12.15289	-2.41555	12.79449	-5.12265
3643.708	12.03458	-2.18242	12.85223	-5.04414
3647.707	12.06002	-2.13463	13.02219	-5.02950
3651.707	12.92875	-3.53961	13.03706	-5.14321
3655.600	13.02452	-3.22394	13.29488	-4.99199
3659.710	12.79154	-2.81580	13.46545	-5.03416
3663.709	11.86001	-3.13907	13.33767	-4.69795
3667.709	13.79370	-2.30009	13.28968	-4.72431
3671.713	14.97354	-1.51638	13.52381	-4.48747
3675.709	18.17699	2.86937	13.74025	-4.15960
3679.709	20.49800	6.94834	17.85737	-4.45510
3683.707	-5.18663	15.19331	17.84763	-4.23896
3687.711	NaN	NaN	16.38077	0.42004
3691.710	NaN	NaN	20.58771	2.42596
3695.709	NaN	NaN	NaN	NaN
3699.708	NaN	NaN	NaN	NaN
3703.711	NaN	NaN	NaN	NaN
3707.697	NaN	NaN	NaN	NaN
3711.664	NaN	NaN	NaN	NaN
3715.716	NaN	NaN	NaN	NaN
3719.707	NaN	NaN	NaN	NaN
3723.708	13.35929	14.71348	NaN	NaN
3727.712	NaN	NaN	17.47064	3.61321
3731.708	NaN	NaN	NaN	NaN
3735.707	NaN	NaN	22.44266	-0.14210
3739.708	-9.22097	10.84969	15.77120	-0.86415
3743.711	16.34124	0.86130	5.86374	-7.67795
3747.709	12.96852	12.62821	5.19916	-5.63907
3751.679	16.74585	-5.63928	17.71324	-7.72457
3755.565	2.96158	-8.25975	8.56304	-6.11262
3759.553	2.90968	-8.22515	10.65745	-7.19438
3763.584	3.29082	-8.24208	9.60840	-7.20934
3767.584	4.04942	-8.70103	9.53839	-7.04213
3771.544	4.72869	-8.51123	9.65763	-7.16454
3775.549	9.65225	-8.31903	9.34821	-7.23963
3779.695	8.60269	-8.38683	9.29507	-6.90904
3783.587	8.58384	-8.32764	9.61491	-7.27693
3787.585	8.50457	-8.26449	9.68452	-7.55543
3791.704	8.29754	-8.34916	9.81332	-7.53766
3795.582	8.55646	-8.42071	9.69178	-7.45699
3799.578	8.50447	-8.54260	9.70938	-7.48035
3803.586	8.66484	-8.43725	9.74063	-7.44089
3807.579	8.69375	-8.35098	9.67652	-7.48367
3811.586	8.75722	-8.36400	9.68717	-7.55111
3815.584	8.84261	-8.30883	9.77228	-7.59799
3819.586	8.73606	-8.26528	9.76869	-7.57353
3823.584	8.77570	-8.29079	9.80354	-7.64229
3827.587	8.81801	-8.31335	9.81130	-7.65015
3831.587	8.76881	-8.29282	9.81534	-7.65318
3835.585	8.83275	-8.34908	9.80508	-7.65895
3839.577	8.79669	-8.31045	9.81686	-7.58264
3843.585	8.77717	-7.84726	9.78975	-7.51436
3847.585	8.75596	-7.54648	9.74171	-7.50527
3851.542	8.78374	-7.41636	9.77047	-7.49178
3855.584	8.69156	-7.31085	9.75917	-7.47053
3859.589	8.72377	-8.10251	9.71278	-7.31610
3863.586	8.67197	-7.84949	9.54817	-7.09240
3867.587	8.75587	-8.00961	9.53354	-6.99649
3871.579	8.75662	-7.94468	9.60432	-7.27812
3875.587	8.72389	-7.76855	9.60319	-7.30172
3879.586	8.79516	-7.81382	9.57725	-7.19705
3883.577	8.69164	-7.78397	9.69262	-7.26185
3887.589	8.74680	-7.78925	9.84570	-7.31701
3891.589	8.72064	-7.83969	9.97760	-7.37375
3895.591	8.65611	-7.76859	10.09809	-7.39695
3899.589	8.72527	-7.81756	10.31249	-7.43931
3903.582	8.71751	-7.61601	10.37635	-7.42575
3907.590	8.70391	-7.54721	10.41340	-7.40159
3911.589	8.64313	-7.37227	10.47017	-7.45840
3915.590	8.63859	-7.50251	10.42785	-7.39188
3919.577	8.65320	-7.33861	10.46462	-7.32730
3923.563	8.62181	-7.26641	10.49222	-7.22940
3927.588	8.64623	-7.75400	10.46037	-7.11679
3931.588	8.66571	-7.70310	10.42987	-7.08870
3935.587	8.68203	-8.12642	10.40356	-6.95069
3939.587	8.67471	-8.12263	10.27628	-6.85904
3943.587	8.64318	-8.24326	10.26372	-6.81998
3947.587	8.63794	-8.29659	10.15497	-6.75258
3951.588	8.64303	-8.24223	10.07889	-6.75890
3955.589	8.69273	-8.36487	9.96121	-6.70055
3959.590	8.70759	-8.34884	9.95054	-6.68005
3963.567	8.69319	-8.33767	9.77358	-6.64964
3967.589	8.78353	-8.39421	9.70328	-6.62461
3971.590	8.94249	-8.40617	9.71811	-6.59244
3975.590	9.00607	-8.42624	9.67078	-6.58266
3979.589	8.94968	-8.46370	9.63761	-6.59836
3983.586	9.02128	-8.56347	9.61025	-6.61398
3987.589	9.09055	-8.60817	9.56735	-6.63676
3991.591	9.11119	-8.67950	9.54358	-6.66222
3995.592	9.15316	-8.79797	9.52352	-6.66647
3999.588	8.99591	-8.68623	9.52729	-6.67880
4003.589	8.91933	-8.70410	9.53979	-6.70063
4007.582	8.82698	-8.68042	9.58313	-6.72951
4011.591	8.88925	-8.70900	9.64432	-6.78641
4015.579	8.79291	-8.77530	9.70958	-6.85395
4019.589	8.67022	-8.51982	9.70811	-6.86781
4023.592	8.56284	-8.26046	9.79626	-6.93597
4027.546	8.46738	-8.22051	9.92232	-6.97691
4031.560	8.45072	-8.25519	9.96268	-7.00400
4035.590	8.35209	-8.03699	10.00078	-7.05482
4039.591	8.34781	-8.04286	10.10812	-7.10603
4043.590	8.33904	-7.88270	10.11642	-7.14364
4047.590	8.37118	-7.82778	10.14795	-7.17789
4051.589	8.33112	-7.72963	10.17707	-7.20888
4055.589	8.58444	-7.92000	10.15317	-7.21593
4059.594	8.71072	-7.98710	10.20498	-7.20527
4063.590	8.69404	-8.04707	10.21683	-7.23323
4067.592	8.93629	-8.17346	10.21375	-7.22428
4071.591	9.05606	-8.27361	10.19180	-7.22576
4075.591	8.69365	-8.27104	10.15511	-7.19064
4079.581	8.72188	-8.24028	10.14420	-7.16333
4083.593	8.72343	-8.51378	10.08921	-7.12131
4087.572	8.59390	-8.62360	10.07218	-7.08248
4091.588	8.51057	-8.60470	10.11909	-7.09218
4095.590	8.50413	-8.68075	10.13402	-7.05413
4099.591	8.36251	-8.67019	10.15617	-7.03172
4103.592	8.33066	-8.68556	10.16829	-6.98831
4107.592	8.27008	-8.70015	10.14369	-6.98539
4111.581	8.30950	-8.62563	10.15769	-6.97379
4115.593	8.21959	-8.43007	10.07540	-6.93122
4119.593	8.19898	-8.39770	10.07716	-6.90329
4123.594	8.21782	-8.24862	10.04487	-6.85666
4127.591	8.18213	-8.02548	10.03221	-6.81854
4131.557	8.21247	-8.05480	9.95468	-6.78753
4135.548	8.31047	-7.85571	9.87206	-6.72421
4139.593	8.35714	-7.71703	9.83701	-6.73001
4143.584	8.33389	-7.56595	9.76216	-6.67475
4147.547	8.40902	-7.58265	9.66904	-6.64549
4151.593	8.57869	-7.18102	9.70480	-6.66694
4155.594	8.55447	-7.27114	9.92259	-6.84521
4159.591	8.36234	-7.12680	9.23120	-6.61014
4163.548	8.14049	-4.95086	8.22017	-6.55976
4167.596	6.91701	-4.74566	6.83528	-6.20702
4171.573	4.38016	-4.34465	5.82930	-5.14726
4175.568	3.99381	-2.64294	5.57495	-5.00761
4179.593	3.23789	-2.59186	5.40902	-4.85709
4183.595	2.80783	-2.49757	5.21173	-4.70362
4187.593	2.67838	-2.39168	4.92531	-4.57832
4191.593	2.88972	-2.43797	4.79676	-4.59981
4195.595	3.30495	-2.44281	4.40924	-4.50951
4199.594	3.08231	-2.55471	4.02663	-4.37730
4203.593	3.31403	-2.51152	3.91561	-4.37465
4207.593	3.27522	-2.96196	3.67749	-4.42740
4211.552	3.29132	-2.81344	3.95550	-4.41166
4215.594	3.12123	-3.05776	4.47607	-4.32308
4219.595	3.19246	-2.89707	4.03137	-4.29688
4223.592	3.12895	-3.11022	4.56380	-4.33815
4227.594	3.13971	-3.22968	4.24352	-4.32808
4231.594	3.09181	-3.13707	4.65905	-4.40998
4235.593	3.23949	-2.99131	4.72403	-4.50255
4239.603	3.21970	-2.64237	4.53904	-4.46051
4243.596	3.20196	-2.52574	4.84489	-4.51057
4247.596	3.18141	-2.22226	4.76165	-4.48700
4251.595	3.18192	-2.04283	4.93563	-4.53412
4255.587	3.09426	-2.02102	4.92684	-4.52923
4259.594	3.12353	-1.87848	4.86933	-4.52800
4263.597	3.05667	-1.80724	4.84238	-4.53278
4267.594	3.04707	-1.83415	4.58377	-4.50482
4271.595	2.98982	-1.81131	4.75055	-4.55152
4275.551	3.01113	-1.95807	4.69307	-4.51668
4279.596	2.95401	-1.93943	4.48675	-4.51372
4283.551	2.88316	-1.98951	4.64680	-4.47693
4287.587	2.83596	-2.08740	4.61881	-4.46969
4291.554	2.79119	-2.17311	4.60690	-4.46019
4295.578	2.71510	-2.34383	4.42918	-4.44705
4299.596	2.73150	-2.49167	4.39168	-4.47468
4303.599	2.65931	-2.57560	4.16428	-4.47115
4307.597	2.64302	-2.60045	4.20195	-4.50864
4311.597	2.63626	-2.63904	4.14421	-4.54786
4315.596	2.60069	-2.70678	4.13942	-4.54274
4319.597	2.62061	-2.63278	3.92803	-4.51079
4323.599	2.59609	-2.72158	4.06918	-4.47833
4327.596	2.65929	-2.24654	4.15371	-4.48734
4331.599	2.72778	-2.36427	4.02465	-4.51152
4335.601	2.70097	-2.21769	4.09271	-4.66914
4339.598	2.75831	-2.43056	4.07903	-4.61323
4343.598	2.78349	-2.33465	4.17694	-4.77905
4347.597	2.83952	-2.31177	4.46734	-4.82638
4351.587	2.97052	-2.61226	4.66694	-4.89035
4355.597	3.06038	-3.18080	4.59613	-5.05060
4359.597	3.15783	-3.36527	4.75901	-4.82571
4363.600	3.23576	-3.44899	4.83853	-4.73228
4367.599	3.15320	-3.49612	4.72573	-4.74451
4371.598	3.08431	-3.37394	4.88902	-4.79706
4375.599	3.05093	-3.39548	4.75245	-4.95784
4379.597	3.05828	-3.49223	4.72021	-4.89853
4383.566	3.13313	-3.51784	4.60557	-5.16333
4387.598	3.12665	-3.37318	4.73665	-4.88588
4391.600	3.17787	-2.77229	4.74235	-5.03860
4395.601	3.21050	-3.66696	4.60168	-4.90486
4399.595	3.27677	-2.96819	4.03315	-4.75558
4403.555	3.21800	-3.59295	3.97563	-4.23677
4407.600	3.40672	-2.36891	0.91257	-2.80273
4411.598	0.53240	-0.34625	-0.02631	-2.99202
4415.605	-1.38962	0.08533	-2.35828	-2.04933
4419.596	-2.12530	1.25484	-2.56144	-0.89214
4423.600	-3.97348	2.69488	-6.52292	-0.41041
4427.600	-6.35069	3.46437	-6.67512	0.51115
4431.603	-8.38389	2.61403	-8.23153	0.39673
4435.599	-8.41371	3.32002	-10.14225	1.49451
4439.600	-10.91531	3.85762	-10.79545	2.33556
4443.600	-11.12144	4.89949	-11.63040	2.59361
4447.602	-11.53725	4.76140	-13.23763	2.89777
4451.600	-11.92168	5.49101	-13.98835	3.56499
4455.602	-12.17008	5.66056	-14.36833	4.89339
4459.564	-12.35005	5.69253	-13.78078	5.48608
4463.606	-12.42680	5.72919	-13.16753	6.15587
4467.599	-12.40302	5.68257	-12.50299	6.20392
4471.600	-12.56254	5.56006	-12.85279	6.65142
4475.600	-12.81016	5.52701	-13.00895	6.60743
4479.602	-12.77032	5.44938	-13.09449	6.21175
4483.600	-12.82420	5.84833	-13.34594	5.98750
4487.598	-12.69599	5.90306	-12.78986	4.92429
4491.600	-12.81674	6.22760	-12.85605	4.72525
4495.604	-12.86666	6.17296	-12.72839	5.05552
4499.603	-12.91020	6.18257	-12.84352	4.93385
4503.600	-12.88367	5.96164	-12.63388	6.38633
4507.598	-12.85985	5.83631	-12.52338	6.39605
4511.604	-12.92380	5.66604	-12.73425	6.40655
4515.603	-12.89020	5.27596	-12.89951	6.37408
4519.602	-12.86055	5.17503	-12.58408	4.61880
4523.601	-12.78679	5.26860	-12.43521	4.57752
4527.606	-12.77214	5.50949	-12.45130	4.30206
4531.605	-12.72005	5.92803	-12.57727	4.11917
4535.602	-12.67709	6.16270	-12.70787	3.98075
4539.604	-12.63655	6.09042	-12.68411	4.78811
4543.605	-12.61651	6.01730	-12.73479	4.85500
4547.603	-12.65075	5.92030	-12.69405	4.20259
4551.603	-12.75665	5.98901	-12.59531	5.06291
4555.558	-12.85407	6.16065	-12.61304	6.77823
4559.500	-12.98379	6.11609	-12.42529	4.80057
4563.602	-12.93302	6.16909	-12.28709	4.71305
4567.605	-12.95768	6.03378	-12.25806	4.61173
4571.603	-13.01249	6.03926	-12.10174	4.59164
4575.500	-13.10057	5.97974	-12.02921	4.75794
4579.601	-13.15532	5.82757	-12.07066	4.62397
4583.604	-13.16515	5.75858	-12.15030	4.66807
4587.579	-13.17586	5.72024	-12.10858	4.59377
4591.500	-13.18922	5.58600	-12.15471	4.71031
4595.603	-13.13020	5.35421	-12.14243	4.63589
4599.602	-13.05093	5.10419	-12.20909	4.57626
4603.605	-13.00756	5.41925	-12.36658	4.41642
4607.607	-12.98219	5.44425	-12.45364	4.42935
4611.584	-12.87492	5.47776	-12.57644	4.38677
4615.605	-12.76534	5.33450	-12.61015	4.35627
4619.604	-12.73089	5.46017	-12.63204	4.35337
4623.608	-12.63816	5.44612	-12.62218	4.54390
4627.604	-12.56999	5.60725	-12.68623	4.79478
4631.596	-12.51898	5.58697	-12.71394	5.29854
4635.604	-12.42860	5.61778	-12.69245	5.22139
4639.609	-12.41909	5.67698	-12.71328	5.51780
4643.605	-12.40912	5.72227	-12.68458	5.60579
4647.605	-12.38730	5.70598	-12.57155	5.46663
4651.606	-12.38592	5.66393	-12.52036	5.63072
4655.610	-12.40758	5.63193	-12.47051	5.97934
4659.606	-12.46767	5.66187	-12.44735	6.02923
4663.610	-12.50654	5.61838	-12.05734	5.56213
4667.607	-12.56701	5.62987	-11.71273	5.33245
4671.555	-12.60117	5.60295	-11.96106	5.53441
4675.602	-12.65170	5.58703	-11.88915	5.33514
4679.605	-12.72648	5.55270	-11.84087	5.34497
4683.604	-12.78793	5.53172	-11.83127	5.16990
4687.608	-12.87171	5.50762	-11.76782	5.11472
4691.604	-12.94118	5.53230	-11.72929	5.17558
4695.606	-13.01498	5.59389	-11.80364	5.27154
4699.604	-13.10692	5.66435	-11.76078	5.28688
4703.607	-13.17365	5.68311	-11.74004	5.26057
4707.606	-13.27259	5.72962	-11.76642	5.30778
4711.590	-13.30799	5.78107	-11.78614	5.34821
4715.603	-13.33847	5.79246	-11.80309	5.40680
4719.611	-13.35008	5.85986	-11.83070	5.51062
4723.606	-13.30799	5.79905	-11.85904	5.53935
4727.606	-13.29387	5.81370	-11.91051	5.65051
4731.607	-13.23034	5.69854	-11.99764	5.70490
4735.610	-13.25670	5.66888	-12.10060	5.81234
4739.609	-13.18268	5.57635	-12.09652	5.81675
4743.607	-13.10596	5.46586	-12.24889	5.84536
4747.609	-13.04295	5.84672	-12.36220	5.88763
4751.610	-12.86051	5.46552	-12.44212	5.98529
4755.571	-12.73059	5.51536	-12.52923	5.99322
4759.607	-12.72903	5.73090	-12.62242	6.00586
4763.610	-12.68477	5.62434	-12.69422	6.05125
4767.503	-12.61197	5.60752	-12.77577	5.24403
4771.482	-12.56339	5.61482	-12.72747	5.47674
4775.482	-12.40124	5.65081	-12.70494	4.57223
4779.482	-12.41670	5.64690	-12.58983	4.41586
4783.474	-12.41421	5.56503	-12.62159	4.26542
4787.483	-12.40638	5.57900	-12.57418	4.26394
4791.482	-12.37906	5.45328	-12.39688	5.54157
4795.483	-12.40742	5.23646	-12.32478	6.15266
4799.472	-12.65673	5.13030	-12.29353	6.31817
4803.474	-12.42307	5.74254	-12.18986	4.57111
4807.483	-12.45691	5.06959	-12.07474	3.51874
4811.483	-12.43618	3.27118	-12.24052	3.20453
4815.505	-12.29386	2.84945	-12.01084	2.65296
4819.483	-12.21829	2.56760	-11.98422	1.23473
4823.482	-11.99730	2.71151	-11.72113	0.94337
4827.483	-11.67541	2.73316	-11.72381	1.45715
4831.510	-11.72420	2.85712	-11.65999	0.95672
4835.485	-11.90409	2.41451	-11.47584	0.94652
4839.484	-12.18765	1.77620	-11.27068	0.81205
4843.454	-12.19346	0.85776	-11.33261	0.71392
4847.477	-12.29090	0.99922	-11.27183	0.68235
4851.484	-12.31004	1.01752	-11.21732	0.55570
4855.486	-12.42394	0.86477	-11.21388	0.62714
4859.485	-12.37631	0.79679	-11.19848	0.65269
4863.478	-12.49275	0.67299	-11.18062	0.62840
4867.485	-12.54585	0.78441	-11.20469	0.64288
4871.484	-12.54107	0.90704	-11.19237	0.78327
4875.486	-12.54987	0.85167	-11.20085	1.07643
4879.510	-12.56406	0.88266	-11.21579	0.55107
4883.464	-12.56075	0.87413	-11.27223	0.74485
4887.485	-12.55857	1.00692	-11.30460	0.81692
4891.484	-12.57285	1.06862	-11.29433	0.54670
4895.478	-12.54474	1.17809	-11.29207	0.46947
4899.484	-12.43088	1.30549	-11.31008	0.31074
4903.483	-12.37996	1.43533	-11.29765	0.30871
4907.484	-12.38320	1.51239	-11.30281	0.22028
4911.508	-12.38128	1.62452	-11.28572	0.45722
4915.486	-12.31035	1.54107	-11.25278	0.30159
4919.488	-12.31035	1.58435	-11.23853	0.32242
4923.485	-12.27145	1.63857	-11.22434	0.20606
4927.509	-12.24216	1.67246	-11.18644	0.38630
4931.486	-12.22575	1.69954	-11.17551	0.26877
4935.486	-12.19512	1.68736	-11.18360	0.29667
4939.486	-12.20055	1.60404	-11.21790	0.37568
4943.508	-12.24699	1.71137	-11.23549	0.41991
4947.486	-12.27922	1.63823	-11.26163	0.50795
4951.485	-12.29457	1.62426	-11.25428	0.49231
4955.487	-12.30213	1.61856	-11.27574	0.49240
4959.513	-12.30197	1.62232	-11.34979	0.55612
4963.487	-12.29791	1.68108	-11.40892	0.56833
4967.465	-12.35119	1.71988	-11.44361	0.62374
4971.485	-12.40100	1.71313	-11.48020	0.58757
4975.509	-12.41682	1.72401	-11.52886	0.62481
4979.487	-12.46931	1.74487	-11.58186	0.65047
4983.488	-12.48151	1.77310	-11.65120	0.65785
4987.487	-12.49630	1.77401	-11.65325	0.67714
4991.506	-12.49637	1.78475	-11.69840	0.65935
4995.486	-12.57240	1.82830	-11.76523	0.67940
4999.487	-12.58058	1.84263	-11.78723	0.66217
5003.486	-12.65304	1.84482	-11.81800	0.65604
5007.509	-12.67962	1.85592	-11.85283	0.68414
5011.487	-12.70435	1.85075	-11.89872	0.70097
5015.486	-12.70572	1.85270	-11.92386	0.63095
5019.487	-12.73099	1.88065	-11.92553	0.57792
5023.508	-12.72863	1.91592	-11.92593	0.44927
5027.487	-12.74865	1.93702	-11.92923	0.53838
5031.457	-12.70359	1.98310	-11.91999	0.46287
5035.488	-12.74036	1.96863	-11.86136	0.29433
5039.511	-12.66223	1.97171	-11.88295	0.31582
5043.489	-12.65841	1.97660	-11.86807	0.37206
5047.490	-12.64087	1.99364	-11.89326	0.27345
5051.458	-12.64718	1.97410	-11.81268	0.19188
5055.456	-12.61616	1.99044	-11.80735	0.18595
5059.488	-12.57157	2.02332	-11.83805	0.13092
5063.488	-12.54041	2.06359	-11.67275	0.17064
5067.490	-12.40553	2.00385	-11.71292	0.24149
5071.508	-10.07100	2.30243	-11.43257	0.16226
5075.489	-9.14073	1.97221	-8.96302	2.00807
5079.488	-4.67552	2.28214	-8.74321	1.84402
5083.489	-4.61154	2.12176	-6.48891	1.98966
5087.509	-2.55168	2.14872	-4.65964	1.06048
5091.479	-0.78201	1.93543	-2.13338	0.48592
5095.444	-0.15054	2.31036	-1.98251	1.27391
5099.488	2.77564	1.97720	0.16404	0.32597
5103.510	3.69264	1.87675	1.79153	0.53167
5107.490	4.54289	1.40818	3.83959	0.10835
5111.490	7.81995	1.68782	5.26448	0.03383
5115.490	7.37216	1.31316	7.19977	-0.84690
5119.485	7.74520	1.19291	7.23960	-0.75539
5123.491	8.18782	0.98066	7.71338	-0.04612
5127.491	8.62826	0.89341	8.19980	-0.16757
5131.485	8.63672	0.90929	8.36256	0.00588
5135.490	8.68354	0.77272	8.34439	0.20974
5139.492	8.41089	0.87446	8.33715	0.08979
5143.491	8.73863	0.76178	8.38415	0.02970
5147.491	8.63478	0.68167	8.41694	-0.19606
5151.512	8.88043	0.69302	8.39676	-0.32083
5155.491	8.86476	0.66232	8.28663	-0.38509
5159.490	8.95295	0.55795	8.32254	-0.62487
5163.446	8.80994	0.52593	8.36044	-0.56795
5167.484	8.72134	0.24827	8.34580	-0.58672
5171.491	8.24162	0.57805	8.36934	-0.71707
5175.492	8.09053	0.56735	8.34516	-0.85317
5179.492	8.09895	0.58763	8.35925	-0.97835
5183.512	7.88220	0.33084	8.40827	-1.06462
5187.492	7.81644	0.47438	8.39100	-1.16277
5191.492	7.95728	0.49974	8.47993	-1.39425
5195.492	8.12729	0.55018	8.46187	-1.25840
5199.489	7.91604	0.57559	8.48464	-1.42199
5203.490	7.89583	0.59981	8.42211	-1.54180
5207.491	7.83098	0.75793	8.52149	-1.57723
5211.448	7.83661	0.83951	8.55641	-1.71262
5215.502	7.91536	0.87889	8.38918	-1.63292
5219.482	7.99459	0.93880	7.76204	-1.45140
5223.493	7.95516	1.04032	7.45894	-1.35880
5227.495	7.93050	0.98023	7.54508	-1.38795
5231.489	7.97057	0.75659	7.84735	-1.22465
5235.491	8.00204	0.43323	8.07888	-1.03339
5239.492	7.87908	0.72043	8.21349	-1.13997
5243.493	7.93510	0.46074	8.41905	-1.01734
5247.489	7.79500	0.99800	8.52195	-1.07406
5251.494	7.64464	0.55904	8.63787	-1.07749
5255.495	7.59276	0.41360	8.73388	-1.02723
5259.448	7.72992	0.54189	8.96520	-1.03201
5263.461	7.64154	0.92514	8.68715	-1.01287
5267.496	7.48702	0.85384	8.60938	-1.05540
5271.493	7.51354	0.94920	8.76741	-1.09404
5275.493	7.55047	1.05063	8.84261	-1.13954
5279.494	7.50427	1.07776	8.97637	-1.16974
5283.492	7.67811	1.13043	8.83680	-0.86923
5287.493	7.52827	1.24857	8.57386	-0.38080
5291.495	7.65093	1.29029	8.26398	-0.43833
5295.513	7.75977	1.35477	8.19265	-0.49933
5299.495	7.81941	1.36452	8.25700	-0.46457
5303.496	7.89727	1.39981	8.10476	-0.48064
5307.493	7.88341	1.40276	8.08392	-0.46305
5311.490	7.93919	1.44347	8.17067	-0.31341
5315.494	8.03643	1.40851	8.00698	-0.48132
5319.494	8.13055	1.34131	8.07903	-0.41789
5323.494	8.23773	1.29860	7.96220	-0.42731
5327.497	8.25780	1.25497	7.97534	-0.47730
5331.495	8.20500	1.21652	8.00134	-0.59215
5335.496	8.20158	1.10578	8.04587	-0.65379
5339.487	8.02299	0.90144	7.98016	-0.74840
5343.453	7.73548	0.56609	7.96814	-0.79114
5347.495	7.72203	0.56795	7.86201	-0.89842
5351.495	7.65641	0.46053	7.68464	-0.95392
5355.495	7.79593	0.36424	7.83921	-0.94939
5359.498	7.81997	0.34664	7.92018	-0.96628
5363.495	7.67375	0.34494	7.87772	-0.92856
5367.501	7.55466	0.24601	8.02460	-0.92800
5371.495	7.41558	0.19131	8.06706	-0.90862
5375.501	7.29047	0.31116	8.31900	-0.93713
5379.498	7.36974	0.43880	7.94107	-0.73939
5383.470	8.31438	0.16543	8.75642	-0.77719
5387.497	9.57836	0.95251	9.00690	-0.37984
5391.496	11.42918	0.37365	10.84827	-0.66806
5395.497	12.07965	0.00882	12.34737	-0.90723
5399.496	13.12992	0.39440	13.23756	-1.95119
5403.497	13.78459	0.36127	13.19047	-1.66296
5407.500	14.70054	0.35407	13.53533	-2.37641
5411.496	15.32849	0.16514	13.49986	-2.62092
5415.494	15.75019	-0.25009	13.79115	-2.65184
5419.496	15.58824	-0.21738	13.89096	-2.70469
5423.486	15.81546	-0.61227	13.83517	-3.14059
5427.485	14.80727	-0.72556	13.70947	-3.28503
5431.496	14.79013	-0.81408	11.42794	-1.15561
5435.496	14.31153	-1.48092	11.48313	-1.26467
5439.393	14.33103	-1.34131	11.50084	-1.13477
5443.497	13.61361	-0.96030	11.41476	-1.06073
5447.498	12.39182	-1.20234	11.41557	-0.90939
5451.497	12.18116	-1.09781	11.46123	-0.87584
5455.397	12.47212	-1.01267	11.42830	-0.82546
5459.500	12.31128	-0.95160	11.49457	-0.74485
5463.498	12.34117	-0.89912	14.02629	-3.25648
5467.470	12.20833	-0.72280	14.18675	-2.89449
5471.499	12.15977	-0.60183	14.30561	-2.45026
5475.499	12.75592	-0.94872	13.54783	-2.67972
5479.499	12.55405	-0.67731	14.39029	-3.10433
5483.499	12.69072	-0.60271	14.16553	-3.25563
5487.502	12.13190	-0.51711	14.05128	-3.13648
5491.498	12.47834	-0.81358	14.03358	-3.15090
5495.499	12.50721	-0.70271	13.93106	-3.05462
5499.499	12.37569	-0.80121	13.86570	-2.91488
5503.503	12.46789	-0.94344	13.95371	-2.79108
5507.499	12.49966	-0.77982	13.89828	-2.75486
5511.496	12.98683	-0.73329	13.87662	-2.82412
5515.499	12.86324	-0.61145	14.03127	-3.21022
5519.392	12.83427	-0.59895	14.02643	-2.80153
5523.499	13.09084	-0.55027	13.89070	-3.80043
5527.499	13.04945	-0.68857	13.89475	-3.78375
5531.483	13.21818	-0.93576	13.91320	-3.90543
5535.395	13.38604	-0.78812	13.89346	-3.90204
5539.498	13.31091	-1.14671	14.01333	-3.62625
5543.501	13.17948	-1.25681	14.08073	-3.39037
5547.497	13.14788	-0.84200	14.12775	-3.41124
5551.396	13.14609	-0.93219	14.12350	-3.38573
5555.499	13.22182	-0.85536	14.21148	-3.45132
5559.499	13.26410	-1.10343	14.24249	-3.40865
5563.499	13.38085	-1.21778	14.22333	-3.40551
5567.396	13.24346	-1.30836	14.24182	-3.34182
5571.502	13.41645	-1.28725	14.29997	-3.26320
5575.501	13.54800	-1.31656	14.21752	-3.32612
5579.498	13.69352	-1.32429	14.09843	-3.33324
5583.504	13.21940	-1.24168	14.08671	-3.30100
5587.501	13.38703	-1.16631	14.10735	-3.27671
5591.477	13.42319	-1.15514	13.74973	-3.23871
5595.503	13.14835	-0.88571	13.13018	-2.06540
5599.505	13.01291	-1.00780	13.27344	-2.53768
5603.500	12.78918	-0.71771	13.73627	-2.43678
5607.500	12.50628	-0.34640	13.62078	-2.61022
5611.500	12.41722	-0.41107	13.81198	-2.69762
5615.401	11.96201	-0.09899	13.67635	-2.62560
5619.501	12.06188	0.06804	13.76333	-2.60871
5623.500	11.83591	-0.16862	13.32684	-2.45919
5627.504	12.12310	-0.27516	13.46984	-2.33567
5631.399	12.25026	-0.38644	13.76282	-2.51677
5635.493	12.20579	-0.22701	13.89536	-2.77427
5639.502	12.18365	-0.20136	14.84394	-2.76772
5643.501	11.88504	-0.22568	13.69467	-2.44772
5647.504	12.31566	-0.07825	13.79014	-2.73734
5651.502	15.56374	0.66741	14.15610	-2.26705
5655.501	15.27252	2.22239	13.07502	-2.02482
5659.502	14.98410	2.93828	14.87077	-1.41112
5663.401	10.22712	7.30336	15.62155	-0.08017
5667.503	21.29470	9.56205	17.82616	1.88516
5671.503	NaN	NaN	18.26932	2.49869
5675.467	NaN	NaN	NaN	NaN
5679.504	NaN	NaN	NaN	NaN
5683.368	NaN	NaN	NaN	NaN
5687.501	NaN	NaN	NaN	NaN
5691.458	NaN	NaN	NaN	NaN
5695.501	NaN	NaN	NaN	NaN
5699.456	NaN	NaN	NaN	NaN
5703.502	NaN	NaN	NaN	NaN
5707.501	NaN	NaN	NaN	NaN
5711.505	NaN	NaN	NaN	NaN
5715.458	NaN	NaN	NaN	NaN
5719.498	NaN	NaN	NaN	NaN
5723.501	NaN	NaN	NaN	NaN
5727.504	NaN	NaN	NaN	NaN
5731.503	NaN	NaN	NaN	NaN
5735.460	NaN	NaN	NaN	NaN
5739.504	NaN	NaN	NaN	NaN
5743.503	NaN	NaN	12.27936	5.65301
5747.504	NaN	NaN	13.72793	5.02196
5751.506	NaN	NaN	13.61640	1.17861
5755.502	6.68749	8.89467	13.43777	5.66978
5759.507	7.99296	6.59911	14.26704	5.56620
5763.504	8.87016	8.28413	13.14981	5.69593
5767.504	10.19072	6.24332	13.54567	3.45202
5771.505	9.95271	5.81867	11.29405	4.09422
5775.752	9.07646	6.19522	11.01687	2.85845
5779.506	10.44636	6.38753	11.36966	0.93903
5783.504	7.10726	5.84775	11.15358	0.89501
5787.505	8.08316	5.33664	11.11776	0.81655
5791.404	8.74702	4.18958	10.51799	0.84224
5795.381	7.74798	3.45350	10.22228	1.07657
5799.380	7.25418	2.65586	10.39141	0.79684
5803.368	7.21139	2.57471	10.14725	0.95028
5807.339	7.45011	2.61238	10.14970	0.93623
5811.380	8.42998	2.63197	10.09246	1.18055
5815.380	7.79188	2.72031	9.88687	0.88099
5819.381	7.72032	2.81021	10.30932	0.76985
5823.373	7.69198	2.94641	9.95767	0.77813
5827.381	7.55371	3.16251	9.90046	0.90519
5831.381	7.99949	3.19961	9.94265	0.67105
5835.382	8.02550	2.91708	10.02045	0.58778
5839.377	8.27722	2.90455	10.05098	-0.02075
5843.382	8.66493	2.73893	10.00901	0.20600
5847.345	8.39001	2.94540	10.11394	0.01160
5851.382	8.45924	2.97426	10.24579	-0.13273
5855.407	8.43338	3.01341	10.29099	-0.36806
5859.395	8.25960	3.16805	10.20481	-0.25730
5863.383	8.31032	3.16338	10.21385	-0.24678
5867.382	8.26561	3.23127	10.28258	0.19526
5871.381	8.37388	3.14269	10.27244	0.01445
5875.380	8.33632	3.03714	10.32909	0.21488
5879.381	8.28318	2.93568	10.23735	0.38807
5883.383	8.26101	2.85642	10.41258	0.59536
5887.383	8.21232	2.87758	10.55526	0.44232
5891.383	8.23707	2.77693	10.59447	0.32119
5895.382	8.27224	2.67460	10.55167	0.25091
5899.383	8.19691	2.57263	10.64475	0.26671
5903.339	8.22550	2.44712	10.67972	0.55656
5907.383	8.22047	2.32221	10.66630	0.65909
5911.382	8.28092	2.32946	10.80120	0.56668
5915.382	8.30238	2.27984	10.83462	0.62143
5919.373	8.27800	2.27399	10.77452	0.64506
5923.385	8.29074	2.23896	10.69441	0.70092
5927.380	8.30381	2.19511	10.59771	0.65313
5931.376	8.30631	2.20617	10.46791	0.71075
5935.380	8.31287	2.17691	10.44256	0.26673
5939.384	8.34905	2.17517	10.29356	0.48311
5943.384	8.32456	2.19028	10.31122	0.55192
5947.384	8.32733	2.25220	10.12395	0.53299
5951.380	8.38304	2.28553	10.06119	0.39636
5955.384	8.37342	2.30825	9.99696	0.48022
5959.384	8.37436	2.33141	9.94488	0.47506
5963.387	8.41174	2.35057	9.83578	0.47836
5967.384	8.40752	2.37087	9.77524	0.89750
5971.356	8.41903	2.41639	9.70053	1.15564
5975.382	8.47233	2.43745	9.63599	1.61998
5979.383	8.45033	2.49318	9.59341	1.43829
5983.382	8.43435	2.50975	9.54814	1.56951
5987.384	8.47046	2.51690	9.52883	1.56167
5991.384	8.50542	2.58449	9.47799	1.64297
5995.385	8.48894	2.63907	9.44921	1.77246
5999.381	8.45164	2.66442	9.52973	0.04950
6003.383	8.36572	2.54057	9.50769	-0.10060
6007.385	8.29812	2.38422	9.34570	1.75935
6011.372	7.81405	2.80259	8.17031	1.44408
6015.384	7.14338	3.44196	7.52508	1.73883
6019.385	6.85830	3.52596	7.13615	1.67117
6023.387	6.19417	3.41522	7.17128	1.78214
6027.340	6.14234	3.50198	7.17350	1.94798
6031.415	5.97293	3.56367	7.19034	2.00631
6035.386	5.87332	3.95368	7.19561	2.08602
6039.387	5.67111	3.93997	7.12065	2.09554
6043.385	5.53766	3.92159	7.05205	2.21394
6047.408	5.47422	3.92447	7.06242	2.21123
6051.388	5.42985	3.98461	7.05090	2.30244
6055.386	5.39428	4.02584	6.99861	2.49292
6059.386	5.44849	4.01947	6.86909	2.34638
6063.345	5.45272	4.03488	6.80440	2.46126
6067.387	5.45604	4.07645	6.75541	2.41806
6071.390	5.41367	4.11749	6.50729	2.20199
6075.396	5.36769	4.16949	6.65155	2.08652
6079.404	5.40779	4.09779	6.54675	2.04939
6083.386	5.49984	4.07942	6.55898	2.05198
6087.385	5.49451	4.10966	6.56316	2.23495
6091.386	5.50294	4.10278	6.43020	2.12232
6095.375	5.54324	4.11358	6.36552	2.10031
6099.387	5.50321	4.03569	6.31784	2.07426
6103.341	5.52613	4.01737	6.25612	2.09634
6107.387	5.21831	3.95396	6.27800	2.17847
6111.380	5.20302	3.97795	6.26412	2.25160
6115.387	5.30323	3.95968	6.10693	1.96849
6119.388	5.37667	4.00872	6.11169	2.07207
6123.388	5.37665	4.06059	6.12612	2.08862
6127.347	5.33677	4.12303	6.15934	2.07321
6131.389	5.23819	4.14766	6.18156	2.13278
6135.388	5.20223	4.23280	6.22746	2.13139
6139.389	5.27907	4.25617	6.42515	2.41925
6143.376	5.33726	4.25543	6.67551	2.38463
6147.389	5.28689	4.25157	6.42807	2.46831
6151.388	5.10258	4.20027	6.38751	2.48988
6155.389	6.29521	3.51533	6.73285	1.22753
6159.408	7.29086	1.60913	6.61249	0.35702
6163.344	5.85065	1.22821	7.30690	-0.50070
6167.389	6.64858	-1.85320	7.70214	-1.40689
6171.392	7.83719	-3.12815	8.55265	-3.54756
6175.394	8.34198	-5.00418	8.65899	-3.84351
6179.320	7.82063	-5.00674	8.93743	-5.28853
6183.388	7.94090	-5.05897	8.95232	-5.30370
6187.387	8.17950	-5.11376	9.17960	-5.67240
6191.382	8.10092	-5.11754	9.18581	-5.75058
6195.388	8.08881	-5.17524	9.36327	-6.11573
6199.389	8.27691	-5.17213	9.40728	-6.05824
6203.389	8.28971	-5.26624	9.43139	-6.20496
6207.394	8.31958	-5.69239	9.35003	-6.25535
6211.390	8.29878	-5.58085	9.29514	-5.88385
6215.347	8.32954	-5.69213	9.41030	-5.93581
6219.345	8.39511	-5.88732	9.51249	-5.88360
6223.388	8.49195	-6.08410	9.58852	-5.96287
6227.389	8.56544	-6.14234	9.51954	-5.92123
6231.390	8.61363	-6.08326	9.49427	-6.13574
6235.389	9.00133	-6.25125	9.65421	-6.19644
6239.390	8.63665	-6.04886	9.99982	-6.28720
6243.345	8.58185	-5.95921	9.64463	-6.15273
6247.390	8.46463	-6.03028	9.56776	-5.94765
6251.392	8.34038	-5.99261	9.30189	-5.60713
6255.391	8.35913	-6.05321	9.40692	-5.64356
6259.392	8.51727	-5.97958	9.44073	-5.54203
6263.355	8.75279	-6.00017	9.51194	-5.62600
6267.391	8.72733	-6.06492	9.73889	-5.70781
6271.391	8.57326	-5.87248	9.61858	-5.76233
6275.393	8.52074	-5.90713	9.99462	-6.24825
6279.391	8.40315	-5.76285	9.67712	-5.94683
6283.392	8.25671	-5.74749	9.62179	-5.56884
6287.390	8.28286	-5.83873	9.22170	-5.43282
6291.371	8.50981	-5.82877	9.19159	-5.46955
6295.390	8.66498	-5.91134	9.33674	-5.58270
6299.391	8.76084	-5.80069	9.77773	-5.76696
6303.315	8.50173	-5.77210	10.04001	-5.75298
6307.390	8.56571	-5.79446	9.41115	-5.71896
6311.391	8.38870	-5.69969	9.19783	-5.44204
6315.390	8.32828	-5.66692	9.24162	-5.48878
6319.382	8.44314	-5.71798	9.22579	-5.69413
6323.392	8.49471	-5.78877	9.49851	-5.70575
6327.392	8.64461	-5.72986	9.22230	-5.51326
6331.392	8.44475	-5.76925	9.21423	-5.46131
6335.381	8.18103	-5.68787	9.22784	-5.60407
6339.394	8.27535	-5.66315	9.43825	-5.70905
6343.386	8.25545	-5.66458	9.54452	-5.81575
6347.381	8.31870	-5.65087	9.32898	-5.56642
6351.392	8.50782	-5.66714	9.38015	-5.50482
6355.395	8.63823	-5.59138	9.34005	-5.54315
6359.394	8.40825	-5.65140	9.55444	-5.66270
6363.394	8.29312	-5.65572	9.73916	-5.76937
6367.396	8.34934	-5.49890	9.62019	-5.65414
6371.395	8.41646	-5.53807	9.28942	-5.68837
6375.395	8.47007	-5.46317	8.91275	-5.71588
6379.395	8.49469	-5.41609	9.78356	-5.83429
6383.387	8.52049	-5.31916	9.87505	-5.85180
6387.377	8.40531	-5.37526	9.65266	-5.58511
6391.393	8.25374	-5.30931	9.70029	-5.62381
6395.394	8.57063	-5.40971	9.59151	-5.78668
6399.385	7.39645	-5.23051	7.10905	-4.58849
6403.394	5.04363	-3.89017	4.60858	-3.61632
6407.393	5.10815	-4.53983	4.34571	-4.99609
6411.394	1.78991	-3.73350	1.90901	-4.78130
6415.393	0.78985	-4.46648	1.01918	-5.23806
6419.394	-0.26592	-3.98892	0.06110	-4.96484
6423.394	-3.14375	-4.01656	-1.59460	-4.38185
6427.379	-3.25523	-4.18007	-3.42183	-4.25238
6431.390	-4.14278	-5.22495	-3.81029	-4.10111
6435.395	-4.50878	-5.21041	-4.01349	-4.10811
6439.395	-4.96236	-3.95300	-3.81261	-4.01940
6443.394	-4.64303	-3.73034	-3.77841	-4.60685
6447.384	-4.87448	-3.49306	-4.02063	-4.00108
6451.394	-5.13156	-3.83966	-4.16310	-4.08570
6455.395	-5.11211	-4.06831	-3.97165	-4.17596
6459.397	-5.28195	-4.00330	-3.89249	-4.83896
6463.358	-5.25320	-4.44756	-3.56860	-4.94641
6467.397	-5.92869	-4.05127	-3.26972	-5.23675
6471.360	-5.25096	-4.16727	-4.02223	-4.54538
6475.396	-5.23743	-4.23977	-3.95041	-4.25273
6479.293	-5.40685	-4.07607	-3.77829	-4.25186
6483.395	-5.26639	-4.01717	-3.55209	-4.41598
6487.396	-5.18651	-4.07338	-3.13338	-4.60462
6491.397	-5.06811	-4.22211	-2.85054	-4.76267
6495.292	-5.18087	-4.31666	-2.99334	-4.54466
6499.394	-5.23051	-4.51255	-2.71270	-4.64452
6503.395	-5.48610	-4.24550	-2.94500	-4.47739
6507.395	-5.30510	-4.23409	-3.07345	-4.28948
6511.294	-5.23216	-4.31043	-3.23474	-4.34158
6515.395	-5.28301	-4.24310	-3.03187	-4.28567
6519.396	-5.47360	-4.17961	-2.93517	-4.31159
6523.394	-5.32776	-4.12368	-2.84336	-4.69496
6527.291	-5.25141	-4.14154	-2.81791	-4.69517
6531.385	-5.26002	-4.06480	-2.89658	-4.94403
6535.395	-5.22443	-3.99202	-2.98740	-4.86578
6539.394	-5.19022	-3.95370	-3.14969	-4.87012
6543.294	-5.12629	-4.03690	-3.15651	-4.59323
6547.400	-5.07486	-4.13452	-3.08354	-4.55671
6551.390	-5.02031	-4.10603	-3.01749	-4.55021
6555.386	-4.99494	-4.12971	-2.90859	-4.63819
6559.391	-5.03307	-4.28903	-2.81553	-4.60153
6563.398	-5.04656	-4.33959	-2.82080	-4.59604
6567.398	-5.08320	-4.34786	-2.66944	-4.45648
6571.398	-5.14104	-4.48382	-2.58977	-4.38760
6575.297	-5.19842	-4.54421	-2.51059	-4.33791
6579.396	-5.25626	-4.56678	-2.46449	-4.38172
6583.398	-5.31347	-4.58101	-2.54457	-4.32748
6587.400	-5.36238	-4.58820	-2.52827	-4.39612
6591.297	-5.44175	-4.56661	-2.54734	-4.51304
6595.354	-5.50764	-4.19558	-5.97317	-4.02957
6599.401	-5.70495	-4.01044	-4.56654	-4.74381
6603.401	-6.68075	-4.43711	-5.76613	-4.37902
6607.295	-7.58754	-4.02413	-7.80572	-4.53753
6611.398	-8.31535	-3.67630	-7.86627	-5.19189
6615.399	-9.27387	-4.23138	-8.15236	-5.48722
6619.400	-10.28176	-4.34517	-8.20471	-5.20963
6623.295	-10.76733	-4.47794	-8.84833	-5.09207
6627.399	-10.77445	-4.77342	-8.95075	-5.14985
6631.397	-10.90392	-5.02358	-9.06814	-5.09266
6635.379	-10.83795	-5.00262	-9.31982	-5.26104
6639.296	-11.02380	-5.32282	-9.37100	-5.31625
6643.398	-10.89769	-4.66282	-9.52055	-5.39818
6647.400	-10.82066	-4.14979	-9.40757	-5.46746
6651.354	-10.77239	-4.36353	-8.81872	-5.54092
6655.295	-10.77897	-4.29887	-9.10971	-5.44960
6659.398	-10.75629	-4.28361	-9.24486	-5.39783
6663.400	-10.79212	-4.23258	-9.38047	-5.39966
6667.400	-10.74031	-4.07212	-9.43854	-5.32732
6671.297	-10.76925	-3.99410	-9.45701	-5.39024
6675.403	-10.65829	-3.98822	-9.10431	-5.53650
6679.363	-10.65702	-4.06102	-9.09304	-5.69046
6683.400	-10.63089	-4.13285	-9.09420	-5.75717
6687.300	-10.63931	-4.14814	-9.16937	-5.80970
6691.356	-10.62852	-4.53880	-9.07005	-5.78044
6695.401	-10.64609	-4.90984	-9.01627	-5.41949
6699.401	-10.70632	-5.09598	-9.00029	-5.44512
6703.298	-10.74180	-5.18405	-8.98177	-5.50440
6707.400	-10.76089	-5.06525	-8.97215	-5.41818
6711.403	-10.83805	-5.03456	-8.94741	-5.31474
6715.401	-10.86474	-4.95104	-8.92246	-5.43752
6719.299	-10.93937	-5.07009	-8.94782	-5.50238
6723.402	-10.92722	-4.94655	-8.97104	-5.29914
6727.399	-10.91284	-4.94124	-8.97409	-5.30153
6731.400	-10.95366	-5.04954	-8.95833	-5.25875
6735.298	-10.95701	-5.08255	-8.98397	-5.26160
6739.400	-10.96377	-5.05837	-9.01784	-5.21813
6743.400	-10.94830	-5.04350	-9.02714	-5.28849
6747.400	-10.91865	-4.89091	-9.04996	-5.29025
6751.298	-10.86467	-4.76678	-9.04224	-5.27506
6755.404	-10.81762	-4.79831	-9.03440	-5.33491
6759.402	-10.79298	-4.84333	-9.02198	-5.36470
6763.392	-10.73397	-4.86138	-9.05901	-5.35150
6767.301	-10.73308	-4.58074	-9.01314	-5.32111
6771.404	-10.78178	-4.70887	-9.07774	-5.23388
6775.407	-10.85540	-4.65036	-9.06773	-5.23084
6779.403	-10.83290	-4.54457	-9.02026	-5.19587
6783.301	-10.83362	-4.38089	-9.00363	-5.25766
6787.401	-10.89434	-4.39635	-8.96215	-5.36341
6791.358	-10.67171	-4.18690	-9.08309	-5.17947
6795.403	-10.79938	-4.12303	-9.10443	-5.18215
6799.301	-11.01414	-4.02835	-9.16013	-5.38426
6803.404	-12.42259	-4.14372	-9.56764	-5.12604
6807.357	-5.79877	-4.24020	-14.76781	-4.63143
6811.276	-4.52612	-4.39898	-13.83585	-5.09099
6815.301	-16.56300	-0.37553	-13.35969	4.03585
6819.278	-13.64863	10.80630	NaN	NaN
6823.279	NaN	NaN	NaN	NaN
6827.277	NaN	NaN	NaN	NaN
6831.279	NaN	NaN	NaN	NaN
6835.277	NaN	NaN	NaN	NaN
6839.278	NaN	NaN	NaN	NaN
6843.279	NaN	NaN	NaN	NaN
6847.277	NaN	NaN	NaN	NaN
6851.234	NaN	NaN	NaN	NaN
6855.279	NaN	NaN	NaN	NaN
6859.278	NaN	NaN	NaN	NaN
6863.279	NaN	NaN	NaN	NaN
6867.234	NaN	NaN	NaN	NaN
6871.278	NaN	NaN	NaN	NaN
6875.279	NaN	NaN	NaN	NaN
6879.280	NaN	NaN	NaN	NaN
6883.278	-14.43589	-7.11908	NaN	NaN
6887.279	-17.25040	-2.88368	-16.07306	4.19930
6891.236	-16.77420	-4.73372	-15.92983	-5.06762
6895.283	-10.50906	-5.02934	-15.78784	-6.60478
6899.281	-6.37523	-5.35657	-15.71586	-5.89115
6903.242	-7.29123	-5.30662	-1.88779	-6.00388
6907.281	-10.55641	-4.45255	-12.72336	-5.57968
6911.281	-10.74094	-5.28352	-10.87888	-6.58955
6915.280	-10.91270	-7.01780	-10.96012	-6.72589
6919.303	-11.04680	-6.81780	-10.42958	-6.55605
6923.281	-11.05993	-6.31694	-10.34777	-6.50710
6927.283	-10.98231	-5.64540	-9.56446	-6.62352
6931.270	-10.79332	-5.65363	-9.72443	-6.77140
6935.280	-10.74542	-5.67683	-9.56916	-6.73310
6939.281	-10.79198	-5.61512	-9.53426	-6.76181
6943.280	-10.87256	-5.81519	-9.53279	-7.08685
6947.289	-10.76824	-5.64322	-9.61788	-7.18573
6951.281	-11.02203	-6.11628	-9.60545	-6.98575
6955.280	-11.07434	-6.19454	-9.52591	-6.94862
6959.280	-11.18530	-6.07797	-9.45814	-6.86951
6963.280	-11.23836	-6.04435	-9.44740	-6.73830
6967.304	-11.27691	-5.99575	-9.40682	-6.82838
6971.281	-11.24012	-5.88092	-9.40093	-6.62244
6975.251	-11.24461	-5.89542	-9.35981	-6.69322
6979.282	-11.18764	-5.69530	-9.41827	-6.61996
6983.281	-11.23936	-5.93580	-9.45718	-6.66028
6987.282	-11.26498	-5.98677	-9.47722	-6.46705
6991.237	-11.28476	-6.23369	-9.47191	-6.31165
6995.283	-11.31448	-6.07998	-9.47640	-6.10841
6999.281	-11.34514	-6.03638	-9.44047	-5.96476
7003.283	-11.30794	-5.89285	-9.46302	-5.70935
7007.282	-11.35284	-5.92575	-9.44206	-5.51865
7011.283	-11.31629	-5.89396	-9.42943	-5.26551
7015.241	-11.29498	-5.81163	-9.46913	-5.18800
7019.281	-11.29605	-5.77423	-9.49603	-5.07558
7023.273	-11.33158	-5.83380	-9.43243	-5.21967
7027.239	-11.35298	-5.72507	-9.40607	-5.19713
7031.282	-11.08507	-5.50892	-9.04209	-5.07053
7035.283	-10.66117	-5.70065	-9.21416	-4.98597
7039.283	-7.70280	-4.64433	-8.70209	-4.93821
7043.283	-6.05709	-3.54148	-5.93893	-4.31110
7047.275	-4.64793	-3.03074	-4.65572	-3.95763
7051.283	-3.22512	-4.28636	-4.00356	-3.50832
7055.282	-0.67632	-4.07698	-0.67489	-3.62284
7059.281	0.50629	-4.68122	1.18029	-3.84643
7063.276	1.89067	-3.30714	1.21755	-3.51779
7067.283	3.89656	-4.78581	4.22293	-4.47397
7071.282	5.27567	-4.38155	4.76039	-4.23617
7075.284	6.63624	-4.50356	7.59512	-4.41703
7079.282	8.10014	-5.00239	7.65446	-4.53161
7083.285	9.00523	-5.65310	8.27263	-4.31079
7087.285	9.70591	-6.10680	9.37366	-4.27260
7091.284	9.14982	-5.65115	9.50815	-4.72429
7095.243	9.29326	-5.80445	9.33852	-4.68693
7099.260	9.32927	-5.68884	9.54095	-4.47469
7103.287	9.09316	-5.82446	9.41508	-4.74178
7107.284	8.96065	-5.65262	9.47930	-4.65606
7111.280	8.92483	-5.85425	9.49156	-4.68810
7115.284	9.00356	-5.83912	9.51365	-4.78207
7119.284	8.95092	-5.79397	9.56105	-4.90310
7123.284	8.94121	-5.77303	9.53612	-4.94849
7127.274	8.88399	-5.48322	9.57645	-5.10510
7131.286	8.81881	-5.46372	9.58999	-5.24493
7135.288	8.78418	-5.35763	9.58091	-5.38533
7139.275	8.69125	-5.17718	9.57898	-5.40889
7143.276	8.69079	-5.25046	9.56851	-5.46591
7147.247	8.64796	-5.36437	9.62311	-5.57453
7151.287	8.67384	-5.28962	9.66110	-5.64383
7155.285	8.59043	-5.25134	9.58470	-5.64927
7159.282	8.58568	-5.21211	9.47517	-5.40455
7163.241	8.39236	-5.16537	9.43317	-5.45950
7167.285	8.47842	-5.12831	9.04323	-5.25740
7171.285	8.52355	-5.22548	9.09771	-5.32463
7175.286	8.58539	-5.28082	9.08481	-5.35538
7179.296	8.56906	-5.39095	9.19162	-5.32333
7183.256	8.62782	-5.48931	9.19628	-5.37994
7187.285	8.64289	-5.66718	9.19887	-5.37781
7191.286	8.66765	-5.83162	9.15093	-5.37635
7195.286	8.60623	-5.60402	9.07866	-5.41535
7199.287	8.58384	-5.72160	9.06932	-5.43100
7203.286	8.64592	-5.66596	9.08021	-5.49428
7207.289	8.66952	-5.66260	9.13731	-5.56382
7211.243	8.69186	-5.77238	9.20530	-5.72845
7215.288	8.67471	-5.76897	9.25013	-5.75852
7219.288	8.65453	-5.85718	9.29033	-5.81401
7223.287	8.55081	-5.79262	9.30331	-5.85957
7227.243	8.57879	-5.79735	9.32021	-5.94068
7231.288	8.52472	-5.71582	9.31421	-5.91323
7235.288	8.49304	-5.75040	9.31632	-5.92112
7239.285	8.45055	-5.71093	9.33444	-5.91599
7243.287	8.56869	-5.75275	9.34232	-5.85275
7247.288	8.20782	-5.77196	9.31897	-5.74754
7251.288	7.68925	-5.93939	9.30012	-5.64329
7255.285	7.49727	-5.83047	9.28881	-5.45405
7259.289	7.42368	-5.77081	9.22076	-5.46176
7263.285	7.19246	-5.62502	9.18511	-5.25526
7267.286	7.32841	-5.44250	8.91665	-5.05001
7271.285	7.09047	-5.42726	8.58920	-4.96790
7275.288	7.35676	-5.55765	9.17372	-5.32134
7279.291	7.19935	-5.49313	9.25168	-5.45174
7283.288	7.21049	-5.31644	9.21964	-5.30188
7287.278	7.62067	-5.49982	8.92384	-5.46463
7291.291	7.73236	-5.42775	8.79368	-5.43964
7295.290	7.61931	-5.30269	8.74484	-5.41158
7299.288	7.60136	-5.19708	8.66583	-5.15760
7303.289	7.43615	-5.13785	8.53809	-5.00809
7307.290	7.44037	-4.94976	8.95501	-5.38539
7311.289	7.58186	-5.03418	9.52319	-5.66635
7315.290	7.49337	-5.22190	9.57959	-5.60647
7319.289	7.29687	-5.02391	9.22564	-5.59101
7323.288	7.36694	-5.10269	9.12026	-5.58559
7327.290	7.53393	-5.53431	8.72445	-5.41499
7331.289	7.52318	-5.35223	8.53731	-5.13852
7335.289	7.56896	-6.37524	9.13797	-5.36572
7339.246	7.59315	-5.97061	9.04381	-5.23031
7343.248	7.54444	-5.99865	9.18968	-5.67503
7347.281	7.69439	-6.21064	9.39530	-5.67810
7351.285	7.76521	-5.90703	9.16714	-5.71316
7355.292	7.77037	-5.82080	8.96332	-5.64021
7359.290	7.88237	-6.05538	8.96971	-5.51088
7363.291	7.85451	-5.99434	8.90134	-5.49576
7367.254	7.84861	-6.02045	8.89482	-5.59122
7371.291	7.93364	-5.99960	9.01549	-5.71697
7375.290	7.97481	-6.19365	9.06158	-5.77108
7379.291	7.97301	-6.15627	8.99796	-5.80224
7383.289	8.00757	-6.09027	8.93062	-5.83586
7387.290	7.98995	-5.99263	8.95169	-5.78557
7391.255	7.95560	-6.00437	8.89991	-5.75815
7395.291	7.72792	-6.05585	8.82175	-5.71320
7399.281	7.78224	-6.06953	8.86805	-5.67503
7403.291	7.70894	-6.12826	8.84450	-5.65025
7407.290	7.81707	-6.12572	8.89143	-5.64727
7411.291	7.81858	-6.09072	8.90873	-5.65770
7415.291	7.79656	-6.07870	8.90819	-5.69451
7419.293	7.83712	-6.02967	8.93733	-5.60297
7423.291	7.98866	-5.93174	8.93031	-5.62294
7427.295	7.96962	-5.95957	8.92696	-5.52050
7431.283	8.01591	-5.89181	8.87018	-5.46102
7435.292	7.99238	-5.89003	8.84959	-5.35678
7439.293	8.04528	-5.90027	8.78699	-5.28372
7443.292	8.02562	-5.82045	8.73012	-5.23421
7447.292	8.01810	-5.70049	8.76064	-5.19698
7451.292	8.10642	-5.71923	8.74583	-5.22076
7455.291	8.13096	-5.58777	8.96346	-5.58937
7459.293	8.16065	-5.55988	8.96704	-5.66837
7463.294	8.17682	-5.50273	8.85611	-5.71749
7467.295	8.15888	-5.54323	8.97557	-5.84831
7471.291	8.13558	-5.46624	9.00285	-5.84406
7475.256	8.12763	-5.49363	8.95474	-5.80742
7479.291	8.17836	-5.49462	8.96070	-5.77593
7483.292	8.16989	-5.45805	9.01092	-5.79270
7487.292	8.19350	-5.46316	8.94816	-5.65364
7491.293	8.22141	-5.52534	9.04403	-5.72680
7495.173	8.22744	-5.43048	9.40035	-5.95715
7499.292	8.14487	-5.45802	9.40083	-5.93767
7503.292	8.08219	-5.40784	9.41291	-5.79320
7507.290	7.90165	-5.40507	9.36315	-5.81237
7511.298	7.75514	-5.34292	9.37453	-5.75801
7515.269	7.85460	-5.26407	9.16707	-5.78811
7519.291	8.02730	-5.32235	9.13802	-5.72834
7523.298	7.88453	-5.28283	9.22518	-5.75368
7527.250	7.92539	-5.26430	9.13477	-5.74030
7531.255	7.81354	-5.33906	9.17154	-5.76416
7535.294	7.80114	-5.33570	9.10371	-5.78415
7539.293	7.76158	-5.31897	9.21017	-5.75213
7543.193	7.82896	-5.50967	9.08016	-5.64214
7547.295	7.81895	-5.61851	9.06388	-5.68654
7551.295	7.83427	-5.53501	8.98215	-5.21165
7555.294	7.72778	-5.74408	8.87624	-5.42718
7559.200	7.71742	-5.74690	8.90512	-5.36968
7563.295	7.85017	-5.66332	8.83718	-5.25284
7567.296	7.80277	-5.76601	8.71921	-5.22593
7571.294	7.98715	-5.95070	8.72158	-5.26241
7575.194	7.88395	-6.02245	8.72408	-5.13061
7579.295	7.91056	-5.86343	8.82846	-5.06766
7583.304	7.90852	-5.94421	8.73242	-5.01257
7587.296	7.77466	-5.45678	8.69738	-4.93076
7591.195	7.88466	-4.98806	8.70820	-4.90146
7595.252	7.58922	-3.80955	8.58464	-4.96125
7599.259	7.62728	-3.64501	8.44657	-4.89872
7603.294	7.56620	-3.76752	8.49610	-4.84724
7607.194	7.39920	-4.11734	8.58316	-4.85331
7611.294	7.17201	-4.21863	8.64274	-4.84465
7615.296	7.02061	-3.42221	8.76968	-4.78822
7619.295	1.24367	-4.82367	7.29001	-4.71789
7623.191	13.03494	-3.40035	14.06525	-4.51690
7627.297	9.14380	4.72182	16.34924	-2.76323
7631.296	NaN	NaN	11.14717	-3.05907
7635.296	NaN	NaN	11.49078	0.16588
7639.194	NaN	NaN	NaN	NaN
7643.297	NaN	NaN	NaN	NaN
7647.295	NaN	NaN	NaN	NaN
7651.298	NaN	NaN	NaN	NaN
7655.297	NaN	NaN	NaN	NaN
7659.194	NaN	NaN	NaN	NaN
7663.253	NaN	NaN	NaN	NaN
7667.298	NaN	NaN	NaN	NaN
7671.297	NaN	NaN	NaN	NaN
7675.303	NaN	NaN	NaN	NaN
7679.253	NaN	NaN	NaN	NaN
7683.293	NaN	NaN	NaN	NaN
7687.295	NaN	NaN	NaN	NaN
7691.253	NaN	NaN	NaN	NaN
7695.255	NaN	NaN	NaN	NaN
7699.298	NaN	NaN	NaN	NaN
7703.301	NaN	NaN	NaN	NaN
7707.305	-8.87900	15.04817	NaN	NaN
7711.297	-3.58398	11.88413	8.74585	-5.46289
7715.253	-4.10932	10.42556	8.82909	-5.32256
7719.301	-0.40633	3.51176	7.59293	-5.11864
7723.300	0.67283	-4.78177	4.82286	-5.70070
7727.298	0.95973	-5.64499	1.00980	-5.58678
7731.298	1.97096	-5.23152	0.42375	-5.56337
7735.296	-0.14431	-4.79405	1.65228	-5.28581
7739.196	-2.40659	-4.68688	2.21519	-4.93316
7743.298	1.12598	-3.85726	3.23249	-5.36972
7747.298	0.60548	-3.10601	3.26381	-5.26849
7751.299	0.68573	-2.84348	3.12616	-5.16710
7755.196	0.59861	-2.73798	3.17735	-5.07768
7759.302	0.49939	-2.62107	3.21144	-4.99444
7763.288	0.57161	-2.57490	2.99886	-5.16385
7767.299	0.56295	-2.48743	2.94876	-5.06972
7771.197	0.47294	-2.44528	2.69599	-4.99402
7775.709	0.47200	-2.87200	2.54041	-4.95112
7779.300	0.51530	-2.64956	2.52297	-4.94986
7783.302	0.50582	-3.31423	2.57568	-4.92999
7787.196	0.43311	-3.28915	2.50514	-4.86991
7791.287	0.38241	-3.23470	2.47244	-4.80389
7795.301	0.34643	-3.21961	2.41737	-4.75466
7799.303	0.31163	-3.12135	2.41053	-4.72909
7803.200	0.31498	-3.45094	2.37763	-4.62658
7807.302	0.29687	-3.44474	2.37743	-4.56473
7811.312	0.28230	-3.62745	2.43156	-4.51126
7815.299	0.28222	-3.63386	2.46184	-4.50226
7819.197	0.28143	-3.75153	2.68626	-4.49014
7823.299	0.27691	-3.82053	2.61206	-4.48229
7827.175	0.27403	-3.72288	2.61533	-4.48344
7831.176	0.26570	-3.82160	2.61006	-4.43683
7835.167	0.25905	-3.97023	2.56575	-4.34989
7839.177	0.33233	-4.01659	2.53726	-4.35618
7843.175	0.33982	-4.15583	2.52210	-4.30025
7847.178	0.36983	-4.32650	2.56015	-4.31200
7851.166	0.32826	-4.22368	2.74338	-4.32412
7855.170	0.37157	-4.30723	2.96829	-4.43351
7859.175	0.42291	-4.43868	3.00745	-4.37804
7863.177	0.40303	-4.25967	3.23502	-4.47779
7867.178	0.38273	-3.77675	3.04061	-4.43632
7871.177	0.48644	-3.74755	2.88133	-4.34412
7875.178	0.52873	-3.45600	2.63769	-4.26493
7879.177	0.69670	-3.52615	2.95913	-4.42513
7883.202	0.81392	-3.51605	2.92035	-4.45232
7887.179	0.75508	-3.62654	2.77243	-4.50208
7891.177	0.51801	-3.93361	2.82001	-4.64785
7895.153	0.48254	-4.13183	2.67873	-4.59101
7899.176	0.51064	-4.37682	2.93676	-4.70806
7903.178	0.51959	-4.05549	2.35984	-4.71303
7907.177	0.44691	-4.09719	2.62056	-4.72485
7911.177	0.39869	-3.50602	2.55648	-4.85724
7915.167	0.47192	-3.21874	2.51685	-4.91686
7919.177	0.67799	-3.76858	2.79917	-4.98393
7923.178	0.75709	-3.96921	2.75797	-5.01911
7927.178	0.74412	-4.06179	2.63252	-5.12880
7931.198	0.73886	-4.17254	2.55604	-5.16378
7935.164	0.61478	-4.05636	2.27597	-5.02674
7939.166	0.76037	-4.21945	2.55096	-4.99021
7943.178	0.90954	-4.04540	2.48522	-5.14231
7947.178	1.01422	-3.99489	2.51799	-5.09069
7951.178	0.53840	-3.58227	2.47006	-4.98004
7955.178	1.01536	-3.18097	2.69185	-4.68868
7959.179	-0.51384	-0.54187	1.75808	-4.14429
7963.200	-1.21951	-0.06862	-1.97996	-1.81510
7967.181	-2.33963	2.95455	-3.52502	-1.30590
7971.180	-2.83073	4.08761	-3.99425	1.71941
7975.180	-5.54366	4.76786	-4.23626	2.29632
7979.202	-6.06387	6.23516	-6.20411	4.62735
7983.182	-6.11854	7.48278	-6.00948	5.83008
7987.179	-6.49036	8.14228	-6.40724	6.75205
7991.178	-7.46228	9.02052	-7.81827	10.58671
7995.200	-8.16802	10.04848	-8.72937	12.96261
7999.179	-8.15577	11.24068	-7.48685	14.90971
8003.180	-7.84818	11.58355	NaN	NaN
8007.178	-8.04908	11.99437	NaN	NaN
8011.203	-8.13069	12.75325	NaN	NaN
8015.180	-8.17386	12.62478	NaN	NaN
8019.160	-8.12653	12.45356	NaN	NaN
8023.180	-7.98262	12.43404	NaN	NaN
8027.179	-8.18215	12.86025	NaN	NaN
8031.144	-8.14784	13.01649	NaN	NaN
8035.180	-8.24210	13.38598	NaN	NaN
8039.179	-8.18084	13.52862	NaN	NaN
8043.201	-8.10457	13.37152	NaN	NaN
8047.180	-8.07122	13.38062	NaN	NaN
8051.180	-7.91723	13.27443	NaN	NaN
8055.182	-7.94618	13.41188	NaN	NaN
8059.200	-8.13711	13.36033	NaN	NaN
8063.171	-8.35532	13.43156	NaN	NaN
8067.181	-8.51710	13.42323	NaN	NaN
8071.136	-8.44059	13.37252	NaN	NaN
8075.202	-8.55962	13.37172	NaN	NaN
8079.180	-8.49149	13.35357	NaN	NaN
8083.185	-8.24132	13.34031	NaN	NaN
8087.184	-8.19119	13.30167	NaN	NaN
8091.203	-7.91407	13.29380	NaN	NaN
8095.185	-7.74279	13.30211	NaN	NaN
8099.185	-8.18623	13.15685	NaN	NaN
8103.182	-8.52018	12.98931	NaN	NaN
8107.203	-8.30067	13.02200	NaN	NaN
8111.182	-8.50731	13.01845	NaN	NaN
8115.182	-8.41437	13.08216	NaN	NaN
8119.183	-8.48063	13.08102	NaN	NaN
8123.205	-8.39239	13.08904	NaN	NaN
8127.183	-8.06180	13.03849	NaN	NaN
8131.184	-8.07205	13.05164	NaN	NaN
8135.183	-7.82267	13.03956	NaN	NaN
8139.206	-8.03974	12.92009	NaN	NaN
8143.171	-8.31708	13.19927	NaN	NaN
8147.141	-8.25418	13.30915	NaN	NaN
8151.182	-7.96529	13.37113	NaN	NaN
8155.205	-7.78957	13.32479	NaN	NaN
8159.182	-7.78114	13.19419	NaN	NaN
8163.138	-8.20792	13.14611	NaN	NaN
8167.182	-8.21123	13.34469	NaN	NaN
8171.204	-8.19465	13.28066	NaN	NaN
8175.184	-7.95538	13.07307	NaN	NaN
8179.188	-7.92461	12.67023	NaN	NaN
8183.188	-8.01891	12.72188	NaN	NaN
8187.203	-8.52144	13.04131	NaN	NaN
8191.185	-8.50158	12.91091	NaN	NaN
8195.184	-8.07299	12.78797	NaN	NaN
8199.183	-8.33994	12.81150	NaN	NaN
8203.205	-8.09435	12.71848	NaN	NaN
8207.183	-8.30403	12.93705	NaN	NaN
8211.140	-8.02801	12.84794	NaN	NaN
8215.184	-7.78214	12.82450	NaN	NaN
8219.208	-8.20958	12.92887	NaN	NaN
8223.185	-8.04171	12.78183	NaN	NaN
8227.162	-7.20367	10.77165	NaN	NaN
8231.185	-4.74841	9.97452	-6.64964	11.93558
8235.210	-6.23950	8.53112	-5.98130	9.42329
8239.184	-4.97159	5.83667	-5.64284	6.12453
8243.184	-4.85519	5.73362	-4.82801	3.97187
8247.184	-4.52493	3.99969	-4.86542	1.54871
8251.186	-4.55463	2.92814	-4.56636	0.20824
8255.186	-3.91682	2.05183	-2.95802	-0.06628
8259.185	-3.54620	0.15345	-4.33436	-0.13620
8263.189	-3.90891	-1.13500	-3.01960	-1.48088
8267.201	-2.58514	-1.83202	-2.13135	-3.65480
8271.150	-1.91831	-2.58764	-1.90914	-4.62559
8275.141	-2.24235	-3.26903	-0.77484	-4.85826
8279.186	-2.11289	-3.09033	-0.97772	-4.65357
8283.206	-2.93213	-3.04080	-1.15146	-4.31471
8287.187	-2.43258	-2.92845	-1.03950	-4.33628
8291.187	-2.12292	-2.55804	-1.18721	-4.18126
8295.187	-2.75814	-2.92014	-1.31121	-4.75558
8299.190	-2.80043	-3.12762	-1.42027	-4.31702
8303.189	-2.76490	-2.80156	-1.45750	-4.23046
8307.188	-2.02812	-2.69444	-1.41206	-4.06587
8311.155	-2.15742	-3.28145	-1.43726	-4.15003
8315.191	-2.73836	-2.94883	-1.27877	-4.02820
8319.187	-2.71206	-2.72907	-1.47727	-4.20574
8323.187	-2.90121	-2.45590	-1.50529	-4.21147
8327.187	-2.19856	-2.23898	-1.46199	-4.18989
8331.191	-2.24728	-2.94916	-1.45877	-3.91803
8335.187	-2.54123	-3.33372	-1.57833	-3.99487
8339.188	-2.36346	-3.11738	-1.63514	-3.93103
8343.190	-2.78490	-2.78009	-1.72354	-3.81398
8347.192	-2.81657	-2.24952	-1.49768	-3.72136
8351.173	-2.50437	-2.49041	-1.70946	-4.04031
8355.187	-2.53560	-2.61814	-1.83171	-4.10943
8359.189	-2.76148	-2.76232	-1.59596	-4.17900
8363.190	-2.68497	-2.50910	-1.28137	-4.20461
8367.186	-2.55636	-2.67554	-1.28966	-3.95480
8371.187	-2.62382	-2.87392	-1.29253	-3.84909
8375.187	-2.81783	-2.82359	-1.36008	-3.83528
8379.191	-2.72276	-2.95278	-2.23462	-4.04717
8383.187	-2.53464	-2.69023	-2.49159	-3.77674
8387.190	-2.35561	-2.61963	-1.91283	-3.83712
8391.189	-2.35204	-2.66864	-2.15175	-3.71526
8395.194	-2.58427	-2.85288	-2.04537	-3.72778
8399.189	-2.53823	-2.92484	-1.93157	-4.05672
8403.188	-2.49288	-2.83332	-2.00165	-4.21528
8407.188	-2.63633	-2.88282	-1.80092	-3.91855
8411.188	-2.53939	-3.00753	-1.64102	-3.67974
8415.190	-2.93619	-3.12618	-1.30126	-3.66952
8419.190	-2.70220	-2.95177	-1.16932	-3.85839
8423.189	-2.57206	-2.71544	-1.39651	-4.05302
8427.193	-2.34659	-2.50742	-1.65180	-4.04631
8431.190	-2.34825	-2.30040	-1.20167	-4.31562
8435.164	-2.37914	-2.55526	-1.16307	-4.28699
8439.190	-2.71008	-2.68410	-1.10966	-4.11286
8443.193	-2.86589	-2.64440	-1.15838	-3.99040
8447.191	-2.84440	-2.34831	-0.99645	-4.18127
8451.199	-2.74650	-2.15042	-1.26128	-4.03487
8455.188	-2.63767	-2.23461	-1.40013	-4.21834
8459.192	-2.77183	-2.11825	-1.58078	-4.20712
8463.191	-2.72605	-1.90119	-1.71702	-4.20943
8467.189	-2.86423	-2.33129	-1.68982	-4.16697
8471.190	-3.10012	-2.42911	-1.83285	-4.15689
8475.184	-3.13877	-2.36615	-1.79296	-4.13220
8479.179	-3.14046	-2.49303	-1.73561	-4.15170
8483.189	-3.17131	-2.39687	-1.74020	-4.16073
8487.192	-3.12687	-2.54049	-1.83149	-4.20715
8491.193	-3.09228	-2.52898	-1.84761	-4.17588
8495.191	-3.09500	-2.51095	-1.82133	-4.22407
8499.192	-3.07996	-2.59971	-1.71940	-4.24117
8503.191	-3.11136	-2.52104	-1.64935	-4.23480
8507.194	-3.10460	-2.65306	-1.58877	-4.30562
8511.192	-3.12148	-2.62665	-1.57225	-4.33473
8515.191	-3.06956	-2.66308	-1.53825	-4.33576
8519.166	-3.05699	-2.64924	-1.53808	-4.31096
8523.194	-3.11274	-2.64531	-1.52823	-4.33474
8527.195	-3.09718	-2.72547	-1.52714	-4.35361
8531.190	-3.16033	-2.75892	-1.51529	-4.32022
8535.190	-3.08820	-2.65429	-1.49116	-4.32736
8539.196	-3.17891	-2.68684	-1.48394	-4.34760
8543.192	-3.09127	-2.67716	-1.56399	-4.31382
8547.193	-3.12927	-2.59479	-1.58748	-4.25840
8551.192	-2.84512	-1.67222	-1.68821	-4.22311
8555.195	-2.76463	-1.89768	-1.62559	-4.25466
8559.179	-2.91262	-1.87473	-1.48510	-4.17225
8563.187	-2.95386	-2.00353	-1.49413	-4.16349
8567.191	-3.01544	-1.89568	-1.25471	-4.05795
8571.195	-2.87789	-1.99970	-1.31178	-3.91172
8575.191	-2.98200	-1.97909	-1.34738	-3.79573
8579.192	-2.67519	-1.78396	-1.37620	-3.53878
8583.192	-2.76542	-1.86671	-1.46038	-3.64614
8587.199	-2.21593	-2.34848	-1.66207	-3.76224
8591.191	-2.35474	-2.06188	-1.83881	-3.54644
8595.149	-2.65552	-2.39791	-1.89260	-3.77206
8599.196	-2.47180	-2.69447	-1.55990	-3.14297
8603.092	-2.78896	-2.85882	-1.04704	-3.22767
8607.194	-2.78565	-2.71093	-1.22484	-3.21854
8611.193	-2.08763	-1.89873	-1.42779	-3.32804
8615.194	-2.65349	-1.96557	-1.69126	-3.12229
8619.198	-2.86517	-2.37202	-1.90232	-3.17123
8623.195	-2.56015	-2.33624	-1.91851	-3.17201
8627.194	-2.94121	-1.15664	-1.78414	-3.16953
8631.195	-1.79234	-2.75843	-1.70767	-3.16112
8635.197	-2.76955	-2.50796	-1.84250	-3.16378
8639.193	-2.50898	-1.74977	-1.69986	-3.33006
8643.171	-2.88747	-1.79529	-1.77838	-3.39308
8647.195	-2.76069	-2.08238	-1.85708	-3.32841
8651.199	-2.60698	-2.03224	-1.88812	-3.42329
8655.196	-2.42616	-2.33824	-1.87381	-3.91118
8659.195	-2.65721	-2.52502	-1.74099	-3.55504
8663.195	-2.28224	-1.85267	-1.99756	-3.16364
8667.197	-2.37805	-2.41543	-1.99196	-2.78440
8671.193	-2.40417	-1.91122	-2.03097	-2.51534
8675.193	-2.50189	-2.08405	-1.64605	-3.34460
8679.197	-2.49751	-1.89774	-1.94196	-3.21007
8683.199	-2.14711	-0.22334	-1.81121	-3.50129
8687.188	-0.96088	0.04830	-2.09809	-2.27436
8691.193	-0.79704	-1.86905	2.71018	-2.59335
8695.195	-2.24961	-0.06307	-3.12098	-2.53986
8699.197	-2.24386	2.84515	-3.13667	-3.06227
8703.194	-2.56639	2.45805	-1.22997	-2.58137
8707.196	NaN	NaN	-2.12885	6.09438
8711.193	NaN	NaN	-8.22944	6.28496
8715.196	NaN	NaN	NaN	NaN
8719.195	NaN	NaN	NaN	NaN
8723.194	NaN	NaN	NaN	NaN
8727.059	NaN	NaN	NaN	NaN
8731.193	NaN	NaN	NaN	NaN
8735.194	NaN	NaN	NaN	NaN
8739.195	NaN	NaN	NaN	NaN
8743.151	NaN	NaN	NaN	NaN
8747.194	NaN	NaN	NaN	NaN
8751.195	NaN	NaN	NaN	NaN
8755.196	NaN	NaN	NaN	NaN
8759.152	NaN	NaN	1.83843	15.25972
8763.197	NaN	NaN	1.05096	-4.22042
8767.176	-5.33327	13.33492	-2.78602	-1.48667
8771.200	-2.39324	2.28525	-0.81119	-4.51101
8775.155	-3.10047	5.32549	-1.95611	-4.50786
8779.177	-2.00517	0.71930	-2.12357	-4.34830
8783.197	-1.23742	-1.21992	-1.43456	-3.01388
8787.202	-1.59112	-1.88978	-1.26120	-2.97772
8791.198	-1.80015	-1.88456	-1.59254	-2.98317
8795.196	-3.15149	-2.39268	-0.94748	-2.90969
8799.197	-4.03485	-2.44614	-1.63586	-3.04381
8803.093	0.49393	-2.71361	-2.16114	-2.46524
8807.200	-2.08322	-1.69312	-1.50534	-3.13515
8811.196	-2.52577	-2.00844	-1.87128	-3.20119
8815.197	-2.75705	-1.68373	-1.82086	-2.93218
8819.095	-2.04475	-1.52389	-1.31689	-2.87129
8823.197	-2.61632	-1.04656	-0.82592	-2.90885
8827.196	-2.39693	-1.02936	-1.20991	-2.90783
8831.199	-2.14089	-1.35055	-1.59946	-2.89270
8835.070	-2.92450	-1.58278	-1.75312	-3.05044
8839.185	-2.54125	-1.78415	-1.17741	-2.93183
8843.073	-2.42019	-1.21927	-1.12568	-2.99990
8847.074	-2.23459	-1.22390	-1.41474	-3.03479
8851.105	-2.48901	-1.26002	-1.56464	-3.02765
8855.062	-2.87178	-1.14200	-1.05428	-2.97625
8859.066	-2.59695	-1.84812	-1.08530	-2.98113
8863.074	-2.30960	-1.02885	-1.57394	-3.00071
8867.096	-2.33698	-1.11851	-1.22710	-3.00494
8871.075	-2.31173	-1.30233	-1.20886	-2.98551
8875.074	-2.60337	-1.23974	-1.43240	-3.07336
8879.074	-2.55522	-2.30559	-1.48322	-3.14531
8883.098	-2.42986	-1.59402	-1.11651	-3.06353
8887.075	-2.21774	-1.29901	-1.45353	-3.08435
8891.076	-2.52577	-1.22803	-1.80524	-3.07089
8895.076	-2.49347	-1.61366	-1.32547	-2.85804
8899.097	-2.37989	-2.21286	-0.92592	-3.07399
8903.074	-2.38962	-1.45503	-1.73321	-2.89694
8907.075	-2.22490	-1.65203	-1.68580	-3.32013
8911.074	-2.54831	-1.52476	-0.96445	-3.15395
8915.094	-2.47938	-1.78515	-1.46288	-2.90959
8919.030	-2.33893	-1.57953	-1.69867	-3.14625
