time (ms)	lx (deg)	ly (deg)	rx (deg)	ry (deg)
0.000	-2.76733	1.34431	-1.01923	-1.01547
3.979	-2.78646	1.36446	-1.06855	-1.06887
7.981	-2.86527	1.37329	-0.91351	-1.11539
11.982	-2.90968	1.48172	-1.02116	-1.10920
16.004	-2.99175	1.44801	-1.04213	-1.12561
19.945	-3.05979	1.39324	-0.96522	-1.16252
23.981	-3.18526	1.36379	-0.95504	-1.24855
27.982	-3.16315	1.30711	-0.99717	-1.34218
32.003	-3.29790	1.33329	-1.05019	-1.36847
35.980	-3.36374	1.32085	-1.20542	-1.36709
39.981	-3.40843	1.41408	-1.33927	-1.28220
43.939	-3.42685	1.44343	-1.43312	-1.29533
48.004	-3.50066	1.43400	-1.62522	-1.10282
51.983	-3.47116	1.43179	-1.63710	-1.10783
55.983	-3.49646	1.43212	-1.68563	-0.92289
59.983	-3.45255	1.38184	-1.63303	-0.95629
64.006	-3.56203	1.27479	-1.03007	-1.13426
67.983	-3.47438	1.26120	-0.33166	-1.31635
71.983	-3.31598	1.17435	-0.47907	-1.64813
75.983	-2.83078	1.09175	0.03390	-2.41872
79.973	-2.71050	0.96998	0.15419	-2.53486
83.982	-2.76002	1.00361	0.26823	-2.53584
87.982	-2.81236	0.84600	0.27493	-2.75803
91.987	-2.87188	0.82365	0.19296	-2.65394
96.005	-2.68512	0.83805	0.18365	-2.66899
99.980	-2.73281	0.74657	0.10533	-2.72199
103.988	-2.65503	0.68954	0.07664	-2.60242
107.941	-2.20089	0.50775	0.15613	-2.62694
112.003	-2.22059	0.27224	0.09093	-2.62707
115.983	-2.34716	0.30764	0.03740	-2.65633
119.984	-2.30620	0.25432	-0.11605	-2.64249
123.984	-2.11787	0.20755	-0.26857	-2.57710
127.981	-1.93326	0.24244	-0.21643	-2.42250
131.982	-1.98482	0.17441	-0.26736	-2.41168
135.984	-1.86409	0.09897	-0.36817	-2.29883
139.983	-1.85941	0.09654	-0.42601	-2.21181
143.987	-1.86583	0.07188	-0.51220	-2.10985
147.984	-1.89684	-0.01811	-0.59240	-2.12875
151.983	-1.91268	0.04930	-0.53486	-2.12066
155.985	-1.97741	0.12107	-0.61675	-2.11874
159.987	-1.96866	0.10567	-0.64382	-2.07757
163.987	-2.01833	0.19442	-0.63456	-2.20409
167.985	-2.08067	0.16650	-0.44284	-2.46640
171.984	-2.16721	0.24260	-0.22393	-2.10825
176.016	-2.04629	0.17348	-0.40653	-2.04757
179.983	-2.09499	0.19489	-0.37345	-2.06006
183.969	-2.07398	0.26261	-0.43959	-2.05133
187.974	-2.11866	0.34914	-0.37702	-2.02953
191.976	-2.12711	0.37660	-0.25314	-2.09306
195.987	-2.21786	0.23725	-0.17650	-2.37989
199.984	-2.23625	0.31867	-0.09403	-2.46815
203.985	-2.26517	0.38004	-0.02804	-2.49502
208.006	-2.39136	0.36310	-0.03916	-2.49323
211.985	-2.56295	0.35260	-0.22797	-2.39849
215.984	-2.41427	0.27665	-0.37710	-2.39054
219.986	-2.42961	0.26155	-0.76012	-2.45197
223.985	-2.62179	0.20263	-1.40988	-2.46684
227.949	-2.62212	-0.00871	-1.53228	-2.50362
231.987	-2.59359	-0.10994	-1.49830	-2.56291
235.944	-2.69195	-0.38558	-1.35789	-2.69850
239.983	-2.56718	-0.19179	-1.48300	-2.80244
243.986	-2.62140	-0.27283	-1.43461	-2.41975
247.985	-2.58702	-0.22379	-1.19470	-2.63087
251.987	-2.32682	-0.10093	-1.39373	-2.55810
256.007	-2.38217	-0.22355	-1.42263	-2.57378
259.987	-2.30457	-0.24499	-1.40259	-2.59766
263.987	-2.34287	-0.19341	-1.37612	-2.49831
267.964	-2.07051	-0.11999	-1.17622	-2.48782
271.954	-2.00852	-0.09636	-1.09336	-2.37170
275.987	-1.98393	0.00012	-0.89016	-2.35950
279.986	-2.04540	0.01187	-0.78717	-2.23535
283.988	-1.91985	0.07167	-0.77818	-2.08331
287.989	-1.96291	-0.01455	-0.74049	-2.14469
291.992	-1.94030	0.06380	-0.61640	-2.28815
295.985	-2.01407	0.04925	-0.53987	-2.16274
299.989	-2.05172	0.03690	-0.40564	-2.26870
303.989	-2.00386	0.05809	-0.33360	-2.25049
307.987	-1.99000	0.04542	-0.34399	-2.22260
311.988	-2.01521	-0.03057	-0.21229	-2.28494
315.987	-1.95909	0.08310	-0.16692	-2.31192
319.994	-2.09479	0.05637	-0.04698	-2.34219
323.988	-2.19189	0.07603	-0.04152	-2.29101
327.987	-2.17965	0.03615	0.06902	-2.22291
331.987	-2.06912	0.06566	0.16501	-2.19883
335.989	-2.10545	0.05336	0.27274	-2.17189
339.988	-2.20446	0.10583	0.41296	-2.13822
343.989	-1.98318	0.12370	0.53054	-2.08808
347.990	-1.99858	0.10763	0.60158	-2.05537
351.988	-1.89364	0.14318	0.72377	-2.00517
355.944	-1.97527	0.17339	0.76625	-2.02808
359.945	-1.96836	0.16202	0.81841	-1.99641
363.990	-1.96357	0.16649	0.82181	-1.87768
367.990	-1.88673	0.18803	0.84074	-1.83699
371.988	-1.86355	0.19360	0.92872	-1.84171
375.990	-1.74858	0.23727	0.91344	-1.81889
379.990	-1.78463	0.26471	0.84059	-1.83287
383.989	-1.75349	0.26665	0.69838	-1.91916
387.989	-1.66601	0.26781	0.61009	-1.98402
391.982	-1.66497	0.33214	0.46870	-2.44223
395.990	-1.56759	0.42662	0.44869	-2.42646
399.991	-1.62145	0.50412	-0.15176	-2.29108
403.989	-1.69674	0.46742	-0.25823	-2.19309
407.990	-1.64761	0.55968	-0.33087	-2.18389
411.991	-1.64424	0.54594	-0.00241	-2.28967
415.992	-1.71551	0.46531	0.00888	-2.21601
419.990	-1.84069	0.48835	-0.06644	-2.27382
423.971	-1.89548	0.37347	-0.01715	-2.33311
427.994	-1.76423	0.35895	-0.05552	-2.32962
431.988	-1.92617	0.33996	-0.03564	-2.26419
435.952	-1.84828	0.27511	0.05974	-2.26814
445.646	-1.87572	0.16349	-0.18961	-2.15444
447.950	-1.85333	0.18255	-0.15104	-2.12385
451.994	-1.76576	0.09833	-0.11970	-2.11824
455.992	-1.68602	0.07355	-0.05127	-2.13137
459.991	-1.61399	0.00430	-0.09389	-2.10593
463.992	-1.58334	-0.00927	-0.16017	-2.11283
467.992	-1.55159	-0.05405	-0.12414	-2.16085
471.991	-1.57136	0.04429	-0.13781	-2.19343
475.970	-1.55244	0.01831	-0.11942	-2.26707
479.993	-1.54683	0.00442	-0.15821	-2.18191
483.991	-1.57639	0.00696	-0.20996	-2.13672
487.948	-1.61967	0.03306	-0.18665	-2.13188
491.994	-1.73353	0.06969	-0.17072	-2.09124
495.994	-1.57386	0.07432	-0.15876	-2.02617
499.993	-1.67030	0.06038	-0.16042	-2.20387
503.994	-1.57208	0.10800	-0.16335	-2.20412
507.993	-1.61617	0.10835	-0.15409	-2.16417
511.995	-1.58978	0.04364	-0.17750	-1.99661
515.987	-1.59336	0.04285	-0.19539	-2.05766
519.985	-1.50718	0.03927	-0.12461	-2.04265
523.993	-1.54651	0.04287	-0.11446	-2.03017
527.994	-1.58899	0.03773	-0.09686	-1.99172
531.993	-1.50274	0.11601	-0.13148	-1.94337
535.992	-1.36395	0.19461	-0.14223	-1.86702
539.992	-1.48228	0.56049	-0.13240	-1.68366
543.994	-1.22519	0.44129	-0.16871	-1.52641
547.950	-1.30804	0.29903	-0.16305	-1.29012
551.995	-1.19911	0.23890	-0.02464	-1.64091
555.992	-1.23427	0.40111	0.03832	-1.39379
559.993	-1.26378	0.48515	0.10076	-1.44864
563.996	-1.46759	0.50041	0.30682	-1.31526
567.993	-1.26006	0.45708	0.31962	-1.26482
571.992	-1.18830	0.41886	0.61039	-1.32186
575.991	-1.31290	0.30146	0.25830	-1.35406
579.995	-1.53354	0.28444	0.14645	-1.82301
583.994	-1.25002	0.47313	0.05949	-1.46240
587.993	-1.32222	0.39275	0.14866	-1.50613
591.994	-1.29350	0.37289	0.03445	-1.63041
595.998	-1.28866	0.41604	-0.06549	-1.55815
599.976	-1.24511	0.35453	-0.13610	-1.59939
603.984	-1.25575	0.27370	-0.23321	-1.54694
607.994	-1.18594	0.40756	-0.28369	-1.62518
611.999	-1.10805	0.47015	-0.25922	-1.66736
615.995	-1.05892	0.54049	-0.23798	-1.51851
619.995	-1.05200	0.61434	-0.16950	-1.41782
623.995	-1.17542	0.60284	-0.10967	-1.21787
627.995	-1.29762	0.57656	0.04519	-1.26305
631.996	-1.25974	0.48195	-0.07899	-1.02320
636.004	-1.75733	0.46902	-0.11600	-1.09477
639.994	-1.54981	0.41837	0.00382	-1.11524
643.996	-1.75662	0.41913	-0.03427	-1.00037
647.995	-2.09251	0.40956	0.03412	-1.02636
651.995	-2.33046	0.36063	0.00782	-1.01180
655.994	-1.63638	0.26570	-0.16705	-1.14253
659.994	-1.45348	0.48188	-0.12431	-1.06315
663.995	-1.65644	0.39317	-0.21864	-1.14606
667.996	-1.56322	0.39651	0.08957	-1.18337
671.992	-1.76383	0.30853	0.06088	-1.42788
675.997	-1.69168	0.22002	0.12282	-1.52565
679.996	-1.63164	0.42750	0.46277	-1.57911
683.976	-1.69178	0.47934	0.29386	-1.69144
687.997	-1.89714	0.50107	0.05492	-1.77284
691.997	-2.31683	0.37945	-0.19296	-1.85220
695.996	-1.67494	0.60328	-0.52649	-1.88005
699.999	-2.34067	0.40984	-2.59681	-0.72814
703.994	-3.73379	0.55411	-3.84821	-1.33137
707.892	-4.63538	0.45978	-6.75238	-1.94943
712.000	-7.04936	0.31159	-6.90084	-2.00047
715.997	-10.19152	-2.24374	-11.24027	-2.15038
720.000	-5.87037	-2.11413	-11.85747	-1.70294
723.994	-6.90943	-2.59054	-12.00091	0.19148
727.988	-11.80421	-1.84076	-11.98187	-1.61757
731.952	-13.89213	-1.14180	-11.99498	-1.38479
735.952	-13.17830	0.73720	-12.13301	0.81686
739.999	-12.37941	5.05409	-11.30142	11.64435
743.952	NaN	NaN	NaN	NaN
747.997	NaN	NaN	NaN	NaN
751.996	NaN	NaN	NaN	NaN
755.997	NaN	NaN	NaN	NaN
759.999	NaN	NaN	NaN	NaN
763.953	NaN	NaN	NaN	NaN
767.967	NaN	NaN	NaN	NaN
771.997	NaN	NaN	NaN	NaN
775.997	NaN	NaN	NaN	NaN
779.953	NaN	NaN	NaN	NaN
783.997	NaN	NaN	NaN	NaN
787.997	NaN	NaN	NaN	NaN
791.999	NaN	NaN	NaN	NaN
796.001	NaN	NaN	NaN	NaN
799.954	NaN	NaN	-13.59316	2.97571
803.956	NaN	NaN	-10.64626	-4.83999
807.980	NaN	NaN	-0.82329	-10.05704
811.996	-4.73761	-9.11583	-4.10308	-9.54410
815.864	-3.84572	-9.95721	1.30625	-9.55315
819.876	-5.99451	-9.20192	-7.72951	-8.68940
823.877	-5.20022	-9.42825	-7.25604	-8.75253
827.875	-6.05997	-8.87801	-4.16937	-8.91401
831.871	-3.70455	-8.47472	-2.16280	-8.98599
835.876	-3.47052	-9.50420	-2.22032	-8.89336
839.875	-3.19420	-12.03493	-0.70836	-9.23616
843.904	-3.24894	-11.79766	-0.05591	-9.07314
847.899	-3.23571	-11.89213	-0.03988	-9.28611
851.877	-3.52687	-11.90469	-0.19601	-9.34612
855.852	-3.32741	-12.28218	-0.13275	-9.34871
859.873	-3.28063	-12.04909	-0.12935	-9.54300
863.866	-3.02660	-12.44341	0.17879	-9.78690
867.876	-2.92933	-12.32234	0.27949	-9.75290
871.874	-2.91317	-12.49540	0.85880	-10.00462
875.875	-2.78079	-12.32578	0.67744	-10.03968
879.846	-2.76081	-12.28515	0.91850	-10.06365
883.876	-2.75730	-11.92014	0.88818	-10.12305
887.875	-2.61872	-12.45501	0.74943	-10.12855
891.877	-2.45535	-12.32459	0.86126	-10.11207
895.862	-2.23866	-12.35711	0.94142	-10.11192
899.867	-2.07826	-12.69514	0.81910	-10.08096
903.876	-2.33266	-13.00926	0.83530	-10.00031
907.875	-2.51948	-13.06167	0.75201	-9.91825
911.866	-2.60555	-13.22845	0.78699	-9.84336
915.876	-2.66278	-13.08952	0.58173	-9.86649
919.878	-2.55170	-13.15752	0.63449	-9.79458
923.901	-2.56443	-12.99356	0.58657	-9.75350
927.870	-2.56852	-12.97754	0.47994	-9.70266
931.880	-2.35826	-13.15420	0.40919	-9.63983
935.875	-2.34956	-13.04816	0.34918	-9.59264
939.848	-2.51866	-13.02464	0.38881	-9.56052
943.903	-2.45242	-12.60572	0.28217	-9.50518
947.880	-2.42240	-12.63438	0.33407	-9.49733
951.877	-2.73358	-12.54302	0.22892	-9.45624
955.877	-2.78627	-12.46801	0.11230	-9.40817
959.896	-2.62427	-12.56619	0.18556	-9.38848
963.878	-2.51621	-13.40365	0.35769	-9.31553
967.877	-2.46070	-14.28914	0.83920	-9.37982
971.881	-19.99372	-11.88123	1.87436	-9.41734
975.878	-19.99372	-11.85813	3.86642	-9.75188
979.859	-19.99372	-11.87300	4.51317	-9.91389
983.835	-19.99372	-11.90279	6.78380	-10.95470
987.831	1.59083	-14.75791	6.70599	-10.89482
991.868	1.34326	-14.89927	7.43566	-11.11480
995.881	-19.99372	-12.04372	7.51922	-11.19959
999.878	1.62872	-14.75830	7.61799	-11.31498
1003.878	1.85527	-14.90657	7.45965	-11.32666
1007.868	2.07450	-14.95047	7.58744	-11.38265
1011.879	2.21348	-15.05718	7.63864	-11.39278
1015.878	2.10050	-15.03034	7.73190	-11.45370
1019.878	2.26170	-14.98242	7.66448	-11.47421
1023.868	-19.99372	-12.12888	7.63672	-11.49989
1027.879	2.03459	-15.02618	7.70121	-11.49197
1031.880	-19.99372	-12.12482	7.68142	-11.50013
1035.878	-19.99372	-12.11033	7.55047	-11.46092
1039.900	-19.99372	-12.10801	7.40792	-11.42542
1043.890	-19.99372	-12.09522	7.36857	-11.35372
1047.835	-19.99372	-12.09035	7.33178	-11.31092
1051.879	-19.99372	-12.08622	7.07014	-11.20694
1055.904	-19.99372	-12.08435	6.74141	-11.15611
1059.882	-19.99372	-12.08182	6.80039	-11.10347
1063.880	-19.99372	-12.07832	7.03396	-11.08332
1067.880	-19.99372	-12.07827	6.99978	-11.04770
1071.870	NaN	NaN	6.88918	-11.01280
1075.879	NaN	NaN	6.79679	-10.97931
1079.835	NaN	NaN	6.80842	-10.95144
1083.881	NaN	NaN	6.84218	-10.92619
1087.869	NaN	NaN	6.88162	-10.90047
1091.879	NaN	NaN	6.75769	-10.86534
1095.879	NaN	NaN	6.75999	-10.84644
1099.881	2.02515	-14.92042	6.83641	-10.84192
1103.871	-19.99372	-12.07892	6.91002	-10.83593
1107.871	-19.99372	-12.07892	6.91011	-10.81867
1111.879	-19.99372	-12.07890	6.92479	-10.81144
1115.880	-19.99372	-12.07887	7.36396	-10.85725
1119.870	-19.99372	-12.07883	7.95146	-10.87134
1123.880	-19.99372	-12.07881	7.64566	-10.85647
1127.880	-19.99372	-12.07876	7.81344	-10.87312
1131.881	-19.99372	-12.07872	8.02414	-10.88407
1135.872	-19.99372	-12.07865	7.96066	-10.89600
1139.883	-19.99372	-12.07861	8.39989	-10.94299
1143.858	NaN	NaN	8.33758	-10.97238
1147.852	NaN	NaN	8.60164	-11.01738
1151.902	NaN	NaN	8.66185	-11.05486
1155.880	NaN	NaN	8.71419	-11.08243
1159.882	NaN	NaN	8.73664	-11.09155
1163.883	NaN	NaN	8.74326	-11.09271
1167.872	NaN	NaN	8.83873	-11.12167
1171.885	NaN	NaN	8.86216	-11.15974
1175.837	NaN	NaN	8.84113	-11.15535
1179.841	NaN	NaN	8.84760	-11.17093
1183.883	NaN	NaN	8.65053	-11.13659
1187.863	NaN	NaN	8.76804	-11.13259
1191.881	NaN	NaN	8.51457	-11.09611
1195.882	NaN	NaN	8.57886	-11.08501
1199.901	NaN	NaN	8.50078	-11.05558
1203.882	NaN	NaN	8.41723	-11.03994
1207.882	NaN	NaN	8.21502	-11.02174
1211.883	NaN	NaN	8.22112	-11.01091
1215.904	NaN	NaN	8.25236	-10.99899
1219.883	NaN	NaN	8.14747	-10.99109
1223.883	NaN	NaN	8.08939	-10.97346
1227.883	NaN	NaN	8.06256	-10.98344
1231.880	NaN	NaN	7.99106	-10.94123
1235.884	NaN	NaN	7.91132	-10.92181
1239.885	NaN	NaN	7.93832	-10.89632
1243.884	NaN	NaN	7.93503	-10.89500
1247.881	NaN	NaN	7.92176	-10.86838
1251.884	NaN	NaN	7.99961	-10.88136
1255.884	NaN	NaN	7.96519	-10.86247
1259.883	NaN	NaN	8.11201	-10.87811
1263.875	NaN	NaN	8.02793	-10.88464
1267.885	NaN	NaN	8.11265	-10.89605
1271.863	NaN	NaN	8.17974	-10.88857
1275.884	NaN	NaN	8.27647	-10.91917
1279.886	NaN	NaN	8.32604	-10.93964
1283.885	NaN	NaN	8.33163	-10.94780
1287.885	NaN	NaN	8.34631	-10.94548
1291.892	NaN	NaN	8.35976	-10.96424
1295.886	NaN	NaN	8.34830	-10.96439
1299.885	NaN	NaN	8.33802	-10.97147
1303.885	NaN	NaN	8.34405	-10.96514
1307.886	NaN	NaN	8.39962	-10.97463
1311.873	NaN	NaN	8.45339	-10.98044
1315.886	NaN	NaN	8.46633	-10.99325
1319.884	NaN	NaN	8.52018	-10.98833
1323.884	NaN	NaN	8.58325	-10.99629
1327.876	NaN	NaN	8.53981	-10.98968
1331.885	NaN	NaN	8.58403	-10.99070
1335.885	NaN	NaN	8.61754	-10.98890
1339.886	NaN	NaN	8.71155	-10.97929
1343.901	NaN	NaN	8.73179	-10.98268
1347.888	NaN	NaN	8.75691	-10.98485
1351.886	NaN	NaN	8.76782	-10.97511
1355.857	NaN	NaN	8.84011	-10.97783
1359.888	NaN	NaN	8.84014	-10.96571
1363.841	NaN	NaN	8.70398	-10.95128
1367.889	NaN	NaN	8.56178	-10.90936
1371.887	NaN	NaN	8.72697	-10.87970
1375.888	NaN	NaN	7.67318	-10.39131
1379.888	4.83629	-13.41204	8.38619	-9.76618
1383.886	4.91008	-12.81828	8.56112	-9.56226
1387.886	5.13877	-12.78868	8.73109	-8.61675
1391.888	7.98296	-10.23112	9.13335	-7.50005
1395.890	8.28245	-7.14204	9.44626	-6.76353
1399.882	9.29918	-5.95623	11.18016	-5.64190
1403.886	9.24907	-4.05127	11.09138	-4.71759
1407.888	8.31394	-1.44372	11.08376	-3.88329
1411.887	7.94869	-1.06529	10.47897	-3.17965
1415.890	8.24169	-1.20628	10.44504	-3.01465
1419.883	8.21500	-1.38224	11.23635	-4.54873
1423.915	8.69363	-1.37341	11.24989	-4.12792
1427.889	8.50675	-1.27667	11.31765	-4.06426
1431.890	8.80338	-1.46518	11.32968	-3.67559
1435.887	8.56513	-1.63458	11.38645	-4.01398
1439.890	8.57352	-1.73787	11.50372	-4.06785
1443.903	8.37966	-2.01470	11.55130	-3.97276
1447.889	8.42496	-1.85477	11.52872	-3.87922
1451.888	8.47779	-1.97938	11.59465	-4.03839
1455.888	8.52035	-2.04359	11.55481	-3.99216
1459.888	8.52659	-2.06825	11.62275	-3.99558
1463.890	8.51523	-2.07349	11.62899	-3.93692
1467.889	8.46279	-2.10129	11.58615	-3.79700
1471.892	8.48801	-2.10837	11.55433	-3.73162
1475.889	8.46495	-2.08986	11.36350	-3.72532
1479.866	8.47923	-2.04207	10.99482	-3.44152
1483.891	8.44494	-2.01704	10.87489	-3.29996
1487.896	8.46995	-2.15029	11.17914	-3.50105
1491.888	8.49100	-2.32551	10.93665	-3.30093
1495.892	8.56629	-3.09271	10.72879	-3.12105
1499.905	8.84515	-3.17433	10.63571	-3.22241
1503.889	8.86439	-3.15791	10.51806	-3.40556
1507.889	8.94193	-2.98324	10.49558	-3.65925
1511.890	8.81452	-2.45250	10.50160	-3.76414
1515.890	8.84881	-2.78329	10.34208	-3.67509
1519.890	8.71897	-2.73562	10.22983	-3.34758
1523.890	8.76847	-2.47413	10.13487	-3.45119
1527.888	8.77196	-2.64957	10.26936	-3.72468
1531.889	8.96741	-2.88364	10.13224	-3.59963
1535.891	9.03113	-2.86690	10.38637	-3.70573
1539.889	8.94510	-3.31891	10.41023	-3.83763
1543.879	8.69530	-3.21729	10.45236	-3.81249
1547.847	8.70236	-3.05861	10.40293	-3.87546
1551.893	8.65169	-2.80447	10.71636	-3.82874
1555.894	8.47631	-2.67938	10.98693	-3.86096
1559.890	8.42306	-2.60898	10.89039	-4.10884
1563.892	8.59483	-2.82256	11.03913	-4.11629
1567.890	8.47289	-2.63751	10.83489	-4.13910
1571.892	8.56173	-2.97636	10.80929	-4.07362
1575.891	8.57631	-3.18033	10.77291	-4.07161
1579.891	8.54646	-3.00113	10.57318	-3.99271
1583.788	8.47282	-2.87772	10.96000	-4.19466
1587.894	8.51319	-2.68398	10.94916	-4.15652
1591.892	8.48911	-2.46450	10.75759	-3.92652
1595.894	8.41257	-2.39835	10.95172	-4.01228
1599.896	8.22701	-2.41109	11.15164	-4.19991
1603.892	8.58866	-2.86837	11.24593	-4.16208
1607.886	8.69370	-2.65669	11.14832	-3.94841
1611.889	8.69159	-2.65864	10.93739	-4.08749
1615.892	8.86076	-2.74114	10.70553	-3.88444
1619.892	8.93651	-2.91209	11.12206	-4.30509
1623.892	8.81889	-2.71867	11.15456	-4.62415
1627.891	8.83663	-2.69522	10.90729	-4.43337
1631.788	8.71560	-2.53864	11.29596	-4.60464
1635.892	9.12106	-2.80585	11.10321	-4.48930
1639.893	8.88312	-2.96763	11.08507	-4.46963
1643.894	8.97937	-3.08532	11.04477	-4.10512
1647.893	8.92912	-2.84261	10.99740	-4.12008
1651.893	9.46353	-1.68330	11.29474	-3.89490
1655.894	10.43498	-1.69173	11.34129	-3.81673
1659.894	10.80285	-0.69318	12.08435	-3.23271
1663.789	11.14240	0.71017	12.94217	-1.66933
1667.890	11.29696	0.29602	13.10269	-1.38424
1671.918	10.98224	2.98739	13.25808	1.21127
1675.893	11.30526	3.79681	13.38569	1.99935
1679.790	11.37791	4.86199	13.35059	3.90660
1683.895	11.54613	5.27359	13.39459	5.17759
1687.870	11.17875	6.44708	12.27017	5.90015
1691.896	10.71427	7.55980	13.12907	7.71865
1695.790	10.07403	8.61458	12.36120	11.31224
1699.901	9.56183	8.97308	12.71793	11.21991
1703.894	9.46025	8.78314	12.98834	10.55115
1707.893	9.40124	8.78620	12.87612	9.61369
1711.893	9.36530	8.78537	12.55784	10.14514
1715.893	9.33541	8.95614	12.09270	10.18817
1719.893	10.22841	8.67854	11.88891	9.54374
1723.893	10.50395	8.81877	12.24064	10.28866
1727.790	10.46532	8.79100	12.34122	10.51831
1731.884	10.40905	8.83004	12.19517	10.21847
1735.895	10.14374	8.92313	12.13493	9.71105
1739.893	10.65503	8.84892	12.17748	10.18714
1743.756	10.59857	8.83599	12.02119	9.89728
1747.894	10.50613	8.81276	12.04752	9.82096
1751.895	10.47403	8.89029	11.94665	9.93497
1755.896	10.50326	8.87609	12.01798	9.78717
1759.791	10.61648	8.78449	12.07930	10.06139
1763.897	10.64211	8.78843	12.17720	10.82162
1767.896	10.58572	8.76560	12.10846	10.71548
1771.866	10.61941	8.75680	12.09754	10.60738
1775.778	10.60339	8.69989	12.08561	10.92522
1779.850	10.64508	8.65151	12.05642	10.71949
1783.897	10.74671	8.60095	12.00827	10.51617
1787.895	10.81911	8.53099	11.97641	9.86945
1791.792	10.89820	8.55020	11.94570	10.45260
1795.851	10.75953	8.51819	11.93275	9.58320
1799.898	10.75009	8.48507	11.81061	10.44169
1803.899	10.69870	8.52430	11.76840	9.26695
1807.793	10.82457	8.50262	11.79116	9.44454
1811.860	10.85298	8.45673	11.79705	9.38729
1815.897	10.80297	8.47804	11.80671	9.23205
1819.896	10.87127	8.45474	11.81313	9.15061
1823.791	10.78628	8.50856	11.78400	9.22842
1827.898	10.73018	8.54811	11.79406	9.37342
1831.896	10.75428	8.50936	11.82102	9.23094
1835.897	10.75802	8.49488	11.84641	9.17215
1839.793	10.72172	8.51554	11.93838	9.24295
1843.772	10.72994	8.52419	12.06703	9.13276
1847.772	10.68362	8.59090	12.28093	9.23263
1851.773	10.70028	8.52385	12.21909	8.97756
1855.769	10.60037	8.62089	12.38876	9.04985
1859.750	10.61586	8.62953	12.45125	9.13823
1863.775	10.52098	8.72305	12.53202	9.16871
1867.773	10.51957	8.74161	12.56349	9.23986
1871.772	10.44890	8.80735	12.70397	9.26314
1875.775	10.33632	8.75353	12.67686	9.24082
1879.770	10.38709	8.51700	12.64076	9.07431
1883.773	10.40831	8.38891	12.62847	9.10111
1887.760	10.40848	8.33352	12.31203	9.12691
1891.775	10.48922	8.20617	12.12324	9.10799
1895.773	10.49243	8.33003	12.01138	9.20895
1899.761	10.57745	7.81081	11.96731	9.29864
1903.759	10.66201	7.67390	11.93667	9.29913
1907.775	10.77301	7.56780	12.09175	9.40874
1911.774	10.85665	7.60929	11.90490	9.53650
1915.774	10.92330	7.58298	11.94365	9.64522
1919.739	10.95657	7.47739	11.86952	9.34361
1923.773	10.97994	7.51522	11.95596	9.65131
1927.775	11.00572	7.47244	11.97292	9.71702
1931.773	11.04620	7.62431	12.03116	9.63159
1935.795	11.02866	8.43318	12.07659	9.52899
1939.775	11.06602	8.08401	12.11199	9.29043
1943.737	11.04680	8.21765	12.10127	9.45882
1947.776	10.95854	8.26062	12.11092	9.42879
1951.763	10.91452	8.20902	11.97617	9.25875
1955.775	10.82694	8.20630	12.02634	9.42609
1959.774	10.83793	8.17576	12.04341	9.46660
1963.774	10.68645	8.26262	11.93322	9.31215
1967.764	10.53471	8.50909	11.82889	9.16361
1971.774	10.35491	8.63087	11.85823	9.44116
1975.775	10.28217	8.90604	11.81375	9.15811
1979.776	10.16536	8.99721	11.93458	9.60871
1983.765	10.20748	9.06297	11.88344	9.76837
1987.778	10.08532	9.05235	11.90455	10.79684
1991.776	10.11981	9.09299	11.92949	10.54847
1995.776	10.10295	9.20041	11.96928	10.42681
1999.773	10.18627	8.99506	12.02409	9.97205
2003.778	10.14939	8.55484	11.90231	9.04853
2007.777	10.07959	8.00566	11.80797	8.80474
2011.777	10.27547	6.70109	11.87263	8.53918
2015.766	10.23281	6.70679	11.44072	6.97922
2019.777	10.38637	5.98800	11.32657	5.81522
2023.772	10.45651	5.19152	11.22601	5.00660
2027.772	10.38118	5.05837	11.39053	4.44381
2031.773	10.39861	5.08025	11.22298	4.56984
2035.776	10.42569	4.90310	11.33597	4.43397
2039.777	10.57817	4.90225	11.22324	4.51313
2043.775	10.59056	4.94858	11.13566	4.35369
2047.763	10.59246	4.81911	10.98384	4.62614
2051.776	10.63761	4.75670	10.96270	4.46285
2055.778	10.69851	4.75015	10.94361	4.47010
2059.778	10.77598	4.72053	10.92334	4.47732
2063.769	10.75471	4.73730	10.94835	4.50565
2067.746	10.76144	4.70698	11.06461	4.39416
2071.778	10.84219	4.70376	10.90839	4.66420
2075.778	10.86143	4.73632	10.99518	4.53914
2079.769	10.90293	4.75214	10.98863	4.56632
2083.777	10.85593	4.79787	10.96990	4.32068
2087.777	10.89489	4.72557	11.09193	4.43157
2091.778	10.83345	4.78633	11.23888	4.15729
2095.797	10.89659	4.79613	11.31185	3.81135
2099.778	10.87668	4.79032	11.32135	3.69370
2103.780	10.83309	4.81413	11.37832	4.32881
2107.764	10.86694	4.76818	11.36477	4.05304
2111.768	10.88149	4.88018	11.34294	4.09781
2115.731	10.90849	4.93232	11.38070	4.02305
2119.779	10.90939	4.97053	11.47739	3.78770
2123.778	10.89202	5.04286	11.41693	3.97935
2127.768	10.92961	5.02883	11.47813	3.67615
2131.781	10.90518	5.04116	11.47374	3.71086
2135.782	10.91442	5.04826	11.45295	3.58430
2139.780	10.86203	5.07329	11.43266	3.67581
2143.737	10.85727	5.08904	11.39158	3.71070
2147.778	10.84999	5.10800	11.36045	3.65219
2151.741	10.76264	5.17728	11.33927	3.63849
2155.779	10.76156	5.13264	11.33865	3.69913
2159.770	10.73940	5.13481	11.29228	3.62770
2163.779	10.68013	5.10863	11.19607	3.61133
2167.778	10.64134	5.10904	11.20125	3.56875
2171.777	10.60265	5.13052	11.07142	3.70106
2175.772	10.28897	5.21301	11.12651	3.64816
2179.779	10.35359	5.02209	10.91569	3.61353
2183.780	9.35500	5.24171	6.31639	5.69153
2187.781	6.80164	5.39751	5.88584	5.53209
2191.770	4.10910	5.44597	2.05216	6.07414
2195.781	3.50420	5.28613	1.20197	5.18905
2199.779	0.45634	5.37737	-1.88194	5.43120
2203.753	-0.85565	5.36756	-4.27326	5.29699
2207.777	-3.31457	5.41851	-5.12905	5.29801
2211.782	-6.07258	5.18230	-7.95906	4.70532
2215.780	-7.00460	4.94391	-8.30471	3.51260
2219.780	-9.35428	4.03252	-10.31499	2.28522
2223.770	-9.73511	3.40901	-11.00639	1.65067
2227.782	-10.86175	2.97137	-11.48647	0.89158
2231.780	-11.52076	3.01305	-12.07559	0.14801
2235.781	-12.98313	2.46909	-12.28268	0.47093
2239.778	-13.28326	2.14543	-12.47976	0.26130
2243.781	-13.34801	2.23573	-12.44411	0.48297
2247.781	-13.33483	2.42616	-12.52691	0.47726
2251.781	-13.18303	2.76273	-13.92924	-0.78539
2255.778	-13.28632	2.38298	-12.76890	-1.66159
2259.780	-13.39919	1.85937	-12.51016	-1.52501
2263.782	-13.39804	1.93945	-12.34396	-1.74745
2267.782	-13.39781	1.94225	-12.70109	-1.64843
2271.773	-13.36098	2.07641	-12.60346	-1.62291
2275.782	-13.36842	2.10416	-12.56138	-1.50553
2279.782	-13.38205	2.13350	-12.55744	-1.31571
2283.783	-13.40229	2.04151	-12.54185	-1.57349
2287.771	-13.41927	2.02500	-12.54095	-1.43606
2291.781	-13.46874	2.22573	-12.53963	-1.31333
2295.783	-13.49084	2.18393	-12.62717	-1.49953
2299.781	-13.47585	2.24504	-12.56477	-1.35017
2303.775	-13.47219	2.39352	-12.57410	-1.33623
2307.783	-13.49500	2.21272	-12.58117	-1.25741
2311.785	-13.45566	1.81658	-12.58926	-1.28006
2315.783	-13.44777	1.65139	-12.60346	-1.22557
2319.784	-13.46533	1.83841	-12.62400	-1.18754
2323.784	-13.46106	1.30322	-12.60774	-1.16966
2327.784	-13.42742	1.55585	-12.59789	-1.05303
2331.784	-13.33915	1.49676	-12.56687	-1.04370
2335.784	-13.31601	1.45167	-12.51134	-1.02462
2339.783	-13.26446	1.42676	-12.45646	-0.96798
2343.812	-13.20668	1.33803	-12.40969	-0.92924
2347.786	-13.19696	1.31627	-12.36674	-0.82504
2351.777	-13.15776	1.22710	-12.34922	-0.75442
2355.783	-13.14691	1.26834	-12.25339	-0.72534
2359.782	-13.12802	1.23941	-12.24832	-0.64623
2363.786	-13.11076	1.28832	-12.22025	-0.33757
2367.784	-13.05724	1.34697	-12.23663	-0.19321
2371.784	-13.04360	1.35440	-12.20197	0.04773
2375.782	-13.02401	1.31580	-12.17364	-0.12937
2379.783	-12.98779	1.46806	-12.21321	0.12831
2383.785	-12.95690	1.45926	-12.13956	0.15429
2387.784	-12.99225	1.56878	-12.19330	0.14034
2391.785	-12.94363	1.54745	-12.14591	0.20989
2395.782	-12.89918	1.51934	-12.13387	0.16709
2399.763	-12.89650	1.54939	-12.18213	0.23704
2403.781	-12.85310	1.54579	-12.17383	0.27450
2407.784	-12.83843	1.48305	-12.16306	0.22681
2411.784	-12.87018	1.44907	-12.15130	0.17121
2415.785	-12.88001	1.30210	-12.23523	0.15277
2419.741	-12.85083	1.72278	-12.22990	0.07997
2423.743	-12.90541	1.92967	-12.08511	0.14064
2427.810	-12.95567	1.28687	-12.16041	-0.29891
2431.786	-13.12771	-0.17499	-12.05957	-1.70691
2435.787	-12.98035	-0.81332	-12.05782	-3.56846
2439.778	-13.01442	-1.10446	-11.91426	-3.57423
2443.775	-13.09647	-1.44105	-11.99410	-3.78678
2447.787	-13.20032	-1.59388	-12.04792	-3.90222
2451.785	-13.15767	-2.17108	-12.09045	-3.83267
2455.786	-13.20451	-2.28543	-11.77648	-3.87831
2459.785	-13.26260	-2.40974	-11.82616	-3.77476
2463.776	-13.36363	-2.38721	-11.63444	-3.84485
2467.787	-13.39938	-2.59804	-11.57112	-3.62108
2471.785	-13.39809	-2.64466	-11.59751	-4.47620
2475.786	-13.26617	-2.31069	-11.85143	-4.00677
2479.789	-13.19588	-2.14767	-11.95030	-4.83513
2483.786	-13.10944	-2.31422	-12.43457	-1.34459
2487.786	-12.95977	-2.39414	-7.67682	-3.93948
2491.788	-13.07055	-2.37780	-8.01457	-3.92338
2495.684	-13.03192	-2.36957	-8.34332	-3.79012
2499.789	-13.27541	-2.35230	-8.68439	-3.67456
2503.788	-13.36772	-2.41724	-9.16487	-3.66956
2507.788	-13.39621	-2.53982	-9.29887	-3.54453
2511.785	-13.12018	-2.46149	-9.71474	-3.60884
2515.788	-13.33339	-2.48864	-9.73506	-3.66792
2519.787	-13.35889	-2.31741	-12.98916	0.58088
2523.768	-12.82543	-2.09649	-10.92114	0.63055
2527.686	-12.86636	-1.96835	-13.22502	0.47697
2531.789	-12.88114	-1.80417	-13.16739	0.26685
2535.787	-13.00886	-2.22452	-13.28301	0.28133
2539.788	-13.06897	-2.22924	-13.34756	0.11066
2543.789	-12.86711	-2.25705	-13.41822	-0.02432
2547.740	-12.97938	-2.30352	-13.54070	-0.14923
2551.784	-12.99324	-2.43871	-13.66287	-0.35352
2555.789	-13.01218	-2.41220	-13.81989	-0.50119
2559.789	-13.04839	-2.51338	-14.04517	-0.49530
2563.789	-12.98178	-2.72041	-14.15041	-0.67504
2567.788	-13.09200	-2.71780	-14.40651	-0.69362
2571.788	-13.29685	-2.71439	-14.39643	-0.84476
2575.683	-13.25228	-2.79609	-14.62907	-0.99211
2579.791	-13.43690	-2.89197	-14.82764	-1.05081
2583.787	-13.52358	-2.86395	-15.06503	-1.04226
2587.787	-13.37589	-2.78862	-15.08463	-1.03818
2591.688	-13.31824	-2.75104	-11.90428	-5.74636
2595.789	-13.66522	-2.06379	-13.43444	-4.94349
2599.789	-13.88598	-1.39393	-14.25713	-1.94109
2603.790	-15.14051	0.69579	-14.62737	-2.00815
2607.687	-15.22618	2.85132	-15.24464	-0.91250
2611.790	-15.79997	3.92366	-15.36377	-0.53671
2615.791	-15.96413	4.94145	-15.45117	2.84847
2619.789	-15.99179	5.77455	-15.76771	4.57148
2623.659	-16.13033	6.33546	-16.05729	5.69356
2627.793	-16.20153	6.25341	-15.91711	5.69105
2631.792	-16.28363	6.03835	-16.22602	5.77293
2635.792	-16.40580	5.92145	-16.28064	5.75188
2639.788	-16.47096	6.03281	-16.31601	5.67716
2643.790	-16.53596	6.16071	-16.35566	5.56710
2647.785	-16.59987	6.37888	-16.43450	5.41552
2651.781	-16.63883	6.43261	-16.36628	5.58036
2655.687	-16.65856	6.77521	-16.30282	5.78025
2659.789	-16.63765	6.86268	-16.37337	5.71922
2663.791	-16.64893	6.95899	-16.26328	5.84601
2667.789	-16.57459	6.96217	-16.34883	6.01556
2671.790	-16.59269	6.69956	-16.33148	6.21571
2675.790	-16.55541	6.74931	-16.29431	6.48241
2679.791	-16.37526	6.80466	-16.24137	6.48356
2683.792	-16.27012	6.90857	-16.21691	6.65225
2687.791	-16.17583	6.83759	-16.18588	6.32000
2691.790	-16.10252	6.78932	-16.11856	6.31916
2695.791	-16.16143	6.85043	-16.31173	6.35365
2699.790	-16.16349	6.58911	-16.22650	6.29641
2703.792	-16.12676	6.57424	-16.31192	6.05956
2707.793	-16.16539	6.64183	-16.44236	6.13078
2711.793	-16.11842	6.68571	-16.43720	6.05297
2715.790	-16.28350	6.74827	-16.41521	5.85558
2719.792	-16.20927	6.82080	-16.27936	5.71737
2723.792	-16.17917	6.85662	-16.18503	5.75033
2727.793	-16.20879	6.67477	-16.04705	5.70965
2731.793	-16.25704	6.68376	-15.89528	5.78065
2735.793	-16.24162	6.62558	-15.53220	5.85864
2739.793	-16.20647	6.50097	-15.90098	5.52081
2743.747	-16.17052	6.62753	-15.97044	5.80467
2747.792	-16.11176	6.74032	-15.89857	5.95019
2751.794	-16.09020	6.62649	-15.92104	6.04681
2755.792	-16.17855	6.54200	-15.88652	6.52214
2759.792	-16.10333	6.58429	-15.81773	6.85600
2763.794	-16.03547	6.48973	-16.04994	6.49633
2767.689	-16.02997	6.46552	-16.05225	6.29721
2771.794	-15.97998	6.49996	-16.11396	6.62281
2775.756	-15.96957	6.43779	-16.17835	6.61347
2779.793	-15.97599	6.55548	-16.25651	6.43466
2783.794	-15.95674	6.62737	-16.23627	6.57168
2787.794	-16.02639	6.74305	-16.18221	6.50728
2791.792	-16.14776	6.53406	-16.14103	6.52399
2795.790	-16.13519	6.50940	-15.97645	6.54214
2799.796	-16.08992	6.40873	-15.85111	6.57292
2803.796	-16.13145	6.67056	-15.81861	6.56884
2807.796	-16.11533	6.73050	-15.71478	6.58297
2811.795	-16.09604	6.41188	-15.86013	6.53615
2815.796	-16.19455	6.41249	-15.76743	6.54292
2819.795	-16.20055	6.58572	-15.83076	6.58100
2823.794	-16.15003	6.41557	-15.90633	6.58092
2827.794	-16.14721	6.62738	-15.96358	6.48398
2831.798	-16.18416	6.66333	-16.02096	6.51790
2835.794	-16.16887	6.70337	-16.05924	6.42459
2839.794	-16.11858	6.70129	-15.98097	6.36209
2843.795	-16.08475	6.75235	-15.95486	6.33207
2847.797	-16.02059	6.72362	-15.86757	5.78979
2851.797	-15.99074	6.71559	-16.05147	6.38954
2855.796	-15.93820	6.79465	-15.91863	6.51823
2859.789	-15.89326	6.84587	-15.71966	6.14883
2863.801	-15.84206	6.81809	-15.87357	6.17047
2867.672	-16.05686	6.80547	-15.76658	6.73506
2871.669	-16.29447	6.76641	-15.61826	7.19417
2875.670	-16.05078	6.80506	-15.93497	6.64023
2879.691	-16.01486	6.89824	-15.97526	6.85827
2883.670	-16.15573	6.90201	-15.82081	5.67692
2887.669	-15.77598	6.83527	-16.29786	7.02675
2891.671	-15.84201	6.61244	-15.67982	5.27984
2895.661	-15.47803	4.66800	-15.34510	4.06946
2899.675	-14.72164	4.05412	-15.16315	1.46002
2903.652	-13.80751	1.73177	-14.89923	-0.15482
2907.668	-13.92084	-0.04814	-14.60530	-1.01005
2911.659	-14.15057	-0.56400	-14.19394	-1.90642
2915.672	-14.01099	-1.34282	-13.56493	-4.04651
2919.671	-13.53040	-2.15686	-13.81071	-4.53932
2923.669	-13.56090	-2.55210	-13.28996	-4.96173
2927.661	-13.49392	-2.95141	-13.07422	-5.55959
2931.674	-13.49864	-3.29436	-12.89077	-5.35599
2935.672	-13.56974	-3.20532	-12.79534	-5.49089
2939.673	-13.62528	-3.17308	-12.32610	-5.79464
2943.770	-13.55173	-3.14849	-12.17741	-5.87695
2947.635	-13.62087	-3.18051	-12.22819	-5.96576
2951.673	-13.63440	-3.17715	-12.12651	-5.97562
2955.672	-13.61447	-3.17354	-12.33849	-5.97046
2959.669	-13.64380	-3.20362	-12.34335	-5.91166
2963.673	-13.71289	-3.23736	-12.42008	-5.79860
2967.673	-13.71516	-3.28221	-12.51915	-5.73879
2971.672	-13.77314	-3.25429	-12.66500	-5.71543
2975.669	-13.79627	-3.26116	-12.53131	-5.56128
2979.673	-13.77467	-3.23011	-12.18576	-5.59306
2983.670	-13.72214	-3.23449	-12.03783	-5.83856
2987.674	-13.73313	-3.20400	-12.47004	-5.71349
2991.662	-13.79337	-3.24342	-12.54261	-5.59146
2995.673	-13.75800	-3.41881	-12.57626	-5.64050
2999.673	-13.76043	-3.52685	-12.45525	-5.69248
3003.673	-13.78749	-3.70802	-12.50860	-5.50844
3007.673	-13.68820	-3.70153	-12.37695	-5.60744
3011.674	-13.74350	-3.47309	-12.36925	-5.58474
3015.674	-13.72378	-3.54661	-12.27394	-5.55751
3019.674	-13.70633	-3.38627	-12.34167	-5.62492
3023.672	-13.75167	-2.97331	-12.36241	-5.56716
3027.666	-13.72191	-2.75290	-12.40841	-5.43649
3031.664	-13.71790	-2.94597	-12.46072	-5.31197
3035.673	-13.61977	-3.40840	-12.41944	-5.31846
3039.663	-13.59190	-3.36733	-12.49422	-5.33589
3043.704	-13.60191	-3.27726	-12.49166	-5.41511
3047.634	-13.64253	-3.23869	-12.47172	-5.39309
3051.673	-13.71446	-3.32271	-12.33006	-5.19129
3055.672	-13.66468	-3.29449	-12.44387	-5.19944
3059.675	-13.69842	-3.25068	-12.41343	-5.20012
3063.677	-13.55588	-2.82118	-12.38100	-5.04295
3067.676	-13.40293	-2.83574	-12.45258	-5.05229
3071.693	-13.45362	-3.06617	-12.52159	-4.89499
3075.674	-13.38390	-2.94644	-12.47243	-4.80563
3079.675	-13.46083	-2.96334	-12.41175	-4.83915
3083.675	-13.47097	-3.22597	-12.30507	-5.02162
3087.695	-13.26267	-3.08152	-12.22196	-5.03686
3091.673	-13.23697	-2.98376	-12.22957	-4.97087
3095.676	-13.22740	-2.83989	-12.32608	-4.99123
3099.673	-13.24271	-2.72945	-12.49218	-4.77753
3103.665	-13.17906	-2.75394	-12.08606	-4.85774
3107.678	-13.18767	-2.75836	-12.18092	-4.97981
3111.658	-13.32924	-2.68494	-12.17549	-4.81760
3115.672	-13.26288	-2.29850	-11.92833	-4.95055
3119.662	-13.38174	-2.35134	-11.96553	-5.11156
3123.676	-13.42467	-3.04914	-11.73585	-5.03249
3127.675	-13.03140	-2.87270	-11.71246	-4.88782
3131.676	-12.35902	-2.79099	-11.62428	-4.65181
3135.632	-12.77414	-3.12335	-11.45682	-4.55126
3139.676	-12.76817	-3.21327	-11.44716	-4.27599
3143.678	-12.91512	-2.70224	-11.09497	-4.29537
3147.680	-12.97596	-2.17846	-10.97126	-4.35961
3151.693	-12.84109	-1.72892	-10.91956	-4.59199
3155.640	-12.56590	-1.66834	-11.00656	-4.58705
3159.678	-12.66367	-1.95600	-11.07867	-4.65452
3163.677	-12.38486	-2.44841	-10.97007	-4.69111
3167.700	-12.45797	-2.87794	-11.05201	-4.53703
3171.679	-12.60422	-2.91642	-10.94681	-4.57680
3175.631	-12.57023	-2.69205	-10.97982	-4.51014
3179.679	-12.56543	-2.71865	-10.98348	-4.56439
3183.704	-12.46992	-2.59734	-10.77979	-4.63625
3187.676	-12.46618	-2.71221	-10.85634	-4.67231
3191.677	-12.35839	-2.83860	-10.94672	-4.51372
3195.655	-12.40493	-2.87313	-10.72750	-4.62405
3199.699	-12.37920	-3.00384	-10.99353	-4.57650
3203.677	-12.28479	-2.95322	-10.65319	-4.46268
3207.676	-12.27026	-3.01676	-10.71046	-4.36318
3211.680	-12.26311	-3.05704	-10.32107	-4.44918
3215.674	-12.28711	-3.02599	-10.54200	-4.38596
3219.678	-12.33250	-3.01869	-10.79971	-4.37262
3223.678	-12.24986	-2.79595	-10.67226	-3.99839
3227.679	-12.23763	-2.90669	-10.63264	-4.06980
3231.674	-12.06026	-2.93347	-10.28138	-4.09049
3235.634	-8.65773	-2.03336	-9.65889	-2.62154
3239.669	-7.51332	-1.76876	-7.85536	-3.79588
3243.634	-2.61087	-1.59538	-5.33453	-3.73946
3247.701	-2.05558	-1.96619	-4.70236	-2.77446
3251.679	0.34918	-2.44856	-1.67276	-2.70395
3255.679	1.65590	-1.74386	-0.32833	-3.41232
3259.679	3.77458	-2.27013	2.86153	-2.99746
3263.669	4.92422	-2.53848	4.19748	-3.52077
3267.679	5.44043	-3.00428	4.86017	-3.66950
3271.683	7.42800	-3.96989	6.69564	-3.88921
3275.680	7.57425	-4.07426	7.62940	-3.71956
3279.677	7.62238	-4.11269	7.61575	-3.50799
3283.679	7.25006	-3.96323	7.00013	-2.99389
3287.680	6.42638	-3.85773	7.93026	-4.14117
3291.682	6.18745	-3.76577	7.66212	-4.32580
3295.635	5.77885	-3.53747	7.33601	-4.84430
3299.681	5.79951	-3.81956	7.28141	-4.70671
3303.681	5.80214	-3.67295	7.37570	-5.09641
3307.678	5.73392	-3.83610	7.30893	-5.07320
3311.638	5.45528	-3.70204	7.52549	-4.99577
3315.684	5.53102	-3.70371	7.39537	-5.24227
3319.681	5.41760	-3.58406	7.32680	-5.19270
3323.680	5.37168	-3.48195	7.29199	-5.23454
3327.637	5.31563	-3.42110	7.22397	-5.20890
3331.680	5.18988	-3.25951	7.21110	-5.20022
3335.680	5.15773	-3.29667	7.09409	-5.21076
3339.681	5.10211	-3.18404	7.06733	-5.17345
3343.704	5.01438	-3.18918	7.03677	-5.20825
3347.680	4.95159	-3.15010	6.94665	-5.20940
3351.681	4.92501	-3.10273	6.99194	-5.23062
3355.686	4.91491	-3.12825	6.95668	-5.16943
3359.671	4.91060	-3.13217	6.95523	-5.19487
3363.683	4.87791	-3.13265	6.95431	-5.21029
3367.680	4.82789	-3.24189	6.95191	-5.21763
3371.678	4.82814	-3.31373	7.01470	-5.25653
3375.672	4.91242	-3.31780	7.09174	-5.24608
3379.684	4.88567	-3.26510	7.15396	-5.21256
3383.681	4.91008	-3.24364	7.39391	-5.21705
3387.681	4.89774	-3.00640	7.83054	-5.24929
3391.679	4.87278	-3.04222	7.88979	-5.28413
3395.681	4.93176	-3.00519	7.77851	-5.16538
3399.682	4.89779	-3.15827	7.74934	-5.09998
3403.657	4.84915	-3.15648	7.58271	-5.04131
3407.649	4.87123	-3.07271	7.65193	-4.96251
3411.685	4.87113	-3.08506	7.40674	-4.72867
3415.682	4.95943	-3.17301	7.20304	-4.77202
3419.638	4.93405	-3.46764	7.35131	-4.59471
3423.640	4.98191	-3.64891	6.96460	-4.66891
3427.683	5.05934	-3.63793	7.32109	-4.67026
3431.685	5.67202	-3.56707	7.07134	-4.71686
3435.683	5.22808	-3.82520	7.07334	-4.62194
3439.680	5.69986	-4.02971	7.07510	-4.61134
3443.669	5.90615	-3.90754	7.13229	-4.67228
3447.674	6.11358	-3.96038	7.12647	-4.76418
3451.683	5.80396	-4.04689	7.23584	-4.77973
3455.671	6.00364	-4.07767	7.08642	-4.86334
3459.683	5.80030	-3.99697	7.25704	-4.93709
3463.687	5.81808	-4.06012	7.20551	-4.86585
3467.684	5.47006	-3.92590	7.26798	-4.88652
3471.683	5.56328	-3.84944	7.06889	-4.78659
3475.684	4.89547	-3.81555	7.07564	-4.73903
3479.688	4.94167	-3.68654	7.04875	-4.79556
3483.686	4.97364	-3.67561	7.17116	-4.80950
3487.642	4.78969	-3.09353	7.32248	-4.71076
3491.681	4.62177	-3.36729	7.28542	-4.69492
3495.683	4.81641	-3.15389	7.26818	-4.73596
3499.684	4.95302	-2.93682	7.34231	-4.74553
3503.685	4.70668	-2.94604	7.46138	-4.83139
3507.684	4.76019	-2.94223	7.30007	-4.92950
3511.687	4.93191	-2.91857	7.43654	-5.06053
3515.684	4.87241	-2.83498	7.20089	-4.91286
3519.675	4.94876	-2.79100	7.24622	-5.00588
3523.685	5.00758	-2.85100	7.38571	-5.12335
3527.666	5.04730	-2.80050	7.20130	-5.17358
3531.682	5.14306	-2.75406	7.18911	-5.04962
3535.676	5.10920	-2.66553	7.23521	-5.10111
3539.686	5.03952	-2.69481	7.12520	-5.09331
3543.685	5.08690	-2.67293	7.17377	-4.99489
3547.641	5.09739	-2.65760	7.17116	-4.87030
3551.581	5.18491	-2.59821	7.21645	-4.72002
3555.687	5.14638	-2.51288	7.45123	-4.75690
3559.684	5.16081	-2.54723	7.39369	-4.79192
3563.690	5.14766	-2.47257	7.50415	-4.75642
3567.584	5.07195	-2.47266	7.35639	-4.67983
3571.680	5.29487	-2.43358	7.39588	-4.66287
3575.687	5.20322	-2.42287	7.33781	-4.67557
3579.687	5.31878	-2.41477	7.24722	-4.69365
3583.681	5.29637	-2.40001	6.78045	-4.65900
3587.676	5.25291	-2.37577	6.89365	-4.70674
3591.685	5.36117	-2.40269	6.88370	-4.72134
3595.688	5.47525	-2.51169	6.49225	-4.59615
3599.675	5.46303	-2.59232	7.50105	-4.76864
3603.688	5.45713	-2.63259	7.46465	-4.81312
3607.645	5.40707	-2.73882	7.38058	-4.77768
3611.644	5.44638	-2.73894	7.16842	-4.81395
3615.578	5.42181	-2.69707	7.23167	-4.77052
3619.688	5.35293	-2.78639	7.38661	-4.90844
3623.688	5.38951	-2.71244	7.67925	-4.93073
3627.688	5.38321	-2.79007	7.73414	-4.80545
3631.584	5.51356	-2.74174	7.75941	-4.89559
3635.687	5.46079	-2.75576	7.82604	-4.76414
3639.687	5.58348	-2.70334	7.49339	-4.75020
3643.688	5.40422	-2.68806	7.21628	-4.67154
3647.691	5.38622	-2.69436	6.48494	-4.68883
3651.674	5.42513	-2.72339	7.27270	-4.89892
3655.676	5.42301	-2.73544	7.76250	-4.79691
3659.688	5.52536	-2.89990	8.02175	-4.83638
3663.585	5.78231	-2.96410	7.93961	-4.75697
3667.687	5.66966	-3.00479	7.91845	-4.66070
3671.685	5.70964	-3.01008	7.74077	-4.63017
3675.689	5.72726	-3.05311	7.39344	-4.53491
3679.585	5.65816	-3.06918	7.36301	-4.55881
3683.689	5.55772	-3.11691	7.14731	-4.57806
3687.690	5.49109	-3.12347	6.85774	-4.55434
3691.689	5.55883	-3.14514	7.65600	-4.77053
3695.585	5.61183	-3.16509	7.83485	-4.57396
3699.688	5.65875	-3.16600	7.95292	-4.54888
3703.689	5.84763	-3.24343	7.91955	-4.67303
3707.693	5.91619	-3.26821	7.94345	-4.66179
3711.589	5.80911	-3.36067	7.69568	-4.66486
3715.689	5.91739	-3.41556	7.89052	-4.80984
3719.688	5.98736	-3.47408	7.90745	-4.77137
3723.688	5.93893	-3.45921	7.81544	-4.79403
3727.585	5.98979	-3.52665	7.91772	-4.76345
3731.689	6.02330	-3.38873	7.85750	-4.74371
3735.670	6.05599	-3.39197	7.82258	-4.68065
3739.688	6.08701	-3.39832	7.78613	-4.89493
3743.554	6.10492	-3.37093	7.80034	-5.03678
3747.690	6.11223	-3.27502	7.72917	-5.13928
3751.690	6.08772	-3.17270	7.76111	-5.24315
3755.691	6.03356	-3.07474	7.80314	-5.21440
3759.587	6.05918	-2.94850	7.79191	-5.27057
3763.692	6.01576	-2.79985	7.77213	-5.28568
3767.691	5.98179	-2.73681	7.77166	-5.37534
3771.692	5.97831	-2.59374	7.80355	-5.46226
3775.591	5.96780	-2.41629	7.77675	-5.41957
3779.690	5.98754	-2.39683	7.82757	-5.44441
3783.692	5.94445	-2.34111	7.81588	-5.45954
3787.691	5.84971	-2.35462	7.82674	-5.39052
3791.692	5.81494	-2.24547	7.98087	-5.36437
3795.690	5.71138	-2.22902	7.96967	-5.31587
3799.692	5.70411	-2.23465	8.09791	-5.32430
3803.692	5.62367	-2.32809	8.05682	-5.31945
3807.691	5.56959	-2.24231	7.85217	-5.35599
3811.690	5.47014	-2.28022	7.96875	-5.33233
3815.692	5.46104	-2.39524	7.86880	-5.23643
3819.670	5.48516	-2.47309	7.98552	-5.23310
3823.579	5.40088	-2.57341	8.00019	-5.21305
3827.691	5.42446	-2.62024	7.76070	-4.96860
3831.692	5.45447	-2.62297	7.68825	-4.81766
3835.692	5.47923	-2.72110	7.75846	-4.65175
3839.591	5.57692	-2.74708	7.75960	-4.65234
3843.721	5.62987	-2.74145	7.47878	-4.93475
3847.695	5.69514	-2.60899	7.45640	-5.09315
3851.690	5.71286	-2.54902	7.59824	-5.13594
3855.592	5.80730	-2.52314	7.54744	-5.48496
3859.691	5.77689	-2.48525	7.48878	-5.58953
3863.685	5.72546	-2.47424	7.44154	-5.43916
3867.695	5.77381	-2.42621	7.79773	-5.68855
3871.695	5.70340	-2.58648	7.85020	-5.52739
3875.694	5.71119	-2.74469	7.93111	-5.64213
3879.696	5.77502	-2.90560	7.85485	-5.56883
3883.694	5.70957	-3.34280	8.11554	-5.52531
3887.590	5.82412	-3.04033	8.04711	-5.57199
3891.695	5.80450	-2.79325	8.16099	-5.48956
3895.569	5.79595	-2.64771	8.31866	-5.52603
3899.569	5.74974	-2.76320	2.70490	-3.27458
3903.562	5.66315	-2.96738	5.14897	-4.51616
3907.568	5.59732	-3.10360	5.28982	-4.65415
3911.570	5.53146	-2.92688	8.28806	-5.08585
3915.570	5.56229	-2.85344	7.93919	-4.77501
3919.558	4.99393	-2.39791	7.42136	-4.36867
3923.564	5.28938	-2.79790	7.16776	-4.98426
3927.568	5.65621	-2.74372	7.31902	-5.18888
3931.570	5.42331	-0.69636	7.79705	-4.83967
3935.590	9.59952	-0.72652	6.62150	-3.67598
3939.570	2.57595	-1.84649	4.30048	-4.57150
3943.571	13.96970	1.23031	4.90703	-4.68810
3947.564	13.63257	0.65378	5.30247	-4.85425
3951.559	15.43475	3.60514	4.87835	-7.41886
3955.569	NaN	NaN	11.48723	-4.33135
3959.568	NaN	NaN	8.80243	-4.76556
3963.571	NaN	NaN	16.06030	0.41607
3967.568	NaN	NaN	NaN	NaN
3971.572	NaN	NaN	NaN	NaN
3975.568	NaN	NaN	NaN	NaN
3979.569	NaN	NaN	NaN	NaN
3983.570	NaN	NaN	NaN	NaN
3987.573	NaN	NaN	NaN	NaN
3991.560	NaN	NaN	NaN	NaN
3995.564	NaN	NaN	NaN	NaN
3999.570	NaN	NaN	NaN	NaN
4003.570	NaN	NaN	NaN	NaN
4007.570	NaN	NaN	NaN	NaN
4011.526	NaN	NaN	NaN	NaN
4015.571	NaN	NaN	NaN	NaN
4019.570	NaN	NaN	NaN	NaN
4023.571	NaN	NaN	NaN	NaN
4027.530	NaN	NaN	NaN	NaN
4031.555	NaN	NaN	NaN	NaN
4035.567	NaN	NaN	NaN	NaN
4039.569	NaN	NaN	NaN	NaN
4043.563	NaN	NaN	NaN	NaN
4047.525	NaN	NaN	NaN	NaN
4051.571	NaN	NaN	NaN	NaN
4055.574	NaN	NaN	9.15848	13.29840
4059.572	NaN	NaN	14.97432	3.50197
4063.582	NaN	NaN	NaN	NaN
4067.574	10.50328	9.54928	13.39872	7.54470
4071.564	12.15353	9.41741	13.18772	7.24822
4075.535	10.80704	9.11652	12.31575	5.45137
4079.572	7.96675	5.62634	12.35966	6.95112
4083.571	6.61704	5.62114	9.70480	6.52859
4087.568	7.02758	5.41812	11.27412	3.30150
4091.573	10.21801	4.95662	12.30865	2.48538
4095.569	11.33953	2.94043	10.73562	0.37829
4099.572	10.57320	4.01286	7.71211	0.28049
4103.592	9.49393	4.18021	7.59875	0.32623
4107.575	6.29862	1.91054	7.38866	0.14192
4111.529	4.95679	1.70006	8.11459	0.36401
4115.554	5.70762	1.72938	9.45428	-0.66071
4119.592	6.71982	1.80564	9.04422	-0.33863
4123.577	8.63233	1.67212	9.05952	0.03489
4127.575	7.33271	1.77591	8.08260	0.29053
4131.574	7.79734	1.71145	9.01326	0.04636
4135.593	8.08419	1.68292	8.57874	0.21583
4139.573	7.58856	1.70464	8.73902	0.42423
4143.573	7.49190	1.78322	8.74985	-0.00084
4147.575	7.88091	1.75063	8.69210	-0.62075
4151.596	7.67777	2.03213	8.68747	-0.52887
4155.566	7.73828	1.95354	8.70645	-0.61081
4159.563	7.58629	2.03338	8.69894	-1.04464
4163.575	7.51932	2.15402	8.82611	-0.96322
4167.564	7.71442	1.87983	8.89574	-0.98911
4171.574	7.71696	1.93413	8.85553	-1.05450
4175.529	7.60092	1.87310	8.83112	-0.79981
4179.550	7.47038	1.87959	8.82885	-0.95165
4183.594	7.41477	1.86649	8.84678	-0.80685
4187.575	7.43513	1.61078	8.82601	-0.95603
4191.575	7.67747	1.59095	8.75145	-0.83942
4195.575	7.88614	1.40622	8.78314	-0.87041
4199.566	8.02146	1.32891	8.68034	-0.96738
4203.573	8.05854	1.24517	8.73965	-0.97337
4207.574	8.05728	1.17268	8.68907	-0.92760
4211.574	8.03523	1.26890	8.63985	-0.85215
4215.564	8.13916	1.10824	8.54950	-0.94136
4219.576	8.11909	1.01460	8.47447	-0.97953
4223.576	8.09105	1.20917	8.45912	-1.04382
4227.577	7.96994	1.45033	8.42687	-0.93146
4231.566	8.17101	1.43795	9.57044	-1.09761
4235.575	8.15956	1.58395	8.96961	-1.09326
4239.576	8.10121	1.38736	9.34237	-1.11753
4243.574	8.06594	1.54341	8.99431	-1.13134
4247.594	8.08608	1.55268	9.13236	-1.04006
4251.577	8.08757	1.27693	8.78224	-0.97313
4255.578	8.08022	1.22475	8.90059	-0.99199
4259.577	8.04823	1.21341	9.02997	-0.99237
4263.564	8.04643	1.28690	8.91970	-0.87750
4267.578	8.05156	1.34324	8.89799	-0.82883
4271.576	8.10856	1.16245	8.83769	-0.86908
4275.577	8.05261	1.14795	8.95406	-0.81898
4279.568	8.00900	1.15132	8.85734	-0.79330
4283.541	8.00954	1.07782	8.72656	-0.82514
4287.576	7.98549	1.02563	8.64553	-0.76978
4291.577	7.99308	0.99708	8.56217	-0.64438
4295.534	7.97077	1.04186	8.43421	-0.65981
4299.572	7.96711	1.08044	8.42309	-0.60482
4303.577	7.97405	1.11545	8.41043	-0.51230
4307.578	7.97726	1.13303	8.34691	-0.40072
4311.598	8.00871	1.15309	8.31224	-0.49605
4315.583	7.72561	1.15014	8.25141	-0.48951
4319.577	7.02656	1.21329	7.31123	-0.54338
4323.555	5.39239	0.76155	4.47279	-0.67197
4327.544	3.75697	-0.56436	1.89726	-0.93510
4331.580	2.51678	-1.68837	1.28251	-1.85926
4335.581	2.07293	-2.54209	1.43431	-3.18317
4339.579	0.26369	-2.62578	0.85927	-3.63001
4343.570	-0.08418	-3.23344	1.25761	-4.12606
4347.580	-0.36042	-4.62152	0.94371	-3.96308
4351.578	-0.50627	-4.58714	1.03268	-3.90175
4355.580	-0.61431	-4.29578	0.57210	-3.97230
4359.575	-1.05820	-3.45863	0.84620	-3.96944
4363.533	-1.05570	-3.44620	0.84560	-3.93549
4367.534	-1.36201	-3.31530	1.52102	-4.09743
4371.580	-0.91274	-3.78534	1.25349	-4.04967
4375.577	-1.28360	-3.65945	1.67248	-4.20567
4379.580	-1.36930	-3.27642	1.55561	-4.48171
4383.580	-1.23598	-3.59285	1.42722	-4.55860
4387.579	-1.23042	-3.51005	1.17830	-4.42776
4391.578	-1.27214	-3.46290	0.70640	-4.33704
4395.579	-1.23985	-3.78676	1.56985	-4.58950
4399.580	-1.39589	-3.50475	1.51358	-4.58027
4403.579	-1.25344	-3.56821	1.36920	-4.61410
4407.581	-1.20938	-3.56230	1.47521	-4.57953
4411.578	-1.24610	-3.53429	1.50100	-4.63499
4415.585	-1.24778	-3.40956	1.16493	-4.61913
4419.537	-1.25793	-3.68546	1.00675	-4.59106
4423.538	-1.17575	-3.65254	1.05178	-4.53584
4427.581	-1.14000	-3.67924	1.09599	-4.49190
4431.583	-1.13397	-3.61159	1.09991	-4.47029
4435.579	-1.02285	-3.51337	1.05878	-4.47980
4439.580	-0.95584	-3.56220	1.13744	-4.45299
4443.580	-0.90929	-3.41363	0.98477	-4.36795
4447.563	-0.86682	-3.44214	1.15612	-4.35232
4451.578	-0.85074	-3.52649	1.17309	-4.28787
4455.580	-0.90004	-3.66580	1.24290	-4.24685
4459.581	-1.83876	-3.40980	1.37392	-4.12444
4463.581	-1.66227	-2.94588	1.39907	-4.09955
4467.580	-1.96286	-3.17713	1.34745	-4.01664
4471.578	-2.33807	-3.15689	1.45671	-3.98071
4475.581	-1.93435	-3.19479	1.43721	-3.98396
4479.582	-2.12753	-3.34972	1.35219	-4.01184
4483.584	-2.05164	-3.18070	1.16327	-4.04434
4487.589	-2.12649	-3.26807	0.96355	-4.09083
4491.544	-1.76871	-3.33741	1.11326	-4.03773
4495.581	-1.83635	-3.46111	0.72258	-4.01938
4499.580	-1.40641	-3.13254	0.54860	-4.02095
4503.582	-2.05281	-3.21907	0.20857	-4.02588
4507.582	-1.55970	-3.01502	0.41705	-4.03789
4511.583	1.62582	-3.18326	0.77560	-3.77196
4515.582	1.29407	-2.71969	0.15791	-3.81833
4519.579	-1.80057	-3.13176	-0.24882	-4.10837
4523.581	-2.79926	-3.61905	-1.93187	-4.07515
4527.585	NaN	NaN	0.27446	-2.01310
4531.558	NaN	NaN	NaN	NaN
4535.579	NaN	NaN	NaN	NaN
4539.581	NaN	NaN	NaN	NaN
4543.582	NaN	NaN	NaN	NaN
4547.536	NaN	NaN	NaN	NaN
4551.583	NaN	NaN	NaN	NaN
4555.581	NaN	NaN	NaN	NaN
4559.581	NaN	NaN	NaN	NaN
4563.549	NaN	NaN	NaN	NaN
4567.585	NaN	NaN	NaN	NaN
4571.582	NaN	NaN	NaN	NaN
4575.582	NaN	NaN	NaN	NaN
4579.581	NaN	NaN	NaN	NaN
4583.582	NaN	NaN	NaN	NaN
4587.564	NaN	NaN	NaN	NaN
4591.580	NaN	NaN	NaN	NaN
4595.538	NaN	NaN	NaN	NaN
4599.585	NaN	NaN	NaN	NaN
4603.581	NaN	NaN	NaN	NaN
4607.584	NaN	NaN	NaN	NaN
4611.543	NaN	NaN	NaN	NaN
4615.557	NaN	NaN	NaN	NaN
4619.586	2.89374	6.04058	-1.76110	-1.80985
4623.583	-1.47697	11.15082	0.78722	-5.09565
4627.584	2.95106	1.12611	3.58277	-6.30532
4631.588	2.02740	-0.21598	6.58188	-5.49981
4635.585	-0.68161	-6.19394	3.89641	-5.10571
4639.592	-3.92660	-6.76203	1.59410	-5.18487
4643.584	-3.36945	-6.69737	2.57048	-5.44782
4647.585	-3.52071	-6.25144	2.82563	-5.28433
4651.584	-1.04357	-4.94208	1.29940	-3.97162
4655.566	1.56752	-2.70563	3.36802	-3.08240
4659.585	0.92311	-3.37155	2.68650	-4.65347
4663.586	0.78377	-3.51090	3.31756	-5.09634
4667.586	0.42338	-3.47271	3.11599	-5.15923
4671.582	0.04939	-3.47120	2.95178	-4.98765
4675.585	0.09267	-3.63912	2.91913	-4.99489
4679.484	0.60307	-4.52897	2.93287	-5.02726
4683.586	0.49929	-4.50927	2.91485	-5.08861
4687.586	0.17345	-4.42043	2.70156	-4.86994
4691.586	0.33625	-4.16950	2.58172	-4.62668
4695.484	0.50389	-4.26908	2.55626	-4.71441
4699.549	0.30749	-4.54478	2.38685	-4.77195
4703.586	0.19951	-4.81066	2.18213	-4.77531
4707.587	0.16623	-4.73704	2.33839	-4.74625
4711.482	0.32541	-4.56450	2.50660	-4.72377
4715.586	0.34238	-4.70644	2.36500	-4.64144
4719.587	0.23932	-4.69012	2.59985	-4.57768
4723.589	0.21147	-4.50313	2.87581	-4.54216
4727.483	0.14871	-4.55380	2.53058	-4.54297
4731.544	0.37849	-4.56951	2.26485	-4.59764
4735.543	0.58518	-4.43753	2.42014	-4.61514
4739.564	0.59786	-4.13862	2.25739	-4.63849
4743.455	0.72920	-4.35643	2.26413	-4.73520
4747.588	0.47227	-4.43660	2.25717	-4.69463
4751.586	0.73806	-4.51743	2.19026	-4.60799
4755.588	0.28463	-4.87239	2.16424	-4.60333
4759.587	0.16598	-4.70453	2.15849	-4.62138
4763.588	-0.13285	-4.94431	2.06267	-4.62684
4767.586	0.20058	-4.83899	2.07779	-4.57094
4771.586	-0.00340	-4.75322	2.05110	-4.53284
4775.590	-0.03390	-4.37376	2.04798	-4.31648
4779.580	0.04450	-4.53875	1.94017	-4.14797
4783.583	0.48530	-4.62937	1.94298	-4.10635
4787.588	0.44368	-4.49426	1.93621	-4.33589
4791.485	0.51833	-4.36847	2.00014	-4.33565
4795.546	0.64729	-4.88822	2.04032	-4.63004
4799.589	0.65099	-4.81961	1.97007	-4.48217
4803.590	0.15801	-4.78109	1.83196	-4.32259
4807.587	0.17288	-4.93498	1.90914	-4.34188
4811.543	0.09250	-4.70139	2.06116	-4.57970
4815.591	0.19445	-4.50430	1.86625	-4.75335
4819.593	0.22450	-5.02996	1.58463	-4.57698
4823.591	0.39469	-4.73351	1.73539	-4.67475
4827.590	0.58530	-4.79490	2.00958	-4.83174
4831.589	0.76183	-4.60926	1.97049	-4.56638
4835.589	0.79315	-4.65326	1.84994	-4.58220
4839.591	1.04657	-4.86219	2.10327	-4.55762
4843.588	0.49108	-4.79396	1.96013	-4.47349
4847.589	1.00916	-4.97030	2.04094	-4.72178
4851.602	1.13615	-5.52345	2.08676	-4.54802
4855.587	0.90143	-5.78089	2.06709	-4.48171
4859.591	0.88173	-5.44231	1.96620	-4.50531
4863.544	0.79853	-6.07463	1.76259	-4.39054
4867.545	0.61548	-5.46382	1.61791	-4.43805
4871.484	0.64496	-5.23686	1.88308	-4.41192
4875.592	0.59061	-5.40784	1.68994	-4.39838
4879.588	0.78022	-5.31891	1.70861	-4.47569
4883.587	0.72459	-5.19362	1.76752	-4.48925
4887.591	0.78898	-5.45716	1.35435	-4.32966
4891.590	0.90053	-5.39927	1.43657	-4.29960
4895.590	0.67476	-5.62978	1.42181	-4.35617
4899.593	0.45274	-5.32601	1.37258	-4.43111
4903.594	0.66702	-5.39235	1.54906	-4.48293
4907.591	0.63828	-5.37425	1.60070	-4.54619
4911.592	0.88528	-5.34710	1.65964	-4.54176
4915.592	0.90436	-5.15849	1.68243	-4.75888
4919.459	0.91490	-5.00535	1.73559	-4.74834
4923.549	0.60039	-2.96029	1.43153	-4.24079
4927.468	-0.09336	-0.97968	1.18696	-4.18768
4931.467	-0.30580	-0.78326	1.16572	-3.08587
4935.488	-0.78141	2.36877	-0.44785	-1.22844
4939.467	-3.10829	2.65070	-2.45686	0.91778
4943.468	-3.42206	6.29257	-2.51559	3.90935
4947.468	-4.15421	6.66462	-3.07847	4.84589
4951.478	-6.03982	8.78800	-4.93888	8.37985
4955.458	-6.47125	10.40347	-5.62326	11.79002
4959.468	-6.43055	11.10763	-5.50446	11.84549
4963.467	-6.06971	11.23285	-5.30060	11.94922
4967.489	-5.79936	10.46747	-5.14906	10.01519
4971.468	-5.05599	10.72735	-5.37187	9.90565
4975.467	-5.31755	9.67624	-5.42050	9.59252
4979.466	-5.80165	9.73646	-5.40218	9.30163
4983.488	-5.80246	10.24314	-5.39020	9.84283
4987.459	-5.93834	10.50777	-5.43497	11.35868
4991.468	-5.89311	10.66493	-5.47486	10.78222
4995.437	-5.94563	10.95238	-5.47894	11.20084
4999.456	-5.67887	10.66159	-5.42692	11.16057
5003.470	-5.83026	10.74276	-5.41271	10.96311
5007.468	-5.90804	10.71269	-5.35979	10.83228
5011.469	-5.85846	10.52199	-5.39642	10.50536
5015.492	NaN	NaN	-5.53559	10.91768
5019.472	-5.80165	9.64907	-5.61578	10.69919
5023.469	-5.36122	9.72270	-5.39082	11.04990
5027.470	-5.45595	8.04876	-5.47191	10.94873
5031.491	-5.18764	9.13681	-5.31910	10.66440
5035.451	-5.30916	9.14905	-5.20017	10.52552
5039.465	-5.33128	9.27801	-5.09475	10.37118
5043.470	-5.35416	9.24564	-5.15985	11.02292
5047.491	-5.40122	9.28892	-5.16497	11.58402
5051.471	-5.38471	9.37550	-5.17538	11.01310
5055.470	-5.36496	9.27344	-5.15079	11.01239
5059.468	-5.27619	9.31977	-5.10522	10.57090
5063.503	-5.33433	9.12642	-5.05045	10.79514
5067.470	-5.33586	9.19804	-5.02652	10.33644
5071.469	-5.28419	9.11625	-5.06188	10.46534
5075.468	-5.24582	9.22224	-4.90503	10.57957
5079.489	-5.21341	9.30238	-4.83252	10.66100
5083.469	-5.55411	9.43832	-4.93243	10.60067
5087.469	-5.37928	9.04439	-4.89961	10.32820
5091.469	-5.27080	9.16757	-5.04597	10.16727
5095.491	-5.24053	9.27200	-5.07629	9.76221
5099.471	-5.12624	9.29956	-5.11349	9.84413
5103.471	-5.08067	9.38648	-5.08988	9.84720
5107.471	-4.89276	9.15069	-5.09251	10.16152
5111.493	-4.81217	9.20072	-5.04701	10.29917
5115.470	-4.81143	9.23159	-4.87505	10.52976
5119.451	-5.17481	9.29703	-5.02765	10.47552
5123.470	-5.40725	9.19079	-4.92036	10.35503
5127.493	-5.21922	9.16055	-5.01098	10.20548
5131.472	-5.29565	9.30613	-4.97014	10.14284
5135.471	-5.81788	9.52357	-5.02602	10.06565
5139.471	-6.21384	9.57934	-4.99223	10.52595
5143.490	-5.83080	9.68613	-5.02735	10.27813
5147.473	-5.61015	9.76660	-4.82927	10.58487
5151.472	-5.74912	9.47660	-4.85677	9.89157
5155.473	-5.82741	9.48381	-4.89806	10.61400
5159.486	-5.50112	9.22369	-4.94021	10.79768
5163.461	-5.55526	9.53513	-4.99492	10.35087
5167.472	-5.59056	9.73024	-4.87094	10.91882
5171.473	-5.45100	9.91914	-5.10583	10.08866
5175.464	-6.25468	9.85919	-5.03950	11.15287
5179.471	-5.93686	9.81165	-5.00361	11.16979
5183.471	-5.06799	9.75394	-4.93635	10.85750
5187.471	-5.12804	10.00359	-2.96257	12.52386
5191.496	-7.19359	9.75152	-5.03873	11.51232
5195.474	-6.03071	10.26355	-4.42928	11.71086
5199.473	NaN	NaN	-4.32831	12.67633
5203.441	NaN	NaN	NaN	NaN
5207.469	NaN	NaN	NaN	NaN
5211.473	NaN	NaN	NaN	NaN
5215.484	NaN	NaN	NaN	NaN
5219.472	NaN	NaN	NaN	NaN
5223.472	NaN	NaN	NaN	NaN
5227.472	NaN	NaN	NaN	NaN
5231.429	NaN	NaN	NaN	NaN
5235.473	NaN	NaN	NaN	NaN
5239.430	NaN	NaN	NaN	NaN
5243.452	NaN	NaN	NaN	NaN
5247.468	NaN	NaN	NaN	NaN
5251.471	NaN	NaN	NaN	NaN
5255.473	NaN	NaN	NaN	NaN
5259.473	NaN	NaN	NaN	NaN
5263.430	NaN	NaN	NaN	NaN
5267.474	NaN	NaN	NaN	NaN
5271.472	-7.36862	10.62808	-1.99322	1.88857
5275.461	-3.11628	7.81955	0.50212	0.39436
5279.475	-0.78384	3.35978	-0.30987	-0.68756
5283.430	-0.77345	1.57902	-0.74752	-1.11490
