time (ms)	lx (deg)	ly (deg)	rx (deg)	ry (deg)
0.000	-0.68620	-0.12304	3.19823	-2.75432
4.001	1.45864	0.29183	3.08270	-2.42523
8.001	5.99971	8.81108	1.80960	-2.13711
12.003	NaN	NaN	6.55560	3.79643
16.003	NaN	NaN	NaN	NaN
20.005	NaN	NaN	NaN	NaN
23.966	NaN	NaN	NaN	NaN
28.001	NaN	NaN	NaN	NaN
32.001	NaN	NaN	NaN	NaN
36.001	NaN	NaN	NaN	NaN
40.001	NaN	NaN	NaN	NaN
43.957	NaN	NaN	NaN	NaN
48.004	NaN	NaN	NaN	NaN
52.008	NaN	NaN	NaN	NaN
56.003	NaN	NaN	NaN	NaN
59.992	NaN	NaN	NaN	NaN
63.981	NaN	NaN	1.13573	12.65252
68.003	1.01166	3.51306	0.78335	1.39716
72.002	-2.56478	3.55491	-1.01330	4.00024
76.003	-2.94530	6.69217	-1.18728	0.01160
79.993	-2.87943	3.54147	-1.17567	-1.06136
84.004	-0.82086	3.76081	-1.20881	-1.27896
87.958	-1.13509	2.93242	-1.39862	-1.12755
92.006	-2.72085	1.27617	0.99799	-1.11038
96.005	-3.12640	0.96952	1.07636	-1.38604
100.005	-3.46998	0.83379	0.93257	-1.25695
104.001	-5.95979	0.64315	0.77213	-0.79671
107.994	-3.72076	0.95407	0.92411	0.77276
111.994	-3.80261	2.22676	-1.06309	1.13767
116.005	-3.41392	2.67445	-1.05863	1.45254
120.005	-2.90901	2.21913	-1.34294	0.62883
124.005	-2.47997	2.12722	-0.80498	-1.10169
128.008	-3.07904	1.75452	-1.24969	-1.09088
132.005	-1.89756	1.53062	-0.86394	-0.67681
136.001	-1.74161	1.51211	-0.40834	-0.70435
140.003	-1.59802	1.04804	-0.23865	-0.91163
144.005	-1.55040	1.27284	-0.42437	-0.64834
147.979	-1.40390	1.55610	-0.19579	-0.82264
152.006	-1.41303	2.07955	-0.34007	-0.89895
156.004	-1.58589	2.01818	0.00754	-0.48432
159.962	-1.78349	2.03083	0.11587	-0.01903
164.006	-1.82413	2.01297	0.17891	0.16418
168.005	-2.05928	2.00557	-0.06011	-0.15871
172.005	-2.17311	1.92244	-0.19258	-0.09445
176.004	-2.20835	1.94804	-0.31468	-0.10762
180.006	-2.21472	2.35946	-0.00764	-0.56537
184.005	-2.31589	2.24497	0.09235	-0.67430
187.993	-1.98755	2.10866	-0.03164	-0.82444
192.005	-1.92550	2.07635	-0.10354	-1.03890
196.006	-1.96799	2.18001	-0.11503	-0.77619
200.006	-1.87111	2.06491	-0.16655	-0.98855
204.004	-1.90054	1.91234	-0.25969	-1.16225
208.006	-2.09108	1.95979	-0.13900	-0.93956
211.962	-2.16392	1.65867	-0.13225	-1.09144
216.039	-1.99632	1.51884	-0.11076	-1.14343
220.005	-2.03194	1.57551	-0.11339	-1.12887
223.996	-1.86211	1.55143	-0.10143	-1.15200
228.008	-1.92751	1.55539	-0.11391	-1.14316
231.973	-2.00157	1.44674	-0.13846	-1.12259
236.006	-2.02790	1.53405	-0.12952	-1.06948
239.997	-2.08406	1.46196	-0.16246	-1.06406
244.007	-2.20505	1.41623	-0.17464	-1.11486
248.007	-2.19016	1.41359	-0.20991	-1.06697
252.007	-2.24225	1.38962	-0.35087	-1.10069
256.009	-2.15229	1.44819	-0.25656	-1.01117
260.008	-2.26358	1.44188	-0.26790	-0.97590
264.008	-2.30680	1.44385	-0.26096	-0.95359
268.008	-2.38593	1.43905	-0.22445	-0.90105
271.902	-2.39282	1.36515	-0.29863	-0.65901
276.009	-2.42934	1.33569	-0.25505	-0.81665
280.006	-2.34493	1.29220	-0.26048	-0.37447
284.006	-2.21705	1.35555	-0.38732	0.39680
288.010	-2.07296	1.23951	-0.42621	-0.09882
292.010	-2.29956	1.14343	-0.07837	-0.69442
296.008	-2.03335	0.98753	0.03591	-0.74024
300.007	-2.09056	0.59554	-0.04658	-1.01200
304.009	-1.90862	0.61023	-0.17467	-1.31299
308.009	-2.00757	0.92960	0.02509	-1.48508
312.007	-1.95909	1.01489	0.05055	-1.69181
316.003	-1.85837	0.56925	0.33069	-2.08004
319.997	-1.82549	0.62563	0.12687	-1.88072
324.009	-1.66668	0.46234	-0.17022	-2.16886
328.009	-1.62522	0.35885	-0.13980	-1.37061
332.010	-1.77759	0.26240	0.04221	-1.69484
336.010	-1.66448	0.33492	0.16171	-1.83832
340.009	-1.76316	0.31685	0.72471	-2.07753
344.009	-1.67353	0.32983	1.02171	-1.88539
348.012	-1.51737	0.09578	0.06502	-1.50727
352.011	-1.42546	0.08513	-0.21011	-1.51114
355.983	-1.26182	0.12784	0.14727	-1.87290
360.009	-1.38805	0.19327	0.19134	-1.84681
364.011	-1.40693	0.08933	0.07654	-2.00652
368.012	-1.40028	0.03309	0.06435	-1.69961
372.009	-1.47645	0.07999	0.24810	-1.86415
376.021	-1.29214	0.22016	0.08485	-1.82684
380.009	-1.44205	0.09845	0.37678	-1.58347
384.011	-1.48709	-0.00502	0.59607	-1.63770
388.010	-1.32756	0.03230	0.19901	-1.51707
392.014	-1.43716	-0.08138	0.04663	-1.58040
395.999	-1.47566	0.00991	0.28213	-1.89937
400.011	-1.44508	-0.01764	0.19177	-1.81407
404.010	-1.48716	-0.03589	0.08475	-1.61951
408.012	-1.44627	-0.00395	0.26247	-1.78961
412.011	-1.39807	-0.09226	0.26450	-1.64867
416.010	-1.51457	-0.10535	0.44693	-1.32431
420.011	-1.38910	-0.36303	0.39365	-1.21968
424.010	-1.46752	-0.19883	0.21373	-1.33579
428.011	-1.55903	-0.26641	0.04834	-1.66050
432.012	-1.72039	-0.20705	0.23152	-1.65830
436.012	-1.59641	-0.19201	0.18072	-1.73115
439.976	-1.57984	-0.49936	0.06371	-1.39724
444.011	-1.45249	-0.34847	0.30915	-1.64474
448.013	-1.57515	-0.44591	0.56426	-1.75925
452.012	-1.64516	-0.54311	0.04571	-1.76244
456.012	-1.79410	-0.53165	0.03755	-1.94487
460.012	-1.62894	-0.59085	0.05415	-1.75633
463.970	-1.78900	-0.52258	-0.00946	-1.78938
468.011	-1.96558	-0.47741	0.14402	-1.96693
472.013	-1.82936	-0.45137	0.01082	-1.95666
476.012	-1.82943	-0.48343	-0.07512	-1.74906
480.018	-1.76386	-0.56771	0.10443	-1.65573
484.006	-1.64335	-0.56835	0.25909	-1.68752
488.012	-1.72756	-0.65149	0.08066	-1.61452
492.016	-1.71464	-0.69031	0.01531	-1.39736
495.915	-1.74253	-0.67657	0.18162	-1.05403
500.011	-1.64910	-0.71515	0.34836	-0.94029
504.013	-1.64196	-0.74562	0.30940	-1.02913
508.011	-1.55539	-0.75149	0.56625	-0.99121
512.014	-1.50678	-0.71930	0.57074	-1.06844
516.015	-1.47603	-0.76774	0.77538	-1.02887
520.010	-1.35769	-0.77180	0.84535	-1.03730
523.966	-1.27810	-0.74115	0.78017	-1.02679
527.910	-1.25379	-0.73189	0.91398	-1.04359
532.015	-1.08832	-0.70160	1.06689	-1.09528
536.014	-1.15838	-0.58757	1.19018	-1.17532
540.015	-1.10738	-0.54830	1.26212	-1.25803
543.907	-1.06592	-0.47609	0.97809	-1.25144
548.014	-1.05590	-0.44206	1.17021	-1.27024
552.014	-1.05257	-0.27784	1.09763	-1.34134
556.015	-0.97621	-0.28632	0.94671	-1.44311
560.016	-0.88158	-0.15000	0.70771	-1.53206
563.992	-1.01412	0.00566	0.93959	-1.73175
568.015	-1.07242	-0.09960	0.62290	-1.98228
572.014	-0.97971	0.51533	0.45356	-1.71678
576.015	-1.08165	0.39055	0.40728	-1.90513
580.015	-1.04659	0.37046	0.36352	-2.00643
584.027	-1.08562	0.47581	0.33273	-1.62596
588.016	-1.15488	0.43404	0.01447	-1.32075
592.022	-1.16562	0.29559	0.00439	-1.09383
596.014	-1.22194	0.30766	0.01539	-0.96791
600.015	-1.41442	0.24804	-0.08066	-1.22582
604.014	-1.68860	-0.06781	-0.08416	-1.98224
608.016	-1.41938	-0.45444	-0.27222	-1.65770
612.016	-1.52627	-0.38661	-0.25448	-1.63337
616.015	-1.59169	-0.39956	-0.25803	-1.80341
619.890	-2.08753	0.32977	-0.23934	-2.01027
623.912	-2.12191	0.13754	-0.36484	-1.96590
627.891	-2.13936	0.11333	-0.40571	-2.11407
631.891	-1.99823	0.12233	-0.47041	-2.15391
635.891	-2.06897	0.17770	-0.44403	-2.11287
639.912	-2.08756	0.17400	-0.54146	-2.11547
643.891	-2.11019	0.14795	-0.54612	-2.20752
647.890	-2.02284	0.30908	-0.58647	-2.15865
651.868	-1.96794	0.25992	-0.52451	-2.09957
655.881	-1.99010	0.41405	-0.56466	-1.93264
659.847	-2.01072	0.33823	-0.53138	-2.12696
663.893	-1.93006	0.27800	-0.54979	-1.76124
667.891	-1.81228	0.32285	-0.54163	-1.70621
671.912	-1.72399	0.46518	-0.50540	-1.84156
675.892	-1.71429	0.35697	-0.58463	-0.79359
679.893	-1.62760	0.24052	-0.56337	-0.58736
683.891	-1.56704	0.09839	-0.49453	-0.75636
687.914	-1.68067	0.15072	-0.46128	-1.07849
691.886	-1.69250	0.00340	-0.40107	-1.23640
695.882	-1.68662	-0.06220	-0.37931	-1.43344
699.891	-1.70281	-0.21202	-0.34531	-1.48599
703.913	-1.60871	-0.05301	-0.41028	-1.48342
707.892	-1.52384	-0.14522	-0.30463	-1.57360
711.849	-1.58081	0.00241	-0.33302	-1.38562
715.892	-1.56196	-0.17564	-0.29831	-1.37974
719.912	-1.47479	-0.04653	-0.25264	-1.63022
723.892	-1.43778	-0.13221	-0.24490	-1.65855
727.895	-1.30699	-0.06407	-0.23671	-1.51801
731.892	-1.41186	-0.05217	-0.20403	-1.63916
735.915	-1.40202	0.05065	-0.21157	-1.67792
739.894	-1.26934	0.04735	-0.23445	-1.68286
743.894	-1.27021	0.18429	-0.24264	-1.62647
747.894	-1.30471	0.25004	-0.21308	-1.69088
751.886	-1.27899	0.25039	-0.18296	-1.68127
755.893	-1.26026	0.32080	-0.19469	-1.67703
759.888	-1.29673	0.36546	-0.21236	-1.73187
763.895	-1.30553	0.41909	-0.19802	-1.66635
767.914	-1.29566	0.34471	-0.23055	-1.59675
771.894	-1.32867	0.44763	-0.20594	-1.72743
775.876	-1.27366	0.48336	-0.17052	-2.73291
779.894	-1.27559	0.49484	-0.00737	-2.01590
783.914	-1.33646	0.52123	0.00814	-2.17261
787.849	-1.34132	0.55230	-0.06837	-1.96658
791.895	-1.36097	0.51477	-0.11250	-2.22883
795.897	-1.42933	0.57230	-0.05966	-2.31327
799.891	-1.43062	0.65780	0.21735	-2.76340
803.893	-1.50619	0.59548	0.13987	-2.60108
807.892	-1.72017	0.51925	0.23589	-2.82857
811.894	-1.89107	0.57450	0.33439	-3.03162
815.912	-1.83345	0.58719	0.25865	-3.08090
819.895	-1.85767	0.53384	0.55751	-2.87342
823.894	-2.01114	0.48710	0.50495	-3.04593
827.895	-2.02364	0.42207	0.43616	-3.21115
831.917	-2.28576	0.25795	0.67042	-3.01774
835.895	-2.48059	0.30804	0.73744	-0.97491
839.895	-2.38985	0.08655	1.14020	-0.94986
843.896	-2.43265	-0.33411	1.15697	-0.90470
847.917	-2.29562	-0.10349	1.04625	-1.31290
851.895	-2.15998	-0.28606	1.35631	-1.72879
855.895	-2.23538	-0.00278	1.15878	-1.33801
859.876	-2.05977	-0.01552	1.23806	-1.47778
863.920	-2.06609	0.14435	1.21005	-1.44966
867.898	-2.11157	0.16906	1.21380	-1.37423
871.897	-2.14783	0.05341	1.16637	-1.45751
875.896	-1.90688	0.05911	1.06550	-1.51059
879.921	-1.85670	0.01371	0.93448	-1.56733
883.896	-1.89134	-0.08278	0.82478	-1.65765
887.897	-1.77167	0.02918	0.74288	-1.73499
891.896	-1.71764	0.15250	0.37884	-1.80448
895.916	-1.71521	0.16721	0.43797	-1.67478
899.898	-1.69869	0.06309	0.14551	-1.84612
903.899	-1.62770	-0.01689	0.22634	-1.80610
907.896	-1.66792	-0.35097	0.00993	-1.90163
911.918	-1.64119	-0.38599	0.03055	-1.91081
915.896	-1.62874	-0.61817	-0.06304	-1.79454
919.897	-1.66906	-0.37645	-0.07877	-1.87879
923.896	-1.59375	-0.46399	-0.06991	-1.80688
927.915	-1.57334	-0.37555	-0.15928	-1.72395
931.897	-1.61734	-0.25564	-0.20015	-1.81422
935.898	-1.71513	-0.35525	-0.08373	-1.92469
939.898	-1.80948	-0.41194	-0.06338	-1.93687
943.917	-1.99895	-0.18849	-0.06649	-1.89093
947.902	-2.19504	-0.16788	-0.13746	-1.91818
951.898	-2.11742	-0.06888	-0.02601	-2.03953
955.896	-2.30779	-0.16720	-0.00720	-1.96500
959.919	-2.11016	-0.17129	0.00310	-2.01910
963.853	-2.32954	-0.16173	0.13776	-1.93210
967.897	-2.01962	-0.14247	0.29220	-1.92826
971.899	-2.09286	-0.16109	0.52783	-1.90939
975.921	-2.18106	-0.24913	0.69588	-1.79126
979.899	-1.92242	-0.23775	1.06049	-1.80617
983.879	-1.91717	-0.29651	1.08411	-1.82869
987.895	-1.86769	-0.27078	1.17731	-1.60338
991.921	-1.89154	-0.29971	1.04084	-1.60420
995.901	-1.81389	-0.29998	0.84602	-1.53375
999.900	-1.66762	-0.26334	0.60201	-1.53289
1003.900	-1.66021	-0.28684	0.95981	-1.43779
1007.922	-1.61942	-0.23915	0.14766	-1.35030
1011.899	-1.73182	-0.18355	-0.15327	-1.37555
1015.898	-1.81815	0.23339	0.85696	-1.57121
1019.901	-2.33750	0.39963	-1.40909	-1.25443
1023.890	-5.38516	4.52052	-4.43280	0.04402
1027.901	-3.06251	0.92805	-9.19191	0.76642
1031.900	-9.18975	0.92672	-6.71366	-0.63982
1035.899	-8.56869	0.78001	-9.99987	1.56560
1039.890	-11.31094	6.73091	NaN	NaN
1043.899	-15.92432	9.80934	NaN	NaN
1047.900	NaN	NaN	NaN	NaN
1051.900	NaN	NaN	NaN	NaN
1055.901	NaN	NaN	NaN	NaN
1059.899	NaN	NaN	NaN	NaN
1063.903	NaN	NaN	NaN	NaN
1067.898	NaN	NaN	NaN	NaN
1071.901	NaN	NaN	NaN	NaN
1075.899	NaN	NaN	NaN	NaN
1079.904	NaN	NaN	NaN	NaN
1083.898	NaN	NaN	NaN	NaN
1087.897	NaN	NaN	NaN	NaN
1091.902	NaN	NaN	NaN	NaN
1095.875	NaN	NaN	NaN	NaN
1099.900	NaN	NaN	NaN	NaN
1103.901	NaN	NaN	NaN	NaN
1107.891	NaN	NaN	NaN	NaN
1111.856	NaN	NaN	NaN	NaN
1115.902	NaN	NaN	NaN	NaN
1119.902	NaN	NaN	NaN	NaN
1123.904	NaN	NaN	NaN	NaN
1127.857	NaN	NaN	NaN	NaN
1131.903	NaN	NaN	NaN	NaN
1135.903	-15.88224	4.73565	-14.60337	13.17594
1139.904	-13.43885	5.14849	NaN	NaN
1143.903	-13.79714	4.62535	-19.73713	14.33833
1147.858	-15.66378	4.04100	-19.96595	9.91291
1151.872	-14.39720	4.56524	-14.62761	10.15367
1155.905	-13.67047	4.32984	-15.31210	7.60019
1159.903	-13.58252	2.73276	-15.37533	4.92922
1163.915	-13.46939	2.80106	-14.55207	4.12035
1167.901	-13.05545	2.79017	-14.98141	5.93046
1171.903	-9.81641	2.65933	-14.98984	5.38104
1175.902	-12.63993	2.44718	-14.91087	3.99389
1179.903	-11.92719	2.26149	-14.62240	3.46366
1183.901	-12.88235	2.00585	-14.25541	2.63938
1187.899	-12.73604	2.38147	-14.14674	2.01558
1191.883	-12.63629	2.25848	-12.46209	1.67161
1195.902	-12.66481	2.27041	-12.99727	1.37973
1199.902	-12.35022	1.79623	-12.60474	0.92878
1203.895	-12.44851	1.78731	-12.11121	0.42070
1207.904	-12.34460	1.75570	-11.95304	0.28924
1211.905	-12.32471	1.58667	-11.89074	0.31871
1215.903	-12.39977	1.56458	-11.83807	0.20548
1219.891	-12.44990	1.63430	-11.75857	0.16492
1223.904	-12.47733	1.67318	-11.81358	0.20601
1227.906	-12.41045	1.60889	-11.84059	0.33871
1231.904	-12.38351	1.59822	-11.88126	0.14028
1235.905	-12.35777	1.57703	-11.94132	0.11463
1239.905	-12.26775	1.78086	-11.94382	0.01223
1243.903	-12.13930	1.89656	-11.99103	0.03094
1247.905	-11.94365	2.01066	-11.99483	0.00112
1251.901	-11.89920	2.00618	-11.97420	-0.02742
1255.904	-11.72867	2.27304	-12.12544	-0.02872
1259.904	-11.90417	2.35742	-12.19311	0.06609
1263.906	-11.91607	2.25825	-12.15109	0.03253
1267.902	-11.75103	1.99823	-12.16252	0.02932
1271.905	-11.81891	2.14627	-12.16468	0.20898
1275.905	-11.79501	1.73069	-12.25280	0.42866
1279.859	-11.87546	1.77673	-12.22499	0.41433
1283.895	-11.96646	1.74537	-12.20695	0.42461
1287.905	-12.04303	1.54170	-12.14928	0.54394
1291.905	-12.12388	1.62288	-12.13764	0.62935
1295.909	-12.23147	1.85265	-12.19804	0.49972
1299.800	-12.18649	2.11014	-12.16285	0.63267
1303.905	-12.18398	2.47593	-12.10644	0.57773
1307.905	-12.26071	1.94801	-14.09810	-0.63062
1311.907	-12.52419	1.28477	-12.39035	0.24532
1315.801	-12.81157	-0.82649	-12.62684	-2.85049
1319.899	-12.89850	-2.37229	-12.41748	-3.06221
1323.906	-13.08571	-4.24270	-12.65578	-5.09850
1327.906	-13.10648	-4.73296	-12.59148	-6.47991
1331.801	-13.17583	-4.54272	-12.99201	-7.47092
1335.905	-13.43127	-4.63976	-13.48803	-6.92727
1339.906	-13.50574	-4.79417	-13.66151	-7.16822
1343.907	-13.49828	-4.61527	-13.49115	-7.10970
1347.807	-13.48078	-4.44526	-13.70868	-7.20026
1351.864	-13.64251	-4.71379	-13.73390	-7.17704
1355.909	-13.63754	-4.87414	-13.79632	-7.03575
1359.913	-13.66550	-4.81356	-13.90317	-7.26831
1363.790	-13.61940	-4.85435	-14.14695	-7.52503
1367.908	-13.67862	-4.89307	-14.29333	-7.62071
1371.907	-13.66922	-4.88761	-14.30091	-7.58187
1375.909	-13.68113	-5.01555	-15.43897	-6.79643
1379.808	-13.65545	-4.92852	-15.35150	-6.51087
1383.908	-13.60500	-4.86644	-15.46978	-6.12163
1387.908	-13.54089	-4.82582	-15.27219	-5.82599
1391.905	-13.60327	-5.00442	-15.10452	-5.66837
1395.806	-13.53441	-4.84083	-14.92827	-5.66879
1399.887	-13.46855	-4.73904	-15.02288	-5.32966
1403.905	-13.44113	-4.69142	-15.11137	-5.06740
1407.907	-13.51956	-4.58056	-15.02797	-4.87518
1411.909	-13.51947	-4.54966	-13.59570	-4.13408
1415.908	-13.52846	-4.45984	-13.20411	-4.05396
1419.908	-13.55105	-4.43420	-14.76554	-6.39051
1423.908	-13.55339	-4.54986	-14.36455	-6.49479
1427.805	-13.67079	-4.76600	-14.42325	-6.33446
1431.910	-13.79974	-4.90946	-14.14301	-6.26185
1435.910	-13.72800	-4.79747	-12.10737	-4.54189
1439.908	-13.77190	-4.86777	-12.19885	-4.35514
1443.802	-13.76460	-4.73393	-12.43677	-4.93818
1447.909	-13.78686	-5.06172	-12.31277	-4.86291
1451.909	-13.72435	-5.04431	-12.43506	-5.04119
1455.909	-13.60927	-5.08791	-12.26789	-5.05613
1459.806	-13.67154	-5.12791	-12.04870	-5.30738
1463.909	-13.55290	-4.98026	-12.01362	-5.43441
1467.909	-13.54443	-5.09042	-12.10518	-5.20007
1471.909	-13.48491	-5.08923	-12.07877	-5.15804
1475.802	-13.39471	-5.00721	-12.10203	-5.07034
1479.911	-13.37862	-4.98838	-12.12262	-5.10941
1483.911	-13.34592	-4.98730	-12.09982	-5.15747
1487.911	-13.31610	-5.03842	-12.04092	-5.12217
1491.803	-13.26055	-4.94240	-12.03826	-5.14462
1495.911	-13.23281	-4.92121	-11.99823	-4.99834
1499.911	-13.22566	-4.88721	-11.99498	-4.97797
1503.910	-13.20947	-4.89618	-11.97788	-4.95189
1507.806	-13.21230	-4.93231	-12.00041	-4.88472
1511.910	-13.22215	-4.88259	-11.95173	-4.83981
1515.910	-13.21653	-4.83825	-11.89659	-4.73302
1519.915	-13.25606	-4.69484	-11.82350	-4.64838
1523.812	-13.24529	-4.69286	-11.81765	-4.62390
1527.898	-13.24061	-4.61255	-11.76257	-4.55079
1531.910	-13.23899	-4.45583	-11.74577	-4.49541
1535.910	-13.40525	-4.48850	-11.70973	-4.43933
1539.807	-13.45695	-4.42146	-11.66341	-4.40750
1543.912	-13.50258	-4.46387	-11.61718	-4.35981
1547.911	-13.46890	-4.40935	-11.60937	-4.33707
1551.910	-13.48822	-4.38077	-11.52233	-4.29067
1555.807	-13.44914	-4.36428	-11.54246	-4.26576
1559.867	-13.44665	-4.35543	-11.52598	-4.26613
1563.912	-13.47676	-4.39467	-11.52481	-4.16827
1567.881	-13.45019	-4.40217	-11.59613	-4.14655
1571.914	-13.29685	-4.40850	-11.53017	-4.03232
1575.911	-13.24558	-3.79793	-11.48609	-3.49567
1579.911	-12.56808	-3.87864	-11.35322	-3.79265
1583.912	-9.73991	-2.60776	-10.99417	-3.75964
1587.810	-6.50097	-1.89767	-8.66268	-1.35408
1591.870	-5.40425	-1.96813	-7.41846	-1.49878
1595.912	-3.24677	-2.00273	-5.21082	-0.98993
1599.912	-1.50643	-2.09271	-2.70485	-1.01981
1603.913	1.12521	-2.64432	-1.09723	-1.28038
1607.896	1.68749	-2.51342	-0.14848	-0.98328
1611.911	4.59317	-2.64213	1.47801	-1.93050
1615.913	5.49495	-2.89731	4.76591	-2.23286
1619.811	8.03153	-3.20125	5.17986	-2.86307
1623.912	8.75579	-3.75400	8.32721	-3.45640
1627.913	8.83333	-3.51563	7.83758	-2.61411
1631.868	9.87666	-3.72034	9.10690	-3.57854
1635.786	9.34657	-3.90003	9.86177	-3.81221
1639.788	10.14708	-4.02446	10.22197	-4.07826
1643.789	9.99416	-4.18111	10.20933	-3.99854
1647.789	10.02798	-4.22266	10.26074	-4.23336
1651.786	10.21353	-4.33197	10.18303	-4.06625
1655.764	10.04533	-4.41347	10.26396	-4.16364
1659.744	9.93925	-4.72796	10.21464	-3.73280
1663.790	9.85096	-4.55675	9.97293	-3.74715
1667.779	9.86156	-4.47439	9.97568	-3.73162
1671.790	9.74928	-4.47985	9.95319	-3.79468
1675.790	9.46553	-4.54531	9.98088	-3.78434
1679.789	9.07416	-4.42191	9.94944	-3.78989
1683.780	8.71016	-4.44221	9.98812	-3.79157
1687.790	8.70740	-4.47481	10.05144	-3.88336
1691.792	8.85788	-4.44264	9.25146	-3.79017
1695.778	8.75405	-4.37650	8.96533	-3.67270
1699.811	8.69683	-4.49010	9.02677	-3.62908
1703.790	8.54816	-4.24633	9.10114	-3.50544
1707.787	8.52923	-4.22814	8.86311	-3.52545
1711.788	8.57668	-4.18792	8.97898	-3.54531
1715.808	8.51530	-4.31136	9.23224	-3.57660
1719.790	8.49719	-4.31261	9.10765	-3.68198
1723.789	8.51574	-4.25686	8.93404	-3.52941
1727.790	8.58599	-4.28928	9.30066	-3.58878
1731.814	8.68184	-4.25148	9.18035	-3.79718
1735.790	8.62598	-4.24993	9.16864	-3.72952
1739.753	8.57083	-4.51814	9.22426	-3.80855
1743.791	8.55212	-4.49738	9.40020	-3.97061
1747.789	8.54688	-4.39432	9.39702	-4.02514
1751.789	8.53957	-4.42503	9.49921	-4.02164
1755.790	8.56915	-4.35397	9.57068	-4.05496
1759.799	8.61819	-4.45868	9.68848	-4.10689
1763.789	8.67170	-4.40225	9.68484	-4.07309
1767.791	8.62472	-4.50309	9.88333	-4.14185
1771.746	8.68640	-4.66393	9.93260	-4.15270
1775.748	8.53746	-4.68331	9.98138	-4.10273
1779.782	8.64965	-4.77114	10.04196	-4.07974
1783.793	8.68070	-4.76021	10.07180	-4.13552
1787.791	8.53923	-4.72866	10.03520	-4.14443
1791.791	8.48658	-4.69811	9.60094	-4.12877
1795.812	8.62256	-4.73624	9.32608	-4.24462
1799.798	8.48658	-4.45271	9.34164	-4.35128
1803.790	8.47884	-4.51404	9.28067	-4.53971
1807.790	8.40885	-4.19254	9.35851	-4.56718
1811.812	8.45478	-4.11417	9.22504	-4.60052
1815.792	8.32031	-4.19446	9.47145	-4.92202
1819.788	8.26288	-3.95953	9.23531	-4.76523
1823.783	8.22382	-4.01641	9.16305	-4.75690
1827.795	8.13648	-3.97699	9.22390	-4.76220
1831.791	8.08798	-3.87338	9.30058	-4.84817
1835.792	8.12651	-3.87007	9.20168	-4.78668
1839.794	8.08144	-3.67236	9.36793	-4.68941
1843.792	8.06321	-3.51506	9.34186	-4.62270
1847.793	8.03988	-3.57899	9.44902	-4.56382
1851.796	7.99798	-3.43509	9.41996	-4.52250
1855.790	8.03647	-3.40007	9.37735	-4.50488
1859.819	8.04127	-3.24594	9.32997	-4.47213
1863.762	8.06759	-3.23143	9.32272	-4.45236
1867.792	8.14098	-3.17983	9.34394	-4.47248
1871.793	8.10705	-3.28003	9.16941	-4.16313
1875.783	8.20646	-3.33373	9.43011	-4.63982
1879.795	10.49008	-3.23677	9.29829	-3.87523
1883.793	10.95913	-2.92755	9.24651	-3.35437
1887.793	10.86510	-1.77256	9.57394	-2.51910
1891.783	10.72007	-1.24538	9.64415	-1.41129
1895.795	10.67099	0.29332	10.05014	-0.52670
1899.799	10.50498	0.55986	10.05945	0.03582
1903.783	10.55793	0.74825	10.70174	-0.83034
1907.755	10.56747	0.79385	10.65760	-0.92267
1911.793	10.57471	0.81459	10.56265	-0.89944
1915.770	10.62710	0.84629	10.69872	-0.86428
1919.795	10.67308	0.86196	10.76144	-0.63589
1923.791	10.73682	0.95568	10.81434	-0.56617
1927.795	10.59502	1.04686	10.84018	-0.53196
1931.795	10.55394	1.05137	10.81025	-0.61753
1935.794	10.57809	1.02003	10.77562	0.49311
1939.795	10.57150	1.13721	10.69139	0.49535
1943.795	10.54593	1.17548	10.71427	0.71047
1947.757	10.56116	1.15283	10.57680	0.49717
1951.795	10.49147	1.21471	10.39599	0.36402
1955.751	10.50206	1.26310	10.43224	1.13687
1959.824	10.38605	1.29157	10.37474	1.04467
1963.753	10.37006	1.37027	10.31338	1.28879
1967.797	10.36343	1.34800	10.26951	1.19859
1971.785	10.32594	1.37496	10.27335	1.37499
1975.799	10.36459	1.39294	10.50517	1.15299
1979.799	10.30591	1.44077	11.14488	1.17444
1983.796	10.31655	1.48798	11.23745	1.06368
1987.783	10.31530	1.47728	11.17825	1.14996
1991.796	10.26975	1.53599	11.71994	1.04585
1995.797	10.25370	1.56529	11.99315	0.95774
1999.802	10.26771	1.54524	12.29294	-0.16549
2003.793	10.45608	1.55652	12.25261	-0.10857
2007.797	10.78556	1.41358	11.97159	-0.39333
2011.809	10.76511	1.24115	12.04832	-0.13624
2015.797	11.02122	1.06827	12.08259	0.13763
2019.785	10.92483	1.09315	11.96543	0.27430
2023.798	10.97205	1.13729	11.75355	-0.18441
2027.799	10.93672	1.19810	11.63830	0.03948
2031.789	10.79662	1.25751	11.85286	-0.32464
2035.793	10.92397	1.17935	11.71451	-0.45078
2039.797	11.22580	0.59043	11.47419	-0.50516
2043.797	11.37226	0.42227	11.47395	-0.66329
2047.798	11.36971	0.43972	11.21348	-0.48726
2051.788	11.30548	0.57046	11.18408	-0.59844
2055.798	11.13788	0.53720	11.10359	-0.54921
2059.828	11.22740	0.45795	10.88824	-0.39184
2063.801	11.20930	0.63790	11.16743	-0.30939
2067.788	11.11807	0.50364	11.25915	-0.57206
2071.769	10.91109	0.53486	11.47372	-0.35145
2075.799	10.77057	0.64170	10.95555	-0.36313
2079.798	11.24320	0.51310	10.65192	0.34856
2083.797	10.13402	0.78582	8.31800	0.61563
2087.796	7.31692	2.65798	6.40503	2.91462
2091.800	6.04522	3.04037	2.58254	2.66756
2095.799	5.38169	3.37261	0.96142	4.76376
2099.801	-0.24937	3.78553	-1.87798	3.57155
2103.802	-2.64280	3.89310	-4.13698	7.02377
2107.796	-4.37939	7.44069	NaN	NaN
2111.789	NaN	NaN	NaN	NaN
2115.796	NaN	NaN	NaN	NaN
2119.822	NaN	NaN	NaN	NaN
2123.795	NaN	NaN	NaN	NaN
2127.800	NaN	NaN	NaN	NaN
2131.754	NaN	NaN	NaN	NaN
2135.800	NaN	NaN	NaN	NaN
2139.796	NaN	NaN	NaN	NaN
2143.796	NaN	NaN	NaN	NaN
2147.799	NaN	NaN	NaN	NaN
2151.799	NaN	NaN	NaN	NaN
2155.799	NaN	NaN	NaN	NaN
2159.798	NaN	NaN	NaN	NaN
2163.799	NaN	NaN	NaN	NaN
2167.755	NaN	NaN	NaN	NaN
2171.801	NaN	NaN	NaN	NaN
2175.800	NaN	NaN	NaN	NaN
2179.801	NaN	NaN	NaN	NaN
2183.757	NaN	NaN	NaN	NaN
2187.799	NaN	NaN	NaN	NaN
2191.804	NaN	NaN	NaN	NaN
2195.798	-11.98930	1.39697	NaN	NaN
2251.786	-11.67658	7.74735	-11.88057	8.58775
2255.802	-11.52762	7.81133	-12.01255	8.17180
2259.803	-11.47221	7.99553	-11.73876	6.85583
2263.801	-11.49626	8.12479	-11.20550	6.86470
2267.802	-11.50325	7.90170	-11.01558	6.72892
2271.756	-11.49252	7.87507	-10.86328	6.66473
2275.803	-11.45364	7.81018	-10.89736	6.62659
2279.794	-11.48037	7.87314	-10.93028	6.52153
2283.803	-11.45817	7.78935	-10.91851	6.47033
2287.803	-11.42174	7.76053	-11.00144	6.51164
2291.803	-11.39251	7.73522	-10.93593	6.42272
2295.807	-11.45107	7.74897	-10.90360	6.37148
2299.803	-11.47839	7.67412	-10.84566	6.46918
2303.814	-11.52755	7.61597	-10.75076	6.91885
2307.803	-11.55597	7.56139	-10.71509	7.07860
2311.802	-11.58491	7.49252	-10.54296	6.95985
2315.803	-11.60842	7.41453	-10.55677	7.11402
2319.805	-11.65937	7.27053	-10.52873	6.90369
2323.800	-11.68507	7.10900	-10.48346	6.92475
2327.803	-11.70868	7.27234	-10.51381	6.91473
2331.803	-11.68407	7.33367	-10.50086	6.91112
2335.803	-11.70342	7.35576	-10.53483	6.92633
2339.805	-11.68372	7.36951	-10.50861	7.07980
2343.804	-11.65946	7.24208	-10.49750	6.95470
2347.804	-11.66653	7.26748	-10.56836	6.86883
2351.804	-11.70152	7.24684	-10.62375	6.71435
2355.806	-11.68572	7.18977	-10.73689	6.71917
2359.807	-11.68665	7.25096	-10.82545	6.65733
2363.769	-11.68329	7.27257	-10.93404	6.58976
2367.807	-11.56231	7.30403	-10.88994	6.49005
2371.806	-11.56269	7.31375	-10.72321	6.44236
2375.807	-11.55419	7.24776	-10.72422	6.47953
2379.805	-11.55033	7.20240	-10.76827	6.33805
2383.802	-11.59001	7.18730	-10.76868	6.43633
2387.804	-11.68234	7.19223	-10.70483	6.33196
2391.809	-11.63263	7.17153	-10.85667	6.41092
2395.805	-11.60313	7.16907	-11.00926	6.35612
2399.761	-11.69700	7.17638	-10.95669	6.28272
2403.786	-11.66413	7.18721	-10.98434	6.24164
2407.807	-11.70204	7.20187	-10.66016	6.26239
2411.771	-11.65375	7.18608	-10.72244	6.26792
2415.806	-11.69038	7.17360	-10.83994	6.25724
2419.807	-11.83785	7.20424	-10.95452	6.21341
2423.808	-11.69954	7.25357	-11.05395	6.25640
2427.805	-11.67158	7.20809	-10.92562	6.03583
2431.805	-11.80921	7.18476	-10.93803	5.92647
2435.805	-12.09130	7.12769	-11.90538	6.11988
2439.811	-12.53916	7.14511	-14.07429	6.02934
2443.799	-14.58724	6.78112	-14.67855	5.97423
2447.798	-15.32812	6.83517	-14.74771	5.27351
2451.805	-15.15321	6.75645	-14.58752	5.67805
2455.808	-15.16851	6.51228	-13.86097	4.70780
2459.808	-15.21409	6.41941	-14.06941	5.43339
2463.807	-14.72698	6.07353	-14.17864	5.53949
2467.808	-14.83079	6.02076	-14.51477	5.43007
2471.701	-14.83501	6.25194	-14.60874	5.39896
2475.808	-15.00255	6.16757	-14.35736	5.11614
2479.810	-15.09527	6.17230	-14.55132	4.91447
2483.807	-14.95786	5.88246	-14.48069	4.82880
2487.809	-14.96286	6.03576	-14.40705	5.11980
2491.808	-14.94217	5.98863	-14.20495	4.91582
2495.808	-14.89562	5.98092	-14.34680	5.26611
2499.809	-14.94043	5.90180	-14.20560	5.41822
2503.813	-14.90459	5.83743	-14.28452	5.76477
2507.807	-14.96378	5.92665	-14.42293	5.51884
2511.809	-14.97451	5.96380	-14.27382	5.34801
2515.808	-14.99836	5.95597	-14.32209	4.76047
2519.710	-14.96629	5.86565	-14.42188	5.87261
2523.808	-14.91105	5.83065	-14.22092	5.94206
2527.789	-14.97872	5.97390	-14.24520	6.06380
2531.807	-14.94718	5.94406	-14.17073	6.29320
2535.810	-14.93314	5.94478	-14.16175	6.31585
2539.807	-14.97398	5.87326	-14.06378	6.10131
2543.808	-14.90329	5.92474	-14.16210	6.13516
2547.808	-14.87851	5.98600	-14.20439	5.92119
2551.706	-14.87137	6.00667	-14.42616	6.13606
2555.809	-14.85252	6.08451	-14.27532	5.12163
2559.808	-14.87274	6.12739	-14.27613	6.03609
2563.809	-14.91845	6.12038	-14.03582	5.84293
2567.707	-14.94868	6.25180	-13.92391	6.61528
2571.774	-15.02582	6.24278	-13.82099	5.96102
2575.811	-15.05663	6.04310	-13.83409	5.83533
2579.809	-15.00315	6.20833	-14.01961	5.58689
2583.676	-14.96168	6.16584	-14.19270	5.46035
2587.809	-14.94808	6.27153	-14.25884	5.60102
2591.810	-14.89942	6.40433	-14.32773	5.65945
2595.810	-14.85704	6.46337	-14.45651	5.74981
2599.812	-14.81398	6.26251	-14.55874	5.59494
2603.815	-14.83803	6.25907	-14.24818	5.49389
2607.810	-14.74748	6.41908	-14.11064	5.75254
2611.788	-14.78122	6.27563	-13.97026	5.49298
2615.813	-14.78201	6.10885	-14.12940	5.49649
2619.809	-14.78542	6.16533	-13.96977	5.00707
2623.810	-14.75201	6.57412	-13.73910	5.63647
2627.809	-14.70131	6.49502	-13.81425	5.61448
2631.813	-14.66817	6.54728	-13.73521	5.65966
2635.811	-14.70077	6.38636	-13.71985	5.63650
2639.810	-14.78148	6.43697	-13.74107	5.64950
2643.808	-14.82840	6.42380	-13.82653	5.55331
2647.770	-14.69504	6.46246	-13.84663	5.56227
2651.797	-14.69014	6.27866	-13.99349	5.48731
2655.800	-14.74214	6.23037	-13.99340	5.48550
2659.811	-14.75720	6.30226	-14.17353	5.40434
2663.813	-14.71020	6.27196	-14.17217	5.40194
2667.687	-14.74367	6.17321	-14.21169	5.22153
2671.687	-14.76950	6.22617	-14.27320	5.34032
2675.687	-14.81358	6.22440	-14.30349	5.35803
2679.706	-14.86365	6.33640	-14.33956	5.35562
2683.687	-14.87656	6.30262	-14.37778	5.53748
2687.687	-14.87195	6.14551	-14.43037	5.39587
2691.687	-14.86182	6.22679	-14.45693	5.16919
2695.712	-14.90301	6.38835	-14.43610	5.32662
2699.668	-14.86660	6.46748	-14.47978	5.18597
2703.685	-14.86075	6.38730	-14.44420	5.23705
2707.685	-14.83891	6.45817	-14.43212	5.60689
2711.679	-14.85352	6.31005	-14.46552	5.41346
2715.686	-14.86683	6.28251	-14.46028	5.26750
2719.643	-14.87462	6.14714	-14.47708	5.40783
2723.687	-14.81518	6.07940	-14.47315	5.48409
2727.716	-14.75799	6.10375	-14.48394	5.57733
2731.687	-14.74268	6.21095	-14.43689	5.69814
2735.688	-14.68633	6.03037	-14.45612	6.26590
2739.686	-14.63811	6.04495	-14.41981	6.20560
2743.710	-14.66589	6.05841	-14.36916	5.55610
2747.687	-14.59821	6.09365	-14.30149	5.79318
2751.689	-14.56383	6.15482	-14.28662	5.36086
2755.688	-14.47985	6.26654	-14.19499	5.51360
2759.707	-14.46144	6.42768	-14.16077	5.59181
2763.688	-14.53907	6.47819	-14.17381	5.94436
2767.688	-14.78521	6.32104	-14.29944	5.59963
2771.690	-14.49604	6.62393	-14.23452	5.62387
2775.678	-14.00625	7.06107	-14.11603	5.06408
2779.691	-12.84130	6.48411	-13.83662	5.19822
2783.664	-12.02022	6.49265	-11.31099	5.56227
2787.690	-11.67801	6.47975	-10.97239	5.11360
2791.715	-11.36739	6.27244	-11.05828	4.12692
2795.690	-11.18157	5.50256	-10.68485	4.33218
2799.690	-11.26973	5.57579	-10.82306	4.11200
2803.690	-11.26292	5.47318	-10.74075	4.17301
2807.711	-11.39182	5.31285	-10.72958	4.04907
2811.690	-11.49457	5.24422	-10.69479	4.04249
2815.690	-11.24175	5.32367	-10.66697	4.13263
2819.693	-11.23848	5.39744	-10.66524	3.86847
2823.701	-11.15556	5.10118	-10.62214	3.88618
2827.680	-11.17362	5.13470	-10.52077	3.93386
2831.690	-11.08378	5.16039	-10.48135	3.84911
2835.654	-10.89406	5.06297	-10.47050	3.88303
2839.710	-10.93768	5.13714	-10.42281	3.86674
2843.689	-10.92928	5.07525	-10.62473	3.84545
2847.690	-11.16206	5.20979	-10.70385	3.77583
2851.691	-11.15654	5.25665	-10.68995	3.83641
2855.711	-11.24521	5.25108	-10.62070	3.96630
2859.692	-11.34077	5.42916	-10.79375	3.98610
2863.691	-11.21276	5.45401	-10.79334	3.92457
2867.656	-11.24924	5.54352	-10.78482	3.91914
2871.681	-11.14729	5.32099	-10.81547	4.02518
2875.691	-11.02294	5.33340	-10.76343	4.10370
2879.690	-11.03851	5.45061	-10.72098	4.23761
2883.688	-11.10983	5.51889	-10.70033	4.46665
2887.710	-11.20139	5.08778	-10.72743	4.29103
2891.692	-11.32548	5.01213	-10.87924	4.34987
2895.647	-11.18568	4.75425	-10.94091	4.27852
2899.647	-11.41140	4.98817	-10.89808	4.12631
2903.710	-11.49047	5.04603	-10.88149	4.07827
2907.694	-11.46027	5.10611	-10.71856	4.23327
2911.692	-11.42182	5.27481	-10.69235	4.10160
2915.693	-11.34893	5.37064	-10.94428	4.24545
2919.649	-11.34108	5.44920	-10.92155	4.05767
2923.693	-11.48892	5.58850	-10.87783	3.94396
2927.692	-11.45715	5.43832	-10.87912	3.82789
2931.692	-11.38304	5.46491	-10.78937	3.71150
2935.710	-11.39914	5.50737	-10.90648	3.69433
2939.692	-11.38430	5.50539	-10.71595	3.68696
2943.693	-11.25963	5.42837	-10.52617	4.02645
2947.691	-11.19848	5.43833	-10.76812	4.65804
2951.683	-11.27304	5.01976	-10.79825	4.48721
2955.695	-11.27228	5.08390	-10.92681	4.65885
2959.692	-11.35532	5.03518	-10.81717	3.97790
2963.694	-11.33371	5.09372	-10.60255	3.64416
2967.716	-11.53031	5.29616	-10.79308	3.03237
2971.692	-11.34502	5.12726	-10.75850	4.01127
2975.694	-11.45102	5.00251	-10.81487	4.18383
2979.693	-11.44721	4.97942	-10.74839	4.34283
2983.716	-11.43126	5.00815	-10.71794	4.03916
2987.697	-11.45083	4.96797	-10.56471	3.77463
2991.671	-11.39110	4.93352	-10.78934	3.74363
2995.694	-11.48871	5.06474	-10.95083	3.74712
2999.696	-11.46950	5.30092	-10.88872	3.28269
3003.694	-11.44265	5.18861	-10.81140	2.90366
3007.695	-11.44010	5.19465	-11.00027	2.58970
3011.694	-11.30958	4.98795	-11.02691	3.82319
3015.692	-11.41078	5.29204	-11.06968	3.94515
3019.695	-11.31560	5.30397	-11.24139	3.66691
3023.693	-11.43886	5.17143	-11.15298	3.43099
3027.697	-11.43474	5.06104	-11.11853	3.47112
3031.692	-11.38700	5.13050	-11.18112	3.72984
3035.685	-11.45867	5.21723	-11.05201	3.23206
3039.650	-11.29686	5.11748	-11.12051	3.42192
3043.695	-11.22004	5.07577	-11.11105	3.48360
3047.716	-11.30691	5.24622	-11.17285	3.66251
3051.694	-11.37083	5.47743	-11.04869	3.50567
3055.695	-11.41359	5.52826	-10.99984	3.54873
3059.694	-11.44552	5.65485	-11.02132	3.33888
3063.698	-11.42027	5.39451	-10.93854	3.09586
3067.695	-11.43896	5.49005	-11.00498	3.14037
3071.696	-11.42134	5.44497	-10.95940	2.72935
3075.666	-11.45155	5.40044	-10.96849	2.79781
3079.661	-11.51414	5.46237	-11.01620	2.59687
3083.696	-11.54232	5.45763	-11.04068	2.95479
3087.693	-11.55299	5.43918	-11.36599	3.32620
3091.697	-11.56483	5.47628	-11.24550	3.32374
3095.684	-11.58922	5.43839	-11.23050	3.26599
3099.696	-11.57836	5.39191	-11.11291	3.60587
3103.696	-11.44516	5.53339	-10.92224	3.17708
3107.700	-11.19521	5.50117	-10.22656	3.41952
3111.699	-6.28749	5.20368	-9.06652	3.33907
3115.673	-6.08225	5.47996	-8.00766	3.50844
3119.697	-5.19074	5.12007	-6.43824	3.62054
3123.697	-2.46763	4.51299	-5.34083	2.99581
3127.715	-3.48773	3.89814	-3.04266	1.07016
3131.699	-2.46699	3.37176	-5.92572	-2.03970
3135.697	-0.03747	2.98134	0.03462	1.83510
3139.698	0.00573	2.84284	-0.31039	0.84713
3143.701	-2.17864	2.03433	3.61980	0.23468
3147.653	3.02482	3.30663	3.32053	0.41294
3151.703	3.87144	5.24912	1.61411	-0.70272
3155.697	5.66892	9.01499	0.80565	-1.15760
3159.694	NaN	NaN	3.26008	5.38512
3163.697	NaN	NaN	NaN	NaN
3167.697	NaN	NaN	NaN	NaN
3171.696	NaN	NaN	NaN	NaN
3175.696	NaN	NaN	NaN	NaN
3179.650	NaN	NaN	NaN	NaN
3183.697	NaN	NaN	NaN	NaN
3187.695	NaN	NaN	NaN	NaN
3191.697	NaN	NaN	NaN	NaN
3195.653	NaN	NaN	NaN	NaN
3199.675	NaN	NaN	NaN	NaN
3203.697	NaN	NaN	NaN	NaN
3207.697	NaN	NaN	NaN	NaN
3211.697	NaN	NaN	NaN	NaN
3215.653	NaN	NaN	NaN	NaN
3219.700	NaN	NaN	NaN	NaN
3223.720	NaN	NaN	NaN	NaN
3227.698	NaN	NaN	8.57825	8.64494
3231.699	NaN	NaN	6.61535	9.00352
3235.698	3.42525	3.19850	6.06451	1.39300
3239.685	3.18400	5.58701	8.77012	1.44094
3243.699	1.72066	7.70360	12.30355	1.78978
3247.691	2.55797	7.77818	8.72377	-0.23017
3251.698	2.28576	2.14396	4.95906	-2.10120
3255.699	2.56191	-0.19576	4.39970	-2.43641
3259.698	4.20047	1.64005	2.12573	-1.74123
3263.690	4.16216	1.21763	1.68771	-1.39015
3267.700	-0.21442	-0.07599	2.68442	-0.97310
3271.699	-0.11386	0.28293	3.06142	-0.77781
3275.700	-0.10711	0.20612	2.97458	-0.11090
3279.702	0.93569	1.15366	2.30816	-0.60630
3283.673	2.75381	0.80840	2.69787	-1.16673
3287.702	4.46406	1.03206	2.90440	-1.33247
3291.701	3.27989	0.69135	2.76794	-1.16562
3295.691	3.42250	0.67717	2.84861	-1.03492
3299.700	3.74706	0.69180	2.93839	-1.07086
3303.700	3.25795	0.50651	2.95569	-1.03673
3307.705	3.10940	0.49629	3.05325	-1.09885
3311.703	3.22131	0.55967	3.07530	-1.07027
3315.698	3.09809	0.56370	3.01220	-1.11472
3319.702	3.00868	0.52946	3.04138	-1.05937
3323.684	3.03415	0.48104	3.04336	-1.08881
3327.698	2.94059	0.49160	3.16577	-1.05510
3331.702	2.99920	0.54182	3.26960	-0.94490
3335.700	2.98589	0.28860	3.35946	-0.89822
3339.702	2.90349	0.27882	3.27534	-0.89966
3343.702	2.85190	0.39163	3.35419	-0.96937
3347.704	2.83870	0.35150	3.35657	-0.92925
3351.702	2.85111	0.29218	3.33146	-0.85380
3355.703	2.76307	0.37952	3.44201	-0.82518
3359.706	2.77005	0.46440	3.58316	-0.80252
3363.695	2.78196	0.49564	3.67640	-0.89350
3367.702	2.81296	0.42428	3.93917	-1.04344
3371.704	2.77711	0.53394	3.69076	-0.96228
3375.703	2.73016	0.48913	3.60680	-0.97742
3379.703	2.68076	0.48153	3.53233	-1.05885
3383.702	2.64406	0.49356	3.56789	-1.08333
3387.701	2.61216	0.46687	3.67413	-1.04354
3391.701	2.54754	0.48454	3.79277	-1.11738
3395.712	2.51378	0.57171	3.92593	-1.16907
3399.701	2.51517	0.54214	3.93458	-1.32750
3403.698	2.51569	0.55435	3.96563	-1.43435
3407.600	2.49528	0.52222	3.99052	-1.63394
3411.658	2.48331	0.56857	3.87262	-1.59114
3415.705	2.55715	0.51829	3.89446	-1.66673
3419.702	2.52381	0.53439	3.85958	-1.69437
3423.599	2.57501	0.55681	3.93991	-1.77641
3427.703	2.59027	0.63400	3.96992	-1.82974
3431.704	2.58774	0.68649	3.97563	-1.87596
3435.702	2.65117	0.68572	3.97434	-1.90820
3439.701	2.65785	0.73823	3.94740	-1.88268
3443.704	2.67898	0.72667	3.93683	-1.89766
3447.694	2.68423	0.72699	3.92401	-1.92954
3451.695	2.69586	0.85884	3.90664	-1.96177
3455.598	2.73526	0.96333	3.96155	-2.04409
3459.704	2.69846	1.02018	3.96716	-1.99827
3463.659	2.76765	0.97556	3.96437	-1.99273
3467.707	2.77035	1.04496	4.00788	-1.93779
3471.598	2.85378	0.95581	4.02480	-2.03760
3475.704	2.87425	1.02894	4.10016	-1.85245
3479.704	3.02868	1.09240	4.06730	-1.83586
3483.706	2.96903	1.11788	3.77211	-1.42276
3487.603	2.99868	1.10295	3.31667	-1.16892
3491.675	3.01913	1.17240	3.15592	-1.40881
3495.703	3.08228	1.05990	3.13806	-1.28554
3499.706	3.10349	1.07503	3.47208	-1.14270
3503.602	3.02655	0.94795	3.33844	-1.22069
3507.705	3.05395	0.90605	3.05115	-1.45029
3511.707	5.82385	0.84722	5.29061	-1.92564
3515.705	6.59118	-0.51676	5.91364	-1.82618
3519.599	9.09265	-3.02702	7.15213	-2.54389
3523.662	8.82083	-3.42371	7.96957	-3.61273
3527.705	9.07365	-5.14110	7.77451	-3.93614
3531.706	9.15957	-6.20875	8.36049	-4.36828
3535.594	9.43875	-6.29244	10.17767	-4.98295
3539.706	9.91368	-6.26953	9.90633	-5.08272
3543.707	10.09506	-6.37952	10.64012	-5.87458
3547.706	10.36307	-6.54378	10.61855	-6.06450
3551.605	10.07232	-6.27892	10.71374	-5.92284
3555.708	10.16788	-6.47911	10.66210	-6.10066
3559.706	10.29728	-6.40598	10.75876	-6.01983
3563.706	10.35337	-6.45472	10.68406	-6.08008
3567.601	10.28126	-6.43832	10.70119	-5.99702
3571.704	10.47460	-6.44627	10.53917	-5.88521
3575.702	10.44537	-6.41434	10.59071	-5.88838
3579.708	10.51631	-6.34720	10.58759	-5.88409
3583.576	10.54711	-6.29264	10.55699	-5.88492
3587.665	10.58831	-6.27992	10.53036	-5.85779
3591.707	10.57630	-6.18038	10.49956	-5.78752
3595.708	10.48488	-5.96966	10.52823	-5.82154
3599.603	10.44525	-5.95970	10.72357	-5.81948
3603.719	10.23634	-5.63086	10.74649	-5.82975
3607.707	10.25966	-5.52262	10.67428	-5.76428
3611.702	9.86543	-5.95027	10.64686	-5.75169
3615.607	9.85852	-5.91009	10.70795	-5.80799
3619.707	9.89140	-5.93435	10.70157	-5.77343
3623.707	9.74752	-5.87609	10.73979	-5.82079
3627.707	9.74731	-5.82488	10.68235	-5.87387
3631.608	9.69494	-5.70036	10.79547	-6.01073
3635.708	9.60524	-5.56164	10.63420	-6.01560
3639.707	9.52210	-5.47053	10.69381	-6.05263
3643.707	9.48381	-5.43320	10.65887	-6.15965
3647.571	9.41078	-5.36833	10.57342	-6.34973
3651.711	9.38472	-5.39031	10.53156	-6.13420
3655.709	9.34193	-5.06733	10.41189	-6.43696
3659.711	9.37165	-5.22097	10.34520	-6.55083
3663.606	9.31600	-5.02296	10.26542	-6.48137
3667.705	9.20840	-5.05460	10.20608	-6.56822
3671.710	9.18189	-4.98199	10.14699	-6.55081
3675.710	9.15495	-5.01504	10.04935	-6.50859
3679.605	9.10267	-4.91734	10.09850	-6.61118
3683.708	9.07523	-4.94000	10.05166	-6.61991
3687.711	9.06572	-4.88377	9.96631	-6.60350
3691.584	8.99588	-4.86417	9.89561	-6.52898
3695.607	8.95588	-4.80701	9.84811	-6.53192
3699.585	8.95523	-4.83756	9.81395	-6.47523
3703.563	8.89787	-4.74780	9.77782	-6.44650
3707.579	8.86420	-4.73311	9.73844	-6.38409
3711.686	8.91873	-4.64068	9.70478	-6.35645
3715.539	8.95927	-4.62539	9.62770	-6.32142
3719.584	8.93394	-4.55583	9.57882	-6.27214
3723.584	8.96680	-4.48158	9.58198	-6.24211
3727.582	8.96857	-4.38911	9.51536	-6.20767
3731.586	8.91972	-4.36063	9.53576	-6.13699
3735.585	8.91757	-4.32033	9.51850	-6.06879
3739.587	8.97315	-4.30533	9.51063	-6.04145
3743.540	8.93358	-4.27919	9.51355	-5.86605
3747.575	8.91086	-4.22318	9.49859	-5.70417
3751.586	8.82754	-4.21260	9.74538	-5.49773
3755.585	8.79858	-4.17918	9.78214	-5.49308
3759.608	8.74847	-4.15340	9.73865	-5.22205
3763.587	8.71172	-4.16840	9.85252	-5.27523
3767.586	8.71222	-4.19234	10.11846	-5.35586
3771.586	8.66401	-4.27684	10.28789	-5.33427
3775.544	8.68599	-4.24721	10.07358	-5.28080
3779.587	8.66033	-3.93336	10.28986	-5.32233
3783.586	8.62523	-3.74899	10.43839	-5.43651
3787.555	8.57241	-3.73388	10.42307	-5.21813
3791.606	8.53850	-3.82376	10.54960	-5.35180
3795.587	8.69566	-4.26591	10.71240	-5.52260
3799.586	8.77887	-4.20805	10.52214	-5.61445
3803.587	8.68041	-4.01397	10.54876	-5.67300
3807.575	8.90626	-3.65544	10.44967	-5.48372
3811.619	8.67861	-3.36262	10.41105	-5.48157
3815.587	8.60400	-3.49458	10.26292	-5.51677
3819.587	8.37973	-3.31377	10.10141	-5.30640
3823.577	8.30395	-3.40393	10.20680	-5.46574
3827.569	8.38010	-3.58539	10.06260	-5.12519
3831.585	8.47243	-3.73106	10.36838	-5.41802
3835.587	7.41682	-3.08621	9.95326	-4.65939
3839.577	5.69831	-1.64743	5.84321	-3.89164
3843.585	-0.97688	-2.29787	12.54195	-5.19361
3847.589	2.82699	-3.38740	1.19524	-5.24694
3851.587	NaN	NaN	4.24821	-1.97111
3855.609	NaN	NaN	NaN	NaN
3859.585	NaN	NaN	NaN	NaN
3863.592	NaN	NaN	NaN	NaN
3867.589	NaN	NaN	NaN	NaN
3871.552	NaN	NaN	NaN	NaN
3875.588	NaN	NaN	NaN	NaN
3879.545	NaN	NaN	NaN	NaN
3883.591	NaN	NaN	NaN	NaN
3887.589	NaN	NaN	NaN	NaN
3891.589	NaN	NaN	NaN	NaN
3895.588	NaN	NaN	NaN	NaN
3899.588	NaN	NaN	NaN	NaN
3903.589	NaN	NaN	NaN	NaN
3907.587	NaN	NaN	NaN	NaN
3911.570	NaN	NaN	NaN	NaN
3915.590	NaN	NaN	NaN	NaN
3919.590	NaN	NaN	NaN	NaN
3923.591	NaN	NaN	NaN	NaN
3927.590	NaN	NaN	NaN	NaN
3931.590	NaN	NaN	NaN	NaN
3935.589	-12.26256	2.94856	NaN	NaN
3939.591	NaN	NaN	NaN	NaN
3943.579	-11.79586	-4.49848	NaN	NaN
3947.594	-12.21535	-0.31961	-15.27182	13.51182
3951.586	-2.16121	-4.69735	-13.21460	4.26944
3955.580	-12.21921	1.19765	-11.92534	-2.46990
3959.601	-1.79579	-1.00763	-13.12208	-2.17703
3963.545	-1.81089	-0.68246	-12.56389	-2.66823
3967.591	-5.73949	-0.44919	-2.88210	-2.91869
3971.590	-6.53928	0.54373	-11.99417	-1.19926
3975.576	-8.69932	0.51478	-5.17398	-1.33372
3979.591	-9.15222	0.41715	-6.81970	-1.99204
3983.591	-6.99805	0.39615	-6.62167	-2.60709
3987.592	-6.62104	-0.20085	-6.63198	-2.62654
3991.582	-6.63663	-0.12386	-6.33986	-2.51520
3995.560	-7.20360	-0.12159	-6.03776	-2.37567
3999.590	-7.28874	-0.11895	-6.28778	-2.37391
4003.591	-7.62050	-0.17088	-6.42501	-2.20265
4007.582	-8.05098	0.02116	-6.23405	-2.28441
4011.605	-8.22027	-0.13293	-6.29398	-2.07902
4015.593	-8.15136	0.00275	-6.33446	-2.23953
4019.593	-7.86676	-0.03355	-6.38214	-2.35190
4023.589	-8.06935	-0.11421	-6.37069	-2.43129
4027.593	-8.05852	-0.07258	-6.34601	-2.48421
4031.593	-8.12785	-0.08868	-6.34552	-2.42177
4035.581	-8.01737	0.03999	-6.61070	-2.28221
4039.590	-8.02309	0.08686	-6.59224	-2.18476
4043.593	-8.06032	0.37985	-6.63279	-2.22941
4047.593	-7.96529	0.33503	-6.59527	-2.13781
4051.592	-7.85960	0.47406	-6.60825	-2.08328
4055.612	-7.77532	0.56815	-6.60355	-2.04371
4059.596	-7.70253	0.63850	-6.45990	-2.18366
4063.592	-7.52993	0.64393	-6.45326	-2.35153
4067.593	-7.61931	0.74348	-6.37133	-2.65969
4071.614	-7.58668	0.63710	-6.66281	-2.52149
4075.592	-7.45699	0.72960	-6.42922	-2.55582
4079.557	-7.43781	0.76616	-6.32233	-2.66359
4083.568	-7.37875	0.78844	-6.28621	-2.71329
4087.549	-7.39752	0.59689	-6.23050	-2.12491
4091.594	-7.35100	0.39720	-6.27442	-2.01629
4095.594	-7.44125	0.25652	-6.19081	-2.19400
4099.593	-7.65615	0.17508	-6.14283	-2.56778
4103.582	-7.57191	-0.01569	-6.07346	-2.46783
4107.594	-7.54540	-0.11861	-6.00575	-2.33629
4111.590	-7.53835	-0.22407	-6.01331	-2.36647
4115.595	-7.68883	-0.06289	-6.08190	-2.19672
4119.591	-7.64574	-0.08162	-6.30342	-2.30911
4123.595	-7.75675	-0.29915	-6.22814	-2.26838
4127.594	-7.76757	-0.36461	-6.72607	-2.28684
4131.594	-7.78779	-0.42434	-7.03932	-2.51734
4135.586	-7.76199	-0.43515	-7.22920	-2.51750
4139.595	-7.76708	-0.50251	-7.00389	-2.47541
4143.595	-7.76713	-0.56314	-7.06909	-2.50177
4147.550	-7.70892	-0.59584	-6.83509	-2.42209
4151.614	-7.81999	-0.62687	-6.92459	-2.38462
4155.597	-7.88646	-0.63622	-6.93494	-2.47120
4159.588	-7.86717	-0.61344	-6.92029	-2.41434
4163.550	-7.82716	-0.62883	-6.83504	-2.35968
4167.600	-7.76140	-0.47967	-6.73045	-2.33893
4171.591	-7.66380	-0.49792	-6.60451	-2.39848
4175.595	-7.80051	-0.73280	-6.74834	-2.31689
4179.596	-7.84267	-0.70324	-6.79667	-2.18395
4183.596	-7.80358	-0.53109	-6.92220	-2.22268
4187.595	-7.75670	-0.49688	-6.89818	-2.19292
4191.595	-7.17030	-0.28755	-6.62028	-1.24977
4195.599	-4.87751	1.70132	-6.39388	-1.35815
4199.587	-4.71427	2.67267	-5.43007	-0.30845
4203.565	-4.65520	3.37685	-3.42062	0.51166
4207.597	-5.03755	3.51640	-3.01534	1.70494
4211.594	-5.01113	3.70543	-3.86264	2.80466
4215.594	-5.15396	3.92887	-3.51817	2.13959
4219.551	-4.64722	3.91742	-3.73433	1.28439
4223.598	-4.44018	3.23040	-3.60942	0.71450
4227.596	-4.57559	3.53977	-3.67504	-0.03333
4231.596	-4.53181	3.57718	-3.81370	1.23391
4235.597	-4.46209	3.77709	-4.00944	1.63668
4239.596	-4.68077	3.96488	-3.85261	1.21785
4243.578	-4.53083	3.84608	-3.73319	1.24962
4247.593	-4.88599	3.91146	-3.83228	1.46464
4251.597	-4.70185	3.87464	-4.13441	1.89161
4255.597	-4.75588	3.84018	-4.05910	1.76097
4259.598	-4.63341	3.75814	-3.98267	2.10484
4263.598	-4.98615	4.01597	-4.02240	2.62247
4267.597	-4.88973	3.87075	-4.08384	2.59731
4271.554	-4.85438	3.83992	-4.02475	2.38411
4275.601	-4.82040	3.94316	-4.09389	2.71273
4279.599	-4.83008	3.94204	-4.27227	2.74579
4283.598	-4.79706	3.82806	-4.42299	2.58119
4287.560	-4.75363	3.93810	-4.34544	2.46270
4291.597	-4.68208	3.76373	-4.28760	2.39823
4295.587	-4.57539	3.61570	-4.14497	2.16127
4299.596	-4.43209	3.79557	-3.98395	1.74783
4303.553	-4.51216	3.56841	-4.30411	2.38730
4307.598	-4.36733	3.68451	-4.15337	2.04163
4311.600	-4.44615	3.69465	-4.28542	2.26663
4315.600	-4.40216	3.53146	-4.32074	2.45999
4319.599	-4.38630	3.55698	-4.17307	2.38577
4323.599	-4.40840	3.51163	-4.05769	2.23957
4327.577	-4.42096	3.66248	-3.89090	2.02626
4331.598	-4.63008	3.71946	-3.87220	2.32970
4335.554	-4.71622	3.82521	-3.83519	2.57248
4339.600	-4.84918	3.86139	-3.76364	2.53995
4343.601	-4.69098	3.99152	-3.77463	2.53680
4347.599	-4.61507	4.25104	-3.71617	2.56543
4351.600	-4.65935	4.28922	-3.65638	2.65618
4355.600	-4.63659	4.44287	-3.60064	2.65172
4359.598	-4.70937	4.66953	-3.56074	2.62231
4363.602	-4.73976	4.81104	-3.55253	2.36630
4367.592	-4.74755	4.76812	-3.52729	2.53745
4371.590	-4.78067	4.89014	-3.57394	2.31776
4375.599	-4.81604	4.82113	-3.59940	2.49748
4379.599	-4.87515	4.91788	-3.65601	2.53742
4383.610	-4.95418	4.84597	-3.72197	2.44944
4387.598	-4.94780	4.93993	-3.78143	2.27469
4391.598	-5.07387	4.82184	-3.78393	2.46095
4395.598	-5.05191	4.85041	-3.82217	2.17781
4399.555	-4.88370	4.61524	-3.92722	2.13865
4403.602	-4.72497	4.26715	-3.97731	2.23078
4407.601	-4.84849	3.84076	-3.98207	2.27470
4411.555	-4.43902	3.60196	-4.00796	2.27398
4415.602	-4.39373	3.70537	-4.04310	2.37139
4419.555	-4.72440	3.47022	-4.08858	2.33812
4423.499	-4.84524	3.69535	-4.11673	2.11759
4427.598	-4.58555	3.48694	-4.00420	2.19172
4431.603	-4.61334	3.26192	-4.03860	2.15992
4435.602	-4.41191	3.37725	-4.04201	1.99908
4439.499	-4.39488	3.42236	-4.03675	1.74415
4443.601	-4.54422	3.40093	-3.86321	1.83222
4447.603	-4.60611	3.41320	-3.88843	1.64202
4451.583	-4.70273	3.35333	-3.72872	1.74871
4455.498	-4.66164	3.46172	-3.65804	1.49516
4459.602	-4.74449	3.48682	-3.64437	1.74436
4463.600	-4.61400	3.71928	-3.63300	2.13450
4467.602	-4.44272	3.74583	-3.59023	2.02530
4471.500	-4.38536	3.94845	-3.67531	2.03353
4475.603	-4.39558	3.90995	-3.66859	2.03317
4479.603	-4.51297	3.83298	-3.64536	2.43371
4483.602	-5.01913	3.87361	-3.67479	2.54293
4487.505	-5.13685	3.68250	-3.78879	2.40908
4491.603	-5.24779	3.51243	-3.87487	2.16114
4495.565	-4.72290	3.44123	-3.96103	2.21936
4499.602	-4.73897	3.34252	-4.16502	1.96338
4503.500	-4.78991	3.12194	-4.11508	1.69374
4507.602	-4.85972	3.01208	-4.16198	1.53664
4511.602	-4.85135	3.02816	-4.22681	1.59267
4515.606	-4.74259	3.06122	-3.97985	1.60335
4519.500	-4.80554	2.94821	-3.86714	2.15569
4523.604	-4.72822	2.90544	-3.82445	1.96092
4527.558	-4.74198	2.85267	-3.73280	1.75323
4531.558	-4.69438	2.79083	-3.66298	1.71943
4535.500	-4.65634	2.79834	-3.66780	1.72962
4539.604	-4.58160	2.80610	-3.59859	1.83496
4543.603	-4.55238	2.79497	-3.62267	1.84026
4547.605	-5.19335	3.09313	-3.87408	1.76763
4551.605	-5.21176	-0.06971	-4.41302	1.81880
4555.604	-5.37456	-0.05141	-4.61539	2.28725
4559.604	-5.84340	-0.08106	-4.58335	2.53382
4563.605	-7.16016	3.17345	-4.00801	3.01171
4567.605	-5.54612	2.97767	-3.67035	3.36419
4571.605	-5.85519	4.15854	-3.68592	3.43355
4575.595	-5.69096	3.96444	-3.80639	2.92478
4579.594	-5.67435	3.75673	-3.90953	2.90162
4583.606	-5.51440	4.08124	-3.78667	2.52076
4587.611	-5.63847	3.78144	-4.21743	2.16691
4591.593	-5.52512	4.09087	-4.80926	1.81133
4595.559	-2.91846	3.71880	-3.41760	3.51123
4599.501	-5.88132	4.48626	-3.61463	8.69177
4603.606	-4.80643	12.09747	NaN	NaN
4607.606	NaN	NaN	NaN	NaN
4611.560	NaN	NaN	NaN	NaN
4615.610	NaN	NaN	NaN	NaN
4619.574	NaN	NaN	NaN	NaN
4623.603	NaN	NaN	NaN	NaN
4627.604	NaN	NaN	NaN	NaN
4631.561	NaN	NaN	NaN	NaN
4635.605	NaN	NaN	NaN	NaN
4639.605	NaN	NaN	NaN	NaN
4643.604	NaN	NaN	NaN	NaN
4647.560	NaN	NaN	NaN	NaN
4651.605	NaN	NaN	NaN	NaN
4655.606	NaN	NaN	NaN	NaN
4659.590	NaN	NaN	NaN	NaN
4663.570	NaN	NaN	NaN	NaN
4667.606	NaN	NaN	NaN	NaN
4671.604	NaN	NaN	NaN	NaN
4675.604	NaN	NaN	NaN	NaN
4679.606	NaN	NaN	NaN	NaN
4683.606	NaN	NaN	NaN	NaN
4687.605	NaN	NaN	NaN	NaN
4691.607	NaN	NaN	NaN	NaN
4695.561	NaN	NaN	NaN	NaN
4699.505	NaN	NaN	NaN	NaN
4703.572	NaN	NaN	NaN	NaN
4707.608	NaN	NaN	NaN	NaN
4711.605	NaN	NaN	NaN	NaN
4715.486	6.34596	3.36269	NaN	NaN
4719.473	0.70278	7.09552	NaN	NaN
4723.483	0.13193	8.83914	-0.43242	1.22852
4727.485	-0.38375	8.96848	14.53042	-9.49480
4731.484	1.02441	3.03099	0.15871	-6.15412
4735.483	0.46914	2.12443	-0.48713	-3.85047
4739.480	1.32746	1.67748	12.34375	-2.95096
4743.484	0.53317	1.37605	0.72034	-2.84869
4747.472	0.26776	1.29821	-0.04504	0.06811
4751.472	0.13858	1.18059	0.02551	-1.84017
4755.608	1.32237	1.16505	0.96710	-1.25872
4759.484	1.58654	1.25778	2.21385	-1.56215
4763.482	1.63740	1.18319	3.53866	-1.85990
4767.483	0.71494	1.17692	3.56405	-1.67717
4771.439	0.79640	1.31265	3.79215	-1.81776
4775.484	1.55648	1.37910	3.77552	-1.72627
4779.483	1.64786	1.33768	3.53844	-1.14849
4783.486	1.85199	1.41046	3.49908	-1.54296
4787.611	1.98398	1.40593	3.58428	-1.54143
4791.486	1.86692	1.18073	1.40378	-1.55885
4795.482	1.21214	1.14730	1.94570	-1.57225
4799.484	1.66805	0.95446	2.28638	-1.69250
4803.507	1.47687	0.98132	2.74828	-1.78494
4807.485	1.33812	1.10090	3.39495	-1.71618
4811.514	1.46432	1.05329	3.38558	-1.79855
4815.486	1.44329	0.79390	3.46469	-1.78990
4819.475	1.58329	0.90064	3.32560	-1.69362
4823.485	1.67082	1.16472	3.50353	-1.63884
4827.485	1.69188	1.46715	3.29837	-1.73771
4831.468	1.56191	1.86951	3.27029	-1.74661
4835.459	1.63016	2.22288	3.26725	-1.68599
4839.487	1.19892	0.90421	3.16891	-1.46922
4843.484	1.39775	1.26327	3.15560	-1.44553
4847.483	1.61195	0.47559	3.25938	-1.16742
4851.481	1.81426	0.65546	3.16980	-1.18050
4855.486	1.82378	0.59539	3.25181	-0.90464
4859.485	1.68580	0.78241	2.85074	-1.32467
4863.484	1.65039	0.82670	2.91898	-1.35812
4867.477	1.95190	0.31103	3.01702	-1.39746
4871.487	1.74548	0.31409	3.13791	-1.25454
4875.448	1.56536	0.27356	3.34057	-1.07290
4879.485	1.83000	0.37190	3.45823	-0.49299
4883.476	1.63462	0.58685	3.55955	-1.76065
4887.487	1.71050	0.59376	3.54840	-2.31131
4891.485	1.73142	0.41041	3.42863	-1.95400
4895.487	1.74484	0.05161	3.70139	-1.54346
4899.519	1.67739	0.32064	3.52047	-1.23437
4903.488	1.79247	0.29022	3.62086	-1.79215
4907.489	1.75833	0.23956	3.68480	-1.59961
4911.490	1.46531	0.34365	3.67786	-1.55143
4915.485	1.58755	0.62809	3.34630	-1.65158
4919.492	1.38939	0.61466	3.50588	-1.69103
4923.487	1.41318	0.73828	3.49920	-1.51396
4927.484	1.43002	0.73432	3.42240	-1.28160
4931.509	1.35432	0.59361	3.36325	-1.32881
4935.490	1.62904	0.77603	3.07607	-1.22582
4939.486	1.83077	0.84055	3.01190	-1.19037
4943.487	1.17431	0.76117	3.15535	-1.24286
4947.516	1.10400	0.83134	3.53500	-1.81407
4951.488	1.11142	1.06042	3.23356	-2.06976
4955.473	1.35933	1.22463	2.75356	-1.67076
4959.478	1.06597	0.95703	2.95198	-1.70489
4963.507	1.91734	1.06434	3.22312	-2.04909
4967.485	1.16518	1.41470	3.44204	-1.73089
4971.488	1.47357	1.07261	3.35756	-1.09778
4975.460	1.36905	0.68384	3.48291	-1.42074
4979.443	1.48793	1.03960	3.30144	-1.54489
4983.489	1.34331	0.36085	2.89002	-1.93553
4987.488	1.41221	0.32868	3.23499	-2.15315
4991.490	1.61927	-0.04521	3.38550	-1.76970
4995.487	1.47484	0.37094	3.52395	-1.88302
4999.459	1.59814	0.57874	3.00977	-1.86535
5003.491	1.53228	1.09182	3.10475	-1.95934
5007.489	1.48453	0.63150	3.51350	-1.88074
5011.508	1.47223	0.35299	2.87247	-1.38742
5015.490	1.51849	-0.08436	2.77839	-1.76188
5019.491	1.58512	0.15160	3.18742	-1.36292
5023.520	1.57528	0.37689	2.83737	-1.96968
5027.514	1.51065	0.22404	3.80167	-1.79461
5031.490	1.51119	0.76609	3.64036	-1.76082
5035.492	1.55665	0.61126	3.21824	-1.82292
5039.472	1.56469	0.25555	3.17807	-1.87967
5043.510	1.47943	0.36814	3.00787	-1.75647
5047.491	1.60652	0.39884	3.27878	-1.81106
5051.501	1.62844	0.60183	3.59990	-1.77859
5055.489	1.72674	0.36712	3.44671	-1.82938
5059.511	1.78617	0.30470	3.15718	-1.82669
5063.489	1.71679	0.20829	3.09946	-1.86348
5067.490	1.86821	-0.05183	3.22178	-1.94963
5071.488	1.93172	0.10366	3.03229	-1.82626
5075.512	1.82847	0.38335	2.98089	-1.86631
5079.489	1.92746	0.09360	2.97495	-1.92775
5083.483	1.95135	0.17245	2.93916	-1.85996
5087.491	1.91092	0.11603	3.09072	-1.70371
5091.510	2.21663	0.01098	3.27170	-1.79757
5095.491	1.96732	-0.00320	3.34131	-1.75642
5099.491	1.76113	0.09754	3.54633	-1.64283
5103.491	2.08270	0.00462	3.42124	-1.64813
5107.481	1.97679	0.24126	3.36292	-1.80764
5111.492	2.07531	0.02848	3.19110	-2.57814
5115.492	1.89925	0.05285	3.04435	-1.62940
5119.493	2.07839	0.01018	3.33287	-1.68461
5123.491	2.08419	-0.06059	2.62764	-1.55533
5127.492	1.89786	-0.10967	2.45931	-1.73133
5131.491	2.11789	0.02011	3.01737	-1.90911
5135.490	2.06195	0.03906	2.99376	-1.58472
5139.513	1.97257	0.24653	3.66770	-1.73448
5143.493	2.15641	0.26003	3.23353	-1.82534
5147.447	2.24686	0.26290	2.98242	-1.83520
5151.495	2.49310	0.05174	3.15651	-2.28866
5155.506	2.05851	0.54904	2.48750	-1.69386
5159.489	2.07338	0.31768	2.79622	-1.69647
5163.481	2.09532	0.14068	2.79523	-1.91082
5167.483	1.97198	0.36794	2.62539	-1.86606
5171.517	2.24458	0.57269	2.51906	-2.00039
5175.461	2.12454	0.62135	2.51841	-2.06610
5179.492	2.14151	0.61998	2.69698	-1.64696
5183.493	1.74799	0.47180	2.74876	-1.77341
5187.493	1.63457	0.11009	2.50093	-1.62099
5191.493	1.72609	0.26283	2.66285	-1.65397
5195.491	1.79145	0.29841	2.54739	-1.88257
5199.496	1.68860	0.20126	2.70000	-1.96661
5203.494	1.89882	0.20728	2.35432	-1.82750
5207.461	1.70060	0.37433	2.53456	-1.59310
5211.495	2.08364	0.36727	2.75712	-1.80278
5215.492	1.80635	0.31875	2.66716	-1.88888
5219.499	1.92733	0.15952	2.76515	-1.65066
5223.493	1.99109	0.23354	2.80313	-0.79013
5227.493	1.71781	0.26494	2.79280	-1.81912
5231.493	1.47786	0.32203	2.52661	-1.90152
5235.483	1.68563	0.43076	2.59413	-1.75974
5239.495	1.89957	0.30175	2.78666	-1.79331
5243.494	1.92813	0.24947	2.66414	-1.77472
5247.475	1.85856	0.24816	2.84509	-1.78231
5251.485	2.01642	0.36093	3.07053	-1.63687
5255.494	1.93271	0.31764	2.83051	-1.47553
5259.495	1.89099	0.41885	2.76460	-1.69170
5263.495	1.88826	0.44149	2.57528	-1.59754
5267.501	1.23040	0.39023	2.11333	-1.47947
5271.494	1.44242	0.42845	1.78124	-1.37224
5275.495	1.53446	0.51656	1.88318	-1.58198
5279.494	1.67340	0.57661	2.39336	-1.70988
5283.499	1.21673	0.48026	2.40340	-1.79916
5287.492	1.35080	0.47157	3.06147	-1.56283
5291.488	1.78401	0.37923	3.05066	-1.68470
5295.496	1.64409	0.50484	2.83279	-1.86524
5299.497	1.49550	0.37849	3.02039	-1.78107
5303.495	1.33448	0.42105	2.56812	-1.84164
5307.495	0.80039	0.68166	3.07026	-1.82504
5311.496	1.31029	0.73866	3.02776	-1.92185
5315.497	1.65897	0.31721	2.81499	-2.07613
5319.500	1.45941	0.42177	3.08290	-1.95388
5323.497	1.00025	0.77294	2.94351	-1.84553
5327.496	1.60201	0.78520	2.73680	-1.78079
5331.477	1.73249	0.54415	2.81412	-1.76902
5335.497	1.31106	0.47908	2.71612	-1.84891
5339.497	0.67481	0.78769	2.71944	-1.58001
5343.495	1.90054	0.54862	2.69941	-1.77157
5347.498	1.19346	0.49098	2.45805	-1.66907
5351.497	0.32220	0.67735	2.66919	-1.66371
5355.496	1.32302	0.86580	2.63834	-1.64599
5359.497	1.06230	0.65742	2.30407	-1.63854
5363.496	0.39003	0.65799	2.67472	-1.62876
5367.497	1.05654	0.69679	2.56560	-1.61216
5371.485	0.88947	0.56441	2.48094	-1.59135
5375.487	0.98822	0.59947	2.45076	-1.79429
5379.495	0.28548	0.52884	2.21286	-1.63778
5383.497	0.82704	0.49918	1.78213	-1.48274
5387.496	0.54865	0.67621	2.32213	-1.65363
5391.495	1.16069	0.60160	2.49208	-1.72791
5395.487	1.15379	0.73241	2.20815	-1.64302
5399.497	0.87751	0.42206	2.33224	-1.51268
5403.498	0.75804	0.60416	2.41794	-1.54709
5407.498	1.40432	0.18000	2.35615	-1.56279
5411.454	1.69542	0.52397	2.29072	-1.58085
5415.463	1.73197	0.62363	2.41118	-1.43347
5419.488	1.14756	0.90532	2.31079	-1.48191
5423.498	0.93931	1.22332	2.07455	-1.42807
5427.495	0.58836	1.25772	1.44123	-1.59502
5431.457	-0.15980	1.33309	1.82502	-1.54607
5435.503	-0.03087	1.01491	1.54720	-1.48431
5439.497	-0.51835	1.08906	1.53223	-1.30138
5443.499	-0.01273	1.17518	1.63373	-1.24240
5447.500	0.25981	1.15318	1.56682	-1.25747
5451.500	0.63369	1.06877	1.36829	-1.45546
5455.480	0.63546	1.03395	1.84220	-1.61597
5459.387	0.62101	1.17617	1.54321	-1.99827
5463.501	0.42564	0.89470	1.46311	-2.06980
5467.500	0.20690	0.88803	1.34135	-1.79760
5471.499	-0.34821	0.77690	1.28571	-1.43458
5475.499	-0.46669	0.78652	1.19567	-1.13531
5479.499	-0.70079	0.66215	1.21700	-0.97335
5483.503	-0.90014	0.68214	1.20321	-0.76360
5487.499	-1.06696	0.51182	1.51554	-0.99228
5491.400	-1.33500	0.47791	1.56940	-1.06642
5495.497	-1.58760	0.49395	1.90063	-1.49602
5499.492	-1.79629	0.50678	1.95626	-1.63231
5503.498	-1.90011	0.73320	1.92166	-2.16279
5507.500	-2.03129	0.76398	1.82581	-2.09145
5511.499	-2.08429	0.92583	2.01010	-2.06801
5515.501	-2.17130	1.07817	2.14045	-2.02690
5519.498	-2.19452	1.34643	1.84545	-2.24648
5523.502	-2.13304	1.55720	1.98442	-2.39588
5527.501	-2.21710	1.49543	1.90968	-2.49051
5531.503	-2.27449	1.55246	1.81733	-2.62375
5535.502	-2.35615	1.76621	1.31431	-2.70925
5539.478	-2.36839	1.79780	1.52379	-2.88855
5543.500	-2.34265	1.95770	1.49207	-3.08177
5547.501	-2.34721	1.98711	-0.32228	-2.55859
5551.500	-2.29091	1.97305	0.41368	-2.53491
5555.502	-2.28621	2.06962	0.59042	-2.41331
5559.502	-0.79488	2.22183	1.22578	-0.75564
5563.503	-1.23880	2.29164	0.94713	-1.74914
5567.500	-0.77769	2.21633	1.04875	-1.60477
5571.502	-0.24822	1.93797	0.92664	-1.59355
5575.502	-1.06217	2.28437	0.85768	-1.86165
5579.503	-1.89858	2.10920	0.72310	-2.19522
5583.492	-1.25547	1.98301	0.88049	-2.44907
5587.990	-1.23322	2.03881	0.57456	-1.74607
5591.501	-0.88696	1.89676	0.65225	-1.59669
5595.502	-0.71521	1.57603	0.43688	-1.24116
5599.459	-0.86441	1.93864	0.85429	-1.21190
5603.400	-0.82779	1.52929	0.72851	-1.97199
5607.502	-0.79511	1.71109	0.60044	-1.61731
5611.501	-0.79186	1.66032	0.69878	-1.71100
5615.504	-1.29067	1.94648	0.85220	-1.14733
5619.512	-0.81310	1.70306	0.71198	-1.62080
5623.468	-1.01906	1.61970	0.81104	-1.79007
5627.503	-0.66503	1.73862	0.83759	-1.51486
5631.501	-1.15630	1.91328	0.41135	-0.82084
5635.403	-0.65915	1.95668	0.74223	-1.59758
5639.503	-1.00744	1.67534	0.54456	-1.01774
5643.504	-0.32014	1.83726	1.01665	-0.66731
5647.503	-0.44703	2.00735	0.95770	-0.89355
5651.512	-1.43124	1.91573	0.65828	-1.53710
5655.504	-0.35082	1.96632	1.63926	-1.15702
5659.504	-1.21807	2.06162	0.68221	-1.00279
5663.504	-1.21680	2.11844	0.66000	-1.31110
5667.503	-0.73819	1.97809	1.36724	-1.83783
5671.506	-0.75109	1.95326	0.36548	-0.92884
5675.505	-1.47310	1.93492	0.34715	-0.73861
5679.504	-0.15325	2.06764	0.50401	-1.33734
5683.501	-0.33910	1.98919	0.72387	-1.83044
5687.501	-1.04483	1.86855	1.77953	-0.73968
5691.508	-0.54759	1.84830	0.50520	-0.59211
5695.504	-1.65426	1.60427	1.29779	-0.88232
5699.400	-0.13975	1.61590	0.71729	-1.21070
5703.502	-1.42523	1.53734	0.72575	-1.50410
5707.497	-0.51399	1.52797	0.50111	-1.94981
5711.503	-0.70034	1.33960	0.84029	-1.25172
5715.505	-0.32183	1.66045	0.70997	-1.54493
5719.506	-0.71027	1.40950	0.71474	-1.37004
5723.505	-0.53704	1.48047	0.78369	-1.01533
5727.505	-0.66196	1.46414	0.94165	-1.06916
5731.377	-0.66357	1.34942	0.68466	-1.21694
5735.506	-0.63094	1.52618	0.61310	-1.43970
5739.380	-0.80598	1.31302	0.73159	-1.64706
5743.381	0.23840	1.43018	0.63727	-1.77236
5747.376	-0.90599	1.40168	1.09978	-2.10443
5751.364	-0.15913	1.29683	0.64228	-1.47460
5755.379	-0.61682	1.42251	1.38575	-1.54551
5759.381	-0.86247	1.27550	0.66057	-1.43611
5763.402	-0.16777	1.35939	0.79518	-1.39400
5767.382	-0.88160	1.42116	0.92738	-1.35889
5771.381	-0.87902	1.40400	0.76536	-1.71673
5775.379	-0.51190	1.45688	0.83449	-1.41770
5779.401	-1.02757	1.55964	0.88622	-1.11205
5783.383	-0.84863	1.51205	0.73918	-1.70838
5787.384	-0.32843	1.59714	1.01367	-1.14509
5791.384	-0.33784	1.74978	0.93837	-1.35665
5795.390	-2.57741	1.97796	0.91269	-1.06848
5799.382	-0.82451	1.66492	1.04275	-1.18265
5803.380	-1.67095	1.40377	1.00677	-1.51166
5807.380	-0.60181	1.57235	0.04968	-5.76215
5811.400	-0.39633	1.24002	0.80900	-5.74889
5815.382	-0.47674	1.88588	1.00757	-1.33306
5819.381	-0.47842	1.35982	1.01982	-5.44798
5823.386	-0.22338	1.58166	0.97594	-1.62764
5827.406	-0.57903	1.08103	0.99774	-1.16340
5831.385	-0.46157	1.14215	0.94835	-1.32136
5835.364	-0.39926	0.92446	1.03129	-1.68374
5839.337	-0.47738	1.00061	1.96110	-1.63298
