time (ms)	lx (deg)	ly (deg)	rx (deg)	ry (deg)
0.000	0.03470	2.99658	1.14486	0.40381
4.005	-0.30699	3.46127	0.43036	0.63217
8.011	-0.19603	3.45214	0.66848	0.71512
12.013	-0.59955	3.78425	0.27250	1.32252
16.009	-0.41527	4.00256	0.58873	1.92183
19.978	1.73209	2.11524	0.62382	2.47570
23.980	0.71211	1.88582	0.72077	2.39732
28.011	0.50813	2.27703	0.66498	2.85016
32.017	0.79722	1.84073	1.42005	1.48037
36.003	0.68538	1.84520	0.87595	0.79155
40.014	0.46227	1.75164	0.83429	-0.45125
43.987	0.43753	2.22602	0.83396	-0.37823
47.975	-0.95504	1.78580	0.73923	-0.54056
52.006	-1.11400	1.90373	0.75580	-0.76715
56.015	-0.45644	1.91244	0.79923	-0.93366
60.013	0.18779	1.67159	1.06771	-1.30209
64.011	0.40003	1.71337	0.94735	-1.20353
67.980	-0.40673	1.72019	1.28693	-0.80632
72.011	0.40728	1.57860	1.98008	-0.65607
76.012	0.19755	1.48911	1.07788	-0.84712
80.016	0.12870	1.46352	1.39907	-0.72651
83.937	0.08773	1.50760	1.16245	-0.52320
88.011	-0.33702	1.32711	1.36672	-0.10511
91.977	-0.33017	1.51413	1.34996	-0.24196
96.015	-0.21363	1.59355	0.69699	0.04015
99.912	-0.44959	1.74427	1.18656	0.56496
104.017	-0.85563	1.93951	0.99606	0.53356
108.016	-0.82553	2.38246	1.26820	0.92634
112.014	-0.58017	2.13652	0.96115	1.25172
115.913	-0.41934	2.36768	1.15352	1.41223
120.012	-0.77285	2.35900	0.71801	1.32864
124.015	-0.20517	2.31901	0.74029	1.57826
127.990	-0.36871	2.64051	2.58494	1.63190
132.015	-0.45041	2.53881	1.27269	1.82199
136.016	0.32156	2.55948	1.21348	1.97049
140.014	0.74935	2.69773	1.12129	2.21268
144.015	0.16434	2.73195	1.18200	2.53570
148.012	0.52086	2.84877	1.64930	1.82166
152.015	0.31732	2.95860	1.32627	2.10904
156.015	0.09748	3.00007	1.29293	-1.04842
160.018	0.04140	3.00340	1.37724	-1.17042
163.915	0.02966	2.87393	1.83459	-1.55108
167.993	-0.07212	3.23309	1.38818	-1.64753
172.014	0.11957	2.62335	1.41824	-2.33619
176.013	-0.07123	2.98040	1.34465	-2.24807
180.005	0.10319	2.46004	1.21854	-1.63659
184.015	-0.07115	2.88384	1.33748	-2.80485
188.011	-0.10783	2.59387	1.17510	-2.77032
192.019	-0.22343	2.92358	0.98174	-2.93412
196.016	-0.36119	2.91276	1.32600	-1.52231
200.017	-0.33337	2.80772	2.26854	-0.78114
204.016	-0.53069	2.66004	2.30432	0.11570
208.006	-0.40273	3.06378	2.56788	0.05141
211.912	0.06999	2.88315	1.98269	-0.04999
216.014	0.58084	2.51165	1.50862	0.18439
220.014	0.45778	2.80294	1.69609	-1.05017
224.018	0.53165	2.85856	1.92637	-0.52637
227.912	0.21800	2.97009	1.73269	-0.67787
232.014	0.50793	3.04694	1.76257	-0.81267
236.015	0.22450	3.03041	1.67846	-0.94234
240.017	-0.33615	3.23319	2.11393	-0.86251
243.914	-0.34203	3.17024	2.04540	-0.98209
248.015	-0.36506	2.68556	1.72674	-1.03299
251.988	0.52046	2.64772	0.67434	-0.96265
256.014	0.16509	2.37193	0.80933	-0.56350
259.914	0.29089	1.90175	1.23516	-0.97665
264.017	-0.42507	2.56927	0.83136	-0.27488
268.016	-0.46564	2.57548	0.91686	-0.67347
272.016	-0.21410	2.27976	0.63062	-0.49053
275.885	-0.48140	2.62708	0.27912	-0.37603
280.016	-0.14163	2.62684	0.85054	-0.74938
284.017	-0.48455	2.65247	0.59605	-0.05949
288.020	-0.36010	2.31416	0.72352	-0.42836
291.919	-0.33955	2.51067	1.85651	-0.31787
295.994	-0.08205	2.66077	0.88356	-0.75876
300.019	0.01985	2.56195	1.28817	-1.18797
304.017	0.27944	2.66662	1.17078	-1.56314
307.915	-0.03497	2.76186	1.86253	-1.30739
312.018	0.01742	2.68529	1.58795	-1.36850
315.981	0.02196	2.41639	0.69049	-0.26472
320.016	0.06388	2.74579	1.53503	-1.48186
323.917	-0.01539	2.63179	1.08961	-1.30524
328.017	0.09202	2.44531	1.13243	-1.51969
332.025	0.03566	2.57713	1.29390	-0.34094
335.988	-0.28540	2.24122	1.05185	0.51209
339.895	-0.09915	2.25089	1.05753	1.04973
344.017	-0.01933	2.22420	0.86885	3.92219
348.015	-0.26061	1.98662	1.14876	3.60588
352.016	-0.31451	1.75134	0.55776	2.26823
356.022	-0.45023	1.72063	0.71245	2.32232
360.017	-0.51386	1.55176	0.76588	2.48334
364.017	-0.59617	1.45582	0.70903	2.38565
368.016	-0.70749	1.44454	0.45480	2.35175
371.915	-0.81339	1.23625	0.54034	2.43340
375.998	-0.86101	1.40043	0.58684	2.53211
380.014	-1.04307	1.29726	0.51001	2.17119
384.017	-0.81848	1.34790	0.49227	2.16479
387.921	-0.95276	1.10644	0.51766	1.96425
392.019	-0.98382	0.97564	0.44175	1.50621
396.020	-1.01695	0.91231	0.35459	1.52500
399.982	-0.99841	0.95991	0.31665	0.66681
403.953	-0.86615	0.67668	-0.07820	1.39394
408.019	-1.04414	1.22405	-0.11118	1.01183
412.018	-0.90292	0.50610	-0.27662	0.55195
416.009	-0.89540	0.75997	-0.80325	0.39863
419.920	-0.95517	0.91365	0.20229	0.26782
424.017	-0.84605	0.62009	0.45361	0.57450
428.018	-0.69077	0.51780	0.60583	0.44226
432.018	-0.68640	0.36982	0.60245	0.43207
435.923	-0.67496	0.58360	0.63873	0.54976
439.893	-0.58404	0.64860	0.91934	0.27718
443.897	-0.59131	0.55133	0.95730	0.28473
447.893	-0.81622	0.52616	0.87498	0.31557
451.854	-0.65955	0.27909	0.97045	0.31648
455.892	-0.51250	0.04028	0.62337	0.46964
459.895	-0.58081	0.31522	1.13278	0.31440
463.878	-0.44606	0.19262	1.15111	0.55386
467.887	-0.56791	0.33683	1.03372	0.98474
471.896	-0.45830	0.18348	0.84354	0.81796
475.896	-0.60223	0.44837	1.06009	1.94724
479.895	-0.47748	0.62869	0.97730	1.61975
483.889	-0.59416	0.53903	1.00057	1.91276
487.895	-0.69784	0.82778	0.50721	2.21382
491.893	0.14536	0.82685	0.40996	2.50998
495.894	-0.50222	1.22259	0.51828	2.64110
499.865	-0.62032	2.02085	1.18726	1.46365
503.891	-0.70692	2.07396	0.90870	0.93602
507.893	-0.61642	2.59714	1.04791	0.74613
511.894	-0.49503	1.97485	0.96043	-1.73891
515.860	-0.73253	1.91788	0.99276	-1.27900
519.894	-0.67583	2.52815	1.09363	-1.05389
523.858	-0.83012	2.50562	1.20070	-1.44388
527.897	-0.71072	2.24177	1.22243	-1.36574
531.889	-0.67387	2.61660	0.52471	-1.51027
535.900	-0.76501	2.53170	1.05334	-1.51559
539.897	-0.91971	2.57040	1.17250	-1.38339
543.896	-0.97936	2.65716	1.19023	-1.51030
547.897	-0.78404	2.63613	1.09621	-1.58702
551.864	-0.70702	2.56104	1.03126	-1.69489
555.894	-0.59637	2.67627	0.94792	-1.57145
559.894	-0.70769	2.65571	1.23062	-1.76851
563.921	-0.77503	2.61354	1.11286	0.56077
567.858	-0.67183	2.50938	1.02270	1.65637
571.896	-0.56610	2.42158	0.98239	-0.72679
575.898	-0.74431	2.41896	1.14382	1.89631
579.919	-0.53997	2.34665	1.07823	-1.93728
583.857	-0.56041	2.18762	1.09596	-1.86428
587.886	-0.55307	2.38659	1.05716	-2.07084
591.889	-0.56163	2.23471	1.13638	-1.68244
595.891	-0.68293	2.43866	1.26793	-1.82445
599.898	-0.79836	2.35439	1.35050	-2.13453
603.897	-1.02394	2.47763	1.26331	-2.12795
607.895	-0.78856	2.44032	1.26225	-1.34938
611.895	-0.46408	2.50272	1.24568	-0.81304
615.861	-0.44487	2.37660	0.69737	-1.69883
619.898	0.16144	2.72964	0.92165	-0.74439
623.897	-0.20214	2.73774	1.04096	-0.43461
627.889	-0.24827	2.75243	0.83248	0.04634
631.896	-0.47453	2.90144	0.46289	0.63696
635.862	-0.45199	2.95040	0.57181	0.99489
639.896	-0.57640	3.11066	0.52066	1.13881
643.894	-0.20107	3.21920	0.48800	1.09036
647.861	-0.36762	3.10101	0.44289	1.17507
651.901	-0.31421	3.22527	0.59704	1.19086
655.896	-0.40040	3.32767	0.39983	1.19089
659.897	-0.37293	3.52153	0.46388	1.25553
663.899	-0.48448	3.38940	0.63518	1.22440
667.899	-0.53773	3.59001	0.76645	0.96571
671.879	-0.56578	3.51779	0.90279	1.27126
675.874	-0.56895	3.59606	0.60215	1.18378
679.894	-0.59037	3.47428	0.91083	0.63715
683.895	-0.60042	3.61601	1.01757	0.46944
687.898	-0.69997	3.41786	1.47409	0.07780
691.857	-0.64908	3.38086	1.50752	0.03137
695.897	-0.64178	3.36494	1.34093	-0.12416
699.897	-0.65384	3.05994	1.28807	-0.32390
703.898	-0.76454	3.15258	1.57495	0.69257
707.858	-0.89029	3.22507	0.62384	0.56656
711.900	-1.34428	3.46985	1.42893	0.03172
715.864	-1.12663	3.23195	1.26986	-0.26922
719.900	-1.39946	3.25682	1.26649	-0.25350
723.897	-1.17748	3.29137	0.25741	-0.56251
727.897	-1.06359	3.24091	-0.16122	-0.80449
731.899	-1.06386	3.34219	0.72494	-0.91276
735.906	-0.94093	3.42644	1.05763	-1.17013
739.897	-0.81846	3.50008	0.73940	-0.48421
743.899	-1.14809	3.57208	0.57890	-0.54766
747.899	-1.03637	3.53563	0.37117	-0.54171
751.865	-0.63012	3.59421	0.91545	-0.64992
755.893	-0.37420	3.54411	0.81210	-0.43180
759.898	-0.80201	3.49200	0.50994	-0.00383
763.899	-0.45592	3.49451	0.69997	-0.28147
767.860	-0.36563	3.34007	0.93793	-0.13061
771.889	-0.47567	3.46286	1.06327	-0.09968
775.899	-0.36519	3.40983	1.04803	-0.10154
779.898	-0.34625	3.27063	1.54043	-0.23988
783.897	-0.80215	3.20816	1.16029	-0.20852
787.898	-0.38705	3.14089	1.42935	-0.32251
791.900	-0.34174	3.25075	1.08991	0.01925
795.888	-0.32248	3.16532	1.08998	0.24840
799.889	-0.41266	3.12044	0.68325	-0.36918
803.894	-0.74206	3.24496	0.67422	-1.39940
807.898	-0.52739	3.27078	0.77759	-1.45206
811.900	-0.72382	3.33779	0.89738	-1.64520
815.863	-0.91445	3.49289	1.34016	-1.87446
819.891	-0.84389	3.62453	1.17411	-1.76751
823.897	-0.74474	3.38965	0.94118	-1.76915
827.898	-0.77575	3.52331	0.85433	-1.62035
831.899	-0.65429	3.51739	1.14429	-1.60424
835.926	-0.52160	3.63789	1.19934	-1.50186
839.901	-0.29153	3.67284	1.34874	-1.55857
843.903	-0.19167	3.66955	1.19949	-1.31122
847.906	-0.53768	3.64746	1.30449	-1.39842
851.897	-0.07832	3.62903	1.29779	-1.26139
855.903	-0.09230	3.37039	1.46043	-1.00531
859.902	-0.31615	3.13955	1.42620	-1.16324
863.903	-0.02576	3.23755	1.48141	-1.13520
867.893	-0.27654	3.11586	1.65277	-1.17168
871.902	-0.31853	3.32538	1.67065	-0.55242
875.900	-0.48629	3.24132	1.52801	-0.99143
879.903	-0.20470	3.10447	1.50423	-1.31205
883.896	-0.68903	3.03368	1.14486	-2.16250
887.899	-0.75580	3.32712	1.25644	-3.01913
891.899	-0.47698	3.41946	1.57910	-3.03419
895.900	-0.45267	3.17409	1.43493	-3.02257
899.927	-0.14166	3.11229	1.54321	-3.05879
903.901	-0.27113	3.10436	1.73162	-3.20887
907.901	0.06798	2.98327	1.69183	-2.44092
911.901	0.63615	2.93271	1.87458	1.34258
915.868	-0.20025	2.78762	1.56340	1.43669
919.902	0.19636	2.76263	1.42784	2.61451
923.893	-0.47239	2.81739	1.51258	2.61099
927.900	0.07428	2.92585	1.45795	2.42860
931.895	-0.12399	2.73750	1.70794	2.70539
935.901	-0.28739	2.73334	1.94920	2.58266
939.906	-0.34623	2.67498	1.94335	2.51490
943.900	-0.57329	2.68853	2.08225	2.74611
947.897	-0.43130	2.77611	1.85462	2.75964
951.905	-0.29900	2.83889	0.81764	2.99350
955.902	-0.62791	3.77047	0.18092	2.51341
959.905	-0.99556	3.71580	0.50917	-0.23509
963.896	-0.86230	3.85725	0.00467	-0.21368
967.905	-1.18889	3.44840	0.41291	-0.41690
971.903	-1.11383	3.50218	1.00372	-3.45260
975.905	-0.81017	3.06006	1.85078	-3.21153
979.905	-0.40122	2.93882	0.68816	-2.55443
983.900	-0.37437	3.20853	1.39540	-2.25586
987.900	-1.03905	1.16008	1.04935	-1.65692
991.900	-0.20254	-0.33670	1.32741	-0.78748
995.893	-0.95100	-0.70707	1.59638	-1.71416
999.902	-1.17751	0.22581	1.53317	-1.29435
1003.904	-0.58878	0.77707	1.68652	-1.36645
1007.892	-0.43259	0.91822	1.70680	-1.61254
1011.901	-0.78387	1.15882	1.54931	-1.14391
1015.862	-0.76868	1.07825	1.66693	-1.47430
1019.902	-0.93232	1.25943	1.05302	-1.69840
1023.865	-0.94095	0.80291	1.29100	-1.74038
1027.894	-0.75732	0.93310	1.07381	-1.51218
1031.904	-0.51825	1.03208	1.23364	-1.38207
1035.904	-0.53401	0.97497	1.75637	-1.27594
1039.906	-0.29213	0.92181	1.09715	-1.16902
1043.902	-0.27361	0.83899	1.07190	-1.13819
1047.869	-0.22549	1.08075	1.10728	-1.47695
1051.903	-0.08021	1.21566	1.59477	-1.40199
1055.902	-0.44584	1.24377	1.97329	-1.53800
1059.902	-0.17965	1.08354	2.30293	-1.48958
1063.902	-0.12707	1.20143	1.45004	-1.31941
1067.906	-0.29290	1.31830	1.65929	-1.13242
1071.904	-0.35926	1.40494	1.12601	-1.41078
1075.896	-0.32945	1.53630	0.34308	-1.17565
1079.900	-0.49009	1.72117	0.45835	-0.70827
1083.904	-0.35231	1.90959	-0.24195	-0.58497
1087.886	-0.37998	1.89511	0.82047	-0.00591
1091.895	-0.37127	2.24956	0.83126	0.18357
1095.903	-0.39112	2.43962	1.44272	0.56738
1099.903	-0.40003	1.88863	1.07155	1.12453
1103.902	-0.48728	2.10040	1.24414	1.03950
1107.897	-0.60818	2.26950	1.14590	1.78023
1111.905	-1.02853	2.06555	1.13251	1.27564
1115.868	-0.68498	1.72391	0.76059	1.47583
1119.903	-0.62052	1.84485	1.06726	1.63554
1123.804	-0.36077	1.61570	1.23893	1.60612
1127.897	-0.30692	0.81345	1.35092	1.77178
1131.902	-0.05378	0.42447	1.48116	2.01915
1135.905	-0.35732	0.07668	1.53106	2.10906
1139.898	-0.17062	0.15292	0.66876	2.22926
1143.902	-0.09781	0.47985	0.37040	2.23800
1147.903	-0.25028	0.40265	0.98318	2.39332
1151.905	-0.17079	0.67221	0.82143	2.28051
1155.807	0.26272	0.79330	0.91572	2.40487
1159.906	0.03077	1.77356	1.22303	2.45098
1163.908	-1.24396	3.56805	1.35643	2.73704
1167.905	-9.03667	4.10081	2.53370	5.89507
1171.805	1.34299	10.26451	5.75556	4.75184
1175.869	NaN	NaN	-1.41134	6.20634
1179.908	NaN	NaN	NaN	NaN
1183.907	NaN	NaN	NaN	NaN
1187.908	NaN	NaN	NaN	NaN
1191.901	NaN	NaN	NaN	NaN
1195.903	NaN	NaN	NaN	NaN
1199.909	NaN	NaN	NaN	NaN
1203.905	NaN	NaN	NaN	NaN
1207.908	NaN	NaN	NaN	NaN
1211.894	NaN	NaN	NaN	NaN
1215.868	NaN	NaN	NaN	NaN
1219.907	NaN	NaN	NaN	NaN
1223.903	NaN	NaN	NaN	NaN
1227.903	NaN	NaN	NaN	NaN
1231.906	NaN	NaN	NaN	NaN
1235.911	NaN	NaN	NaN	NaN
1239.910	NaN	NaN	NaN	NaN
1243.903	NaN	NaN	NaN	NaN
1247.904	NaN	NaN	NaN	NaN
1251.905	NaN	NaN	NaN	NaN
1255.901	NaN	NaN	NaN	NaN
1259.907	NaN	NaN	NaN	NaN
1263.906	NaN	NaN	NaN	NaN
1267.870	NaN	NaN	NaN	NaN
1271.909	NaN	NaN	NaN	NaN
1275.906	NaN	NaN	NaN	NaN
1279.906	NaN	NaN	NaN	NaN
1283.917	NaN	NaN	NaN	NaN
1287.906	NaN	NaN	2.47261	11.59585
1291.911	NaN	NaN	2.45971	10.47340
1295.893	-19.65331	7.57050	2.29974	6.37842
1299.798	4.01129	-1.82363	1.98893	6.38110
1303.907	7.15032	3.75042	2.09968	6.12356
1307.910	-0.31873	0.30621	4.36279	7.55377
1311.908	6.72908	0.81136	1.93913	6.05069
1315.781	7.06469	1.38945	2.04116	1.64238
1319.908	7.08744	1.57913	-2.65149	1.86848
1323.907	13.01642	1.97698	1.85276	-0.29113
1327.907	7.25604	1.48900	5.38243	-1.16347
1331.808	13.67609	3.64769	2.02331	-1.04255
1335.871	11.17410	3.65836	1.51482	-0.30014
1339.874	11.79772	1.67060	1.18115	0.12554
1343.908	12.16567	1.47143	-0.31709	2.13841
1347.812	6.72846	1.95086	0.69335	1.64117
1351.907	0.09803	2.55530	0.45954	3.27217
1355.907	0.07922	3.75897	1.41425	3.33826
1359.906	-0.32749	4.01071	2.39735	2.64348
1363.912	-0.83503	4.21774	2.13066	3.38441
1367.909	-0.53959	3.71669	1.17066	3.25627
1371.909	-0.23140	3.54264	1.41211	3.72733
1375.909	-0.03063	3.54166	0.96338	3.14956
1379.811	-0.28624	3.68125	0.04946	3.35207
1383.907	-0.02641	4.37265	0.20556	3.29437
1387.908	0.11510	4.22829	0.38497	3.05876
1391.908	0.28905	3.93715	-0.04177	2.96226
1395.810	-1.03841	4.02948	0.29138	2.93932
1399.908	0.42035	3.74761	1.69326	2.56128
1403.909	0.51595	3.65870	0.60833	2.85936
1407.909	0.74228	3.29741	0.60821	2.57706
1411.913	0.17571	2.69805	0.44966	2.06686
1415.910	0.43547	3.03458	0.33886	2.23592
1419.899	-0.39864	3.79644	1.66936	1.38607
1423.902	-1.11335	3.46032	1.39604	1.20966
1427.807	-0.30012	3.48061	1.96992	0.74417
1431.912	-0.59131	3.76827	1.04828	0.86834
1435.912	-0.24577	3.12704	1.55323	0.66235
1439.914	-0.06567	3.38748	1.78805	0.14999
1443.808	0.01975	3.39313	1.56186	0.23481
1447.908	0.26835	3.18993	1.83025	0.64443
1451.872	-0.11121	3.10119	1.86508	0.43095
1455.909	0.22909	2.97240	1.94382	0.50885
1459.913	0.51796	3.12074	-0.51086	0.01570
1463.910	0.67838	2.84730	1.31129	-1.34113
1467.909	0.61176	2.58105	0.45346	-1.02464
1471.912	0.71069	2.83348	0.71360	-0.68021
1475.757	0.38998	2.90638	0.69863	-0.11758
1479.786	0.47334	2.94196	0.68858	-0.54340
1483.784	0.53121	2.82031	0.55185	-0.61658
1487.784	0.58821	2.79047	0.13248	-1.04588
1491.810	0.39750	2.62627	0.61340	1.37772
1495.784	0.22658	2.41984	1.24166	1.76729
1499.786	-0.00216	2.67825	0.99382	2.31671
1503.788	0.21033	2.29643	0.84079	3.78514
1507.806	0.19775	2.09793	0.86468	3.80337
1511.778	0.15521	2.67214	0.82528	3.99723
1515.747	0.08272	2.63672	1.10060	3.30879
1519.787	0.17231	2.43937	1.05863	3.44308
1523.754	0.17055	2.37275	1.14233	3.04395
1527.787	0.28577	2.25052	1.29918	3.13501
1531.785	0.05688	2.19470	1.28777	3.28926
1535.789	0.29374	1.88199	1.19946	3.12356
1539.809	0.35377	1.82228	1.20117	3.31826
1543.785	0.22229	2.03847	1.23042	3.30411
1547.786	0.12759	1.20190	1.03344	3.21503
1551.763	-0.02219	1.59970	1.05424	3.08631
1555.807	-0.07525	1.52811	1.25860	3.13951
1559.786	0.01057	1.60719	1.46308	3.21337
1563.785	0.13203	1.91036	0.99702	3.31963
1567.789	-0.15863	1.88467	1.37508	3.71218
1571.786	-0.10118	1.95315	1.50733	3.58408
1575.786	-0.43822	2.08064	1.01811	3.54305
1579.787	-0.41430	2.32003	1.47022	3.62752
1583.748	-0.57220	2.34739	1.47863	3.94203
1587.780	-0.15561	2.26756	1.42060	2.78544
1591.770	-0.52689	2.68726	1.59283	3.85568
1595.750	-0.31486	2.58369	1.67732	1.72771
1599.787	-0.32958	2.54889	1.50333	1.68530
1603.780	0.19045	2.60685	1.78813	1.58998
1607.789	-0.08709	2.53298	1.67258	4.05168
1611.785	-0.34298	2.62608	1.60809	3.95084
1615.750	-0.41254	2.63132	1.40336	4.01462
1619.812	-0.07743	2.54943	1.00266	4.05545
1623.789	-0.30945	2.35702	1.16257	3.96668
1627.788	-0.30295	2.36245	1.07582	3.72358
1631.786	0.11175	2.43553	0.62630	2.95918
1635.813	-0.28394	2.34881	0.99581	3.41151
1639.780	-0.10523	2.32562	-0.73198	2.24310
1643.753	0.38772	2.22750	0.15834	2.41787
1647.788	0.20152	2.32533	1.07574	2.40359
1651.790	0.12089	2.32341	1.38949	2.54615
1655.787	0.18075	2.34461	1.34968	2.40022
1659.789	0.30756	2.18387	1.50574	3.52460
1663.788	0.61062	2.21313	1.73098	3.11128
1667.779	0.70007	2.24924	1.57773	3.47994
1671.786	0.91490	2.28318	1.52749	2.64263
1675.767	0.62461	2.42743	1.85904	2.51069
1679.790	0.50264	2.56233	1.79854	2.46330
1683.780	0.49798	2.54470	1.92081	2.71826
1687.788	0.30225	2.55902	1.70460	-0.58887
1691.787	0.00645	2.62591	1.71065	-0.12508
1695.787	-0.01025	2.88682	1.49847	-0.37064
1699.810	-0.00700	2.99009	1.43637	-0.00231
1703.791	0.04887	2.93988	1.46663	-0.50828
1707.789	-0.17707	3.14947	1.24506	-0.48108
1711.788	0.04524	1.44874	1.31463	-0.28184
1715.780	0.13697	1.99981	1.33150	-0.09289
1719.787	0.12379	1.53523	1.56042	-0.06473
1723.787	0.08046	1.67373	1.40075	0.32118
1727.786	0.03003	2.16398	1.12313	0.23567
1731.750	0.24172	1.63896	1.16285	0.25646
1735.751	-0.31610	1.50308	1.00367	0.58787
1739.788	-0.56786	1.57792	0.87868	0.81063
1743.792	-0.90272	1.71265	0.71436	0.72893
1747.782	-0.38380	1.50804	0.63079	0.80007
1751.790	-0.62893	1.62378	0.49073	1.09086
1755.790	-0.82498	1.82183	0.47646	1.01122
1759.756	-0.90562	1.56720	0.12002	0.83609
1763.749	-0.94532	1.44507	0.36871	0.87314
1767.788	-0.21991	1.33005	0.11888	0.93593
1771.789	-0.26495	1.20479	0.11389	0.79905
1775.787	-0.52652	1.05354	0.36876	1.07331
1779.790	1.99084	0.84373	1.17498	1.15163
1783.788	1.58175	0.88248	1.45013	0.74713
1787.788	0.83654	0.98176	2.34148	0.79999
1791.789	0.82890	1.00611	1.41918	0.66525
1795.817	1.25458	0.83490	1.61334	0.51798
1799.774	1.57076	0.86118	1.85916	0.49875
1803.784	1.47251	0.85951	1.95411	0.75625
1807.789	0.12647	0.72141	1.81957	0.82005
1811.781	0.76908	0.72524	1.74060	0.84442
1815.789	0.75206	0.63611	1.85152	0.76786
1819.789	1.25597	0.60128	1.51948	1.24580
1823.790	0.55327	0.79441	2.18168	1.12781
1827.782	0.53297	0.80830	1.74823	1.59339
1831.789	0.21045	0.98149	1.41849	1.76922
1835.791	0.23363	1.10882	1.59918	1.65313
1839.789	0.10009	1.12321	1.59231	1.62948
1843.788	0.11275	1.15143	1.15972	2.11791
1847.795	-0.06415	1.23340	1.08616	1.98730
1851.792	0.23244	0.84118	0.76449	2.04585
1855.792	0.02313	1.50420	0.58406	2.03930
1859.762	0.22524	1.33390	0.45326	2.05460
1863.790	0.21549	1.21727	0.74414	1.78610
1867.789	0.39812	1.33423	0.71943	1.94933
1871.792	0.46964	1.37325	0.95658	1.82859
1875.781	0.47227	1.55572	0.72417	1.74090
1879.795	0.38405	1.52688	0.47093	1.82918
1883.771	0.44013	1.48481	0.41073	1.64432
1887.791	0.45721	1.57494	0.83250	1.58639
1891.754	0.39859	1.62684	0.28672	1.62038
1895.790	0.51979	1.54342	0.41259	1.60686
1899.791	0.72439	1.55699	0.23619	1.53408
1903.793	0.69072	1.60010	0.11793	1.69382
1907.785	0.74007	1.56669	-0.08396	1.63950
1911.793	0.83977	1.55824	-0.02772	1.71656
1915.792	0.87237	1.60162	-0.00002	1.94345
1919.792	0.91664	1.58340	-0.25373	2.45950
1923.792	0.85786	1.52652	-0.23073	2.18917
1927.785	0.90158	1.51203	-0.22021	2.33868
1931.793	1.01873	1.51977	0.31523	2.29331
1935.794	0.91899	1.64418	0.42035	1.94201
1939.791	0.60121	1.67327	1.49976	2.47611
1943.795	1.27668	1.54712	1.66862	2.34343
1947.793	0.99988	1.39042	1.35812	2.15821
1951.792	1.02670	1.49338	1.42863	2.46536
1955.785	0.96130	1.57278	0.58354	2.65010
1959.797	0.81870	1.59082	1.21477	2.43685
1963.794	1.00276	1.62192	1.44232	2.36174
1967.763	1.39257	1.52870	1.13137	2.34221
1971.793	1.21908	1.40899	1.33517	2.19658
1975.795	1.22772	1.29415	1.21564	2.42770
1979.791	1.10800	1.44274	1.02315	2.27934
1983.792	1.16466	1.35678	1.06074	2.54413
1987.786	1.05495	1.43353	1.24729	2.52584
1991.795	1.12980	1.38065	1.02404	2.47146
1995.795	0.98410	1.36416	1.15317	2.59625
1999.790	1.15111	1.26635	1.09594	2.58735
2003.785	1.10916	1.15779	1.13372	2.58689
2007.778	0.69221	1.00130	1.16329	2.65661
2011.790	0.43423	0.99712	0.94795	2.57623
2015.792	0.52761	1.03205	1.25768	2.64908
2019.784	0.32012	1.15280	0.83456	2.62380
2023.793	0.01663	1.15245	0.64990	2.59874
2027.793	0.25351	1.19685	1.28998	2.61218
2031.794	0.12496	0.99476	1.27529	2.55629
2035.785	0.25959	1.07037	0.99134	2.63541
2039.796	0.25465	1.19747	1.08604	2.61542
2043.801	0.07165	1.16340	1.20323	2.57840
2047.795	0.00613	1.21993	1.15305	2.60135
2051.754	0.05284	1.13876	1.11968	2.67271
2055.796	0.12394	1.17162	1.16652	2.72398
2059.796	0.22430	1.21404	1.48662	2.73493
2063.795	0.34357	1.23690	0.95591	2.91214
2067.788	0.25138	1.24320	0.99859	2.97752
2071.795	0.01534	1.30500	1.18820	3.06434
2075.796	0.25180	1.19588	0.78059	3.12950
2079.794	0.35323	1.16758	0.85910	3.16593
2083.754	0.47629	1.16567	1.20254	3.00507
2087.759	0.55793	1.08749	1.21705	3.02534
2091.775	0.44299	1.16585	1.02335	3.07754
2095.794	0.45909	1.21135	0.64325	3.92622
2099.794	0.49120	1.18832	1.09304	2.99594
2103.796	0.52322	1.13196	1.43801	2.82126
2107.795	0.55617	1.14869	1.34385	2.98102
2111.795	0.44487	1.02464	1.29896	2.73564
2115.790	0.76536	1.03273	1.44512	2.56069
2119.798	0.53376	1.01926	1.28341	3.24655
2123.796	0.55793	1.03317	1.17830	3.38848
2127.796	0.45304	0.93183	1.21030	2.88716
2131.771	0.33543	1.02108	1.21797	3.12017
2135.796	0.64216	0.85084	1.43771	2.85451
2139.793	0.42452	0.48096	1.42166	2.71803
2143.763	0.64471	0.39373	1.27706	2.63832
2147.797	0.69987	0.20884	1.14387	2.84686
2151.797	0.50438	0.93483	1.09395	2.67603
2155.759	0.55148	1.06665	1.28584	2.37221
2159.796	0.55836	1.34780	1.11241	2.03850
2163.697	0.76250	2.14317	0.98306	2.27247
2167.798	0.95420	1.44318	1.18760	1.32523
2171.796	1.96838	1.59761	1.22913	0.81702
2175.766	1.15880	1.88789	1.13169	0.70626
2179.684	0.87257	2.29792	1.09728	0.29500
2183.797	1.22404	2.43920	1.12194	0.48160
2187.794	1.11358	2.06750	2.08290	0.10452
2191.796	1.02538	2.06096	1.37476	-0.15489
2195.799	1.50130	1.64963	1.25927	1.56247
2199.759	1.08674	1.62624	1.87731	1.34891
2203.796	0.91711	1.65500	1.52684	1.30978
2207.765	0.56848	1.55018	1.91816	1.35659
2211.788	1.41687	1.41273	1.49768	0.88391
2215.756	1.09887	1.90309	1.69755	1.56234
2219.794	0.61074	1.86623	1.96982	1.65066
2223.797	0.90235	1.86766	1.35442	0.12657
2227.696	0.51612	2.27522	1.75892	-0.70383
2231.798	1.05662	1.92374	0.59461	-1.06769
2235.794	0.52108	1.92980	-0.42420	-0.32909
2239.798	0.84716	2.41836	0.53575	-0.05988
2243.696	0.83530	2.47980	-0.01015	0.22481
2247.800	0.88880	1.81627	0.19459	0.03576
2251.798	1.23608	1.43577	0.63225	0.20291
2255.797	0.84798	1.43729	0.58781	0.05397
2259.702	0.74615	1.58504	0.77528	0.09072
2263.795	0.88297	1.04072	0.92274	0.12676
2267.797	0.79005	1.89425	0.79568	0.37950
2271.800	0.93165	1.68543	0.15913	0.46584
2275.677	0.89222	1.67830	1.15436	0.76115
2279.795	1.03935	1.49240	0.75774	0.44351
2283.799	1.20435	1.46533	1.08636	0.68027
2287.797	1.34901	1.34496	1.45234	0.65287
2291.699	1.48592	1.55798	1.40227	0.71098
2295.799	1.30471	1.56115	1.10351	0.78695
2299.778	0.24128	1.59884	1.41948	0.80434
2303.795	-0.84394	1.70101	1.96531	0.70708
2307.701	-0.57051	1.75272	1.81694	0.75874
2311.796	-0.78843	1.77270	1.69406	0.58333
2315.798	-0.94564	1.75672	1.79567	0.67221
2319.796	-0.32841	1.71388	1.65659	0.73042
2323.698	-0.68824	1.74876	0.66379	0.52819
2327.797	-0.19933	1.65051	0.37871	0.49060
2331.795	0.35203	1.61566	-0.20000	0.47866
2335.798	0.29828	1.63046	-0.06229	0.45515
2339.700	-0.05961	1.64965	-0.26115	0.26571
2343.787	0.02772	1.40007	-0.04202	0.26844
2347.800	-0.16583	1.33189	-0.09205	0.17064
2351.796	-0.74074	1.44788	-0.25391	0.00122
2355.697	-0.02995	1.46965	-0.17467	-0.16833
2359.794	-0.10662	1.53124	0.31436	-0.23395
2363.795	-0.01395	1.56610	0.22599	-0.32236
2367.798	-0.04678	1.61002	0.48674	-0.14131
2371.696	-0.08741	1.41619	0.49267	-0.26878
2375.800	0.13163	1.64473	0.80786	-0.06584
2379.799	0.12821	1.82857	0.82421	-0.22061
2383.770	0.10126	2.11574	0.84496	-0.00286
2387.686	0.45155	1.89569	0.99963	0.07225
2391.760	0.44373	2.02922	0.49433	0.00763
2395.801	0.36372	2.01603	1.07465	0.25163
2399.800	0.66216	1.73698	0.99755	0.29476
2403.695	0.18792	1.41263	0.78925	0.38060
2407.802	0.15213	1.19338	0.92090	0.45077
2411.797	0.22174	2.03971	0.95229	0.43700
2415.801	0.22105	1.11727	0.94812	0.60495
2419.699	0.05045	1.69854	0.96606	0.67167
2423.783	0.33722	0.93309	0.79007	0.68740
2427.801	0.38080	0.73173	0.85034	0.82035
2431.800	0.23458	0.73454	1.11301	0.78412
2435.801	-0.07108	1.04891	0.80565	0.94747
2439.801	-0.06234	0.71179	0.92254	1.08608
2443.799	-0.02539	0.54269	0.93420	1.18098
2447.803	0.04140	0.60071	0.93713	1.57912
2451.702	-0.06271	0.66709	0.75687	1.22658
2455.799	0.00673	0.81438	0.81225	1.17506
2459.801	-0.16707	0.78501	1.31044	1.36852
2463.799	0.19589	0.94624	0.93420	1.31225
2467.703	0.58677	0.88896	1.25480	1.51128
2471.764	0.55600	1.03106	1.33736	1.41156
2475.801	-0.03929	1.64953	1.12725	1.42619
2479.803	-0.63392	2.75284	1.23560	1.65942
2483.783	-6.52608	6.61458	3.56645	3.36095
2487.800	3.15273	6.58587	6.91809	4.04657
2491.803	NaN	NaN	-1.94992	6.82560
2495.803	NaN	NaN	NaN	NaN
2499.815	NaN	NaN	NaN	NaN
2503.801	NaN	NaN	NaN	NaN
2507.797	NaN	NaN	NaN	NaN
2511.661	NaN	NaN	NaN	NaN
2515.666	NaN	NaN	NaN	NaN
2519.676	NaN	NaN	NaN	NaN
2523.673	NaN	NaN	NaN	NaN
2527.675	NaN	NaN	NaN	NaN
2531.673	NaN	NaN	NaN	NaN
2535.673	NaN	NaN	NaN	NaN
2539.676	NaN	NaN	NaN	NaN
2543.673	NaN	NaN	NaN	NaN
2547.676	NaN	NaN	NaN	NaN
2551.676	NaN	NaN	NaN	NaN
2555.641	NaN	NaN	NaN	NaN
2559.674	NaN	NaN	NaN	NaN
2563.673	NaN	NaN	NaN	NaN
2567.673	NaN	NaN	NaN	NaN
2571.671	NaN	NaN	NaN	NaN
2575.672	NaN	NaN	NaN	NaN
2579.674	NaN	NaN	NaN	NaN
2583.703	NaN	NaN	NaN	NaN
2587.679	NaN	NaN	NaN	NaN
2591.640	NaN	NaN	NaN	NaN
2595.659	NaN	NaN	NaN	NaN
2599.655	NaN	NaN	NaN	NaN
2603.679	NaN	NaN	NaN	NaN
2607.648	NaN	NaN	-0.84647	8.42347
2611.677	NaN	NaN	1.23198	5.96871
2615.677	NaN	NaN	-0.07664	5.88882
2619.679	13.96563	6.68176	1.29583	5.74935
2623.677	5.25030	3.41604	3.89794	2.41878
2627.678	-3.60796	-0.04452	1.21335	4.60678
2631.678	-0.93051	2.29156	1.46385	2.93545
2635.677	-3.30059	0.61234	-0.17310	4.48042
2639.644	-3.22119	2.15620	1.69507	2.29966
2643.640	-3.76107	2.59829	0.66121	2.17314
2647.683	3.36725	4.50592	1.07895	2.20309
2651.679	7.62401	6.74481	2.64597	1.20591
2655.680	6.04198	6.63224	1.37553	1.45791
2659.677	5.59130	4.52240	-0.28433	1.55558
2663.669	3.18170	3.87460	1.30955	1.16369
2667.679	2.94898	4.48023	1.17133	0.86431
2671.675	2.49899	4.40715	1.25136	0.73977
2675.678	2.14630	4.77328	0.87056	1.08620
2679.670	2.21549	4.36979	1.08974	0.89379
2683.678	1.83533	4.43063	1.10976	1.31643
2687.679	1.25729	4.45235	1.02198	0.58680
2691.679	0.82647	4.55376	0.81627	1.27445
2695.679	-0.49264	4.51312	0.71104	0.35740
2699.681	0.21080	4.49177	2.74588	0.12899
2703.680	1.50772	4.25344	2.01610	0.29870
2707.681	1.49631	4.25529	1.60380	0.22994
2711.679	1.17064	4.31816	2.01127	1.42800
2715.642	1.36323	4.32915	2.29305	0.88646
2719.667	1.25905	4.18520	1.78181	0.93216
2723.669	1.14828	4.05084	2.21355	0.63618
2727.679	0.81176	4.01945	2.73590	0.75813
2731.679	0.87662	4.03629	2.33985	1.43848
2735.677	0.52349	4.02033	2.21380	1.84586
2739.678	0.78044	4.14120	1.90401	2.24155
2743.653	0.36955	4.08160	2.23268	2.12145
2747.685	0.07247	4.07768	0.76992	2.63021
2751.680	-0.55853	4.39756	1.82071	2.51295
2755.683	-0.96814	3.93246	1.27232	2.63751
2759.679	-0.64831	4.27085	1.75719	2.71305
2763.681	0.27729	3.26984	1.00524	2.73079
2767.679	-0.14580	3.80834	1.27758	2.79138
2771.677	-0.76615	4.25003	1.06056	2.86340
2775.679	-0.29970	3.79217	1.29112	2.83114
2779.679	-0.44837	3.89430	0.86443	2.90522
2783.680	-0.28674	3.33663	1.04955	2.78293
2787.679	-0.55089	3.54387	0.80548	2.83379
2791.641	-0.66211	3.58607	0.62163	2.83041
2795.680	-0.44113	3.47063	0.93093	2.86765
2799.682	-0.85314	3.89210	1.25163	2.54136
2803.665	-0.63610	3.53817	1.02350	2.32820
2807.706	-0.97546	3.40041	1.95874	2.80947
2811.681	-0.66037	3.26493	2.04889	2.71703
2815.683	-0.53766	3.33501	1.65535	2.58188
2819.681	-0.64980	3.51915	1.58128	2.25311
2823.706	-0.52210	3.40701	1.86833	2.56037
2827.682	-0.19239	3.37246	2.17214	2.47471
2831.644	0.10279	3.33657	2.29096	2.69096
2835.681	0.23713	3.31324	2.11819	2.82272
2839.707	0.13342	3.37217	1.94969	2.88750
2843.675	0.52021	3.36320	2.18721	2.84699
2847.679	0.64168	3.41649	2.13423	3.19902
2851.681	0.59228	3.55820	2.07360	2.95762
2855.673	0.51838	3.82240	1.86166	3.09536
2859.681	0.61541	3.78503	2.05858	3.51612
2863.684	0.65682	3.85728	2.01375	4.03035
2867.684	0.87488	3.93284	1.85876	3.62092
2871.681	0.71456	3.93541	1.71863	3.62879
2875.681	0.62094	3.95401	1.69835	3.42672
2879.684	0.12476	3.84367	1.60402	3.35398
2883.683	-0.17896	3.86687	1.29983	3.29001
2887.687	0.42442	3.47088	1.49078	3.46919
2891.654	-0.30893	3.21063	1.68835	3.23382
2895.644	0.09793	3.20079	1.38674	3.30024
2899.681	0.07783	2.79951	0.87076	3.37330
2903.672	-0.01164	2.58427	1.41298	3.43282
2907.680	-0.03924	2.83174	1.36484	2.87911
2911.683	-0.21383	2.49306	1.19557	-0.01665
2915.684	-0.09384	2.31612	1.21596	2.69575
2919.682	0.26428	2.08872	0.25019	2.28784
2923.684	0.18869	2.06910	0.39226	0.91497
2927.671	0.05646	2.12832	0.27190	1.65979
2931.671	-0.34759	2.09823	0.77042	0.88421
2935.677	-0.11577	2.03736	0.14196	1.59177
2939.681	-0.25115	1.92303	-0.10664	1.07087
2943.686	-0.53379	1.81790	1.37910	-0.15477
2947.682	-0.40934	1.71354	1.12730	-0.81094
2951.687	-0.42199	1.80658	-0.08170	1.26255
2955.681	-0.21326	1.63556	-0.41388	1.05187
2959.682	-0.56285	1.81449	-0.40601	0.99640
2963.682	-0.51716	1.71128	1.05495	2.83151
2967.684	-0.60942	1.59506	0.48584	3.18482
2971.681	-0.53356	1.57006	0.76685	3.25093
2975.681	-0.97551	1.97273	0.67109	4.40876
2979.684	-0.76503	2.46424	1.24310	2.34459
2983.683	-0.67427	2.07671	0.38420	5.36316
2987.685	-0.57813	2.15682	-0.04882	3.19807
2991.681	-0.30714	2.04101	-1.03637	3.22457
2995.681	-0.33958	2.08736	-2.07797	3.37653
2999.684	-0.32625	2.03411	0.61670	5.37937
3003.684	-0.66377	2.30436	1.00067	5.24474
3007.684	-0.57764	2.07188	0.75489	5.01571
3011.683	-0.55970	2.04561	1.19130	5.19316
3015.648	-0.52545	2.81942	1.98611	3.84533
3019.680	-0.79739	2.12050	1.59217	3.65255
3023.648	-0.11568	3.10377	1.81962	3.49526
3027.682	-0.49751	3.20084	1.96288	3.41201
3031.682	-0.25872	3.32621	2.70441	2.88908
3035.685	-0.76548	2.99478	2.50152	3.32603
3039.685	-0.39167	2.53020	2.11772	2.78314
3043.685	-0.11208	3.15280	1.93430	3.09733
3047.682	0.31032	3.43584	2.08835	3.66073
3051.688	-0.13714	3.07047	2.61389	2.83018
3055.676	1.05180	3.04459	2.20144	3.34664
3059.682	0.34866	2.88746	2.03633	3.00393
3063.682	0.43418	3.16703	2.31666	2.87114
3067.678	0.63851	3.01872	2.04428	1.20387
3071.684	0.90058	2.93402	1.85487	2.43627
3075.683	1.09247	2.98903	1.84260	3.71509
3079.679	1.17619	2.89781	1.97872	2.31010
3083.648	0.98256	2.90723	1.91680	2.54669
3087.648	1.44103	2.87899	2.02673	2.31690
3091.683	1.03821	2.90706	2.05184	2.56036
3095.676	1.10400	2.93381	1.91920	2.76861
3099.684	1.32929	2.93101	2.01318	2.81743
3103.686	1.22536	3.03888	1.84396	1.62823
3107.684	1.16495	3.05409	1.79413	1.08219
3111.678	1.27939	3.08839	1.71816	1.63884
3115.686	1.10058	3.00314	1.69547	1.58351
3119.687	1.12283	3.14091	1.96717	-1.01324
3123.686	1.01692	3.18122	1.78575	-0.79610
3127.686	1.16565	3.06840	1.64149	-0.75034
3131.685	1.06069	2.75878	2.12942	-0.54254
3135.673	1.05012	2.17669	1.82041	-0.52898
3139.676	1.05813	2.46278	1.70276	-0.10370
3143.656	1.18944	1.55578	1.62061	-0.30010
3147.651	1.09673	1.26138	1.66879	-0.16354
3151.689	1.14498	0.83453	1.65175	0.66351
3155.686	0.96112	1.12094	1.68858	0.05305
3159.689	0.99678	1.05077	1.85881	0.40120
3163.687	1.04456	0.91412	1.57314	0.16074
3167.686	0.94457	0.80115	1.68186	0.60112
3171.683	0.99692	1.09207	1.59802	0.55626
3175.685	1.07150	0.87134	1.64308	0.89001
3179.653	1.23404	0.79894	1.53634	0.64319
3183.684	0.91912	0.79726	1.49914	0.91416
3187.684	0.85644	0.79175	1.47709	0.84602
3191.585	0.94872	0.75430	1.32079	0.87044
3195.687	0.82126	0.81201	1.18882	1.03083
3199.685	0.91006	0.82242	1.38585	0.92074
3203.649	1.08991	0.72942	1.35489	0.77394
3207.584	0.78260	0.96178	1.56526	1.24356
3211.686	0.97407	1.00108	1.35593	1.16057
3215.690	1.30886	0.94215	1.64092	1.56541
3219.650	0.83714	1.22855	1.39748	1.53289
3223.689	0.89232	1.51042	1.33974	2.07142
3227.689	0.73436	1.93327	1.26230	3.12878
3231.688	0.62806	1.90410	1.42503	3.75564
3235.684	1.05210	2.42548	1.42699	0.46790
3239.689	0.97015	2.50021	1.57877	-2.10650
3243.688	1.06381	0.69689	1.48674	-1.37299
3247.687	1.01459	0.60829	1.35033	-1.05237
3251.687	1.11792	1.03985	1.35006	-0.24037
3255.693	1.02109	0.55828	1.40363	0.32542
3259.685	0.84890	0.84613	1.52243	2.19598
3263.680	1.04106	1.92814	1.50765	1.91698
3267.684	1.01571	2.26362	1.39473	3.08770
3271.585	0.93348	2.92618	1.38478	4.40153
3275.687	1.18465	1.25610	1.28693	-2.05901
3279.688	1.01682	0.32132	1.47444	-0.82861
3283.688	1.03739	0.88782	1.37037	-0.10988
3287.581	1.15689	0.74876	1.32572	1.66271
3291.686	1.16709	1.32008	1.16014	1.57392
3295.690	0.94279	1.83198	1.26053	3.05787
3299.688	1.27333	1.65935	1.28226	0.74701
3303.591	1.29353	0.08124	1.25706	-1.24631
3307.687	1.28415	0.97785	1.26180	0.06069
3311.688	1.10993	1.24409	1.27460	1.17131
3315.688	1.41370	2.19467	1.24496	3.15610
3319.690	1.52878	-0.91417	1.11598	3.15080
3323.686	1.27130	1.11578	1.17706	0.24551
3327.688	1.40909	1.63883	1.05466	0.67319
3331.690	1.15984	2.26217	1.04131	3.01323
3335.595	1.24009	-0.32947	1.00665	-1.09877
3339.693	1.11938	1.42126	0.87215	0.24270
3343.678	1.51913	1.93788	0.56543	3.15454
3347.681	1.31669	0.01173	0.59163	0.91209
3351.588	1.24421	1.52159	0.67263	0.23839
3355.654	-0.21852	1.81958	0.54438	2.44570
3359.690	0.74940	0.19599	0.86622	0.46961
3363.687	0.74414	1.81253	0.51530	0.22639
3367.586	-1.61116	1.67690	0.83297	1.52278
3371.689	0.33144	-0.75026	0.72369	2.21323
3375.691	0.33134	1.50060	0.98631	-0.43230
3379.690	1.36548	1.69426	0.96693	0.64983
3383.586	0.06810	2.25471	1.45031	2.06728
3387.655	0.37819	-0.52156	1.23938	1.05997
3391.649	0.06611	0.11259	2.24349	0.23002
3395.689	0.29059	1.91158	1.73703	0.70508
3399.694	0.56640	1.77229	1.55797	2.26145
3403.691	0.37707	3.22975	1.50036	3.00606
3407.691	0.74340	2.15603	1.64226	-1.07997
3411.693	0.67230	0.22313	1.64221	-0.27213
3415.592	0.85151	-0.38668	1.54326	0.16695
3419.688	0.68801	-0.32075	1.73633	0.36769
3423.657	0.85567	-0.28389	1.70643	0.58005
3427.671	0.85811	-0.19589	1.82100	1.52461
3431.585	0.92190	-0.09640	1.64650	2.86142
3435.689	0.82285	0.59866	1.67521	3.03454
3439.691	0.81367	0.96965	1.48719	3.47320
3443.690	0.96147	0.16994	1.77633	3.63793
3447.587	1.02816	0.21153	1.70990	3.42947
3451.697	1.17416	0.37718	1.93432	3.56723
3455.654	0.73424	0.31183	1.84785	2.09805
3459.691	0.71613	0.07509	1.78853	0.11072
3463.588	0.63481	0.11743	1.68141	2.33471
3467.686	0.75067	0.19348	1.49488	3.60402
3471.689	0.41790	3.63104	1.25795	3.13540
3475.692	1.00097	3.50191	1.56258	2.10602
3479.592	0.92817	3.37167	1.00065	1.69247
3483.693	0.44616	2.62459	1.36690	1.31148
3487.691	0.38926	2.79670	1.87753	0.51737
3491.689	0.65340	2.76202	2.11832	0.64829
3495.589	-6.62341	-0.77987	1.23880	2.58528
3499.691	0.22514	3.74343	7.64666	1.61759
3503.692	-3.95258	-0.33501	7.37753	3.28843
3507.692	NaN	NaN	-2.51415	5.68081
3511.590	NaN	NaN	NaN	NaN
3515.670	NaN	NaN	NaN	NaN
3519.654	NaN	NaN	NaN	NaN
3523.690	NaN	NaN	NaN	NaN
3527.689	NaN	NaN	NaN	NaN
3531.694	NaN	NaN	NaN	NaN
3535.692	NaN	NaN	NaN	NaN
3539.694	NaN	NaN	NaN	NaN
3543.691	NaN	NaN	NaN	NaN
3547.692	NaN	NaN	NaN	NaN
3551.567	NaN	NaN	NaN	NaN
3555.572	NaN	NaN	NaN	NaN
3559.566	NaN	NaN	NaN	NaN
3563.569	NaN	NaN	NaN	NaN
3567.568	NaN	NaN	NaN	NaN
3571.531	NaN	NaN	NaN	NaN
3575.568	NaN	NaN	NaN	NaN
3579.561	NaN	NaN	NaN	NaN
3583.579	NaN	NaN	NaN	NaN
3587.582	NaN	NaN	NaN	NaN
3591.567	NaN	NaN	NaN	NaN
3595.593	NaN	NaN	NaN	NaN
3599.566	NaN	NaN	NaN	NaN
3603.530	NaN	NaN	-3.83944	8.37094
3607.568	10.94507	9.14455	-3.79588	7.36588
3611.595	-0.48319	-6.78101	-3.75749	2.61842
3615.566	-0.15020	-4.45573	-3.47280	0.25617
3619.570	-0.78340	-0.52669	0.53481	4.22196
3623.569	3.92633	4.02697	2.64549	2.60466
3627.591	-3.42403	-2.80472	0.54275	3.84126
3631.570	-7.75960	0.06350	0.27458	1.25238
3635.569	7.24009	3.78115	0.36117	1.35261
3639.566	7.24857	4.83440	0.32340	0.66219
3643.559	6.98194	3.50792	7.89276	1.17969
3647.570	7.18814	3.29230	-2.69683	1.36992
3651.570	5.92699	3.38040	-1.26435	3.53372
3655.570	4.16853	3.02087	0.71714	4.45517
3659.568	3.53194	3.14713	0.42562	7.23233
3663.570	2.45034	2.83490	1.79512	6.66172
3667.567	1.94531	3.10947	0.96532	7.91529
3671.569	1.58872	3.11762	1.30900	5.32864
3675.560	1.56568	2.98266	1.42340	5.14848
3679.568	0.75431	3.12023	1.55145	4.76742
3683.544	0.53806	3.12190	1.64684	4.74828
3687.569	0.44966	3.17020	3.55599	4.37250
3691.571	0.31846	3.10093	1.79753	4.40966
3695.570	0.08713	3.03078	2.05591	4.54127
3699.568	0.29185	2.99265	2.50301	4.51672
3703.567	0.45294	3.01889	2.07561	4.58995
3707.591	0.62275	3.04430	2.69366	4.12866
3711.570	0.30975	3.13197	2.14000	0.06938
3715.572	0.50361	3.17206	2.32330	-0.26378
3719.570	0.56756	3.19945	2.24844	-0.33331
3723.569	0.39889	3.18199	2.32275	-0.38007
3727.569	0.03911	3.35703	2.58199	-0.36878
3731.570	-0.43998	3.75824	2.17742	-0.01276
3735.572	-0.28108	3.77808	2.10114	0.02528
3739.568	-0.39211	4.04745	2.28891	0.57657
3743.569	0.29498	3.44154	2.22820	1.44323
3747.571	0.64417	0.98561	1.74752	1.73845
3751.570	0.82300	0.65624	1.42308	2.51339
3755.571	0.35228	0.69421	1.16778	3.08336
3759.570	0.76861	0.75925	1.67422	2.67334
3763.570	0.51989	1.65589	1.53991	3.10927
3767.532	-0.01856	1.75944	1.00271	3.63446
3771.593	0.17586	2.46956	1.37151	1.07923
3775.569	0.43316	2.85659	0.84364	1.89782
3779.569	0.54937	2.19998	1.06399	1.31106
3783.570	0.65230	2.59613	1.24478	1.53860
3787.562	1.00419	2.46483	1.39788	-1.40154
3791.570	1.01293	2.68505	1.31178	-0.04415
3795.573	1.04523	2.78665	1.44552	-0.37122
3799.572	0.77647	3.92695	1.63507	-0.43934
3803.563	0.60238	3.26563	1.74194	0.88214
3807.552	0.46473	3.33668	1.55663	0.67994
3811.570	0.98727	3.31431	1.66120	1.40216
3815.534	1.04523	3.06489	1.14094	1.24780
3819.531	1.13752	2.81289	1.45688	1.49505
3823.570	1.25552	2.68004	1.40098	1.80143
3827.570	0.94864	2.42814	1.45420	2.03441
3831.612	0.63756	2.36276	1.35006	1.97157
3835.598	1.23407	2.35065	1.04682	2.53740
3839.572	0.49096	2.16368	1.06282	2.75831
3843.575	-0.39234	3.00846	0.86580	2.46249
3847.564	0.10947	3.14064	0.76029	2.96762
3851.597	-0.05907	3.49514	0.48398	4.64606
3855.575	-5.24826	1.99105	0.05403	6.00348
3859.573	8.01613	3.91761	7.30422	4.10719
3863.571	2.25922	7.92275	4.47829	5.54291
3867.594	NaN	NaN	NaN	NaN
3871.571	NaN	NaN	NaN	NaN
3875.571	NaN	NaN	NaN	NaN
3879.571	NaN	NaN	NaN	NaN
3883.535	NaN	NaN	NaN	NaN
3887.573	NaN	NaN	NaN	NaN
3891.572	NaN	NaN	NaN	NaN
3895.541	NaN	NaN	NaN	NaN
3899.534	NaN	NaN	NaN	NaN
3903.569	NaN	NaN	NaN	NaN
3907.570	NaN	NaN	NaN	NaN
3911.572	NaN	NaN	NaN	NaN
3915.572	NaN	NaN	NaN	NaN
3919.570	NaN	NaN	NaN	NaN
3923.573	NaN	NaN	NaN	NaN
3927.574	NaN	NaN	NaN	NaN
3931.585	NaN	NaN	NaN	NaN
3935.566	NaN	NaN	NaN	NaN
3939.571	NaN	NaN	NaN	NaN
3943.569	NaN	NaN	NaN	NaN
3947.573	NaN	NaN	NaN	NaN
3951.534	NaN	NaN	NaN	NaN
3955.573	NaN	NaN	NaN	NaN
3959.531	NaN	NaN	NaN	NaN
3963.571	NaN	NaN	NaN	NaN
3967.544	NaN	NaN	NaN	NaN
3971.574	NaN	NaN	NaN	NaN
3975.540	NaN	NaN	NaN	NaN
3979.572	NaN	NaN	-0.17156	6.10450
3983.573	2.16196	9.41691	-0.44113	5.85192
3987.566	5.91865	9.83968	-0.19556	3.21229
3991.574	5.44080	9.43973	-2.89666	5.37897
3995.573	-0.57838	-1.43516	-2.37605	3.16379
3999.575	3.25219	2.55548	-2.36562	3.04422
4003.600	-2.88433	1.33110	-2.01060	2.54717
4007.574	-2.98965	2.89408	-2.47125	2.36629
4011.573	2.91849	6.23394	-2.74271	2.74339
4015.555	4.33925	6.66543	-2.51400	2.61528
4019.540	5.52364	6.38226	-2.54135	2.77886
4023.572	3.17789	6.22519	-2.00519	2.75841
4027.578	2.99965	5.61051	-2.16694	2.92208
4031.575	1.80933	6.02854	-1.96320	2.12154
4035.568	2.15118	5.42469	-1.44113	1.75891
4039.573	1.73700	5.39192	-1.39549	1.47791
4043.576	-0.47669	5.19346	-0.22805	0.86045
4047.575	-0.33407	5.49442	-1.42655	3.10931
4051.580	1.01702	5.18726	-0.68528	2.99473
4055.568	-0.29086	5.04729	0.09346	0.52833
4059.566	1.17766	4.95027	0.30384	0.85752
4063.573	1.53597	4.81445	2.27216	1.14228
4067.553	-0.41661	4.86645	2.70201	0.99542
4071.575	0.47914	4.87317	2.22354	1.10482
4075.576	0.23649	4.76643	2.70344	1.09469
4079.576	0.46636	4.76528	3.19239	1.19133
4083.574	0.46138	4.44179	3.04860	1.20144
4087.576	0.78903	4.64018	3.57585	2.17802
4091.576	0.88265	4.09047	-1.37424	1.12525
4095.572	0.50738	4.13421	-0.70310	1.21738
4099.577	0.90967	3.86637	-0.48006	4.23447
4103.539	0.90374	3.51894	1.17066	2.91288
4107.576	0.92264	2.86302	-0.34665	3.18295
4111.574	0.74047	2.50830	-0.39584	3.20379
4115.580	0.81967	2.17539	-0.54302	2.62894
4119.574	0.91140	2.25547	-0.48205	2.14614
4123.574	1.04796	3.00409	-0.43656	0.93775
4127.579	0.97561	3.62437	-0.29806	0.96543
4131.570	0.96529	3.66779	-0.22832	0.89568
4135.576	0.82838	3.87336	1.41335	-0.02030
4139.559	0.88153	3.76145	0.22847	-0.85981
4143.575	0.74300	3.85155	0.82908	-1.35461
4147.577	0.78722	3.19620	-0.10863	1.17778
4151.574	0.72898	3.58919	1.40497	1.14023
4155.583	0.61508	2.94435	1.45147	1.09660
4159.577	0.61081	2.72206	1.57319	1.23368
4163.574	0.60677	2.91469	1.98117	3.06793
4167.577	0.58198	2.38154	0.94549	3.75765
4171.539	0.78491	2.36844	1.77300	3.36931
4175.576	0.43782	2.73009	1.35546	3.52166
4179.568	0.46123	2.32282	2.54502	3.14470
4183.542	0.49656	2.55375	1.59388	1.31185
4187.576	0.56885	2.48721	1.94124	2.32221
4191.579	0.60987	2.33286	2.22200	2.88341
4195.567	0.72752	2.35860	2.72649	3.38715
4199.578	0.53421	2.24412	2.46830	3.36102
4203.579	0.92311	2.34834	2.50464	2.03728
4207.578	0.85878	2.28664	2.05251	3.30236
4211.578	0.99152	2.31446	2.05167	3.13207
4215.540	0.98549	2.29700	0.02576	2.90513
4219.577	1.06706	2.22488	1.79693	3.03046
4223.557	1.01198	2.24223	1.24506	3.08878
4227.569	1.10564	2.10832	1.82981	2.87821
4231.580	1.30181	2.07488	0.78027	2.78820
4235.578	1.03397	1.99468	1.62619	2.49302
4239.578	1.52109	1.31472	1.95413	2.12004
4243.577	1.58001	1.30230	1.82904	0.70917
4247.577	1.54428	2.80442	1.77271	-0.17361
4251.579	1.11194	3.87249	1.89937	-0.23186
4255.576	1.11211	4.47970	1.83519	-0.31087
4259.581	1.22908	3.90035	1.73946	-0.29765
4263.566	1.12085	3.98857	2.05383	-0.62366
4267.578	0.71687	2.82207	1.73028	-0.56800
4271.577	0.87262	3.65150	2.04946	-0.15687
4275.555	0.86964	3.63111	2.08109	-0.65449
4279.577	0.90857	3.38038	2.08238	1.83429
4283.578	0.50125	3.33360	2.23702	1.08259
4287.577	0.66528	3.20422	3.42062	1.36850
4291.579	0.62709	3.03414	2.35256	4.08942
4295.577	0.21733	3.13777	2.56320	0.39845
4299.579	0.00390	3.13051	2.77443	1.21627
4303.578	0.11563	3.12641	3.19506	1.26297
4307.457	-0.06036	3.06445	2.27273	3.15409
4311.577	1.03471	3.13599	2.83526	2.76737
4315.578	2.82878	2.89293	3.18522	2.76774
4319.580	3.33357	2.94736	4.54385	1.51229
4323.479	5.19377	2.72592	5.76831	1.17182
4327.580	5.81783	0.57017	6.55768	1.29346
4331.580	7.09287	2.19774	7.38104	0.93626
4335.581	9.72537	0.38097	11.43865	0.87157
4339.476	9.17082	0.14444	6.16415	1.01727
4343.586	9.17754	0.17518	11.74872	-1.53425
4347.566	9.17338	0.05431	11.37567	-0.35469
4351.577	9.22758	-0.05546	10.96940	0.68125
4355.477	9.82561	-0.04770	10.84372	-1.05739
4359.585	9.21621	0.02031	11.04513	-1.20678
4363.580	9.05502	0.02015	11.52877	-1.01296
4367.578	9.09541	0.12641	11.17646	-1.36590
4371.479	8.92345	0.20758	10.41786	0.35466
4375.542	9.30121	0.04166	9.99212	-0.10665
4379.582	8.66370	0.12553	7.97291	-1.49593
4383.580	8.75570	0.28983	9.39385	-1.12063
4387.480	8.63132	0.17055	9.32743	-1.48758
4391.546	8.50146	0.26675	10.32532	-1.57671
4395.582	8.31815	0.29719	11.52693	-1.42968
4399.580	8.24845	0.22393	7.83726	0.12161
4403.476	8.54110	0.19182	8.37104	0.40571
4407.580	8.46997	0.09485	9.03120	-0.77886
4411.582	8.70599	0.26680	7.93859	-1.05213
4415.544	8.84121	0.04449	7.27677	0.42004
4419.477	8.48396	-0.21358	7.68106	0.73574
4423.582	9.07557	-0.12492	8.38189	0.00580
4427.580	8.01380	0.80524	7.72534	-0.23139
4431.562	7.52071	1.26608	8.01881	-0.98592
4435.478	8.36030	1.78128	8.21128	0.44999
4439.580	8.11498	2.41639	8.24475	0.06972
4443.578	8.77271	2.20071	8.12262	0.27793
4447.582	8.87479	2.00309	8.94075	0.16906
4451.584	8.68873	1.69175	9.32521	0.24533
4455.581	8.82885	1.45279	10.79095	0.04582
4459.583	8.50811	1.86395	10.22608	-0.46780
4463.583	7.83183	1.87085	9.18830	-0.63941
4467.483	8.23632	1.95936	10.36389	0.01855
4471.582	8.43766	1.87959	9.88258	-0.32791
4475.570	8.37415	1.92137	9.66465	-0.31598
4479.582	8.52115	1.70057	9.30008	-0.86943
4483.482	8.37638	1.74338	9.57100	-0.99512
4487.580	8.33146	1.54985	9.53098	-1.31621
4491.582	8.42301	1.50731	9.73154	-1.19862
4495.581	8.10963	1.70260	9.70974	-1.17938
4499.582	8.30097	1.66761	9.98615	-3.15120
4503.583	8.13573	1.53339	9.70379	-2.27783
4507.583	8.25224	1.44063	10.23348	-2.39147
4511.583	7.85767	1.57733	9.88492	-1.54719
4515.454	7.69644	1.58140	9.23522	-1.42037
4519.582	5.11450	1.80743	6.63747	-1.16636
4523.547	3.15389	1.98343	4.55043	-0.81595
4527.580	3.34996	2.39169	4.37043	-1.16225
4531.484	2.14528	2.33475	2.52156	-0.32553
4535.583	-0.79074	2.61272	0.50738	-0.35545
4539.583	-0.29039	2.65818	0.55290	-0.67636
4543.580	-0.49723	2.53604	0.47614	-0.54687
4547.583	-0.39057	2.83827	0.11374	-0.19931
4551.588	-0.32029	3.12655	0.38340	0.30134
4555.584	-0.85009	2.99083	0.46512	0.06443
4559.589	-0.92108	2.88553	0.21370	1.19879
4563.488	-0.78362	2.80979	0.15504	1.10455
4567.587	-0.64283	1.81796	0.46743	1.53263
4571.582	-0.40710	1.04777	0.33819	1.88375
4575.453	-0.49170	0.23573	0.54017	2.06463
4579.588	-0.39653	-0.05096	0.83895	1.84898
4583.420	-0.31717	-0.18622	0.64995	-0.32729
4587.465	-0.48093	1.30073	1.49304	1.74502
4591.459	-0.14977	1.13747	1.51142	1.65245
4595.458	-0.27371	0.73859	1.77957	1.93071
4599.460	-0.59799	2.48236	1.76378	1.70798
4603.437	-0.48175	2.87995	1.76547	1.09721
4607.459	-0.73221	3.27523	1.97042	0.58098
4611.457	-0.54287	3.20211	2.02666	0.63681
4615.458	-0.58506	3.17258	1.96905	-0.37450
4619.422	-0.43966	3.10463	2.71453	-0.47785
4623.459	-0.58530	3.07668	1.88509	-0.82183
4627.450	-1.18964	2.90426	2.02646	-0.89625
4631.459	-1.20862	3.02775	1.73152	-0.93528
4635.458	-1.17170	3.06709	1.87557	-0.82114
4639.462	-1.31694	3.03843	1.71724	-1.10873
4643.418	-1.06394	2.86402	0.50838	-0.52692
4647.449	-0.93167	1.98625	1.61443	-0.82568
4651.458	-1.18239	2.06056	1.24076	-0.52100
4655.457	-1.17644	1.32054	0.93018	0.64482
4659.454	-1.18708	0.59737	0.88034	0.33137
4663.458	-1.18058	0.42872	1.05907	1.01461
4667.460	-1.33691	0.32879	1.49651	1.51848
4671.459	-1.26056	0.58064	0.72422	0.25453
4675.453	-1.24456	0.86356	0.72109	-1.19537
4679.456	-1.29412	0.99038	0.85049	-1.69768
4683.460	-1.23476	1.33611	0.68305	-2.34483
4687.425	-1.19202	1.23080	1.92937	-2.51549
4691.483	-1.23543	1.48009	0.84573	-2.43808
4695.459	-1.21427	1.31002	1.77489	-2.53267
4699.459	-1.17503	1.57262	1.18666	-1.90107
4703.457	-1.27524	1.44608	1.36432	-2.25636
4707.483	-1.30169	1.59223	1.39398	-2.32766
4711.460	-1.36360	1.74325	1.36466	-2.10048
4715.423	-1.24210	1.79802	1.21807	-2.10199
4719.461	-1.33249	1.76085	1.07870	-2.12454
4723.460	-1.41630	1.85827	1.37989	-2.08754
4727.444	-1.36181	1.69113	1.58924	-2.20846
4731.457	-1.56226	1.58699	1.40867	-2.22643
4735.461	-1.55596	1.53172	1.68305	-2.47684
4739.451	-1.47997	1.36366	2.30449	-2.97822
4743.461	-1.38617	0.71759	2.57741	-2.08167
4747.459	-1.27532	0.38051	2.97282	-1.46274
4751.459	-1.35231	0.46851	2.05881	-0.67973
4755.454	-1.22620	0.51335	2.37503	-0.35186
4759.463	-1.24203	0.18873	2.84356	0.12655
4763.462	-1.08825	0.15369	1.67370	-2.24398
4767.423	-1.59859	0.21171	2.36262	-2.39753
4771.460	-3.21357	0.25986	-0.12999	-1.59746
4775.461	-4.88638	0.19636	-4.01364	-0.62739
4779.461	-6.96548	0.13078	-3.90417	0.01840
4783.424	-7.89452	0.16415	-7.12762	-0.10257
4787.454	-9.81903	0.14495	-8.01083	0.16816
4791.459	-10.19260	0.21089	-9.37866	1.38668
4795.459	-12.81837	0.08391	-11.20586	0.32904
4799.461	-13.17449	-0.26402	-11.98268	1.23765
4803.451	-15.65854	-0.85877	-13.57431	-0.49804
4807.461	-15.31840	-0.25339	-13.86596	-0.73958
4811.440	-15.04404	-0.53244	-13.73360	-1.52909
4815.461	-15.18742	-0.96463	-13.87840	-0.30193
4819.456	-15.30286	-0.89523	-13.93873	1.05244
4823.458	-15.31674	-1.16698	-14.11811	0.98864
4827.457	-15.18333	-1.35987	-14.02363	1.39616
4831.460	-15.17813	-1.38061	-14.22493	1.60940
4835.453	-15.24916	-1.61747	-14.29084	1.20593
4839.425	-15.31403	-0.47561	-14.29065	0.99432
4843.462	-15.74293	-0.87090	-14.40267	0.26879
4847.462	-15.68352	-1.01475	-14.25476	0.78858
4851.423	-15.76276	-1.05270	-14.44578	0.00910
4855.455	-15.43395	-0.12554	-14.35510	0.53598
4859.465	-15.68536	-0.45055	-14.41036	0.43934
4863.461	-15.41031	0.11424	-14.31032	-0.04105
4867.463	-15.36017	-0.00345	-14.32157	0.01526
4871.465	-15.77954	0.39596	-14.04017	-0.09026
4875.463	-15.89678	0.31482	-14.10296	0.08992
4879.460	-15.96135	0.53713	-13.93852	0.10858
4883.484	-16.07473	0.43760	-13.67981	0.08216
4887.461	-16.12172	0.31351	-13.77153	0.03123
4891.469	-15.99688	-0.15159	-13.75556	0.28408
4895.424	-15.74380	0.45874	-13.47162	0.57804
4899.461	-15.76561	0.17869	-13.57677	0.85093
4903.464	-15.65796	0.45800	-13.47345	0.88095
4907.462	-15.75414	0.37715	-13.39755	1.10587
4911.461	-15.71917	0.45966	-13.40694	1.29617
4915.487	-15.88686	0.31392	-13.42819	1.70726
4919.425	-15.70816	0.23450	-13.45909	1.37052
4923.461	-15.86684	0.24024	-13.53172	1.71434
4927.462	-15.79294	0.20224	-13.56308	1.70212
4931.487	-15.57281	0.31146	-13.61900	1.68985
4935.443	-15.69965	0.28008	-13.68010	1.81142
4939.459	-15.68615	0.48966	-13.81633	1.90291
4943.462	-15.69544	0.47449	-13.90731	1.87325
4947.462	-15.74230	0.46709	-13.69521	1.87852
4951.464	-15.79193	0.48032	-13.98026	1.79343
4955.463	-15.71057	0.61355	-13.49565	1.47628
4959.462	-15.31934	1.42373	-11.23843	1.72536
4963.487	-12.27787	1.70280	-12.24137	1.36992
4967.465	-11.18286	2.63085	-9.00661	1.07210
4971.466	-9.66578	3.02062	-8.84515	1.60841
4975.461	-6.25122	4.49800	-5.60610	6.87422
4979.464	-5.58737	12.13203	2.80459	4.88295
4983.461	NaN	NaN	9.12452	4.86516
4987.473	NaN	NaN	NaN	NaN
4991.465	NaN	NaN	NaN	NaN
4995.462	NaN	NaN	NaN	NaN
4999.454	NaN	NaN	NaN	NaN
5003.463	NaN	NaN	NaN	NaN
5007.468	NaN	NaN	NaN	NaN
5011.462	NaN	NaN	NaN	NaN
5015.440	NaN	NaN	NaN	NaN
5019.445	NaN	NaN	NaN	NaN
5023.461	NaN	NaN	NaN	NaN
5027.467	NaN	NaN	NaN	NaN
5031.464	NaN	NaN	NaN	NaN
5035.489	NaN	NaN	NaN	NaN
5039.461	NaN	NaN	5.17001	15.00538
5043.464	NaN	NaN	8.92648	8.41206
5047.463	NaN	NaN	7.55191	8.40367
5051.456	NaN	NaN	8.45215	1.12932
5055.471	NaN	NaN	11.37689	6.47379
5059.457	NaN	NaN	4.87921	3.06562
5063.456	16.31269	2.06132	9.52521	4.27979
5067.467	14.51523	1.81444	3.05657	3.51661
5071.465	13.16701	4.21194	9.59648	4.51441
5075.466	-4.87399	1.53290	9.65773	3.34488
5079.427	-0.96576	6.61529	2.36282	4.44587
5083.464	-0.25257	6.40091	8.88889	3.29764
5087.465	1.48801	4.81258	10.11139	2.56121
5091.466	-0.05698	4.92070	6.23653	3.00701
5095.465	1.44279	4.39890	6.60940	2.08840
5099.465	1.75771	3.44856	3.72516	1.37424
5103.464	2.46739	2.27127	3.98390	1.23406
5107.465	1.91873	2.23629	3.88646	1.64061
5111.430	1.85946	2.10728	4.18894	1.54825
5115.467	1.03275	2.13897	4.55830	1.64679
5119.470	1.24188	1.96687	10.67754	2.44687
5123.465	0.66342	1.97057	8.37653	2.60753
5127.468	0.00382	2.05611	7.05230	1.70762
5131.465	2.05286	2.21747	6.45554	2.30793
5135.469	2.04983	2.49811	7.91692	1.02945
5139.464	1.60816	2.47301	7.14116	1.29542
5143.428	1.67866	2.41020	5.96664	1.22459
5147.462	1.91603	2.37627	6.64949	0.77292
5151.470	1.76564	2.40409	8.11924	-0.66550
5155.467	2.11680	2.05932	6.64077	0.51854
5159.466	1.35521	2.31222	6.53764	0.54965
5163.468	2.45009	1.58241	6.45755	0.43785
5167.466	1.58916	2.45908	6.70286	0.93487
5171.465	1.81220	2.19844	7.58212	1.20939
5175.467	1.80742	1.78479	7.25404	0.83290
5179.465	0.54433	2.59028	7.49198	1.07752
5183.465	1.99444	1.31752	7.08109	1.37296
5187.468	2.22451	1.89060	7.29482	1.57737
5191.430	2.14674	2.03460	6.71742	1.86063
5195.467	2.62695	1.98108	7.04066	2.05207
5199.471	1.72947	2.05259	7.05992	1.92853
5203.466	1.87894	1.95886	6.93611	2.26195
5207.479	1.78865	1.87535	6.98521	2.01874
5211.466	1.62306	2.03988	6.98751	2.22274
5215.462	2.06550	2.04934	7.37062	2.19673
5219.467	2.27062	1.89877	6.88886	2.17783
5223.469	2.15477	1.85137	6.67867	2.12853
5227.466	2.17323	1.86561	7.32446	2.34008
5231.470	2.42904	1.99941	7.57708	2.23242
5235.467	2.69740	1.92980	8.31224	2.40203
5239.466	1.87351	1.97283	7.83441	2.63978
5243.466	1.75292	2.12231	6.25191	3.45243
5247.466	1.46380	3.02078	3.76670	1.93742
5251.466	-0.99400	2.59075	3.81582	1.47663
5255.468	-1.02283	3.37779	3.06350	0.94529
5259.430	-1.64491	3.42391	2.05395	-1.63465
5263.480	-1.66009	2.67431	2.20773	-2.08960
5267.467	-2.09556	2.79836	2.13430	-1.91780
5271.465	-2.10602	3.00536	2.14060	-2.14985
5275.471	-2.30382	3.45856	2.09757	-1.82502
5279.472	-2.22698	3.19709	1.98224	-1.27659
5283.468	-2.25630	3.18460	1.83040	-1.48509
5287.470	-2.38425	3.35262	1.91732	-1.91208
5291.468	-2.31279	3.24477	2.10213	-1.39382
5295.367	-2.48874	3.45057	2.00512	-1.70015
5299.472	-2.48591	3.18054	2.18605	-2.34032
5303.466	-2.57845	2.84891	1.92885	-2.23348
5307.466	-2.64933	2.92427	1.88331	-2.10723
5311.451	-2.65505	2.60838	1.81619	-1.48659
5315.470	-2.61288	1.90012	2.04508	3.05245
5319.466	-2.62152	2.16947	2.11209	3.30117
5323.467	-2.68358	1.87557	2.22788	3.37323
5327.428	-2.65070	1.43660	1.93492	3.48442
5331.465	-2.70364	1.84930	1.75272	3.57630
5335.470	-2.70569	1.39526	2.32991	3.02937
5339.470	-2.65599	1.25993	2.11197	3.09897
5343.470	-2.58103	1.18113	2.41026	2.64866
5347.472	-2.56654	1.17246	2.21806	3.17330
5351.453	-2.52619	1.19952	1.98688	3.29301
5355.469	-2.53994	1.02121	2.40010	2.84347
5359.472	-2.57318	1.15483	2.29656	3.01392
5363.473	-2.52594	1.19942	2.08892	1.56201
5367.469	-2.52044	1.10500	1.84674	1.83291
5371.470	-2.52275	1.13416	1.92565	-0.27455
5375.470	-2.46389	1.18116	1.75964	-0.28814
5379.468	-2.46607	1.40699	2.11663	-1.16998
5383.467	-2.46429	1.38669	1.98068	-3.13711
5387.471	-2.46654	1.54364	2.22163	-3.08436
5391.342	-2.50358	1.63421	2.02324	-2.89461
5395.433	-2.50221	1.97639	2.21065	-2.69628
5399.472	-2.52022	1.92575	2.11135	-2.92756
5403.469	-2.51576	2.12937	2.07727	-2.72169
5407.370	-2.50615	2.00076	2.25194	-2.50075
5411.470	-2.48346	2.07780	2.27208	-2.72540
5415.435	-2.45582	1.86546	2.25632	-2.84121
5419.473	-2.47888	1.73763	2.49340	-3.07646
5423.472	-2.52750	1.41035	1.74655	-2.79118
5427.468	-2.47048	1.21088	0.94852	0.10410
5431.470	-2.52691	0.94264	0.75213	1.76681
5435.445	-2.49800	0.48476	2.60919	3.75869
5439.473	-2.51589	0.85112	1.49046	3.15167
5443.470	-2.57840	0.62658	1.57538	2.76317
5447.470	-2.63301	0.68697	1.85239	2.80712
5451.470	-2.61498	0.51341	1.62202	3.08666
5455.367	-2.59267	0.48720	1.70730	2.81827
5459.472	-2.40248	0.59896	2.44910	0.87981
5463.476	-1.93100	0.71506	2.18558	-1.49293
5467.472	-1.23603	0.85947	2.51108	0.12212
5471.475	-1.32086	1.74286	2.46407	0.56661
5475.459	-1.11631	1.67046	2.76359	-0.72536
5479.460	-1.37910	1.69244	2.69027	-0.10470
5483.470	-1.47878	1.97968	2.90309	-0.10014
5487.476	-1.36350	2.03362	2.40900	0.01102
5491.470	-1.35236	2.02107	2.61434	0.54850
5495.474	-1.47360	1.87085	2.63289	-0.03406
5499.474	-1.32277	1.24908	2.72112	0.56389
5503.476	-0.95817	1.38550	2.54975	0.36792
5507.474	-1.15260	1.87650	2.54660	0.71201
5511.472	-1.15493	1.36137	2.57845	0.37903
5515.433	-1.22787	1.33152	2.72159	0.69208
5519.476	-1.33391	1.25648	2.41303	0.67743
5523.462	-1.24736	1.64348	2.50075	0.93720
5527.470	-0.98015	0.73010	2.41046	0.81877
5531.435	-1.10509	1.01979	2.58447	0.68027
5535.373	-1.12494	1.50321	2.14193	0.73252
5539.469	-1.16401	1.85344	2.54868	0.65556
5543.471	-1.08594	1.96583	2.59735	-0.02155
5547.468	-1.20953	1.57226	2.53887	0.40853
5551.371	-1.19430	1.14050	2.26611	0.40998
5555.473	-1.29970	1.87166	2.74940	0.14954
5559.451	-1.39041	2.33292	2.77579	0.12122
5563.474	-1.29382	2.66146	3.61480	0.32641
5567.308	-1.01074	2.66222	3.50489	0.01094
5571.474	-1.15793	2.47370	3.07647	0.15431
5575.473	-1.22789	2.49182	2.93441	0.41359
5579.473	-1.10703	2.40525	2.87408	-0.01075
5583.372	-0.79903	2.58635	3.45566	0.15996
5587.472	-0.83362	2.62067	3.41525	0.20995
5591.472	-0.72729	2.62840	3.37888	-0.14283
5595.474	-0.85538	2.71730	3.90857	-0.43558
5599.474	-1.13231	2.76989	3.17134	-0.19055
5603.467	-0.78101	2.81294	3.33465	0.31525
5607.475	-1.04324	3.07881	2.72825	1.46290
5611.348	-4.60123	13.28086	2.42815	4.19011
5615.441	NaN	NaN	1.21668	4.94415
5619.348	NaN	NaN	NaN	NaN
5623.349	NaN	NaN	NaN	NaN
5627.346	NaN	NaN	NaN	NaN
5631.345	NaN	NaN	NaN	NaN
5635.348	NaN	NaN	NaN	NaN
5639.349	NaN	NaN	NaN	NaN
5643.357	NaN	NaN	NaN	NaN
5647.330	NaN	NaN	NaN	NaN
5651.343	NaN	NaN	NaN	NaN
5655.345	NaN	NaN	NaN	NaN
5659.349	NaN	NaN	NaN	NaN
5663.346	NaN	NaN	NaN	NaN
5667.311	NaN	NaN	NaN	NaN
5671.347	NaN	NaN	NaN	NaN
5675.350	NaN	NaN	NaN	NaN
5679.351	NaN	NaN	NaN	NaN
5683.350	NaN	NaN	NaN	NaN
5687.351	NaN	NaN	NaN	NaN
5691.313	NaN	NaN	NaN	NaN
5695.349	NaN	NaN	NaN	NaN
5699.351	NaN	NaN	NaN	NaN
5703.346	NaN	NaN	NaN	NaN
5707.344	NaN	NaN	NaN	NaN
5711.375	NaN	NaN	NaN	NaN
5715.313	NaN	NaN	NaN	NaN
5719.349	NaN	NaN	NaN	NaN
5723.349	NaN	NaN	NaN	NaN
5727.352	NaN	NaN	NaN	NaN
5731.311	NaN	NaN	NaN	NaN
5735.353	NaN	NaN	NaN	NaN
5739.351	-23.46375	13.98093	-2.51274	5.10913
5743.351	NaN	NaN	-2.56778	7.22065
5747.350	NaN	NaN	-2.39686	5.16415
5751.349	0.59163	-1.50379	0.80014	4.68521
5755.352	-4.04475	5.00110	0.33846	4.07309
5759.354	-5.68524	2.21764	0.67139	3.73425
5763.352	-4.03700	4.90636	0.53942	3.45087
5767.320	-4.96977	5.89634	6.36094	2.52106
5771.339	3.59206	6.36341	0.43351	2.58742
5775.351	-4.70306	6.84070	0.66548	2.00383
5779.351	-0.02847	6.46288	0.46540	2.16564
5783.374	-0.89488	5.78806	0.43765	2.17677
5787.363	-4.06653	5.70546	0.44609	2.19203
5791.350	-3.45126	5.34876	0.41619	2.03741
5795.350	-3.48202	5.38122	0.31774	2.08007
5799.346	-3.21666	5.25014	0.30516	1.80303
5803.353	-3.60514	5.07074	0.25346	1.94773
5807.349	-3.19115	4.87444	0.27845	1.76279
5811.350	-3.37529	4.90713	0.50505	1.86690
5815.317	-2.93988	4.85163	0.45046	1.81772
5819.352	-3.09235	5.01769	1.31734	1.99532
5823.353	-2.31418	4.74354	2.03516	1.85250
5827.353	-2.23194	3.61226	2.15088	2.37198
5831.350	-2.01536	3.70089	2.21177	2.51247
5835.351	-1.90321	3.13186	2.26641	2.31322
5839.352	-1.96070	2.83430	2.22567	2.56037
5843.352	-1.81550	2.87702	2.29027	2.99152
5847.343	-2.07279	3.05465	2.40139	3.10158
5851.354	-1.79648	2.86764	2.41242	3.05276
5855.339	-1.84153	2.69994	2.40057	3.36633
5859.341	-1.77427	2.23876	2.50781	1.94611
5863.373	-1.77910	2.71040	2.48817	3.53669
5867.358	-1.75877	2.61092	2.45302	2.19978
5871.352	-1.79378	2.46120	2.49929	2.05921
5875.353	-1.91367	2.68246	2.55307	1.57526
5879.374	-2.01647	2.88471	2.51443	1.62232
5883.356	-2.05715	3.06328	2.52423	2.32989
5887.351	-2.03955	2.61808	2.59019	1.87201
5891.364	-2.06148	2.98397	2.52032	2.02937
5895.351	-2.01424	3.18429	-1.00070	-1.02474
5899.316	-1.85361	3.42237	-1.11985	-1.08527
5903.350	-2.00435	3.21785	2.35908	2.13076
5907.354	-2.09410	3.50600	1.68387	2.44250
5911.377	-1.86397	3.28493	0.73995	2.26011
5915.316	-2.13544	3.54118	1.35199	2.27574
5919.355	-2.05791	3.78019	1.33981	2.31846
5923.353	-1.97480	3.64454	1.34249	2.35581
5927.355	-2.06371	3.86129	1.77789	2.28337
5931.354	-2.04721	3.64908	0.94448	2.28487
5935.355	-1.96226	3.52519	1.01084	2.20053
5939.333	-2.06379	3.86597	1.28410	2.28441
5943.324	-2.11722	3.79335	1.53453	2.24873
5947.352	-2.23068	3.56478	1.17835	2.08842
5951.356	-2.24408	3.45118	1.57481	2.09624
5955.354	-2.26497	3.48148	1.64213	1.98099
5959.321	-2.25848	3.64284	1.42352	2.05572
5963.354	-2.31329	3.31485	1.70130	2.07996
5967.357	-2.34129	3.25745	1.43967	2.23769
5971.352	-2.29059	3.28286	1.48057	2.17065
5975.347	-2.21648	3.33836	1.78282	2.31738
5979.353	-2.12012	3.29945	1.87698	2.38393
5983.346	-1.67727	3.17379	0.76089	-1.56249
5987.357	-1.26882	3.30097	2.62098	2.20291
5991.348	-1.24275	3.27750	2.78557	2.43489
5995.357	-1.03399	3.27539	2.78773	2.21032
5999.353	-0.91200	3.28435	2.58531	2.36536
6003.351	-0.86523	3.09862	2.43466	2.39329
6007.347	-0.92043	3.46610	-0.44998	-1.49879
6011.351	-0.95566	3.47683	-0.39383	-1.36003
6015.317	-1.11097	3.49513	-0.30379	-1.26855
6019.354	-0.93071	3.20887	-0.39191	-0.43941
6023.321	-0.97943	2.90233	-0.63682	-0.28873
6027.353	-1.14332	3.13392	-0.59061	0.31589
6031.353	-1.13643	2.83488	2.67670	-0.67441
6035.355	2.35003	2.58104	2.48703	-0.33787
6039.349	-1.24781	0.90303	2.42569	-0.98933
6043.355	-1.25622	0.69702	2.38140	-0.77756
6047.352	-1.30141	1.71461	2.47858	-0.23123
6051.356	-1.46306	2.21400	2.54925	-0.18735
6055.346	-1.43992	2.27551	2.52726	0.07398
6059.358	-1.39356	2.31980	2.71132	0.14029
6063.341	-1.54076	2.40989	2.66773	0.54185
6067.354	-1.45145	2.97172	2.79166	0.59376
6071.357	-1.53741	3.01674	2.55364	0.96749
6075.355	-1.63953	3.80166	2.68440	1.62041
6079.356	-1.64719	3.49838	2.77688	1.94251
6083.351	-1.68932	3.64077	0.09987	-1.01997
6087.356	-1.73336	3.44588	1.05250	0.08127
6091.357	-1.79589	2.78662	3.19145	1.19979
6095.359	-1.69961	2.87457	3.36092	1.55714
6099.351	-1.66038	3.34456	3.44392	1.68682
6103.386	-1.73497	3.23919	0.80970	0.56619
6107.321	-1.84151	3.27594	1.02255	-0.43824
6111.355	-1.82281	3.50506	2.76386	-0.20392
6115.319	-1.76931	3.54339	1.89315	0.84636
6119.357	-1.72074	3.43224	-2.47497	-0.02587
6123.355	-1.55784	3.58024	-2.44702	0.50320
6127.359	-1.60704	3.44323	-2.11036	-0.47036
6131.357	-1.46593	3.72472	-1.76752	0.05258
6135.357	-1.33961	3.77625	-2.05695	-0.01674
6139.358	-1.27011	3.72391	-2.01898	0.02446
6143.321	-1.34490	3.61269	-1.98308	-0.06027
6147.336	-1.39363	3.60829	-1.91134	-0.21175
6151.358	-1.46821	3.56700	-2.09527	-0.43397
6155.355	-1.26907	3.51866	-1.89788	-0.04401
6159.359	-1.29102	3.57600	2.15291	-0.69274
6163.356	-1.28504	3.42033	1.71375	-0.96484
6167.361	-1.26497	3.33722	2.24943	-1.23736
6171.358	-1.20011	3.02491	2.30511	-0.85887
6175.355	2.50472	2.96298	2.41858	-0.60278
6179.356	2.56055	2.78431	2.08119	-0.81295
6183.358	2.72075	2.68512	2.08007	-0.80791
6187.346	3.05033	2.47700	1.98192	-0.98453
6191.359	3.02051	2.53311	1.71208	-0.87686
6195.357	1.32146	2.36831	1.76120	-0.63261
6199.358	1.17260	2.58482	2.14473	-0.94024
6203.356	-1.42444	2.30018	1.90247	-1.19359
6207.360	-1.37446	2.24457	1.92902	-1.03201
6211.357	-1.98479	2.21443	2.04765	-0.24836
6215.349	-1.64801	2.10306	2.19794	0.38912
6219.359	-1.44798	2.20518	2.13393	-0.20509
6223.359	-1.70695	2.37081	2.38085	-0.09782
6227.355	-1.47288	2.37892	0.65590	-0.31608
6231.356	-1.85586	2.73789	0.24800	-0.23768
6235.321	-1.84949	3.09634	-0.07309	-0.18699
6239.361	-1.74762	2.67356	0.46924	-0.25768
6243.355	-1.83330	2.87927	2.30060	1.71253
6247.352	-1.90222	3.08587	2.55500	2.18292
6251.358	-1.81929	2.85125	2.28046	1.05176
6255.358	-1.69126	3.37086	2.59477	0.98491
6259.360	-1.68925	3.25702	2.74539	0.17469
6263.350	-1.73695	3.05277	2.49966	0.42568
6267.362	-1.62358	3.02095	2.73373	1.08633
6271.357	-1.49463	2.91864	3.27912	0.82046
6275.356	-1.41100	2.60399	2.94641	0.19649
6279.359	-1.53443	2.38631	2.65240	0.34632
6283.357	-1.78419	1.97548	2.53640	-0.07323
6287.361	-1.25428	1.69158	1.20058	-1.27561
6291.359	2.18416	6.96990	2.54680	-0.51381
6295.255	-1.21516	2.69094	2.16644	-1.91183
6299.357	-1.44726	2.35181	1.70859	-1.48290
6303.360	-1.62812	2.78550	2.05268	-0.60027
6307.359	-1.34460	2.85403	-1.46792	-8.22619
6311.260	-1.61711	3.29296	-3.50581	-8.31879
6315.366	-1.80843	2.72596	1.53773	1.96848
6319.357	-1.94912	2.51053	1.81520	1.50908
6323.360	-1.77110	2.19712	1.86590	1.74588
6327.261	-1.86989	2.60117	1.54482	0.62538
6331.322	-1.79167	2.12798	1.53354	-0.02499
6335.357	-1.85418	2.87468	1.41737	-1.00139
6339.359	-1.96137	2.41755	1.48047	-1.11924
6343.350	-1.98883	3.99008	1.55551	-2.27442
6347.360	-1.98888	3.67810	1.36084	-7.80208
6351.361	-2.00891	3.13562	1.37439	2.43496
6355.338	-1.97575	3.06323	1.39006	1.39231
6359.330	-2.08914	3.17832	1.68662	0.75780
6363.358	-2.00071	2.31439	1.92081	-0.26355
6367.359	-2.07799	1.99451	1.86677	-0.81623
6371.360	-2.16743	2.89929	1.75619	-1.07844
6375.327	-2.23268	3.92950	1.47747	-0.72646
6379.358	-2.22329	3.73071	-0.02524	-7.14092
6383.362	-2.29423	3.79055	1.89340	2.77125
6387.359	-2.37414	3.31318	2.08548	0.12737
6391.260	-2.20590	2.04568	1.62356	-0.31685
6395.361	-2.35742	2.97887	1.90889	-0.75920
6399.325	-2.43476	4.05857	2.09571	-1.91365
6403.363	-2.40840	3.77769	1.55003	3.12102
6407.260	-2.42074	2.92344	1.68089	1.32204
6411.360	-2.35524	1.87063	1.36657	-0.31278
6415.324	-2.38286	3.58515	0.02770	-0.69994
6419.360	-2.25253	3.76461	1.54257	-1.67807
6423.260	-2.17517	2.32417	1.64211	2.38331
6427.362	-2.05410	2.00769	1.39656	1.08558
6431.361	0.35831	7.36540	1.39510	-0.34242
6435.359	-1.83028	3.78478	1.57587	-2.07520
6439.262	-1.80754	2.27443	1.50237	2.18298
6443.360	-1.79420	1.60626	0.55528	1.33318
6447.360	NaN	NaN	NaN	NaN
6455.357	-1.63053	1.84223	1.46824	0.79543
6459.363	-1.15166	1.48994	1.55011	-0.78033
6463.260	-1.35229	3.16033	1.46283	-1.60861
6467.362	-1.33425	2.80770	1.40462	1.22640
6471.359	-1.42007	2.08946	1.89300	-0.71029
6475.364	-1.08716	1.25915	1.98132	-0.79475
6479.267	-1.31057	3.61353	1.33790	-1.27455
6483.323	-1.34085	3.37124	2.10154	2.17103
6487.361	-1.40805	3.28890	2.08124	0.52257
6491.361	-1.33696	2.57941	1.25123	-0.16208
6495.261	-1.56734	1.97751	0.44505	-1.93826
6499.361	-1.91769	4.28252	0.64188	-3.83839
6503.362	-1.40911	4.12218	-0.08927	0.66483
6507.363	-1.44207	3.15208	1.64241	1.56446
6511.259	-1.47464	2.99956	0.78426	0.99531
6515.361	-1.60382	3.22542	0.54478	0.88857
6519.333	-2.33479	2.83467	0.24073	-0.12198
6523.329	-1.86278	2.49479	0.28051	-0.16246
6527.235	-2.15076	2.42138	0.32235	-1.05143
6531.363	-1.66653	7.51886	2.09658	-1.46693
6535.361	0.41207	7.72753	2.07715	-0.95399
6539.361	-0.84659	4.88669	2.63381	1.13272
6543.365	1.31166	3.44376	2.76809	-7.17040
6547.364	2.60760	3.50041	6.59983	1.55082
6551.364	3.60299	3.39400	6.93897	0.87559
6555.364	4.09345	2.80435	9.57092	0.55415
6559.265	4.76862	2.30243	10.34845	0.21052
6563.342	5.69040	2.23744	11.64092	-0.11142
6567.363	7.00274	2.24909	14.51677	-0.00986
6571.369	7.06317	1.94852	10.82361	-1.45035
6575.264	7.11941	2.34530	11.91643	-1.15377
6579.365	6.24644	1.90619	11.19189	-1.30214
6583.327	6.82019	1.69175	12.93519	-1.31915
6587.379	6.72824	1.65208	12.06551	0.41278
6591.264	6.83780	1.16544	13.52916	0.34246
6595.364	6.95301	0.90713	11.19607	-4.37101
6599.365	7.12381	1.02492	11.65180	-3.39584
6603.353	6.63441	1.60879	12.28360	-1.64592
6607.262	6.58300	0.84292	11.67572	-0.53613
6611.366	6.92004	0.57850	11.31371	-1.53839
6615.365	6.54888	0.72161	11.40679	-0.93922
6619.327	6.36643	1.16763	11.75864	0.43212
6623.264	6.50423	1.68243	9.89251	-1.40116
6627.363	6.67275	0.50187	11.96655	-4.00012
6631.365	6.30264	0.42928	11.56779	-3.16295
6635.364	6.85725	0.50763	11.72634	-0.66874
6639.268	6.23861	1.32794	10.25435	-1.23015
6643.362	6.61531	0.11890	11.73067	-2.48469
6647.336	6.52529	0.64732	12.97443	-2.35844
6651.363	6.43334	1.71674	11.89932	-0.58289
6655.267	6.34527	1.22100	12.86945	0.39597
6659.240	6.33790	1.13025	12.70893	-1.15029
6663.240	6.34692	1.86363	11.13915	-1.27960
6667.240	6.66002	0.38759	12.66604	0.83989
6671.232	6.48847	0.48663	7.76467	-1.34582
6675.239	6.80389	1.48483	10.88690	-0.83368
6679.237	6.47904	-0.07753	10.97899	0.00573
6683.235	6.40778	1.07885	12.65633	-2.81650
6687.211	6.27942	1.98127	12.67041	-0.97755
6691.236	6.26841	0.14857	8.92546	-1.04007
6695.236	6.47169	1.32302	11.04642	-1.88006
6699.240	6.67353	1.64075	11.90184	-0.15321
6703.233	6.53218	0.16736	11.77903	-4.62854
6707.240	6.79831	1.78225	11.23358	-1.15571
6711.239	6.47698	0.80730	12.19453	-0.61151
6715.242	6.77817	-0.04323	11.61659	-2.30139
6719.369	7.09328	-0.41071	12.95468	-4.92532
6723.241	7.99143	-2.14817	12.65403	-7.99998
6727.241	8.04234	-1.93672	13.89727	-7.23552
6731.244	8.54908	-2.69758	13.76968	-5.07962
6735.231	9.02798	-3.47479	13.85674	-5.05516
6739.243	8.79220	-4.28632	14.03033	-9.06580
6743.243	8.64951	-2.63200	15.33179	-6.77303
6747.241	8.62991	-3.20227	15.29833	-6.29586
6751.239	8.57983	-3.38042	14.44348	-9.26268
6755.203	8.80066	-2.54095	14.82718	-7.16462
6759.239	8.79424	-3.40830	14.43719	-5.48826
6763.238	9.30996	-4.83710	13.44503	-7.96434
6767.231	8.95365	-3.52233	15.13337	-7.57289
6771.244	8.98721	-3.37901	14.33732	-7.01286
6775.230	9.04265	-5.56356	14.78503	-6.18954
6779.240	9.26312	-4.98406	15.30009	-9.37052
6783.240	9.20175	-3.30319	15.17311	-7.65503
6787.244	9.23510	-3.40283	14.86296	-6.38130
6791.240	9.30754	-3.72042	14.76686	-5.92344
6795.240	9.26034	-4.54589	15.07796	-9.63139
6799.209	9.18651	-3.58600	14.65837	-7.83200
6803.243	9.52092	-3.84691	14.77449	-6.91226
6807.240	9.30745	-3.61262	14.69520	-6.72159
6811.242	9.11307	-4.42058	14.45937	-10.05733
6815.241	9.31465	-4.14691	14.42058	-8.51189
6819.207	9.01576	-3.07862	14.73741	-7.16395
6823.205	9.22458	-4.26182	14.51905	-6.08138
6827.240	8.90463	-3.57787	14.31901	-7.48756
6831.233	9.11056	-4.23408	14.11183	-10.21580
6835.242	9.13753	-4.65481	14.38186	-7.94521
6839.241	8.84217	-3.94787	14.23708	-7.57448
6843.241	8.99213	-3.85415	14.34196	-7.58630
6847.245	9.33543	-4.27221	15.72764	-7.04900
6851.242	9.19674	-3.91114	16.13145	-7.29986
6855.242	9.09507	-3.99738	16.11396	-7.86176
6859.225	8.97341	-4.06335	16.00702	-9.01474
6863.223	8.99961	-4.11295	16.12023	-9.96312
6867.243	8.98603	-3.98525	16.25168	-9.69886
6871.247	9.06460	-4.03674	15.14627	-9.07326
6875.241	9.00862	-4.36359	15.76196	-8.85721
6879.236	8.98053	-4.15970	15.96528	-8.47283
6883.241	8.98799	-4.17802	14.93777	-8.68297
6887.243	8.98503	-4.19937	14.83731	-7.88814
6891.203	8.91376	-3.82411	14.48988	-8.57193
6895.238	8.86660	-3.86263	14.40554	-8.93452
6899.236	8.92081	-3.97194	14.32491	-9.83922
6903.244	9.02285	-3.77173	13.24057	-8.57470
6907.241	8.78799	-4.18460	15.88110	-8.78568
6911.237	9.18659	-4.71207	15.73573	-8.15372
6915.244	8.93912	-3.12626	15.82609	-8.65025
6919.243	8.60965	-2.77919	16.06007	-10.12620
6923.241	9.00232	-4.48387	15.19785	-8.00409
6927.270	9.05166	-5.10477	14.82590	-7.97001
6931.241	7.69349	-2.63538	14.13094	-6.33427
6935.242	7.38536	-2.62390	9.25526	-5.86073
6939.207	4.78940	-2.23088	9.11344	-5.46890
6943.267	3.61693	-1.12494	7.15476	-2.26192
6947.245	1.87371	0.13531	6.80675	-5.45805
6951.244	1.71779	-0.55005	4.87680	-5.52820
6955.246	1.85599	1.57627	3.20894	0.06850
6959.210	0.87483	1.29648	2.64814	-2.54458
6963.212	0.53895	4.69800	-2.11732	0.17787
6967.243	-0.02008	1.55580	-0.36164	-5.65595
6971.244	9.09309	5.41163	1.62254	-0.83809
6975.237	8.79203	2.65254	-0.02487	-5.90046
6979.244	NaN	NaN	-1.83494	1.01903
6983.231	7.27436	2.05281	4.82609	-3.56305
6987.236	NaN	NaN	1.74762	3.08324
6991.242	7.70711	2.01182	7.40001	-0.79806
6995.246	9.34981	2.06706	0.56441	-1.53755
6999.245	-6.98052	-1.81725	15.23371	-0.62306
7003.245	-0.69206	-0.46188	4.88483	-3.81934
7007.246	-1.00072	3.87176	0.47435	-0.96223
7011.245	5.35276	2.32614	-0.05693	-3.78403
7015.236	9.38987	1.89209	2.50675	-1.49899
7019.228	-1.08257	4.73698	-3.04672	-2.44401
7023.247	4.15053	2.03703	5.06641	-3.05305
7027.207	-0.78044	4.47514	0.66923	-1.99402
7031.247	0.77446	2.16296	6.91459	-1.93933
7035.244	7.17131	5.18710	5.31900	-1.73095
7039.245	1.26557	3.70074	2.49444	-0.65797
7043.244	1.24074	1.75831	2.49345	1.68969
7047.268	6.17592	4.88948	8.30694	-1.51267
7051.244	0.31630	2.51886	1.63120	-1.75860
7055.247	0.51671	2.20920	3.18504	-2.05125
7059.244	-0.27014	1.31865	5.27523	0.14564
7063.240	-0.19164	1.86788	1.18453	-1.29000
7067.232	-0.05842	2.44878	1.55065	-2.42247
7071.242	0.16355	1.25736	1.53466	-3.66274
7075.247	0.50647	1.33734	1.84974	-0.32620
7079.272	-0.45636	1.60620	2.57729	-2.54408
7083.243	-0.11461	1.28414	4.53455	-3.29536
7087.247	0.37176	0.87580	2.16419	-3.74314
7091.244	0.37291	0.71309	3.06696	-0.06533
7095.242	0.09423	1.78034	2.99953	-1.11413
7099.247	1.11048	1.19455	3.68268	-2.84930
7103.245	1.53959	1.01357	4.15991	-0.08979
7107.244	1.62061	1.54204	2.08691	5.13171
7111.183	4.74119	2.23274	2.27932	0.35176
7115.247	8.91342	6.40701	5.73623	1.82740
7119.246	NaN	NaN	NaN	NaN
7123.246	NaN	NaN	NaN	NaN
7127.248	NaN	NaN	NaN	NaN
7131.246	NaN	NaN	NaN	NaN
7135.245	NaN	NaN	NaN	NaN
7139.244	NaN	NaN	NaN	NaN
7143.209	NaN	NaN	NaN	NaN
7147.248	NaN	NaN	NaN	NaN
7151.221	NaN	NaN	NaN	NaN
7155.247	NaN	NaN	NaN	NaN
7159.245	NaN	NaN	NaN	NaN
7163.245	NaN	NaN	NaN	NaN
7167.245	NaN	NaN	NaN	NaN
7171.246	NaN	NaN	NaN	NaN
7175.250	NaN	NaN	NaN	NaN
7179.247	NaN	NaN	NaN	NaN
7183.245	NaN	NaN	NaN	NaN
7187.246	NaN	NaN	NaN	NaN
7191.236	NaN	NaN	NaN	NaN
7195.237	NaN	NaN	NaN	NaN
7199.209	NaN	NaN	NaN	NaN
7203.247	NaN	NaN	NaN	NaN
7207.248	NaN	NaN	NaN	NaN
7211.247	NaN	NaN	NaN	NaN
7215.230	NaN	NaN	NaN	NaN
7219.241	NaN	NaN	NaN	NaN
7223.250	NaN	NaN	NaN	NaN
7227.246	NaN	NaN	NaN	NaN
7231.259	NaN	NaN	1.90832	5.14725
7235.247	NaN	NaN	1.68617	5.59975
7239.247	NaN	NaN	1.75778	3.57735
7243.249	NaN	NaN	1.69287	3.46199
7247.246	7.66634	1.66558	1.38066	0.39563
7251.251	NaN	NaN	2.56609	0.23538
7255.247	-3.63409	0.75601	2.44856	0.24923
7259.247	-4.22451	0.83025	3.49841	0.10814
7263.247	-2.81882	1.67079	1.40802	0.19938
7267.239	7.56830	5.49715	-2.37525	-0.26084
7271.253	7.54015	5.33480	3.33352	-0.77421
7275.215	7.59797	2.65563	2.18493	-0.78556
7279.245	4.82461	3.22465	3.31499	-0.70812
7283.221	3.75081	2.86427	2.03263	0.18593
7287.248	3.38790	3.64240	1.94764	0.50344
7291.250	2.79260	4.05093	3.31395	2.57773
7295.248	1.32101	4.93136	3.07914	-1.66455
7299.215	0.99864	2.88373	2.07046	-0.90479
7303.249	0.69240	2.75799	1.35075	2.83792
7307.249	0.29535	3.18660	1.27234	2.98732
7311.251	-0.22542	3.59453	0.67042	2.76578
7315.239	-0.44676	4.07004	1.11519	1.10681
7319.213	-0.59086	3.55872	1.05979	-1.23400
7323.252	-0.58481	2.25773	1.80169	1.12204
7327.252	-0.71044	2.63456	2.18944	1.52680
7331.243	-0.21740	3.77428	1.03000	-0.92933
7335.214	-0.60178	4.04927	1.76103	-1.78843
7339.249	-0.75134	3.70226	1.22650	-0.78036
7343.247	-0.83538	1.97767	0.70491	0.96592
7347.250	-1.05126	2.96825	1.63440	-0.58303
7351.248	-0.88468	3.47477	1.26423	-1.40537
7355.253	-0.98219	3.34782	1.14436	-0.63477
7359.224	-1.14843	3.27046	1.94625	-0.59870
7363.146	-0.82620	3.48205	1.46985	0.84068
7367.251	-1.05448	1.98948	1.74030	1.08677
7371.251	-0.96889	1.73767	1.49029	-2.17148
7375.255	-1.13114	2.64518	1.10708	-1.86417
7379.254	-1.27815	3.17236	1.11978	-0.84929
7383.249	-1.18763	3.57136	1.55601	-0.85312
7387.253	-1.15404	3.40873	1.82140	0.47780
7391.248	-1.39207	3.70844	1.79125	0.78681
7395.149	-0.73680	3.17514	1.60794	-0.77790
7399.240	-0.34161	3.21000	1.09125	-1.91645
7403.215	-0.87763	2.89684	1.44503	-2.32471
7407.252	-0.83128	2.75041	1.41928	-1.60156
7411.151	-1.07624	2.29758	1.25939	-1.84263
7415.253	-0.90537	1.73988	1.78912	-1.55754
7419.215	-0.09438	1.04847	1.56189	-0.38399
7423.252	-0.71675	1.52526	1.65151	0.42640
7427.150	-0.67950	1.30953	1.54185	0.25968
7431.251	-0.66967	1.79189	0.20251	0.89944
7435.213	-0.63719	2.45300	0.84984	0.07389
7439.246	-0.71451	2.53693	1.68714	-1.98469
7443.151	-0.81667	1.70768	1.65952	-1.35190
7447.251	-0.70789	1.57743	1.55070	0.15664
7451.252	-0.69052	1.60286	-1.15079	-0.40721
7455.250	-0.40452	1.35377	1.64399	-1.76082
7459.150	-0.64541	1.65004	1.79242	-3.07792
7463.254	-0.71501	2.11168	1.34968	-1.73237
7467.254	-0.75374	2.22733	1.89295	-1.72945
7471.250	-0.97574	2.05062	1.17508	-0.42552
7475.260	-0.50731	1.42991	0.11384	-0.65822
7479.256	-0.82409	1.41043	-1.14042	-0.61857
7483.236	-0.55240	0.96600	-0.94465	-1.07637
7487.250	-0.43651	1.56047	0.71521	-2.23464
7491.151	-0.68561	1.53292	1.20941	-2.99673
7495.251	-0.80657	1.87439	1.49312	-2.30646
7499.251	-0.68908	2.41369	1.81538	-2.96640
7503.253	-0.79630	3.55287	1.78632	-2.21114
7507.255	-0.74134	4.18227	1.29437	-0.59996
7511.254	-0.83248	4.36851	1.57146	-0.45364
7515.252	-0.64603	3.00499	1.56256	2.07606
7519.250	-0.40162	2.50316	1.76100	2.49029
7523.253	-0.00792	2.75789	0.81387	2.15411
7527.255	-0.34749	2.45206	0.99727	2.33571
7531.255	-0.52019	2.49276	1.56404	2.28500
7535.257	-0.65317	2.55271	1.08706	2.21586
7539.254	-0.59071	2.60482	1.13357	2.34759
7543.251	-0.70697	2.66298	1.16964	1.85396
7547.251	-0.85875	2.32353	0.89880	1.44951
7551.253	-0.72119	2.24710	1.17716	0.89344
7555.254	-0.79344	1.64227	0.81828	0.55424
7559.253	-0.90783	1.43235	0.90661	0.09228
7563.254	-0.75044	2.03173	0.66923	-0.44138
7567.233	-0.66771	3.24333	1.58807	-1.38047
7571.152	-0.79665	2.88252	1.06473	-1.54716
7575.258	-1.01970	2.93191	1.34053	-1.42407
7579.252	-0.49478	3.00534	1.68327	-1.76109
7583.252	0.30945	2.52087	1.63087	0.98082
7587.255	-0.62764	2.85021	1.45634	2.98858
7591.255	-0.99831	2.56186	1.47216	1.90026
7595.253	-0.56647	2.41000	1.61805	2.21736
7599.255	-0.55379	2.11812	1.80350	1.54495
7603.154	-0.55287	1.78902	1.49170	1.05780
7607.244	0.09783	1.31451	1.59006	-0.12631
7611.257	-0.22790	2.51519	1.81523	-1.34674
7615.255	-0.06582	2.87948	2.22822	-1.26929
7619.259	-0.17075	3.17818	1.92659	-0.90164
7623.254	-0.22289	3.15107	1.86697	0.55877
7627.256	-0.40077	2.43300	1.84914	1.22692
7631.253	-0.24909	2.09090	1.72002	1.94938
7635.155	-0.24716	1.80478	1.68406	1.91247
7639.227	-0.23738	1.94718	1.12876	1.21168
7643.254	-0.18819	1.52025	1.54247	1.13572
7647.247	-0.21767	1.50900	1.62058	0.59627
7651.158	-0.28280	1.28730	1.50239	0.09914
7655.252	-0.25490	0.95240	1.67112	0.24987
7659.257	-0.29545	1.56469	1.36464	-0.01674
7663.253	-0.32081	1.39424	0.99762	0.08360
7667.156	-0.31054	1.46705	1.37240	-0.21006
7671.255	-0.26979	1.31231	0.90411	-0.32891
7675.257	-0.26778	1.22037	1.50981	0.15918
7679.254	-0.28905	1.30451	1.31813	0.36846
7683.124	-0.26091	1.27347	2.01459	0.35745
7687.257	-0.17702	1.38429	1.69855	0.15656
7691.129	-0.04298	1.46854	1.93125	0.32648
7695.120	0.09823	1.58013	2.13884	0.57851
7699.092	0.03653	1.62837	1.84986	0.60404
7703.132	0.31905	1.88060	1.86191	1.20042
7707.093	0.07698	2.06022	1.93425	2.12232
7711.131	0.30692	2.30683	1.50782	0.15645
7715.127	0.24535	2.69221	1.83853	0.85394
7719.123	-0.11813	3.15498	2.43409	-1.48379
7723.134	-0.54049	2.07860	2.54246	-1.77363
7727.132	0.71873	0.66540	2.11410	-1.43160
7731.123	0.53786	2.11656	2.44650	-0.29829
7735.134	0.46798	2.27062	2.18020	0.15495
7739.102	0.29344	2.49164	2.30970	0.51136
7743.133	0.35449	2.16046	2.24787	1.32896
7747.125	0.41127	2.72085	2.51376	1.15171
7751.130	0.39040	2.79667	2.44167	1.34208
7755.131	0.57466	2.67194	2.22384	1.90092
7759.133	0.45132	3.47899	2.61417	2.48350
7763.157	0.65422	3.32685	2.77862	2.24022
7767.133	0.56066	3.66464	2.43570	2.24559
7771.134	0.23415	3.48452	2.54311	2.82192
7775.095	0.19668	3.80712	2.74836	1.66722
7779.144	0.70843	2.73676	2.81528	1.63864
7783.127	0.45038	3.86934	3.17586	1.71232
7787.131	0.45683	3.39924	2.87334	1.41962
7791.131	0.08778	3.21005	2.91299	1.56877
7795.134	0.21102	2.99005	2.53605	0.73490
7799.130	0.41676	2.97621	1.67273	0.87860
7803.133	0.20949	3.26817	2.60208	-1.58294
7807.130	0.12868	2.92324	3.11359	-1.47671
7811.127	0.07296	2.80437	1.11216	0.41005
7815.132	0.01489	2.92875	2.88294	-1.76547
7819.133	0.08458	3.95036	2.57739	-1.79751
7823.100	0.05631	3.71723	1.89154	0.93845
7827.130	0.14158	3.84503	2.26081	1.49595
7831.130	0.32225	4.02347	2.06039	1.82791
7835.133	0.25773	3.78340	1.72899	1.96480
7839.135	0.13650	4.01430	1.70288	3.56417
7843.121	0.01966	4.02383	1.67375	3.78267
7847.150	0.04380	3.92392	1.56814	3.62495
7851.134	0.11039	4.10321	1.52665	3.30645
7855.134	0.15310	4.12548	1.54252	3.14337
7859.126	0.11885	4.17408	1.53451	3.42437
7863.112	0.31042	4.20129	1.42977	3.39579
7867.132	0.24207	4.19904	1.68275	3.27953
7871.133	0.26567	4.25998	1.36437	3.73980
7875.126	0.21611	4.23924	1.66963	3.37385
7879.139	0.23420	4.47062	1.47506	3.64317
7883.129	0.31193	5.00524	1.35437	3.48461
7887.133	-0.40065	5.05436	1.22161	3.77531
7891.163	8.56328	4.39083	1.39537	4.63562
7895.136	7.78823	8.60880	13.11608	3.52623
7899.134	NaN	NaN	1.82371	3.86229
7903.127	NaN	NaN	NaN	NaN
7907.124	NaN	NaN	NaN	NaN
7911.102	NaN	NaN	NaN	NaN
7915.134	NaN	NaN	NaN	NaN
7919.135	NaN	NaN	NaN	NaN
7923.094	NaN	NaN	NaN	NaN
7927.134	NaN	NaN	NaN	NaN
7931.134	NaN	NaN	NaN	NaN
7935.131	NaN	NaN	NaN	NaN
7939.135	NaN	NaN	NaN	NaN
7943.135	NaN	NaN	NaN	NaN
7947.099	NaN	NaN	NaN	NaN
7955.132	NaN	NaN	NaN	NaN
7959.135	NaN	NaN	NaN	NaN
7963.134	NaN	NaN	NaN	NaN
7967.136	NaN	NaN	NaN	NaN
7971.136	NaN	NaN	NaN	NaN
7975.134	NaN	NaN	NaN	NaN
7979.167	NaN	NaN	NaN	NaN
7983.093	NaN	NaN	NaN	NaN
7987.135	NaN	NaN	NaN	NaN
7991.130	NaN	NaN	NaN	NaN
7995.114	NaN	NaN	NaN	NaN
7999.096	NaN	NaN	NaN	NaN
8007.136	NaN	NaN	0.57091	3.53160
8011.136	NaN	NaN	10.10391	0.85920
8015.136	NaN	NaN	5.52409	3.25684
8019.159	6.36984	8.02913	1.80598	-1.78174
8023.134	9.82240	3.96979	0.98861	0.57331
8027.139	-2.64054	-1.37509	2.08292	-1.26190
8031.135	-2.78562	-1.70687	13.52285	0.84968
8035.134	-6.62569	-0.98155	1.43724	0.23644
8039.134	-2.59066	-0.47211	1.89387	0.05966
8043.133	4.48145	3.99471	6.23982	0.05432
8047.134	9.70586	4.37561	10.56553	-0.64235
8051.127	8.09878	4.70899	2.18617	-0.02265
8055.136	7.43869	4.70216	6.08058	1.24968
8059.137	3.98128	4.64087	6.42297	0.73036
8063.134	3.54331	4.88874	5.88184	1.93088
8067.107	3.26339	4.64631	4.51941	2.15659
8071.117	1.17438	4.83810	4.38583	0.59072
8075.139	0.65955	4.61652	4.71972	0.96361
8079.141	0.79536	4.36620	4.71748	0.93440
8083.163	0.57674	4.01764	4.34783	2.14138
8087.137	0.63017	3.50310	2.42225	2.45854
8091.135	0.52925	2.68496	1.10822	1.10718
8095.137	0.62603	2.05819	1.54894	0.16961
8099.127	0.75972	1.86014	4.45066	2.78117
8103.137	2.67051	4.37505	3.77157	1.91339
8107.134	0.80101	4.01063	2.64854	1.16970
8111.137	0.95050	4.38986	3.73566	1.06558
8115.116	1.02801	3.93106	3.31032	0.09144
8119.136	0.84560	3.51449	2.31413	0.48194
8123.138	0.36995	3.89463	-0.65637	0.18812
8127.136	0.77697	3.20253	0.02601	-0.53223
8131.128	0.32873	3.26670	0.58506	-1.48348
8135.139	5.51993	7.41535	2.72434	1.12368
8139.138	0.17432	3.79325	0.73496	-5.20021
8143.137	0.31409	3.35859	1.75728	2.38818
8147.132	0.18727	2.93025	3.18779	0.79590
8151.102	0.56468	3.79095	2.56198	-0.38351
8155.100	0.48304	3.43379	3.11754	1.29283
8159.137	0.62796	2.04516	1.97976	0.51023
8163.140	1.30236	3.15066	-1.24404	-6.32542
8167.137	0.73908	2.61255	2.96683	1.65706
8171.138	0.87927	2.54457	2.26817	0.90589
8175.138	0.77985	3.25655	3.24798	1.47548
8179.143	5.04612	7.62690	3.39540	-1.65038
8183.137	0.96780	3.03250	3.45781	1.42328
8187.138	0.90505	2.49753	2.99623	0.91027
8191.144	0.23204	3.72190	2.15829	0.88848
8195.116	0.61632	3.23833	1.63814	0.68980
8199.134	0.17050	2.32192	2.32085	0.74529
8203.137	0.15903	3.24648	3.23625	-0.58377
8207.102	0.62077	2.06266	2.62318	2.24827
8211.131	0.34486	3.45098	2.19408	-0.00814
8215.139	0.60074	3.17926	2.14689	1.66956
8219.141	0.51026	1.84072	2.83702	0.61327
8223.139	0.35799	3.52292	3.05914	-2.16630
8227.138	1.58733	3.38453	4.99401	2.17945
8231.137	4.64855	1.74485	6.33049	-0.53815
8235.139	4.88771	1.88292	9.71729	-0.17005
8239.135	7.50186	1.91738	10.31107	2.65573
8243.135	7.49451	2.38429	6.85830	2.05794
8247.137	8.44101	1.76107	10.86639	-0.53203
8251.101	10.33437	1.20992	12.85801	-0.62011
8255.139	9.59288	0.23286	14.53637	0.85048
8259.130	9.96294	-0.18216	14.16198	0.80061
8263.138	9.78703	-0.13111	13.95042	0.10013
8267.137	9.84522	0.31965	14.42658	-0.85133
8271.098	9.83696	-0.15831	14.17068	-0.98762
8275.133	10.39047	-0.12690	14.38102	-1.50002
8279.123	10.40800	-0.14232	14.05979	-2.08910
8283.139	10.37049	-0.53690	14.18762	-2.85709
8287.138	9.67020	0.11795	13.24696	-3.24673
8291.133	9.90209	-0.15833	13.72570	-3.96932
8295.139	9.76866	-0.04112	13.96105	-3.21740
8299.140	9.97202	0.06072	14.06756	-2.34574
8303.152	10.04865	0.37842	14.19930	-1.47740
8307.139	10.09169	0.33401	14.18671	-1.19403
8311.138	10.20786	-0.06801	14.15080	-0.63204
8315.142	9.95064	-0.45247	14.71220	-0.44331
8319.102	10.21613	-0.43715	14.14509	-0.81691
8323.131	10.17447	0.55426	13.23250	-4.34552
8327.141	9.10088	0.51616	12.22694	-1.49179
8331.139	9.67673	0.11192	14.29336	-0.31460
8335.141	9.97623	0.29691	14.21813	-0.38042
8339.141	9.35181	0.93502	14.34965	-2.42926
8343.137	9.61426	0.46735	14.28448	-1.68616
8347.140	9.31711	-0.16826	14.30426	-0.11067
8351.141	9.60724	0.41239	14.80203	1.16385
8355.141	9.59242	0.74954	14.34149	-2.80524
8359.141	9.60857	-0.64397	14.15666	-1.38634
8363.114	9.69713	0.48759	14.21801	-0.27108
8367.138	9.66422	0.99870	14.16907	-2.93401
8371.143	9.56730	0.40599	13.79386	-3.42887
8375.138	9.21793	-0.81806	13.94348	-1.11963
8379.141	9.65452	0.42492	13.75409	-0.11001
8383.143	9.61050	0.85294	13.75287	-3.96800
8387.031	9.65983	1.10041	13.86525	-4.57367
8391.141	9.27750	0.00898	12.92618	-0.84866
8395.098	9.62787	-0.73119	12.57706	-0.21871
8399.145	9.61185	-0.61442	14.14856	0.03224
8403.141	9.68978	-0.02295	14.79635	-1.26095
8407.140	9.42941	0.51322	13.63213	-4.58811
8411.137	9.44527	0.88646	13.50096	-4.14060
8415.137	9.27419	0.74513	13.24362	-2.56382
8419.040	9.49779	0.26322	12.65311	-0.80498
8423.140	9.37465	0.42507	13.01974	-1.45388
8427.142	9.46792	-0.21204	14.07410	-1.25606
8431.140	9.43501	-0.02096	12.93806	-0.60277
8435.145	9.63619	-0.23146	14.67388	-1.90436
8439.141	9.56702	-1.29986	15.34312	-4.82028
8443.140	10.95184	-2.43685	15.28813	-5.42509
8447.108	10.83489	-2.43371	15.35226	-6.69216
8451.053	10.08847	-2.31144	15.09502	-7.50414
8455.140	9.80016	-2.47596	14.83847	-9.58561
8459.142	9.56904	-2.63662	14.75693	-8.07540
8463.143	9.70396	-2.66519	14.67395	-8.96318
8467.043	10.20476	-5.55509	15.46459	-7.75260
8471.145	9.97811	-5.08996	15.58978	-8.26655
8475.142	10.06167	-4.53104	16.71444	-7.09907
8479.141	10.75732	-4.38699	16.13656	-8.03636
8483.151	10.10191	-3.17400	16.69354	-7.86876
8487.131	10.52753	-3.69081	17.25184	-8.49807
8491.141	10.57776	-4.25342	17.04162	-8.99538
8495.145	9.81838	-4.31849	17.29918	-10.00508
8499.042	9.98261	-4.25725	15.54934	-9.81466
8503.145	10.09212	-4.33169	16.42455	-10.19766
8507.145	10.38483	-4.60463	14.97974	-8.57696
8511.143	9.41636	-4.12060	16.47210	-9.48779
8515.040	9.81214	-4.14299	15.36961	-9.20527
8519.142	10.31775	-3.95690	16.93219	-8.85421
8523.138	9.67410	-3.68222	17.43878	-9.37425
8527.107	9.60347	-3.92590	16.94954	-9.62175
8531.045	9.42714	-4.32279	15.97312	-9.12236
8535.144	9.49765	-3.65760	17.74958	-9.52449
8539.144	9.25543	-3.65534	17.03568	-9.70169
8543.143	9.29594	-3.67858	17.02631	-9.07008
8547.146	9.60126	-3.62255	17.60779	-8.59446
8551.143	9.22059	-3.51021	17.36646	-8.79427
8555.145	9.23062	-3.87432	17.75078	-9.26166
8559.144	9.24733	-3.53122	17.35351	-8.39407
8563.041	9.13429	-3.41433	17.53717	-8.40946
8567.139	9.05804	-3.69827	17.37793	-8.55982
8571.142	9.05037	-3.23652	17.33605	-8.44590
8575.142	9.00903	-3.70777	16.99953	-8.39803
8579.043	8.98535	-3.42440	16.77739	-8.67434
8583.148	8.94104	-3.54553	17.43277	-8.48534
8587.143	8.90938	-2.62381	16.95022	-8.00399
8591.144	8.95174	-2.93158	16.56576	-8.32519
8595.146	8.95007	-2.66046	16.38959	-9.31150
8599.146	8.88927	-3.07235	16.39758	-8.66511
8603.143	8.85216	-2.63363	16.67842	-8.42335
8607.147	8.93237	-2.56782	15.64142	-8.36093
8611.051	9.03004	-2.63176	16.35100	-8.55069
8615.147	9.13794	-2.84087	16.04767	-8.73451
8619.148	9.32175	-2.63581	15.40463	-7.72640
8623.142	9.19343	-2.85041	14.77649	-7.16699
8627.014	9.33359	-3.01367	15.61444	-8.31160
8631.146	9.50554	-3.17560	15.66931	-7.41999
8635.142	9.32079	-3.36324	16.11705	-8.32225
8639.145	9.72735	-3.44018	16.54526	-7.93646
8643.048	9.39385	-3.96185	15.30593	-7.30036
8647.145	9.61831	-4.95610	14.66893	-6.94253
8651.143	9.16141	-4.29047	14.61492	-7.26481
8655.140	9.59276	-4.05974	14.39643	-6.63706
8659.046	9.42221	-3.09481	14.49846	-6.77334
8663.146	9.47797	-3.82211	15.12002	-7.17534
8667.144	9.34164	-3.92147	14.86418	-7.53020
8671.145	9.44100	-3.86086	15.07769	-7.45904
8675.046	9.32680	-3.72150	14.36842	-7.50945
8679.144	9.63937	-3.44538	14.33457	-7.49266
8683.148	9.32516	-3.04386	14.51093	-7.47712
8687.147	9.50556	-3.50504	14.37007	-7.32585
8691.042	9.59983	-3.36389	14.44492	-7.35647
8695.145	9.53248	-3.62135	14.28744	-7.42911
8699.144	9.40042	-3.63925	14.21232	-7.22560
8703.144	9.49202	-3.47956	14.31060	-7.43931
8707.044	9.46505	-3.67399	14.36160	-7.34204
8711.148	9.47505	-3.80253	14.13468	-7.27605
8715.148	9.44935	-3.85784	15.80075	-7.39959
8719.148	9.55821	-3.80782	14.75976	-7.44358
8723.043	9.53844	-3.65197	14.16814	-7.10634
8727.023	9.59592	-3.78528	15.62947	-7.28209
8731.020	9.54515	-3.84742	15.88948	-7.33594
8735.020	9.71847	-3.81212	15.92262	-7.48983
8739.014	9.49277	-3.76592	15.68702	-7.52011
8743.023	9.61351	-3.85384	15.74982	-7.59345
8747.021	9.62309	-3.93016	15.58513	-7.45445
8751.019	9.74870	-3.98217	16.71966	-7.92056
8755.015	9.34046	-4.52100	15.77743	-7.66335
8759.019	6.72281	-3.35643	11.81648	-7.89553
8763.024	6.46498	-1.77019	11.72046	-7.77552
8767.021	4.35353	-0.17022	11.59553	-7.15347
8771.021	6.18269	-0.08765	9.19312	-4.66946
8775.022	3.89394	0.24804	9.28838	-4.09391
8779.026	3.15835	1.15196	9.27987	-3.62030
8783.009	2.09418	1.85330	7.05425	-2.49265
8787.003	2.68611	1.56133	4.79107	-3.97027
8791.024	2.33259	2.03672	4.71252	-4.54904
8794.986	2.71300	1.74167	4.51134	-4.55241
8799.022	2.50368	1.41072	4.76914	-4.09887
8803.021	2.21905	0.32115	4.51904	-4.36832
8807.021	0.72409	0.63631	4.42306	-3.54552
8811.022	1.86040	0.00052	4.52824	-2.62885
8815.023	1.99825	-0.01055	4.42587	-2.28449
8819.015	2.00896	0.70942	4.65047	-2.46807
8823.019	2.06768	0.65377	5.33335	-1.97412
8826.986	1.83105	1.97421	4.83863	-3.41591
8831.022	2.03506	2.07926	5.15197	-1.75906
8834.992	0.99181	2.34551	3.77644	-3.49313
8839.023	1.51660	1.31323	5.14569	-5.08191
8843.021	1.42756	0.74331	4.64929	-4.74447
8847.024	1.41794	0.16813	4.76288	-3.52948
8851.015	1.64764	0.30316	4.87466	-3.10869
8855.022	1.59212	0.51874	5.74544	-2.76966
8859.023	1.54324	1.22006	5.59860	-1.66227
8862.986	1.55792	1.60077	5.56600	-3.20472
8867.023	1.54827	2.18588	4.99457	-1.19581
8871.023	1.40983	2.70074	5.71799	-4.69586
8875.020	1.39703	3.24456	5.51219	-4.80356
8879.023	1.38808	3.63482	5.87474	-4.58555
8883.049	1.41816	3.88442	4.71693	-4.73557
8887.022	1.43997	3.74347	5.40124	-4.77855
8891.025	1.51603	2.87661	5.20297	-3.85674
8895.024	1.43275	2.28147	4.62108	-4.11329
8899.014	1.21521	2.40528	4.76288	-3.57968
8903.025	1.17026	2.34495	4.73618	-3.34813
8907.013	1.28859	2.42572	5.46448	-3.77790
8911.026	1.00370	2.42956	5.04930	-3.46097
8915.018	1.14206	2.27707	5.56394	-3.65058
8919.025	1.09639	2.16443	4.94856	-3.48762
8923.026	0.99601	2.18896	4.93381	-3.28710
8927.023	1.18872	1.71227	5.99271	-3.18816
8930.991	1.05334	1.04601	4.96509	-1.91950
8935.022	1.02456	1.31723	6.29372	-2.16760
8939.021	1.16473	1.28132	6.03402	-1.79604
8943.024	1.09954	1.30029	6.38275	-1.47963
8947.019	1.32498	0.55546	5.03496	-1.23574
8950.994	1.27795	1.16341	4.90060	-1.08933
8955.021	1.46301	1.30428	5.80523	0.17209
8959.027	1.19911	1.29098	6.41788	0.27802
8963.016	1.38823	1.28118	6.34424	0.56525
8967.023	1.42027	1.41605	6.20965	-0.16055
8971.022	1.42228	1.54435	6.45510	-1.05829
8975.026	1.49366	1.71320	6.08127	-1.45312
8979.016	1.39609	1.85426	6.18723	-1.25014
8983.023	1.55030	1.96830	6.20308	-1.90499
8987.026	1.22519	2.57074	6.26978	-2.14954
8991.006	1.14551	2.85945	6.28452	-1.55630
8995.051	1.05813	2.73476	6.11599	-2.12063
8999.025	1.51402	2.30993	6.27471	-1.76480
9003.024	1.19552	2.66220	6.18620	-2.17391
9007.025	1.30139	2.67278	6.23285	-2.37315
9011.047	1.35526	2.70767	6.25723	-2.91385
9015.024	1.53624	2.80956	5.62837	-2.28398
9019.027	1.60880	2.90686	6.25345	-2.36275
9023.026	1.46722	2.98279	6.08662	-2.57932
9027.026	1.54455	2.87422	6.02612	-3.00255
9030.993	1.56201	3.01083	6.16501	-3.34632
9035.021	1.48084	2.84955	5.88935	-2.98829
9039.025	1.47680	2.97941	6.09862	-2.44661
9043.018	1.61386	3.08907	5.72500	-2.52637
9047.025	-2.06580	2.99187	6.15983	2.03228
9050.989	-5.39861	5.43415	12.93978	4.33976
9055.028	8.58381	9.71046	11.47486	6.09426
9059.016	NaN	NaN	6.55126	9.09361
9063.024	NaN	NaN	NaN	NaN
9066.990	NaN	NaN	NaN	NaN
9071.019	NaN	NaN	NaN	NaN
9075.004	NaN	NaN	NaN	NaN
9079.020	NaN	NaN	NaN	NaN
9082.986	NaN	NaN	NaN	NaN
9087.026	NaN	NaN	NaN	NaN
9091.023	NaN	NaN	NaN	NaN
9094.992	NaN	NaN	NaN	NaN
9099.027	NaN	NaN	NaN	NaN
9103.027	NaN	NaN	NaN	NaN
9107.022	NaN	NaN	NaN	NaN
9111.025	NaN	NaN	NaN	NaN
9115.019	NaN	NaN	NaN	NaN
9119.023	NaN	NaN	NaN	NaN
9123.057	NaN	NaN	NaN	NaN
9126.990	NaN	NaN	NaN	NaN
9130.990	NaN	NaN	NaN	NaN
9135.028	NaN	NaN	NaN	NaN
9139.029	NaN	NaN	NaN	NaN
9143.034	NaN	NaN	NaN	NaN
9147.034	NaN	NaN	NaN	NaN
9151.031	NaN	NaN	NaN	NaN
9155.027	NaN	NaN	-3.68503	6.42002
9158.995	NaN	NaN	-0.19809	9.66658
9163.053	NaN	NaN	1.05329	3.00824
9167.027	NaN	NaN	NaN	NaN
9171.026	NaN	NaN	2.88430	-0.68295
9175.027	-4.88811	11.76611	2.94104	4.56019
9179.030	-4.59729	1.73705	2.78429	1.02999
9183.030	6.14320	8.44642	0.34566	-1.28811
9187.027	1.79616	7.78328	2.07442	-0.17070
9191.025	6.52801	7.03475	2.61872	-0.22832
9195.029	6.83646	6.92452	1.38709	-0.57887
9198.990	7.24522	5.74671	2.11182	-0.38112
9203.023	3.63255	5.08675	0.81044	-0.05792
9207.024	5.11098	4.76462	2.57281	-0.18869
9211.030	1.90941	4.60257	2.29458	0.05388
9215.028	1.53805	4.52177	2.71587	-0.01834
9219.026	0.68809	4.68079	0.91552	0.15081
9223.027	0.86396	4.93437	1.48744	0.55090
9227.027	0.26071	5.16391	2.51443	0.10101
9231.029	0.28734	4.82830	2.00752	0.24431
9235.028	-0.02757	4.61534	1.97309	0.33588
9239.028	-0.06212	4.50867	2.09058	0.32751
9243.027	-0.32099	4.64729	1.78850	0.31784
9247.020	-0.44589	4.65440	1.35516	0.56633
9251.029	-0.51910	4.55851	1.23811	0.41833
9255.029	-0.82560	4.66179	1.07562	0.50727
9259.031	-1.25877	4.69424	1.09720	0.55243
9263.021	-0.94745	4.72005	1.21819	0.47723
9267.029	-1.18820	4.51030	0.88949	0.41912
9271.032	-1.45668	4.22152	0.15444	0.75380
9275.030	-1.46117	4.03494	0.78285	0.57114
9279.023	-1.32629	4.20878	0.97504	0.49183
9283.019	-1.56114	4.09676	1.75473	0.55753
9287.036	-1.52233	4.12819	1.51405	0.69001
9291.029	-1.54849	3.74595	1.47888	0.87202
9295.021	-1.58966	3.82143	1.88011	1.55826
9299.028	-1.70150	3.60420	1.86570	0.93693
9303.029	-1.96930	3.55073	2.21995	0.77069
9307.032	-1.82095	3.18841	1.99230	0.73177
9311.033	-1.78892	2.30277	1.74005	1.46148
9315.029	-1.53855	0.99435	1.91672	0.56804
9319.030	-1.42794	1.44340	1.75684	-0.66715
9323.018	-1.41325	1.94343	1.75719	-1.17246
9326.997	-1.37997	1.47963	1.71357	-1.29166
9331.032	-1.42305	2.11320	1.85304	-1.54878
9334.994	-0.43125	2.73614	1.93502	-0.51347
9339.030	-1.55278	3.27865	0.89366	-0.33120
9343.022	-1.34361	4.02263	1.23221	-1.00392
9347.033	-1.50914	3.60439	1.52970	-0.23700
9351.033	-1.27420	3.99466	1.58118	-0.08133
9355.029	-1.32887	3.46896	1.45815	0.28192
9359.022	-1.18465	2.86987	1.20626	1.42414
9363.028	-1.30074	2.58770	0.96355	1.44186
9367.001	-1.21698	2.16880	1.08329	0.76182
9371.027	-1.20636	2.28557	1.53761	-0.30208
9375.027	-1.13434	1.90835	1.43257	-0.41191
9379.033	-1.35876	2.79915	1.87032	-0.63766
9383.033	-1.43193	4.81605	1.73755	-0.90474
9387.038	-1.71575	4.11631	1.92037	-0.70360
9391.026	-1.35650	3.36126	1.20519	-1.30908
9395.017	-1.34690	3.25251	1.45192	-1.18289
9399.031	-1.07522	3.44019	1.78188	-1.55899
9403.035	-0.54754	3.53330	1.89198	-1.14589
9406.993	-0.96983	3.48160	1.73891	-1.00880
9411.009	-0.38822	2.52174	1.86345	-1.09707
9415.034	-0.04303	2.38481	2.19194	-0.90966
9419.030	-0.38097	2.23566	2.09313	-0.03799
9423.032	-0.05787	3.13469	2.44764	0.75935
9427.030	0.75846	2.15247	2.13626	1.23105
9431.033	-0.47738	3.65652	1.60771	0.81016
9435.031	-1.04865	3.77368	1.87795	-0.74223
9438.929	-1.23541	3.66201	1.97190	-1.16013
9443.034	-0.32072	3.25427	3.18717	-1.21448
9447.030	-0.60521	2.57143	2.49545	-1.91220
9451.032	-0.84652	2.42617	2.13376	0.83131
9455.023	-0.44949	4.23578	2.28749	1.69890
9459.033	-0.33809	3.86343	2.90250	1.54309
9463.035	-0.17834	3.16761	2.46382	0.84584
9467.032	0.03976	2.41391	2.30799	0.54818
9470.940	-0.28602	1.93020	2.31730	-0.84802
9475.031	-0.31126	3.96868	2.34716	-1.94155
9479.035	-0.62858	3.82059	2.29862	0.89197
9483.032	-0.48604	3.29455	2.03184	2.14898
9486.934	-1.12447	2.69348	1.88412	0.61113
9491.031	-0.58084	2.55709	1.57416	-0.83409
9495.034	-0.78044	3.24084	2.30804	-2.51495
9499.034	-0.71791	3.93178	1.93413	-0.72904
9502.933	-0.48872	3.43354	2.31438	0.94815
9507.033	-0.32310	3.40090	2.24886	0.61847
9511.031	-0.55329	2.65797	2.50273	0.17450
9515.033	-0.72310	2.40397	2.01692	-0.12489
9518.930	-0.40375	1.75597	2.54581	-0.47992
9523.035	-0.57037	2.71501	2.90240	-2.22499
9527.034	0.02172	2.79850	2.51527	-1.48637
9531.000	-0.05405	3.45471	2.71035	0.66206
9534.935	-0.20628	3.80304	2.61323	2.94049
9539.033	-0.32134	3.36891	2.01501	1.82782
9543.033	-0.20882	3.52871	2.41249	0.79953
9547.036	-0.26460	3.26798	2.26334	1.01263
9550.933	-0.33923	2.74780	1.98854	0.48060
9555.032	-0.31009	3.12452	1.94156	0.69745
9559.033	-0.26823	2.93026	2.10429	0.74267
9563.034	-0.32459	2.67823	2.52758	0.78809
9566.936	-0.41643	2.73761	2.13903	1.09885
9571.034	-0.63295	2.82019	2.09787	0.93459
9575.001	-0.76558	2.72666	2.47440	1.21212
9579.033	-0.67610	2.81092	2.16216	1.08580
9582.934	-0.90805	2.87986	3.04769	1.34762
9587.042	-0.89612	2.87710	1.42156	1.45014
9591.037	-0.94276	3.26245	2.39131	1.58260
9595.035	-1.15305	3.17387	2.16213	1.13870
9598.935	-0.82977	3.22560	1.93827	1.35613
9603.035	-0.97251	2.85996	2.19896	-2.00735
9607.036	-0.87131	2.37682	2.16501	-1.86872
9611.036	-1.01025	2.54405	2.03868	-1.94207
9614.938	-1.08939	3.01824	2.17083	-0.85319
9619.001	-1.03893	3.16923	1.64203	0.66277
9623.033	-0.99129	2.98888	1.56774	0.98115
9627.033	0.28816	2.43625	1.95698	1.39680
9630.936	0.96043	1.89307	1.89615	-0.06807
9635.036	2.79468	2.17923	3.14800	-1.09681
9639.036	3.36985	4.01026	6.71537	2.68825
9643.035	12.93314	5.11530	11.54256	1.50856
9646.935	15.38680	7.32187	13.87213	2.82684
9651.035	NaN	NaN	14.45325	6.01188
9655.026	NaN	NaN	14.48399	7.88022
9659.029	NaN	NaN	NaN	NaN
9663.041	NaN	NaN	NaN	NaN
9667.034	NaN	NaN	NaN	NaN
9671.035	NaN	NaN	NaN	NaN
9675.037	NaN	NaN	NaN	NaN
9679.034	NaN	NaN	NaN	NaN
9682.997	NaN	NaN	NaN	NaN
9687.034	NaN	NaN	NaN	NaN
9691.033	NaN	NaN	NaN	NaN
9695.037	NaN	NaN	NaN	NaN
9699.003	NaN	NaN	NaN	NaN
9703.014	NaN	NaN	NaN	NaN
9707.000	NaN	NaN	NaN	NaN
9711.036	NaN	NaN	NaN	NaN
9715.003	NaN	NaN	NaN	NaN
9719.036	NaN	NaN	NaN	NaN
9723.047	NaN	NaN	NaN	NaN
9727.000	NaN	NaN	NaN	NaN
9731.002	NaN	NaN	NaN	NaN
9735.039	NaN	NaN	4.49168	7.45982
9739.023	16.07416	6.43694	15.96362	1.61421
9743.026	19.99068	6.69593	9.91975	-0.10604
9746.938	17.30597	6.87629	12.59025	3.90071
9751.000	16.89664	7.27369	13.77284	3.97535
9755.035	19.29228	6.15177	17.64591	3.87911
9759.035	17.82078	5.69895	17.17592	3.99859
9762.938	16.94911	6.08449	12.69941	5.57660
9766.913	16.52040	4.31289	8.30753	7.26754
9770.911	16.00415	2.37656	6.04639	7.72231
9774.913	13.22954	1.68169	5.81413	8.94355
9778.911	12.10060	2.02538	9.99948	-0.79445
9782.913	10.48420	1.71426	10.01027	11.00543
9786.893	10.37402	1.84788	9.97488	10.77506
9790.917	10.14552	1.70281	8.12631	11.24750
9794.904	8.69513	1.15062	3.21673	10.91505
9798.915	8.43591	0.90158	11.19846	0.08008
9802.915	8.57682	1.37379	9.99734	11.44433
9806.912	8.33698	1.25283	9.19865	12.24909
9810.906	8.21616	1.20992	8.56636	11.88322
9814.915	8.49806	0.80067	7.69051	12.51053
9818.914	8.38823	0.64575	10.66424	0.18364
9822.914	8.26986	1.31427	11.18738	0.33423
9826.920	8.55018	2.12633	10.81410	0.48751
9830.874	8.17184	2.44607	8.68342	12.60627
9834.910	8.04088	2.55485	11.99918	-0.01021
9838.909	7.97646	2.25816	12.19927	-0.19749
9842.874	8.40383	2.27756	12.11966	-0.99632
9846.915	7.72878	2.36858	11.43221	-1.02847
9850.914	7.51222	1.99517	10.43918	-0.92582
9854.915	8.00382	0.93083	9.99019	-1.07893
9858.938	7.52515	0.75938	10.70823	-2.63741
9862.915	7.69870	2.41118	8.53377	-0.69273
9866.914	7.33613	3.04804	11.44368	-0.69915
9870.885	7.59493	3.07260	12.38292	-0.47449
9874.885	7.87143	2.90440	12.06750	-0.64040
9878.915	8.53185	2.53290	11.16953	-0.06280
9882.877	8.01835	2.37918	10.81238	-0.16209
9886.913	7.87440	1.92762	13.89182	0.71789
9890.904	9.89195	2.04341	13.41404	12.18848
9894.915	10.52569	4.06958	13.66997	0.27030
9898.918	15.43646	4.68123	14.59656	-0.23201
9902.917	16.41032	5.98079	14.71289	-2.20709
9906.905	16.95933	6.19480	11.31992	-0.07178
9910.916	16.66428	7.03400	9.24687	-2.44773
9914.917	NaN	NaN	14.15496	4.20050
9918.917	NaN	NaN	15.23678	6.33315
9922.914	NaN	NaN	13.77429	11.75390
9926.915	NaN	NaN	NaN	NaN
9930.926	NaN	NaN	NaN	NaN
9934.913	NaN	NaN	NaN	NaN
9938.911	NaN	NaN	NaN	NaN
9942.910	NaN	NaN	NaN	NaN
9946.916	NaN	NaN	NaN	NaN
9950.877	NaN	NaN	NaN	NaN
9954.885	NaN	NaN	NaN	NaN
9958.875	NaN	NaN	NaN	NaN
9962.911	NaN	NaN	NaN	NaN
9966.913	NaN	NaN	NaN	NaN
9970.913	NaN	NaN	NaN	NaN
9974.913	NaN	NaN	NaN	NaN
9978.912	NaN	NaN	NaN	NaN
9982.914	NaN	NaN	NaN	NaN
9986.876	NaN	NaN	NaN	NaN
9994.896	NaN	NaN	NaN	NaN
9998.912	NaN	NaN	NaN	NaN
10002.914	NaN	NaN	NaN	NaN
10006.918	NaN	NaN	NaN	NaN
10010.915	NaN	NaN	NaN	NaN
10014.918	NaN	NaN	NaN	NaN
10018.922	NaN	NaN	NaN	NaN
10022.917	NaN	NaN	NaN	NaN
10026.915	NaN	NaN	NaN	NaN
10030.890	NaN	NaN	NaN	NaN
10035.530	NaN	NaN	NaN	NaN
10042.917	NaN	NaN	5.23105	6.01909
10046.914	NaN	NaN	9.73906	4.86199
10050.918	NaN	NaN	0.61253	-0.68139
10054.941	9.43687	7.47558	-0.02452	-0.60235
10058.916	8.89109	-0.81326	4.85376	-2.55542
10062.918	9.73660	5.21266	3.17163	-4.04373
10066.916	-1.88665	-0.77257	2.72830	-0.58610
10070.910	10.78918	8.39719	9.61831	-0.42261
10074.917	-2.20604	3.35848	0.51485	1.06614
10078.889	-5.16310	2.72669	4.68003	-0.51411
10082.918	3.27947	5.57752	5.20917	-2.75182
10086.916	6.13157	7.03034	11.65085	-0.49140
10090.921	6.67192	5.80164	8.82516	1.55120
10094.916	7.11335	5.43806	8.09649	-0.41679
10098.916	3.56171	4.90430	6.55248	-0.60108
10102.913	3.15604	4.97228	2.68002	-0.98151
10106.918	3.31108	5.31645	1.54748	-0.72201
10110.919	2.35997	4.82729	2.38546	0.28882
10114.917	2.02433	4.95437	5.10980	-0.51180
10118.877	2.24760	4.79616	4.70734	2.93245
10122.914	1.90859	4.68728	4.19055	-0.49408
10126.919	1.93165	4.56066	3.14352	1.43055
10130.916	1.89327	4.17607	3.39686	1.39726
10134.941	1.45316	3.95849	3.23722	1.04667
10138.920	1.12628	3.64565	3.75294	-0.39549
10142.920	1.30749	3.01711	2.34371	-0.72242
10146.917	0.98519	2.81419	3.07931	-0.53369
10150.908	1.05776	2.28040	3.11062	2.14226
10154.880	0.42442	3.16023	3.23385	1.06257
10158.922	1.50971	2.71299	4.67744	-0.05407
10162.884	0.83424	3.86633	3.18541	-0.06297
10166.916	1.30350	4.23632	3.20976	-0.53296
10170.919	0.83793	4.56058	4.40039	0.86773
10174.917	0.99380	3.62737	4.40204	1.19058
10178.921	0.71523	2.87700	3.38795	-0.71985
10182.913	0.69511	2.71353	0.05187	0.44812
10186.917	1.15429	4.14134	3.23279	0.95592
10190.924	1.20006	4.27276	3.42339	-0.20273
10194.918	1.31702	3.08956	-3.78961	-0.98555
10198.918	0.94837	2.95774	3.26445	0.76213
10202.879	1.02655	3.57554	3.16795	0.11331
10206.917	1.61748	4.33127	4.29342	0.50036
10210.920	0.88736	3.66962	4.12283	-0.08652
10214.910	0.88870	2.86064	3.09146	0.88493
10218.921	0.91468	4.66343	2.86121	1.05202
10222.920	1.18346	4.32651	3.04073	0.20797
10226.919	1.06520	3.45444	4.00208	0.13785
10230.911	0.64287	2.71034	2.67729	0.44910
10234.882	1.11829	5.29776	3.32535	0.42978
10238.919	0.51959	4.38949	3.31734	0.68924
10242.908	1.21725	2.91129	3.24165	-0.98913
10246.910	0.21733	3.64083	3.65181	1.09351
10250.921	0.22991	3.75986	3.06889	0.15561
10254.921	0.51927	4.25871	3.40212	-3.18109
10258.918	1.16037	3.46717	2.44341	-0.42105
10262.910	0.05857	3.38516	3.50781	0.62880
10266.921	1.19758	4.69447	1.33530	-0.70835
10270.919	0.53007	4.42880	3.41758	0.92120
10274.919	0.97398	3.98480	3.41192	0.63486
10278.922	1.44535	3.04959	3.42997	-0.18611
10282.923	1.43009	5.01949	3.56072	0.75359
10286.896	1.26455	4.43177	3.33082	-1.01738
10290.931	0.48254	4.21181	1.61314	-0.41888
10294.924	0.54478	4.50597	3.66174	1.29049
10298.918	0.98524	4.26698	3.49325	-0.15896
10302.920	1.22777	3.58871	3.44696	2.05420
10306.920	0.26304	4.93377	3.34007	-0.00107
10310.913	1.67606	4.89589	1.98075	-0.73990
10314.920	1.27584	4.43165	3.40282	2.59052
10318.920	0.95177	4.80552	3.28563	0.52875
10322.923	1.26550	4.68969	3.28630	3.00789
10326.904	1.44721	4.24568	2.75670	2.80475
10330.918	1.18884	6.29683	1.70296	2.67449
10334.917	1.18825	4.71265	3.95631	2.27655
10338.923	1.15493	4.67357	4.22742	1.31666
10342.923	1.68617	6.07518	6.97162	3.48740
10346.920	2.68123	5.70597	6.45385	0.93205
10350.919	4.59374	5.51938	3.25919	2.22345
10354.923	2.49917	6.93760	3.41990	0.66935
10358.923	5.78303	5.26932	3.00237	1.45973
10362.920	9.37914	7.05048	5.10413	1.18326
10366.925	6.07390	6.59513	2.26767	3.69964
10370.887	6.39856	7.44512	1.93638	0.35404
10374.915	9.86804	7.69509	7.24969	5.04031
10378.919	6.08367	7.77071	6.04833	1.21381
10382.921	8.36105	10.52105	NaN	NaN
10386.921	5.94526	6.37795	2.01845	-5.10749
10390.914	NaN	NaN	3.14392	6.17409
10394.927	NaN	NaN	NaN	NaN
10398.922	NaN	NaN	NaN	NaN
10402.922	NaN	NaN	NaN	NaN
10406.902	NaN	NaN	NaN	NaN
10410.895	NaN	NaN	NaN	NaN
10414.920	NaN	NaN	NaN	NaN
10418.919	NaN	NaN	NaN	NaN
10422.920	NaN	NaN	NaN	NaN
10426.919	NaN	NaN	NaN	NaN
10430.920	NaN	NaN	NaN	NaN
10434.921	NaN	NaN	NaN	NaN
10438.923	NaN	NaN	NaN	NaN
10442.919	NaN	NaN	NaN	NaN
10446.921	NaN	NaN	NaN	NaN
10450.920	NaN	NaN	NaN	NaN
10454.890	NaN	NaN	NaN	NaN
10458.924	NaN	NaN	NaN	NaN
10462.922	NaN	NaN	NaN	NaN
10466.924	NaN	NaN	NaN	NaN
10470.886	NaN	NaN	NaN	NaN
10474.923	NaN	NaN	NaN	NaN
10478.920	NaN	NaN	NaN	NaN
10482.925	NaN	NaN	NaN	NaN
10486.885	NaN	NaN	NaN	NaN
10490.924	NaN	NaN	NaN	NaN
10494.892	NaN	NaN	NaN	NaN
10498.926	NaN	NaN	NaN	NaN
10502.925	NaN	NaN	NaN	NaN
10506.922	NaN	NaN	-4.35797	7.38696
10510.922	NaN	NaN	NaN	NaN
10514.829	NaN	NaN	NaN	NaN
10518.955	NaN	NaN	NaN	NaN
10522.924	NaN	NaN	-4.29036	3.14658
10526.925	6.83893	6.86189	NaN	NaN
10530.823	7.66497	13.37956	-0.73918	0.15636
10534.891	7.90180	14.83562	0.10039	2.17589
10538.923	-6.56023	2.38077	5.65368	7.54971
10542.926	6.46252	5.84556	-4.69670	1.36772
10546.824	-0.87346	1.81834	-0.74667	5.31120
10550.924	9.66834	5.28054	0.83056	0.66643
10554.926	-1.83137	2.09908	4.75950	0.30214
10558.923	-4.76574	2.61230	10.59270	2.65505
10562.819	7.57008	6.35805	1.57726	0.92582
10566.924	7.77064	5.41743	1.60265	1.37018
10570.924	6.02696	6.25233	4.33216	0.07825
10574.926	2.96500	4.96897	3.04685	1.29887
10578.824	7.25919	6.28341	1.28479	1.23785
10582.927	3.25817	5.16017	1.16617	-0.03083
10586.914	0.10602	5.23471	-1.63566	1.37470
10590.925	0.85426	5.00008	-2.22837	2.12552
10594.821	-0.65868	4.61037	1.30057	0.73292
10598.926	-4.95157	5.81016	1.25639	4.47149
10602.926	-1.15689	4.62080	2.59824	3.92926
10606.921	-1.99325	4.60846	2.86244	0.76038
10610.822	0.02303	1.93876	1.97984	4.06157
10614.929	-0.09890	4.15392	2.79402	-0.05262
10618.905	-0.58744	4.57155	0.74451	2.49803
10622.924	-0.69563	4.25840	1.37883	4.57982
10626.927	-0.79148	5.98527	2.82989	0.88232
10630.924	-0.51694	3.84813	2.31985	2.29177
10634.889	-0.42591	4.49551	2.22257	-1.94008
10638.924	-1.22236	5.35881	1.29663	1.05329
10642.930	-0.35437	3.31657	0.99792	4.24050
10646.925	-0.29307	5.35360	3.13093	-1.72722
10650.889	NaN	NaN	NaN	NaN
10658.919	-0.14652	3.88903	1.48798	-1.89565
10662.915	-0.31382	1.10775	2.22282	0.66342
10666.828	-0.25401	4.11465	2.01092	1.71330
10670.924	-0.51101	5.73292	0.79528	0.19616
10674.924	0.34000	1.65116	2.30543	1.31710
10678.924	0.26709	4.05099	2.61781	-0.72952
10682.823	0.31024	5.19926	1.41437	0.48524
10686.925	0.06137	4.07526	0.16752	-0.37807
10690.929	-0.62779	4.63923	2.85341	-0.77302
10694.929	0.27513	1.40691	1.81406	1.28655
10698.927	0.29766	4.16662	1.59933	-1.03693
10702.906	-0.93847	5.53447	2.48435	1.44274
10706.924	-0.78268	3.51516	2.39867	-2.22835
10710.925	0.55759	4.97214	1.19026	0.62462
10714.828	-0.87773	2.64489	1.75808	0.50242
10718.926	-1.11132	4.35730	2.73858	0.43999
10722.926	-0.66655	2.77161	2.59361	-1.48576
10726.926	-0.08478	3.47179	1.45123	1.18639
10730.824	0.35516	3.47098	2.43981	0.08141
10734.925	-0.79900	3.81835	2.12818	0.91193
10738.926	-1.06897	4.50702	1.14221	-1.17261
10742.913	-0.60101	3.02893	1.33741	0.92892
10746.822	-0.92023	4.64805	2.16625	0.24516
10750.928	-1.05634	4.95493	1.71441	1.01453
10754.930	-0.51480	3.60817	2.31517	0.08198
10758.929	-0.69866	5.17625	2.08285	1.21761
10762.827	-0.86607	3.21348	0.23214	0.94917
10766.890	-0.47870	4.08177	2.09249	0.67693
10770.927	-0.80005	3.17794	1.88618	-0.58742
10774.885	-0.79285	3.33982	-0.02070	1.06914
10778.829	-0.88825	5.22340	2.12585	0.59438
10782.930	-0.81910	4.57320	1.59846	1.41767
10786.894	-0.69293	4.10873	2.17762	1.91159
10790.927	-0.78826	3.08542	2.35444	2.01879
10794.801	-0.62560	3.76798	2.69752	0.17323
10798.804	-0.55714	4.47828	1.83385	2.85630
10802.801	-0.75809	3.35589	2.44472	0.87792
10806.801	-0.35720	4.05174	0.70342	-0.07807
10810.795	-1.00397	3.78313	1.75300	0.12275
10814.805	-0.20273	3.95135	0.52736	-1.55811
10818.805	-2.00671	4.02807	1.84007	1.67121
10822.802	-0.51485	4.06308	1.34728	0.46158
10826.802	-0.53409	4.74712	1.90777	-1.60474
10830.765	-0.75151	3.98640	2.30387	1.08202
10834.797	-0.42284	4.48333	1.99164	0.37978
10838.765	-0.75923	3.75075	2.63009	0.50176
10842.896	-0.39996	5.35273	0.56850	-1.42861
10846.808	-0.47344	3.60077	0.53416	1.34398
10850.807	-0.47153	3.90566	1.37548	0.61030
10854.808	-0.52404	3.90105	1.00648	-1.27026
10858.795	-0.60563	4.82071	2.50729	-0.23639
10862.803	-0.20239	3.78000	0.43125	0.79860
10866.804	-1.57600	4.17054	0.67074	1.26513
10870.805	-0.78101	4.31915	1.74990	1.15767
10874.765	-0.76950	3.56646	-0.05167	1.41095
10878.807	-0.87766	4.15425	1.28561	0.82284
10882.805	-0.87890	4.41412	1.29556	-0.80808
10886.805	-0.21591	3.69545	-0.37881	1.03511
10890.803	0.11553	4.46475	0.40658	-0.48121
10894.773	0.26768	3.65765	1.35626	-0.95514
10898.846	-0.12193	4.25572	2.88777	0.27895
10902.804	-0.10391	4.23548	-0.41018	-0.06103
10906.798	-2.18401	4.36795	1.20663	-0.83889
10910.808	-0.17477	3.72288	1.73988	-0.50402
10914.786	0.17496	4.25363	1.90368	-0.66943
10918.802	-0.32573	3.73229	1.59095	-0.19102
10922.799	-0.49103	4.24344	1.18212	1.72521
10926.803	0.09776	4.25406	NaN	NaN
10930.807	-0.55478	4.16735	NaN	NaN
10934.804	-0.46758	4.04113	2.45785	-0.13538
10938.806	-0.14017	4.39966	3.75778	0.13784
10942.804	-0.25912	4.18159	-0.44701	0.11346
10946.805	-0.41015	3.66893	0.32518	0.39315
10950.805	-0.04517	4.56630	0.13444	2.23087
10954.795	-0.81213	3.61214	-0.18909	0.61668
10958.806	-1.06302	4.41082	-0.67672	-0.48613
10962.806	-0.93775	3.65624	-0.85987	0.67594
10966.804	-1.31823	3.50065	1.43062	1.14459
10970.828	-1.10125	4.42181	1.83831	0.82848
10974.804	-1.06532	3.10047	0.93728	-0.02403
10978.804	-1.07656	4.00772	2.19061	-0.21022
10982.803	-1.47920	2.68014	1.63789	0.15159
10986.804	-1.82946	4.67093	2.10843	0.88245
10990.804	-1.65101	3.78507	1.77754	0.56272
10994.812	-2.02646	4.11771	1.85437	1.46596
10998.784	-1.94030	4.54630	1.79733	1.35080
11002.803	-2.47796	3.76246	2.13170	1.76996
11006.806	-1.13754	4.45267	2.66484	1.19951
11010.807	-2.51472	4.52949	-1.03188	0.00134
11014.804	-2.50083	3.99419	0.96164	-1.57603
11018.796	-1.04744	4.47878	-0.43926	-0.18020
11022.808	-2.23159	4.34861	0.52518	0.50353
11026.806	-2.32902	3.95707	0.16154	2.08546
11030.808	-1.94268	4.44959	0.22117	2.44229
11034.798	-2.22299	4.50258	-1.92151	-1.81432
11038.795	-2.26611	4.31505	-0.77010	-0.68209
11042.805	-1.93958	4.55556	-0.17464	0.59400
11046.805	-2.48871	4.54507	0.12947	1.83562
11050.803	-2.27694	4.32993	0.44247	1.16535
11054.805	-2.22939	4.60663	0.41715	-0.79736
11058.810	-3.98716	4.61335	0.43703	-0.21603
11062.808	-0.92604	4.12491	0.49016	-0.63820
11066.807	-0.71796	3.59041	0.74159	0.36932
11070.807	-0.79908	4.47485	0.17139	1.11672
11074.810	-1.90725	4.52469	-0.56518	1.41282
11078.805	-2.62786	3.92603	0.44579	1.27409
11082.802	-1.84161	3.46988	0.61687	-0.69406
11086.803	-2.27976	4.80313	0.95127	-0.18676
11090.810	-1.28415	3.55277	-2.74695	0.21780
11094.808	-0.86709	3.66717	-0.10870	-0.42640
11098.833	-2.63824	5.41318	-0.04862	1.21827
11102.807	-2.74009	4.06953	0.43681	1.62485
11106.770	-2.73155	4.04563	0.61062	1.65212
11110.808	-2.82145	3.97827	1.05979	2.09692
11114.802	-0.92666	4.80748	-0.89937	-1.79082
11118.809	-1.44760	3.71847	0.05376	-0.55862
11122.791	0.95375	3.64494	0.80937	-0.23100
11126.804	-2.80687	5.53926	-2.77844	0.27798
11130.799	-2.85690	4.10313	-0.50133	0.65683
11134.807	-2.17252	4.00674	1.28732	1.13959
11138.772	-3.40217	5.08424	0.14409	1.54012
11142.807	-2.56164	4.56965	-0.33196	2.27445
11149.458	NaN	NaN	NaN	NaN
11158.771	-1.06570	3.93282	0.03477	1.48373
11162.811	-1.95539	4.45449	1.19472	3.40995
11166.810	-2.43952	4.36122	0.57736	1.61327
11170.798	NaN	NaN	0.97415	1.24479
11174.811	2.01838	4.71839	1.41420	1.57665
11178.808	NaN	NaN	-0.10309	1.54829
11182.810	-2.31906	4.58353	1.04223	2.01140
11186.844	1.61079	4.37102	1.09128	1.85155
11190.809	-1.21420	4.63316	0.97264	1.68313
11194.811	-1.93517	5.01450	-1.85566	1.40949
11198.812	1.72823	4.40351	1.14965	1.11807
11202.809	-2.28512	4.90591	0.23919	1.86113
11206.770	-1.63504	4.74717	-0.56813	1.34149
11210.808	-2.09802	4.78080	-1.37268	0.79395
11214.808	-1.82990	4.46518	1.06341	3.69719
11218.803	0.38933	4.43657	1.26656	2.83234
11222.807	-2.21397	4.56814	1.37692	2.81930
11226.811	-0.94051	4.32505	0.29843	1.88713
11230.808	-1.54153	4.17192	1.27435	2.78494
11234.809	0.86205	-7.69219	1.29789	2.83141
11238.808	0.87012	-8.33777	1.43989	2.45939
11242.772	-1.44532	4.48450	-0.32258	1.59910
11246.835	-1.92280	4.60404	0.31401	1.25494
11250.831	-2.01712	4.29955	0.82396	0.69592
11254.808	-1.88655	4.48405	0.59729	0.75801
11258.809	-1.73871	4.26753	2.02311	0.36011
11262.808	-1.30226	4.19481	1.05974	0.77695
11266.809	-0.98958	4.86144	2.46320	1.13327
11270.810	-0.22686	4.19445	1.90148	0.80514
11274.813	-2.53273	4.79788	1.23526	1.00978
11278.809	-2.08711	4.16585	1.90093	5.31118
11282.802	-2.13205	4.10617	1.88928	3.32518
11286.810	-1.99815	4.06933	1.97629	3.46956
11290.779	-1.92852	4.35583	1.33123	3.53202
11294.811	-1.79465	4.53495	1.45105	1.58714
11298.779	-0.77826	5.08346	1.15062	1.17797
11302.810	-1.32314	4.56971	0.08470	1.69998
11306.810	-0.92788	3.95548	-0.87205	0.93861
11310.809	-0.59478	3.97750	1.24027	0.52237
11314.802	-0.38839	3.77868	1.06054	1.95106
11318.810	-1.25036	4.78597	1.39026	2.91179
11322.813	-0.50773	4.35481	-1.45948	2.89738
11326.809	-1.98988	4.72822	-1.88303	2.39466
11330.799	-1.75106	4.39679	-1.64184	1.32656
11334.808	-0.25239	3.69124	-1.69862	2.26851
11338.808	-3.45198	-2.76935	1.64516	6.37382
11342.807	0.30920	5.74593	-0.37573	6.51379
11346.815	6.95991	6.49950	8.18473	6.11657
11350.812	NaN	NaN	1.14826	2.49454
11354.813	NaN	NaN	NaN	NaN
11358.810	NaN	NaN	NaN	NaN
11362.815	NaN	NaN	NaN	NaN
11366.809	NaN	NaN	NaN	NaN
11370.806	NaN	NaN	NaN	NaN
11374.803	NaN	NaN	NaN	NaN
11378.808	NaN	NaN	NaN	NaN
11382.809	NaN	NaN	NaN	NaN
11386.769	NaN	NaN	NaN	NaN
11390.809	NaN	NaN	NaN	NaN
11394.775	NaN	NaN	NaN	NaN
11398.817	NaN	NaN	NaN	NaN
11402.813	NaN	NaN	NaN	NaN
11406.771	NaN	NaN	NaN	NaN
11410.812	NaN	NaN	NaN	NaN
11414.792	NaN	NaN	NaN	NaN
11418.769	NaN	NaN	NaN	NaN
11422.814	NaN	NaN	NaN	NaN
11426.812	NaN	NaN	NaN	NaN
11430.810	NaN	NaN	NaN	NaN
11434.814	NaN	NaN	NaN	NaN
11438.811	NaN	NaN	NaN	NaN
11442.810	NaN	NaN	NaN	NaN
11446.777	NaN	NaN	NaN	NaN
11450.814	NaN	NaN	NaN	NaN
11454.808	NaN	NaN	NaN	NaN
11458.775	NaN	NaN	NaN	NaN
11462.816	NaN	NaN	NaN	NaN
11466.814	NaN	NaN	NaN	NaN
11470.814	NaN	NaN	NaN	NaN
11474.814	NaN	NaN	-2.67231	4.63952
11478.817	NaN	NaN	2.05462	5.14423
11482.811	NaN	NaN	1.89069	2.93662
11486.817	NaN	NaN	NaN	NaN
11490.813	NaN	NaN	-1.51742	0.87548
11494.817	16.25884	-9.15321	4.09466	3.79237
11498.779	NaN	NaN	6.63641	1.99656
11502.812	NaN	NaN	2.02413	1.59897
11506.811	NaN	NaN	1.78253	1.62188
11510.810	NaN	NaN	1.72376	1.40080
11514.813	-4.19492	-0.82047	1.22047	1.07001
11518.778	-3.61275	4.52346	0.73987	4.41326
11522.858	-6.44424	13.46878	1.02811	3.89827
11526.818	-4.04441	12.38541	0.26289	1.60241
11530.814	-2.63955	4.24303	0.86317	1.76165
11534.817	-3.69511	10.64685	5.70495	0.14593
11538.797	8.56682	6.76566	3.59154	1.50238
11542.816	4.21943	3.10647	2.76163	2.76970
11546.815	7.27963	2.00533	2.63363	-0.03964
11550.813	4.52350	2.44750	3.13756	0.36287
11554.818	4.80354	2.15015	5.99976	-3.09580
11558.717	4.28380	3.51660	5.48836	-1.64004
11562.813	3.54225	2.34322	0.68230	-0.07032
11566.813	1.23121	2.35572	0.69392	0.13696
11570.816	-0.31776	3.08740	1.18956	-2.63154
11574.816	-0.05070	2.59637	1.50482	-0.51992
11578.819	-0.10801	3.55021	0.82930	2.75505
11582.809	0.41782	3.29807	0.55488	-1.99925
11586.817	-0.86615	2.38541	0.34585	-1.67750
11590.819	0.07870	2.31776	0.55019	-0.10675
11594.813	-0.54466	2.84361	1.30499	2.43429
11598.816	-0.32593	2.96935	0.97646	-2.62493
11602.817	-0.17067	2.21022	0.17313	-0.05536
11606.713	-0.77409	2.95944	0.40162	1.25912
11610.814	-0.98638	3.18590	0.37958	-3.70826
11614.813	-0.64297	4.17902	1.33726	-0.95210
11618.816	-0.97430	2.06640	0.78938	1.21051
11622.716	-1.31831	2.61307	1.10924	-1.65828
11626.814	-0.62940	2.89656	0.40142	-2.51666
11630.817	-0.36906	3.18460	1.18101	-1.38468
11634.815	-0.74690	3.93019	1.12559	0.83543
11638.715	-1.10537	1.87829	0.89438	-2.69890
11642.814	-1.31865	2.56636	0.07043	-2.74938
11646.818	-0.72508	2.44412	0.83741	-1.20428
11650.779	-0.98874	2.81895	0.87334	-1.64445
11654.720	-0.61612	2.15696	0.26562	-4.19187
11658.819	-0.86022	2.11684	1.32671	-1.27163
11662.806	-0.90307	2.37536	0.93006	0.40324
11666.809	-0.79218	2.20987	3.49243	-1.72540
11670.720	-0.53185	2.36998	0.88299	-0.82650
11674.817	-0.88647	1.91428	0.64094	-0.23540
11678.814	0.14268	2.13300	1.31828	-0.61838
11682.818	-0.75327	2.42506	0.00355	-0.30338
11686.820	-0.68697	1.74678	0.60660	-1.12593
11690.817	0.54801	2.27607	1.58559	-2.73111
11694.817	-0.43420	1.57830	1.19601	0.36107
11698.820	0.29161	2.61258	-0.07011	-0.85191
11702.716	-0.47875	1.30361	0.00074	-0.36510
11706.778	-0.04964	3.20458	-0.13565	0.42844
11710.817	-0.45716	1.79865	0.89917	-0.21946
11714.816	-0.51604	3.70666	0.70883	-1.37136
11718.687	-0.55724	3.09137	0.47832	1.64734
11722.816	-0.42276	1.28083	0.70965	0.58871
11726.819	-0.35501	3.90362	0.86404	0.58702
11730.819	-0.05815	2.70329	0.51292	0.30165
11734.818	-0.28406	2.46587	1.02685	0.08927
11738.816	-0.47800	1.83842	0.76796	-0.58239
11742.818	-0.36702	2.52785	1.43215	-0.92847
11746.781	-0.35774	3.56456	0.66039	-0.59980
11750.819	-0.15303	2.62746	0.80461	-1.28945
11754.816	-0.14094	3.23345	0.52294	-0.51772
11758.819	-0.39777	2.08780	0.40537	-1.00172
11762.816	-0.24924	2.36475	0.51431	0.40812
11766.821	-0.46083	2.22438	0.93075	0.01851
11770.816	-0.27197	2.20351	0.40422	0.64638
11774.782	-0.43373	2.00870	1.40633	0.82106
11778.819	-0.05435	1.23938	0.10123	-1.07060
11782.821	-0.34720	1.49006	0.82424	0.85739
11786.816	0.31511	1.29612	0.32079	-3.61875
11790.813	-0.20048	1.07102	1.08976	-1.25714
11794.818	-0.01288	0.91385	0.49463	-0.96472
11798.718	-0.13330	1.49230	0.66402	-0.20621
11802.820	-0.24222	2.78129	0.69196	0.30197
11806.816	0.10495	2.39538	0.76302	0.47191
11810.817	-1.24590	2.36833	1.24726	0.72360
11814.720	0.25649	2.10773	0.05884	1.29050
11818.816	-0.29689	2.25910	0.32873	-0.12812
11822.818	-0.12635	1.07209	0.46157	-0.71381
11826.818	-0.04187	0.97387	NaN	NaN
11830.689	0.16131	1.82785	NaN	NaN
11834.679	0.11682	2.39379	NaN	NaN
11838.695	0.28741	2.37578	NaN	NaN
11842.695	-0.22688	2.41454	NaN	NaN
11846.696	0.39643	1.78953	NaN	NaN
11850.695	-0.04641	1.87169	NaN	NaN
11854.694	-0.00127	1.36523	NaN	NaN
11858.693	0.08445	1.31652	NaN	NaN
11862.658	0.09403	1.20041	NaN	NaN
11866.696	0.00797	1.26688	NaN	NaN
11870.694	0.09997	1.47035	NaN	NaN
11874.694	0.00871	1.43000	NaN	NaN
11878.661	-0.16300	1.77678	NaN	NaN
11882.695	-0.18665	2.60048	NaN	NaN
11886.693	-0.11493	2.48732	NaN	NaN
11890.694	-0.05897	1.35390	NaN	NaN
11894.697	-0.02871	1.26392	NaN	NaN
11898.663	-0.50046	1.88964	NaN	NaN
11902.699	0.05480	1.79121	NaN	NaN
11906.696	-0.02839	1.04424	NaN	NaN
11910.696	-0.16668	2.21863	NaN	NaN
11914.695	-0.05929	1.45562	NaN	NaN
11918.694	-0.59704	1.58188	NaN	NaN
11922.697	-0.36581	2.23239	NaN	NaN
11926.695	-0.14548	1.87548	NaN	NaN
11930.694	-0.04092	0.95290	NaN	NaN
11934.713	0.13369	1.90006	NaN	NaN
11938.696	-0.01154	2.42750	NaN	NaN
11942.695	0.25686	0.30862	NaN	NaN
11946.695	0.03363	1.28677	NaN	NaN
11950.696	0.07607	1.74305	NaN	NaN
11954.694	-0.26726	1.93584	NaN	NaN
11958.691	0.22289	2.08232	NaN	NaN
11962.688	-0.01050	0.68218	NaN	NaN
11966.698	0.11141	1.03215	NaN	NaN
11970.697	0.11242	0.94383	NaN	NaN
11974.697	-0.48118	1.13455	NaN	NaN
11978.696	-0.74573	1.22177	NaN	NaN
11982.695	-0.20872	1.81702	NaN	NaN
11986.695	-0.86721	2.14373	NaN	NaN
11990.694	-0.77161	2.10081	NaN	NaN
11994.696	-0.63069	2.52614	NaN	NaN
11998.699	0.10699	2.89003	NaN	NaN
12002.672	0.06465	2.62348	NaN	NaN
12006.696	-0.38574	1.64579	NaN	NaN
12010.697	-0.44100	0.95508	NaN	NaN
12014.696	1.65656	0.91322	NaN	NaN
12018.695	1.28802	0.91213	NaN	NaN
12022.699	3.88107	2.87635	NaN	NaN
12026.695	NaN	NaN	NaN	NaN
12030.700	NaN	NaN	NaN	NaN
12034.699	NaN	NaN	NaN	NaN
12038.698	NaN	NaN	NaN	NaN
12042.680	NaN	NaN	NaN	NaN
12046.658	NaN	NaN	NaN	NaN
12050.697	NaN	NaN	NaN	NaN
12054.696	NaN	NaN	NaN	NaN
12058.699	NaN	NaN	NaN	NaN
12062.696	NaN	NaN	NaN	NaN
12066.697	NaN	NaN	NaN	NaN
12070.697	NaN	NaN	NaN	NaN
12074.695	NaN	NaN	NaN	NaN
12078.697	NaN	NaN	NaN	NaN
12082.699	NaN	NaN	NaN	NaN
12086.697	NaN	NaN	NaN	NaN
12090.699	NaN	NaN	NaN	NaN
12094.695	NaN	NaN	NaN	NaN
12098.698	NaN	NaN	NaN	NaN
12102.699	NaN	NaN	NaN	NaN
12106.696	NaN	NaN	NaN	NaN
12110.698	NaN	NaN	NaN	NaN
12114.700	NaN	NaN	NaN	NaN
12118.697	NaN	NaN	NaN	NaN
12122.699	NaN	NaN	NaN	NaN
12126.678	NaN	NaN	NaN	NaN
12130.700	NaN	NaN	NaN	NaN
12134.696	NaN	NaN	NaN	NaN
12138.697	NaN	NaN	NaN	NaN
12142.698	NaN	NaN	NaN	NaN
12146.697	NaN	NaN	NaN	NaN
12150.660	NaN	NaN	NaN	NaN
12154.695	NaN	NaN	NaN	NaN
12158.700	NaN	NaN	NaN	NaN
12162.698	NaN	NaN	NaN	NaN
12166.692	NaN	NaN	NaN	NaN
12170.688	NaN	NaN	NaN	NaN
12174.696	NaN	NaN	NaN	NaN
12178.695	NaN	NaN	NaN	NaN
12182.705	NaN	NaN	NaN	NaN
12186.696	NaN	NaN	NaN	NaN
12190.696	NaN	NaN	NaN	NaN
12194.699	NaN	NaN	NaN	NaN
12198.696	NaN	NaN	NaN	NaN
12202.704	NaN	NaN	NaN	NaN
12206.697	NaN	NaN	NaN	NaN
12210.673	NaN	NaN	NaN	NaN
12214.694	NaN	NaN	NaN	NaN
12218.698	NaN	NaN	NaN	NaN
12222.699	NaN	NaN	NaN	NaN
12226.697	NaN	NaN	NaN	NaN
12230.695	NaN	NaN	NaN	NaN
12234.697	NaN	NaN	NaN	NaN
12238.697	NaN	NaN	NaN	NaN
12242.694	NaN	NaN	NaN	NaN
12246.697	NaN	NaN	NaN	NaN
12250.694	NaN	NaN	NaN	NaN
12254.694	NaN	NaN	NaN	NaN
12258.694	NaN	NaN	NaN	NaN
12262.694	NaN	NaN	NaN	NaN
12266.657	NaN	NaN	NaN	NaN
12270.693	NaN	NaN	NaN	NaN
12274.697	NaN	NaN	NaN	NaN
12278.695	NaN	NaN	NaN	NaN
12282.700	NaN	NaN	NaN	NaN
12286.694	NaN	NaN	NaN	NaN
12290.697	NaN	NaN	NaN	NaN
12294.662	NaN	NaN	NaN	NaN
12298.697	NaN	NaN	NaN	NaN
12302.701	NaN	NaN	NaN	NaN
12306.696	NaN	NaN	NaN	NaN
12310.693	NaN	NaN	NaN	NaN
12314.693	NaN	NaN	NaN	NaN
12318.694	NaN	NaN	NaN	NaN
12322.695	NaN	NaN	NaN	NaN
12326.696	NaN	NaN	NaN	NaN
12330.699	NaN	NaN	NaN	NaN
12334.698	NaN	NaN	NaN	NaN
12338.699	NaN	NaN	NaN	NaN
12342.696	NaN	NaN	NaN	NaN
12346.701	NaN	NaN	NaN	NaN
12350.696	NaN	NaN	NaN	NaN
12354.696	NaN	NaN	NaN	NaN
12358.694	NaN	NaN	NaN	NaN
12362.693	NaN	NaN	NaN	NaN
12366.696	NaN	NaN	NaN	NaN
12370.695	NaN	NaN	NaN	NaN
12498.484	NaN	NaN	NaN	NaN
12567.022	1.10356	2.78774	2.09497	-2.25353
12570.832	1.22509	2.86889	3.17502	-1.85351
12574.835	1.01834	2.72188	2.64492	1.52757
12578.810	0.94802	2.53334	2.13846	1.23338
12582.830	1.04275	2.28791	3.69726	-1.78439
12586.833	1.15305	2.22588	2.48805	1.30166
12590.838	1.53270	1.63015	3.65107	-1.91216
12594.830	1.08403	2.13283	2.78983	1.17927
12598.830	1.31478	2.02956	2.87668	-1.89539
12602.832	1.23270	2.10446	2.44893	0.90011
12606.827	1.17443	2.39190	3.12628	-2.24549
12610.830	1.41735	2.44928	3.08394	0.85673
12614.830	1.27926	2.30210	3.28034	-1.77024
12618.829	1.29082	1.83181	2.94171	-0.95815
12622.730	1.25012	2.03009	2.77696	0.42228
12626.829	1.26398	2.36333	0.92656	-1.15001
12630.830	0.35201	3.23303	0.71933	1.39122
12634.793	0.46254	2.03048	0.60866	0.72107
12638.835	-0.86796	2.11837	0.30873	-0.17071
12642.831	-0.43581	2.46136	1.19162	1.65419
12646.832	0.92870	2.48757	1.12536	-1.17368
12650.831	-0.25289	2.70810	1.19043	2.80429
12654.834	-0.12275	2.19568	1.23734	0.97662
12658.831	-0.16015	3.01523	1.31555	-2.09516
12662.804	-0.43462	3.28685	1.87904	2.06058
12666.831	-0.22068	2.13153	0.89465	-0.10994
12670.835	-0.27389	2.25129	1.57238	0.33456
12674.834	-0.36750	2.83351	1.51769	1.15669
12678.834	-0.55074	2.14534	1.64127	-0.78096
12682.832	-0.15980	2.97179	1.59370	1.81928
12686.836	-0.21969	0.98991	1.63328	2.34290
12690.834	-0.21281	2.21743	1.46663	0.07909
12694.834	-0.31327	2.79488	1.58249	-0.93553
12698.833	-0.51421	2.28333	1.48801	2.25324
12702.733	-0.03621	2.10685	1.62725	0.60724
12706.835	-0.05730	1.96991	1.64652	-0.82695
12710.793	-0.55362	3.55548	1.67273	-2.57603
12714.843	-0.16648	1.90897	1.61810	1.23978
12718.732	0.17784	2.07677	1.46313	1.16918
12722.833	0.23182	1.86969	1.52846	-0.83189
12726.834	-0.20005	0.51476	1.70204	-1.84551
12730.831	0.31751	1.97331	1.54644	2.51399
12734.793	0.09299	1.21713	1.59194	1.02830
12738.838	NaN	NaN	NaN	NaN
12746.830	0.26108	1.92385	1.57349	0.66272
12750.833	-0.39097	1.35119	1.43163	-0.78134
12754.831	-0.10178	1.57377	1.32463	0.80897
12758.733	-0.24589	1.18654	1.74226	-2.05746
12762.834	-0.44036	1.74466	1.26899	0.38603
12766.831	-0.04122	3.39548	1.32942	-1.92539
12770.792	-0.28471	0.99378	1.51457	1.01560
12774.751	-0.37062	2.25529	1.33651	-1.78475
12778.834	-0.38154	0.97236	1.26495	0.25153
12782.833	-0.12925	1.04789	1.14573	0.79789
12786.812	-0.26369	1.65867	1.07691	-1.87404
12790.721	-0.36077	0.89495	1.22186	0.25055
12794.832	-0.18139	1.14372	1.16175	-0.83301
12798.832	-0.08468	1.10605	1.03161	0.60789
12802.834	-0.18549	0.89325	0.90406	-1.97870
12806.845	-0.44954	1.60640	1.16920	-0.03200
12810.833	0.10848	0.69162	0.99236	0.42915
12814.837	-0.35303	1.13246	1.04064	-0.12905
12818.833	0.02896	1.05838	0.75655	0.25562
12822.732	-0.28193	1.15857	0.78898	-1.67499
12826.830	-0.19427	1.68815	1.24806	-0.28102
12830.790	-0.35114	0.77749	0.88977	0.99621
12834.833	-0.29630	1.52985	0.91751	-1.56967
12838.732	-0.17315	0.38061	1.26619	0.40931
12842.802	-0.50733	1.55258	0.97894	-1.12710
12846.834	-0.23644	1.80525	1.00963	-0.42999
12850.836	-0.11451	0.20356	1.37605	0.73258
12854.838	-0.24135	1.96878	0.91100	0.83469
12858.834	-0.27520	2.31433	0.86865	-1.09365
12862.837	0.06152	1.07249	1.21159	-0.47930
12866.833	-2.58071	2.26406	1.09150	0.82287
12870.840	-3.32538	5.72130	1.28440	0.26080
12874.835	8.49777	1.68955	0.55302	3.19995
12878.834	9.25934	2.89494	0.06698	1.35383
12882.833	9.91594	6.14262	1.33979	2.98449
12886.840	12.87289	11.39915	3.13261	3.94435
12890.834	NaN	NaN	NaN	NaN
12894.837	NaN	NaN	NaN	NaN
12898.838	NaN	NaN	NaN	NaN
12902.840	NaN	NaN	NaN	NaN
12906.836	NaN	NaN	NaN	NaN
12910.835	NaN	NaN	NaN	NaN
12914.831	NaN	NaN	NaN	NaN
12918.797	NaN	NaN	NaN	NaN
12922.836	NaN	NaN	NaN	NaN
12926.843	NaN	NaN	NaN	NaN
12930.835	NaN	NaN	NaN	NaN
12934.792	NaN	NaN	NaN	NaN
12938.828	NaN	NaN	NaN	NaN
12942.833	NaN	NaN	NaN	NaN
12946.832	NaN	NaN	NaN	NaN
12950.835	NaN	NaN	NaN	NaN
12954.736	NaN	NaN	NaN	NaN
12958.838	NaN	NaN	NaN	NaN
12962.834	NaN	NaN	NaN	NaN
12966.834	NaN	NaN	NaN	NaN
12970.735	NaN	NaN	-0.26882	2.85382
12974.835	NaN	NaN	-2.28737	-0.80330
12978.835	NaN	NaN	2.78030	1.36759
12982.835	NaN	NaN	4.07132	0.69830
12986.704	NaN	NaN	1.92942	-0.76840
12990.834	10.34614	4.95006	1.54847	-2.51528
12994.818	10.80972	5.60471	3.50318	-3.16663
12998.835	9.64806	2.72204	2.02812	-3.52517
13002.735	9.30960	5.26586	-0.37273	1.08563
13006.841	9.52953	4.14300	1.08644	2.18870
13010.838	9.55968	5.12013	14.22174	-3.18663
13014.837	-5.48828	0.74318	5.85175	-3.02687
13018.734	9.05180	1.57397	8.37548	-5.99794
13022.679	9.04422	1.72049	5.02708	0.99618
13026.712	7.28986	0.85713	7.72970	-3.17810
13030.712	7.20267	1.31361	2.00688	0.57181
13034.713	6.02094	0.34903	0.99075	-1.27419
13038.672	4.20284	0.58608	2.49216	0.10551
13042.686	0.66178	1.09827	1.71895	0.14913
13046.713	0.50731	1.80182	1.14873	2.73703
13050.711	-0.32394	1.68590	2.10617	0.60666
13054.710	0.71394	1.39907	1.61818	0.42653
13058.710	0.59384	1.01123	1.75647	-0.98538
13062.709	-0.15144	1.29561	1.67216	-1.68915
13066.712	-0.24956	1.06309	1.74819	-0.38547
13070.714	0.04083	-0.03931	1.59901	-0.83996
13074.715	-0.04512	0.03712	1.50170	1.23481
13078.714	0.21403	0.66026	1.74660	0.96122
13082.674	-0.09666	0.14547	1.65540	-0.33624
13086.711	-0.24482	0.27498	1.66033	-0.76531
13090.714	-0.39554	0.78651	1.61143	-1.42861
13094.712	-0.38851	-0.03270	1.70219	-3.57961
13098.706	-0.30975	0.73916	1.44091	1.33215
13102.712	-0.44939	1.23905	1.63717	0.20055
13106.712	-1.04332	1.70839	1.59306	-0.98591
13110.716	-0.49999	1.26310	1.36022	-2.20472
13114.706	-0.53746	0.91587	1.18691	-0.87724
13118.713	-0.59223	0.09462	1.31987	0.05249
13122.714	-0.75722	1.80044	1.31893	-1.62869
13126.713	-1.15327	2.16873	1.18559	-1.36516
13130.709	-0.83491	1.08849	1.47211	-0.19120
13134.712	-0.07140	-0.16112	1.49594	-3.09425
13138.672	-0.81320	1.96805	1.36072	-0.66902
13142.715	NaN	NaN	NaN	NaN
13150.713	-0.76925	1.75000	1.52630	-1.52005
13154.712	-0.85582	1.41839	0.99893	-1.11293
13158.714	-0.58054	-0.63444	1.09033	-2.45841
13162.715	-0.74665	1.96351	0.38330	-1.60068
13166.713	-0.94748	1.52673	0.33727	-1.93602
13170.711	-0.48068	-0.08675	0.54761	-1.28271
13174.716	0.17218	0.93687	1.04845	-2.18225
13178.715	-0.46267	1.88052	0.49488	-1.37069
13182.715	-0.74347	1.30559	0.79890	-1.26593
13186.713	-0.51513	-0.22301	1.71099	-1.34987
13190.713	-0.64580	1.09187	0.31851	-2.18528
13194.714	-0.19785	0.83584	1.45963	-1.09598
13198.714	-0.23182	1.37468	1.83243	-0.96128
13202.712	-0.50374	0.66583	0.47855	-1.30240
13206.672	-0.22653	0.41425	0.69888	-1.47523
13210.672	-0.38377	0.59953	1.03322	-1.35033
13214.714	-0.17871	0.83892	1.01360	-0.81504
13218.714	-0.48383	1.76392	1.60895	-1.23892
13222.715	-0.50277	0.71847	0.32129	-1.98145
13226.716	-0.44661	0.73125	1.89362	-2.09573
13230.716	-0.44951	0.87370	0.94877	-1.50265
13234.715	-0.31379	1.19267	0.93428	-0.69349
13238.716	-0.47386	1.48602	1.54634	-1.80203
13242.674	-0.46453	0.95386	0.81496	-1.11557
13246.716	-0.55535	0.51988	1.35559	-0.37722
13250.687	-0.59007	1.30789	1.10140	-0.34332
13254.715	-0.43174	1.35670	2.29525	-1.63424
13258.717	-0.51103	1.56477	1.26034	-1.75172
13262.716	0.07671	0.63716	1.10308	0.40295
13266.713	-0.40663	1.66843	1.38342	-1.54229
13270.672	0.10793	1.62527	1.14938	-1.66285
13274.716	0.01601	1.72433	1.32912	-1.71278
13278.736	0.06075	1.28165	2.02542	-0.16765
13282.714	-0.27083	0.69839	1.46152	-0.63690
13286.717	0.14486	0.08953	1.05915	-1.50833
13290.698	0.03030	1.48073	1.12229	-2.23399
13294.695	0.14709	1.63671	0.71084	-0.69422
13298.717	0.37519	1.23099	1.27465	-0.18806
13302.718	0.21991	1.12529	1.54944	-0.30623
13306.717	0.22961	0.58443	1.26044	-0.99189
13310.712	0.07867	0.67912	0.87999	-0.98163
13314.717	-0.00263	0.28984	1.28941	-2.14840
13318.718	0.20306	1.22306	1.36439	-2.24426
13322.718	-0.00933	1.13670	1.02863	-1.00709
13326.678	0.07840	1.37680	1.32731	-1.18161
13330.718	0.84756	1.34678	1.27103	-0.61944
13334.684	0.58774	1.91391	2.33254	-0.01870
13338.718	2.43461	1.90398	3.21718	-0.21597
13342.718	3.79294	2.25726	5.42577	1.21585
13346.719	5.30156	2.36568	5.11883	0.93945
13350.718	7.29758	2.70150	7.12894	1.49124
13354.718	7.45892	2.82205	8.50588	0.42609
13358.712	7.73835	3.26304	11.24051	0.76662
13362.720	10.30346	2.78024	11.28753	1.90185
13366.730	10.75715	3.01309	11.17011	0.87580
13370.716	11.57372	2.97757	13.95067	0.71590
13374.710	10.99929	3.06645	12.37863	5.77203
13378.716	10.88551	2.94595	12.61878	5.80079
13382.715	10.86737	3.01931	12.17713	2.17306
13386.719	12.73965	2.13389	11.69871	2.73128
13390.677	11.42713	2.09313	12.31701	2.28982
13394.716	11.18922	2.77644	11.84099	2.51537
13398.717	12.27927	1.48647	12.58845	1.13551
13402.718	11.01864	2.51600	12.27465	0.89881
13406.679	11.38702	2.51840	10.95153	1.19928
13410.735	12.29886	1.71804	12.21248	2.60362
13414.708	11.35103	1.94073	12.48812	4.61822
13418.709	11.24215	2.56134	9.85664	3.19011
13422.718	11.76414	2.28462	11.58263	2.84466
13426.719	11.98249	2.30376	12.12986	3.29762
13430.720	11.16306	3.28777	8.97661	4.15091
13434.717	11.21088	3.27292	12.61578	-0.23260
13438.725	11.89796	3.01179	12.35827	1.06342
13442.721	11.08605	2.24017	12.34595	1.37790
13446.720	11.53441	1.52984	12.24009	3.09086
13450.721	12.03399	2.12479	12.05288	2.57273
13454.713	11.25261	2.68805	12.74572	3.11529
13458.690	12.04127	2.51604	12.12872	3.61113
13462.721	11.62809	2.63177	12.40979	4.23027
13466.718	10.58903	3.36479	12.02964	2.70886
13470.714	11.45298	3.07842	12.21326	3.44967
13474.718	11.75515	2.57917	12.44690	2.96205
13478.716	10.90805	3.67713	12.12466	4.78019
13482.719	11.79567	3.62584	12.08902	3.71393
13486.718	12.05371	2.84926	12.01922	2.96601
13490.720	11.06913	3.03036	11.65130	5.36680
13494.720	10.76628	3.37786	12.21414	4.08626
13498.701	10.87594	3.09551	12.15192	3.82340
13502.719	10.53154	2.39885	11.98999	4.59077
13506.719	10.71947	1.47923	11.93534	4.61348
13510.724	11.33039	2.49631	12.20401	3.45569
13514.719	10.79967	2.80913	12.31021	3.02913
13518.712	11.10338	2.31210	12.17305	4.17062
13522.720	12.15716	2.08585	12.46015	4.14122
13526.721	10.88980	2.85573	12.49578	4.22216
13530.717	10.65992	3.22812	12.71994	3.48171
13534.720	10.91028	3.71051	12.95984	3.36679
13538.719	10.80697	3.17499	12.39300	3.99566
13542.686	11.87539	1.84935	12.60559	4.42209
13546.718	11.07193	2.32124	12.81993	3.19409
13550.680	11.06597	3.03628	12.76874	0.25584
13554.721	11.10613	3.40343	12.74629	0.17220
13558.720	11.62278	3.28194	12.58183	3.58939
13562.722	11.06282	3.17897	12.19697	3.17518
13566.722	11.83369	3.34118	12.51052	0.70557
13570.722	11.44573	3.04326	12.38235	3.09447
13574.719	11.05995	2.51821	12.31222	3.61859
13578.720	11.03475	2.43068	13.13731	0.73292
13582.720	11.27140	2.42664	13.04570	2.68034
13586.719	11.41848	2.26522	12.45031	1.01596
13590.718	11.53358	2.17668	13.34150	2.58100
13594.722	11.53339	2.50842	12.44335	2.86460
13598.723	11.94745	2.72841	13.19851	1.43651
13602.718	12.25877	2.38882	12.49382	3.07103
13606.721	11.99122	2.33919	12.08214	4.25527
13610.725	11.40510	2.17327	12.29493	3.28773
13614.713	11.75762	1.91855	12.46479	3.16855
13618.721	11.62749	2.51542	12.16181	3.11050
13622.711	11.87615	2.13159	12.82550	2.19465
13626.710	11.76526	1.77390	12.31324	3.16911
13630.720	11.70447	2.25453	13.16099	2.17787
13634.722	11.61999	2.33341	12.31578	2.11818
13638.720	11.61261	2.32359	13.11679	1.53476
13642.719	11.41397	2.47853	12.43665	2.33923
13646.683	10.56678	1.78829	12.20250	2.42948
13650.679	11.34387	1.31933	12.82099	3.84949
13654.718	11.34144	1.80791	12.29040	3.86725
13658.719	10.47067	2.24668	11.90072	4.08708
13662.729	9.35662	2.27396	8.48935	2.00264
13666.724	6.78365	2.55788	8.34946	2.14742
13670.720	6.59255	2.69077	5.05149	-0.31183
13674.721	6.00209	2.97797	6.15512	-0.70265
13678.716	4.77409	3.01843	5.53813	-2.87968
13682.734	6.11766	2.33023	4.73217	-2.48165
13686.720	2.48772	2.89819	2.87846	-1.50835
13690.679	2.20577	2.76333	3.37996	-2.90704
13694.722	2.26956	2.61015	3.05288	-3.04467
13698.720	2.39998	2.73199	3.53585	-2.79266
13702.721	2.25888	2.81396	4.68042	-3.14742
13706.704	2.27840	2.71345	4.18749	-2.84212
13710.620	2.45867	2.60605	4.15238	-3.60773
13714.721	2.97864	2.55003	3.89476	-3.47400
13718.722	2.94507	2.32763	3.13635	-3.41024
13722.721	2.98611	2.31006	2.92398	-1.67067
13726.618	2.86594	2.23936	3.31756	-1.65864
13730.722	2.63963	2.13737	4.06194	-2.67710
13734.720	2.84512	2.15361	3.93280	-1.63091
13738.721	3.23331	1.94425	3.97454	-0.89406
13742.725	2.91700	1.88761	3.68223	-1.29951
13746.722	2.92567	1.86658	4.12026	0.55370
13750.689	3.07043	1.50742	3.76475	0.95533
13754.722	3.25731	1.42481	3.79811	0.63531
13758.722	3.27291	1.43954	3.96187	0.30199
13762.723	3.19286	1.27245	3.98220	0.11257
13766.680	2.95609	1.20814	3.99996	0.61892
13770.725	3.00059	1.10714	4.03865	0.37052
13774.716	3.49629	0.99415	3.82941	0.52333
13778.722	3.36379	0.97199	4.01156	-2.93170
13782.723	3.28917	0.83198	3.80144	-2.02222
13786.724	3.14748	0.80176	4.78038	-2.50884
13790.629	3.34719	0.85971	3.61649	-2.93854
13794.722	3.06444	0.98962	4.03381	-3.11961
13798.723	3.23462	1.03065	4.06073	-2.93442
13802.722	3.19449	0.88170	4.01253	-2.95546
13806.622	3.66899	0.70342	3.91398	-1.95863
13810.721	3.30121	0.72410	3.48536	-3.07759
13814.724	3.42475	0.78904	4.31371	-3.16506
13818.721	3.31598	1.34960	3.86855	-3.26615
13822.622	3.35531	1.80527	4.60424	-3.23443
13826.727	3.52487	2.39321	4.61492	-3.24152
13830.681	3.40504	2.96463	4.16082	-3.16675
13834.721	3.21483	2.41806	3.72247	-3.11771
13838.625	3.40529	1.52402	3.95006	-1.74097
13842.723	3.12816	1.33376	3.93944	1.79298
13846.729	3.43019	0.55903	4.33577	-0.35838
13850.724	3.43741	0.74598	4.11922	-0.08025
13854.621	3.38711	1.34018	4.10895	1.66109
13858.723	3.32956	2.16776	4.09619	0.13625
13862.683	3.52919	3.11304	4.22402	-0.42530
13866.723	3.30878	3.25966	4.00072	0.25654
13870.624	3.80443	1.81895	4.08379	0.94285
13874.723	3.33797	2.09781	4.10903	0.88484
13878.725	3.64726	1.80689	4.07229	0.80328
13882.727	3.53580	2.23300	4.11789	0.59417
13886.731	3.53468	2.41380	4.23885	0.72161
13890.737	4.72687	2.36707	3.86642	-0.16423
13894.683	3.53500	2.99359	4.14927	-3.13196
13898.747	3.71461	2.08374	3.93549	-0.73193
13902.727	3.32587	1.78466	4.12801	-1.44937
13906.724	3.80710	1.40670	4.13898	-0.30150
13910.727	3.56094	1.45044	4.09071	0.68768
13914.709	3.17732	1.72959	4.38790	0.51380
13918.617	3.71399	2.07069	3.71671	-1.27703
13922.725	3.55184	2.20579	3.98348	-1.34347
13926.723	4.52977	2.57040	3.60398	-1.62905
13930.683	3.97743	2.61962	4.10081	-1.27619
13934.622	6.38231	2.90595	5.74760	0.77286
13938.726	7.30036	2.70173	14.12807	0.65959
13942.726	9.65898	5.65301	19.91180	0.62834
13946.728	9.92319	8.12611	6.77859	5.54171
13950.730	NaN	NaN	5.54494	5.36880
13954.723	NaN	NaN	NaN	NaN
13958.726	NaN	NaN	NaN	NaN
13962.724	NaN	NaN	NaN	NaN
13966.732	NaN	NaN	NaN	NaN
13970.726	NaN	NaN	NaN	NaN
13974.727	NaN	NaN	NaN	NaN
13978.683	NaN	NaN	NaN	NaN
13982.627	NaN	NaN	NaN	NaN
13986.728	NaN	NaN	NaN	NaN
13990.723	NaN	NaN	NaN	NaN
13994.725	NaN	NaN	NaN	NaN
13998.684	NaN	NaN	NaN	NaN
14002.617	NaN	NaN	NaN	NaN
14006.723	NaN	NaN	NaN	NaN
14010.724	NaN	NaN	NaN	NaN
14014.684	NaN	NaN	NaN	NaN
14018.723	NaN	NaN	NaN	NaN
14022.683	NaN	NaN	NaN	NaN
14026.625	NaN	NaN	NaN	NaN
14030.725	NaN	NaN	NaN	NaN
14034.685	NaN	NaN	NaN	NaN
14038.727	NaN	NaN	NaN	NaN
14042.595	NaN	NaN	NaN	NaN
14046.725	NaN	NaN	NaN	NaN
14050.684	NaN	NaN	NaN	NaN
14054.602	NaN	NaN	NaN	NaN
14058.627	NaN	NaN	5.16445	2.11000
14062.603	10.28832	5.56552	9.95767	6.15377
14066.603	7.29015	1.78130	NaN	NaN
14070.601	10.64492	5.29371	10.64906	-0.86061
14074.604	10.94129	4.44831	10.66661	-0.75819
14078.601	10.51590	5.09897	12.22281	2.86313
14082.601	14.12887	4.07831	11.89611	3.57539
14086.604	10.27268	3.91948	2.20012	3.12967
14090.581	10.96641	3.81453	7.46331	0.19442
14094.601	12.46382	5.01993	11.33235	3.63651
14098.602	10.41016	1.91505	11.71625	3.86283
14102.602	9.00845	3.85109	13.25724	-4.04870
14106.628	9.11116	2.43441	3.13821	-1.30257
14110.561	4.98172	1.78517	-0.96760	9.55637
14114.607	5.74893	2.09479	3.73710	4.84384
14118.603	6.06441	2.51846	2.18240	1.98567
14122.632	5.92972	-0.45163	3.23316	1.65955
14126.604	5.83419	0.63986	2.34498	5.01812
14130.603	5.21230	2.25929	2.53372	3.83833
14134.602	5.22315	2.08603	2.17058	1.45426
14138.597	4.87108	1.57994	4.83188	4.81143
14142.603	4.52025	1.77711	2.28640	3.42787
14146.602	4.28251	2.36963	2.57283	-1.04267
14150.604	3.56272	0.44051	2.20015	2.70240
14154.629	4.52027	1.18259	3.04967	-0.76730
14158.605	4.78703	1.58699	2.40191	1.51821
14162.602	4.76539	1.66711	3.75225	-0.17216
14166.603	3.80473	0.22600	1.45891	3.92265
14170.605	4.88976	1.13942	3.01195	1.66686
14174.603	4.48890	1.08156	2.80942	0.11767
14178.604	4.44679	1.47130	2.20443	1.25758
14182.605	4.73702	1.61433	4.17603	-0.50792
14186.601	4.67369	0.15667	4.74200	1.65777
14190.604	3.97975	0.74636	7.22554	1.80030
14194.604	4.83940	1.30651	3.56297	0.13889
14198.604	4.69393	1.28137	3.14447	-0.64997
14202.596	4.69194	1.09875	2.74729	0.13448
14206.606	4.75551	0.33822	5.14532	-1.96121
14210.568	4.59428	1.09720	4.89018	-0.85238
14214.604	4.52540	1.68124	5.52315	-0.21667
14218.607	4.73318	1.54646	2.68403	1.84274
14222.607	4.39012	0.64619	3.48402	-0.51619
14226.606	4.32809	1.08298	4.15966	-0.60648
14230.606	4.80480	1.03634	4.39318	-0.70841
14234.597	4.39397	1.82065	5.08320	0.10005
14238.604	4.23801	1.02796	5.58098	0.14275
14242.605	4.72494	0.40118	5.04191	0.84899
14246.605	4.19499	1.27396	2.54663	-0.61503
14250.597	4.14093	2.01371	4.55665	-0.81998
14254.571	4.39984	2.24481	4.87167	-0.36034
14258.605	4.48320	1.26634	5.13887	-1.09473
14262.605	4.45007	0.52867	4.01181	1.24925
14266.627	4.50108	1.28392	4.70574	2.26520
14270.563	4.62239	1.20411	5.00933	1.00207
14274.608	4.44299	1.66423	4.62937	4.80343
14278.604	4.14231	2.07685	1.77305	0.54096
14282.599	4.23875	1.13983	2.11626	2.68399
14286.607	4.10239	-0.10502	1.97585	1.00877
14290.606	4.14223	0.37518	1.61515	3.86980
14294.589	4.27965	0.84099	4.01556	0.67678
14298.579	4.64418	1.04394	4.42903	1.32205
14302.605	5.20989	1.16359	4.10140	-0.12953
14306.607	4.06478	1.25968	4.21548	-0.29272
14310.608	4.79201	1.25715	4.76566	0.52167
14314.632	4.95398	1.07289	4.57662	0.38611
14318.606	4.63319	-0.27839	5.03693	0.40753
14322.606	4.34902	0.68559	5.36321	0.69336
14326.608	4.21182	1.10866	4.71718	1.22063
14330.608	4.49738	1.39905	4.67384	1.44522
14334.604	2.37600	2.03148	4.14722	1.28647
14338.567	2.79030	1.24570	3.91027	-0.94186
14342.582	2.20922	1.73774	1.92161	0.93250
14346.607	2.00524	1.88727	1.78235	1.42501
14350.605	1.49512	1.76105	1.05451	1.95097
14354.609	0.18551	2.57551	1.17406	4.19912
14358.608	0.59573	3.22036	0.61588	2.97899
14362.610	0.59014	3.95359	1.11961	5.75387
14366.609	0.61784	2.32028	0.96217	3.26647
14370.607	0.74590	1.88861	0.41552	1.56181
14374.606	0.62905	3.01504	1.41524	1.07636
14378.607	0.04604	4.16368	-1.43806	1.86028
14382.606	0.79255	3.94976	0.37757	0.27125
14386.608	0.70144	4.17798	1.12571	4.76432
14390.608	0.71876	1.82563	-2.04706	1.63667
14394.610	0.30327	2.20650	1.40351	3.46189
14398.609	0.50379	2.64492	0.80674	4.26563
14402.606	0.47043	3.04934	1.27879	3.65109
14406.566	0.02338	3.19906	1.30893	2.17306
14410.632	0.29739	3.92731	1.29050	1.40870
14414.611	0.30875	3.61772	1.34455	1.47206
14418.611	0.56056	3.85206	1.46489	-0.17724
14422.606	0.71908	4.21872	1.51876	0.83336
14426.614	0.43222	4.35108	1.11608	5.10002
14430.608	0.57049	4.34857	1.24478	3.73850
14434.608	0.27726	4.52956	-0.95683	3.26897
14438.607	0.65709	4.19191	1.44520	2.25149
14442.570	0.37437	3.98280	1.26115	1.27419
14446.608	0.36176	4.29239	1.60285	-0.66758
14450.609	0.32933	4.11598	1.18812	5.88924
14454.610	0.52619	3.79407	0.34712	2.02651
14458.602	0.25738	3.34355	1.33346	3.60397
14462.567	0.33404	3.15293	0.68752	2.36078
