time (ms)	lx (deg)	ly (deg)	rx (deg)	ry (deg)
0.000	NaN	NaN	NaN	NaN
3.961	NaN	NaN	NaN	NaN
7.991	NaN	NaN	NaN	NaN
11.960	NaN	NaN	NaN	NaN
15.998	NaN	NaN	NaN	NaN
19.998	NaN	NaN	NaN	NaN
24.024	NaN	NaN	6.43878	5.56074
27.997	NaN	NaN	2.68905	5.66978
32.004	8.46726	12.48967	7.21513	1.76074
35.998	9.35319	2.68522	-0.70248	1.88275
40.022	-0.62521	-1.00215	9.63694	1.50864
43.999	-0.12535	-2.23970	11.67898	1.56450
47.999	-4.65681	-1.73463	13.99952	3.44126
51.988	-2.43402	-0.54803	11.80740	1.68090
55.988	5.52812	3.97323	11.64220	0.63870
59.997	-0.60141	3.33040	13.39248	-0.49743
63.959	2.98567	4.63706	13.73528	-0.22017
67.997	1.49944	4.11475	2.64076	-0.03907
71.996	5.91955	4.75205	2.16258	-0.63221
76.001	4.54945	4.91100	2.66550	-0.61855
79.999	2.71033	4.93409	1.92771	0.01969
83.997	6.37695	-0.49708	7.19759	-0.45502
87.991	7.83758	4.67068	0.18129	-0.21835
91.999	5.74013	4.64162	1.55717	-0.35004
95.962	4.95711	4.30895	0.11781	-0.42196
100.001	5.55187	4.90936	2.21744	0.38196
103.991	5.83648	-0.53345	1.80095	1.45230
107.999	4.89028	-0.39123	2.11589	0.99917
111.999	4.98672	-0.14415	3.48739	1.43694
115.998	-1.33406	4.58475	4.41203	0.68625
119.994	-1.36742	4.12141	5.35987	0.96657
124.000	-0.94644	3.29630	2.41256	1.25320
127.962	-1.34891	3.23111	2.36034	1.33012
132.004	-1.21782	3.37519	2.06780	1.76268
135.959	-1.39760	3.20209	2.22946	1.32749
139.996	-1.49197	3.23784	2.34971	1.66486
144.003	-1.63779	2.47307	2.76237	1.82186
147.998	-1.80343	2.85415	1.92166	1.83819
152.023	-2.03313	2.78532	3.10668	1.85107
155.998	-2.13105	2.48933	2.38350	1.68809
160.001	-2.01109	2.38667	1.81337	1.48016
163.999	-1.97421	2.14849	2.37830	-0.67831
167.998	-1.96362	2.04141	2.12134	-0.64491
171.998	-2.08924	2.11448	2.40387	-0.73192
176.001	-2.10283	2.35262	1.86655	-0.42009
179.966	-2.22436	2.62748	1.60568	-0.05656
183.999	-2.24750	2.53374	2.61429	-0.37138
187.999	-2.38098	2.73790	1.25195	0.13505
191.963	-2.35682	3.10730	1.20385	0.08608
196.000	-2.35984	3.34300	1.82502	0.45246
199.967	-2.31205	3.32466	2.84019	0.47286
204.001	-2.45990	2.35332	1.96427	0.51712
208.001	-2.60718	2.33563	1.75746	0.80697
212.004	-2.68863	2.50711	1.69602	0.88484
215.992	-2.67794	2.77977	1.72907	1.03098
219.979	-2.65550	2.75350	1.84590	1.46038
223.975	-2.64198	2.63850	2.05623	1.84657
228.002	-2.53674	2.35271	2.97782	1.27343
232.000	-2.66511	2.48439	1.43503	1.28004
236.000	-2.70505	2.44120	1.59936	1.35017
240.001	-2.70577	2.53081	2.15009	1.53053
244.002	-2.50083	2.32163	1.90492	1.79633
248.025	-2.84784	2.44599	2.24369	1.58093
252.003	-2.58628	2.40186	2.10637	1.99693
256.001	-2.10642	2.38147	2.18119	1.02018
259.991	4.89690	2.01940	3.26032	0.26622
263.992	4.89015	2.20340	5.29957	0.73868
268.001	4.89752	1.87078	2.23804	0.69283
272.000	-2.48800	2.31624	2.49330	1.06318
276.004	-2.53791	2.13206	2.39004	0.88143
280.025	-2.31041	2.13472	3.62039	0.62168
284.001	-2.37131	2.07458	3.47843	1.09935
288.003	-2.40706	2.41240	1.99389	0.49908
291.964	-2.22351	2.23723	2.75673	-2.05859
295.995	-2.35749	2.11360	2.49736	-2.37593
300.001	-2.42812	2.04452	1.89543	-1.52990
303.972	-2.34131	2.26057	1.52674	-1.05803
308.003	-2.40674	2.10971	1.81044	-0.99392
312.025	-2.40305	2.11009	1.32466	-0.55233
316.004	-2.52436	2.37120	0.65573	-0.67366
320.002	-2.64946	2.46956	0.96100	-0.60167
324.004	-2.98963	2.77382	0.12478	-0.73780
328.000	0.24659	2.68693	-1.14000	-0.63604
332.003	-2.38380	3.36012	0.91989	-0.33201
336.005	-2.36470	2.88013	1.54797	0.23787
340.005	-2.66746	3.48891	2.34827	-0.87707
343.995	-2.52748	3.10106	1.30437	-0.71817
348.002	-2.17375	3.24372	2.13497	-0.40669
352.005	-2.26740	3.26871	1.38084	-0.50487
356.002	-1.98058	3.28921	1.48505	-0.43168
359.996	-2.16005	3.29679	1.40028	-0.48900
364.004	-2.20872	3.47877	1.40375	-0.31104
368.001	-2.90730	3.32754	0.02387	-0.40608
372.003	-3.32278	3.48503	-0.18742	-0.26337
376.006	-2.23927	4.90308	-1.02216	0.06750
379.966	-1.96479	5.40529	-0.40661	-0.23213
383.970	-3.61676	6.01891	-1.90810	-0.28980
388.004	-1.34522	6.41041	2.53191	-0.09853
391.970	0.71888	6.14124	2.08463	-0.06250
396.006	0.60848	6.03779	2.10188	0.04477
400.004	-2.55946	5.69138	2.65416	1.05201
404.005	-3.22962	5.35879	2.61370	-0.02894
407.993	-3.11475	5.43781	2.49828	0.06437
412.002	-2.40080	4.45661	2.00445	0.17694
416.003	-2.50568	4.51059	0.45646	0.14872
420.003	-2.82160	4.08219	-0.40420	0.07348
424.004	-2.91703	4.38716	-0.93433	-0.11732
427.982	-2.82417	4.01627	-0.88758	0.10694
432.003	0.74918	3.85651	-1.63499	1.24250
436.008	-0.19320	4.09343	-0.06731	4.07239
440.029	-0.29076	3.91393	0.38576	2.55721
443.964	-2.76884	3.95619	1.93527	1.67958
448.002	NaN	NaN	1.12487	0.43693
452.005	-2.80461	3.96363	0.71280	0.51005
455.996	-2.63539	4.14186	1.03598	0.03868
459.968	-2.29978	4.11722	1.61699	-0.03825
464.004	-2.71102	4.00225	1.07924	-0.41433
468.013	-2.57845	3.82742	1.23208	-0.01861
472.007	0.73226	3.49689	0.33819	-0.20140
476.003	-0.93021	3.95291	-0.64546	-0.82600
480.006	1.17170	3.00956	-1.62438	0.77963
484.004	1.08790	2.25228	-0.01479	3.52071
487.994	0.78464	1.83779	-0.49110	3.42267
492.004	-1.24704	4.76012	-0.60657	2.66352
496.005	-2.66184	4.27598	-0.51917	2.48264
500.005	-2.01070	3.93320	-2.64391	2.99721
504.004	-2.48200	3.95386	-1.60920	2.46185
508.006	-2.96836	3.82735	-3.48343	2.45892
511.977	-2.52988	2.94809	-3.13232	1.62123
516.004	-2.34902	3.29215	-2.49783	1.89796
519.998	-2.54551	4.84994	-2.48943	1.70825
524.005	-2.83561	4.75832	2.84608	1.86847
527.967	-2.76512	4.73327	2.77052	1.63314
532.005	2.67628	3.15591	2.91827	0.87215
536.008	0.99936	3.15807	2.37726	1.68217
540.006	1.27502	2.51701	2.11475	1.56590
544.007	1.20765	2.20158	1.87520	1.28554
548.009	1.23754	1.91429	1.58478	1.90743
552.005	1.51814	1.78180	1.05719	1.50195
556.006	1.43637	1.63002	1.12028	1.35250
560.008	1.20395	1.06269	0.92239	0.99227
563.967	1.46779	-0.58305	1.45517	2.17752
568.007	1.17604	3.29291	1.97386	1.19272
572.006	1.21931	2.98213	1.75151	1.39316
576.004	0.80863	2.67352	1.36781	0.88930
580.008	0.72067	1.78549	0.17320	1.17728
584.009	0.17305	1.74031	-0.24140	0.93888
588.008	0.17968	1.34558	-0.83372	0.63252
592.009	-2.00061	3.75879	-3.00123	0.58529
595.969	-0.67074	4.04806	-1.60375	2.32491
599.905	-1.74338	4.23916	-1.01012	1.22774
604.005	-2.42572	4.21625	-0.51458	4.26428
608.005	-2.06389	4.10598	-0.56267	3.78022
612.007	-2.39282	4.08886	-0.64419	3.64553
616.009	-2.03603	4.11037	-0.45465	3.04615
620.010	-2.03546	4.14276	-0.38698	-0.89664
624.005	-2.40617	4.02432	-0.40298	-0.31247
628.008	-2.55757	4.24565	-0.47043	-0.64310
631.973	-2.52644	4.34677	-0.39472	3.56155
635.992	-2.70862	4.42081	-0.45974	4.05631
640.010	-2.86797	4.44826	-0.39956	4.16596
644.008	-2.81773	4.65096	-2.53164	2.21710
648.011	-2.77074	4.94212	-2.14929	1.87298
652.008	-2.97577	5.09175	-2.31165	3.26925
656.006	-3.32016	5.43200	-2.11789	-0.07574
659.971	-3.56428	5.49555	-5.68863	-0.47524
663.911	NaN	NaN	-2.21338	-0.53196
668.006	-0.15377	4.70673	-1.30747	-0.42418
672.009	-0.19077	4.23845	-2.13849	-0.31350
676.001	0.21539	4.69985	-1.77144	0.66573
679.905	0.37640	4.19714	-1.91226	0.42492
684.007	0.34648	4.13716	-2.24312	0.24763
688.006	0.63548	3.85015	-2.53276	0.95758
692.011	0.56540	3.85047	-2.24076	0.98462
695.882	0.50858	3.94385	1.71057	0.23887
699.971	-3.60395	3.89977	1.94712	0.40396
704.006	0.53709	3.99596	-3.16129	-3.64678
708.009	0.55977	4.02003	1.95455	1.00769
711.905	0.40785	3.88717	1.89089	1.13697
716.011	0.38971	3.85319	1.77970	1.36747
719.980	-0.07038	3.99732	1.50561	1.14145
724.003	-0.26287	4.00428	1.66443	1.37081
728.012	-3.60989	4.52542	1.49567	1.26568
731.969	-0.02092	4.58455	1.70817	0.64378
736.013	NaN	NaN	1.43513	1.26457
740.011	0.25274	4.00450	1.46345	1.25668
744.011	0.28925	3.80949	1.85708	0.04910
748.008	-0.25259	3.89235	1.54562	0.39776
752.009	-0.64702	3.33438	1.79785	0.03293
756.013	0.23068	3.31279	1.65168	0.61600
759.910	-0.40608	3.38435	1.87510	1.33501
764.004	-3.70292	3.75976	1.70787	1.47570
768.010	-3.69412	3.77276	1.67025	1.50872
772.009	-2.61550	4.14020	1.73958	1.62234
776.011	-3.66110	4.67849	1.98873	1.92326
780.008	-3.36359	5.44929	1.72451	0.40664
784.011	-1.07594	4.63867	1.63360	1.21574
788.011	-2.36723	4.89599	1.52707	0.91104
792.010	-2.93445	4.52927	1.52236	1.29094
796.011	-2.99601	4.97420	1.67382	0.74437
799.973	-2.70691	5.13679	1.65349	0.54338
803.976	-2.44769	5.03512	1.36050	-1.42458
807.886	-0.49043	5.16220	1.87413	-2.04174
812.007	-1.06622	4.13395	2.00329	-2.78373
816.009	-0.48763	3.89984	2.04265	-2.79789
820.009	-0.66980	4.48251	1.79301	-2.55512
823.911	-0.72583	3.96132	1.84562	-2.49472
828.009	-0.75967	2.76501	1.44889	-2.32642
832.010	-0.87937	2.95961	1.53649	-1.98531
836.010	-1.19899	2.84881	1.08239	-1.95929
840.013	-1.54911	2.80816	1.48649	-1.95131
844.011	-1.25609	2.84447	1.11249	-1.68854
848.012	-0.98693	2.90416	0.82329	-1.56097
852.012	-1.50053	2.94504	1.23412	-1.34475
856.011	-1.59204	2.98567	1.49924	0.02211
860.011	-1.45113	3.11484	0.72618	-0.03116
864.012	-1.49364	3.15446	1.37781	0.02012
868.010	-1.72346	3.14403	2.45906	0.01964
872.013	-1.60955	3.29939	1.58016	0.55627
876.024	-1.92389	3.50102	1.40353	1.51574
879.975	-2.00713	3.91744	1.26594	1.88977
884.002	-2.65505	4.43938	0.76585	2.26866
887.909	-2.02763	3.72735	1.31151	2.43297
891.973	-1.92319	3.92590	1.05317	2.45554
896.011	-1.82438	3.77391	0.58052	2.71521
900.011	-1.77191	3.73015	1.02369	2.16639
904.020	-2.07916	3.77992	0.87255	2.48878
908.011	-2.25246	3.95950	0.58203	2.36351
912.010	-2.30127	4.15960	1.02761	2.03739
916.013	-2.03685	4.03076	1.42372	2.04689
920.016	-1.83105	3.84326	1.48853	2.11235
924.010	-1.66790	3.79530	1.41139	2.50366
927.985	-1.74759	3.42579	1.24295	2.12717
932.011	-0.75372	3.24284	1.28933	2.21175
935.978	-1.33331	3.22793	1.29174	2.63089
939.976	-1.40976	3.24789	1.37925	2.22008
943.888	-0.90220	3.27274	1.16151	2.28382
947.887	-0.62811	3.22554	0.76223	2.11682
951.910	-1.07565	3.66405	1.26981	2.29013
955.887	-1.53515	3.30450	1.74506	2.01556
959.888	-1.36199	3.21717	1.43528	1.96599
963.885	-1.15707	3.34946	1.44694	1.99258
967.888	-0.89297	3.04545	1.10405	2.35580
971.889	-0.99013	3.32540	0.82178	2.13966
975.883	-1.40291	3.32245	1.01176	2.17270
979.887	-2.26361	3.56400	0.68801	1.98535
983.895	-2.23600	3.40020	0.60828	1.91507
987.886	-1.23020	3.43146	1.10080	1.82052
991.887	-1.33654	3.35884	0.88699	1.73582
995.889	-2.03848	3.34464	1.82378	1.74582
999.909	-1.83519	3.68290	1.56742	1.58547
1003.848	-2.28985	3.75917	1.11526	2.00723
1007.886	-1.81208	4.42839	0.58292	1.97420
1011.849	-2.01848	3.70840	1.03069	2.23947
1015.887	-2.01974	3.52219	0.51587	2.38806
1019.890	-3.51975	3.82500	0.56553	2.29063
1023.890	-2.58705	4.14617	0.47366	2.56970
1027.887	-0.71030	3.52562	0.91408	2.67412
1031.908	-1.43563	3.97667	1.78143	2.17104
1035.887	-1.57882	3.96444	1.64980	2.46515
1039.893	-1.63281	3.94402	0.87175	2.30467
1043.888	-2.04394	3.92828	1.64253	2.46670
1047.911	-2.10555	3.91631	0.72106	2.55694
1051.888	-1.43176	3.95440	1.44093	2.85699
1055.877	-1.75979	4.12096	1.04431	2.69442
1059.878	-0.72958	4.34346	0.64717	2.59100
1063.879	-0.74975	4.01916	0.62027	2.61432
1067.889	-0.49334	3.91178	0.29411	2.41169
1071.851	-1.20564	4.11668	0.52744	2.49360
1075.889	-0.53925	3.99643	0.48200	2.44322
1079.889	-0.11332	3.90509	0.44140	2.36539
1083.889	0.07316	3.89530	0.69630	2.20203
1087.892	-0.18080	3.79216	0.34943	1.35986
1091.852	-0.32074	3.84864	0.28026	1.72431
1095.883	-0.19926	3.68546	0.22477	1.07457
1099.891	-0.44418	3.83431	0.25833	1.32535
1103.890	-0.11183	3.66377	0.10957	1.23714
1107.890	-0.12779	3.63810	0.12652	1.03552
1111.882	-0.05194	3.62198	0.23882	0.83959
1115.889	-0.15983	3.49273	0.14402	0.72908
1119.887	-0.32196	3.55472	0.08532	0.76541
1123.890	-0.18370	3.41892	0.53927	0.88539
1127.854	-0.23587	3.39320	0.06130	0.75107
1131.891	-0.45403	3.45846	0.68255	0.64178
1135.889	-0.43993	3.35567	0.35119	0.67342
1139.875	-0.30434	3.49385	0.81856	0.38219
1143.891	-0.21311	3.37595	0.83575	0.65187
1147.890	-0.43557	3.31795	1.36595	0.60011
1151.890	-0.35749	3.33428	1.50911	0.59963
1155.890	-0.45708	3.38064	2.82219	0.77004
1159.881	-0.55585	3.50631	1.74075	0.88629
1163.890	-0.58486	3.52219	1.96472	0.92719
1167.893	-0.52833	3.52054	1.81778	1.30268
1171.889	-0.66744	3.68041	1.89543	1.27174
1175.918	-0.59776	3.68516	1.81875	1.43901
1179.889	-1.21452	3.80980	2.08548	1.83173
1183.886	-1.53049	4.02413	1.96248	2.10381
1187.890	-1.57186	4.08386	2.12902	2.23365
1191.901	-1.44173	4.37245	2.15626	2.59442
1195.890	-1.65468	4.61453	1.77615	3.09872
1199.891	-1.95416	4.62175	2.13043	2.22108
1203.890	-1.29382	4.72875	2.12803	0.25425
1207.850	-1.33034	5.45048	2.13824	-0.47363
1211.890	-2.09093	4.14452	1.89297	-0.16816
1215.892	-2.18538	4.17791	2.13222	-0.19406
1219.890	-2.33467	3.51485	1.95748	-0.37736
1223.857	-2.26460	3.58913	2.22302	-0.31646
1227.892	-2.48138	3.64376	1.81129	-0.29764
1231.890	-1.28040	2.65587	2.27102	-0.26992
1235.892	-0.99802	2.69138	1.96908	-0.06969
1239.914	-1.26044	2.61870	1.90004	0.26616
1243.890	-1.22945	2.93777	1.75290	0.62635
1247.891	-0.87426	3.03628	2.08555	0.66732
1251.892	-0.88096	3.23623	3.18331	0.60804
1255.892	-0.62372	3.04029	3.28813	1.10661
1259.893	-0.76851	3.13422	2.27949	1.38015
1263.879	-0.80781	3.27807	2.63118	1.70149
1267.883	-0.84945	3.18117	1.93757	2.07418
1271.890	-0.88061	3.21991	2.93856	1.99164
1275.891	-0.80248	3.18371	2.04500	2.26992
1279.891	-0.91167	3.29858	2.18800	2.28062
1283.896	-0.91160	3.32419	2.47452	2.20210
1287.891	-1.02667	3.32722	2.26267	2.36018
1291.895	-1.07793	3.39196	1.80172	2.53246
1295.892	-0.92924	3.41472	1.94501	2.47712
1299.895	-1.11809	3.45150	2.77272	1.95600
1303.892	-1.19839	3.51163	2.29300	1.87997
1307.863	-1.18803	3.64124	2.61674	1.95576
1311.891	-1.26361	3.79566	2.64146	1.90095
1315.893	-1.29630	3.95684	2.43293	1.61215
1319.891	-1.37230	4.20211	2.30955	1.13213
1323.892	-1.38699	4.32303	2.87962	-1.54364
1327.890	-1.45576	4.75374	2.68851	-1.13423
1331.891	-1.43248	4.44339	2.57238	-1.03600
1335.883	-0.25495	4.71954	2.50571	-0.92032
1339.896	-0.95549	4.49002	2.59998	-0.79957
1343.895	-0.34191	3.95459	2.17537	-0.45897
1347.876	-0.42117	3.15765	2.23722	0.56770
1351.894	-0.11419	2.86361	2.14280	1.01062
1355.892	-0.17762	2.83795	2.07995	0.99145
1359.892	-0.03348	3.24389	2.29433	1.40024
1363.856	-0.00670	3.24124	2.11539	1.99228
1367.885	-0.04847	3.09840	2.21472	1.77968
1371.893	-0.05969	3.39439	2.00879	1.81319
1375.892	-0.01593	3.50462	1.75944	1.90225
1379.854	-0.04415	3.47471	1.95849	2.14347
1383.889	-0.03030	3.53401	2.11301	1.41815
1387.888	-0.11064	3.64004	2.39458	1.53650
1391.883	-0.16854	3.53852	2.08062	1.64043
1395.895	-0.19172	3.47764	1.72165	1.64015
1399.894	-0.32578	3.75000	2.30704	1.30496
1403.894	-0.51274	3.51862	1.77509	1.68837
1407.904	-0.64354	3.66568	1.49106	1.06552
1411.856	-0.44775	3.62372	0.52195	0.90502
1415.887	-0.88733	3.43268	1.54899	-1.56573
1419.894	-0.67156	3.36878	1.53659	1.14642
1423.893	-0.62255	3.36349	0.69675	-0.24228
1427.895	-0.72067	3.26407	-0.10813	-1.00740
1431.876	-0.68414	3.03545	0.31255	-1.10240
1435.893	-0.72806	3.13662	0.16476	-1.34997
1439.897	-0.70528	3.19359	-0.02256	-1.12738
1443.894	-1.18138	3.15281	0.02417	-1.38614
1447.895	-0.89890	3.20689	-0.03735	-1.02179
1451.893	-1.01697	3.22203	-0.05080	-1.12475
1455.892	-1.21306	3.26360	-0.15739	-0.95496
1459.897	-1.33123	3.42574	-0.15794	-0.87104
1463.887	-1.23367	3.33803	-0.24617	-0.82858
1467.896	-1.31468	3.54632	-0.30280	-0.92104
1471.882	-1.60595	3.59493	-0.36127	-0.71255
1475.885	-0.67863	3.31925	-0.49165	-0.55161
1479.873	-1.66911	3.87042	-0.58406	-0.50902
1483.893	-1.73247	4.07662	-0.16774	-0.99401
1487.894	-1.83147	4.07262	0.37750	-1.21988
1491.894	-1.80895	4.18889	0.43333	-1.15803
1495.897	-2.03112	4.24958	0.64084	-0.68839
1499.894	-2.04552	4.40461	0.74585	-1.48073
1503.898	-2.03947	4.43918	0.84245	-1.10290
1507.896	-2.05090	4.53802	0.99293	-1.46752
1511.900	-2.13135	4.57367	0.84235	-1.32510
1515.897	-2.20389	4.56467	0.95688	-1.55210
1519.899	-2.16721	4.51274	0.60737	-0.53841
1523.894	-2.26366	4.58264	0.95676	-1.66571
1527.895	-2.30685	4.47522	-0.15238	-0.59790
1531.895	-2.22012	4.50170	0.71139	-0.40605
1535.897	-2.33073	4.54083	0.37685	-0.48225
1539.896	-2.24004	4.42757	0.74600	-1.09897
1543.897	-2.12974	4.58261	-0.01362	-0.67316
1547.859	-2.39483	4.50833	-0.82741	-1.23163
1551.897	-2.28928	4.58407	-0.69610	-1.53478
1555.894	-2.31346	4.66884	-0.43743	-1.19042
1559.894	-2.35957	4.66356	-0.34950	-1.28610
1563.898	-2.23982	4.86386	0.57553	-1.85196
1567.861	-2.16089	4.79449	-0.78161	-0.37068
1571.901	-2.08525	4.89963	-0.52143	-0.31857
1575.896	-1.99751	4.86925	-0.57873	-0.05504
1579.899	-1.81771	4.84584	0.10979	-0.21817
1583.896	-1.37196	4.89634	0.69223	-0.78677
1587.899	-2.15782	5.06849	0.86868	-0.27930
1591.901	-1.96001	4.97445	0.82940	-0.02139
1595.899	-1.73001	4.64022	0.65732	-0.33323
1599.891	-1.74449	4.98144	1.12432	-0.17011
1603.900	-1.56466	4.66128	1.13454	0.04681
1607.889	-1.61624	4.39306	1.97850	-0.08662
1611.898	-1.62554	4.67042	1.81515	0.05797
1615.900	-1.60050	4.64128	1.80144	0.48326
1619.896	-1.50080	4.47042	2.84106	1.15994
1623.898	-1.38699	4.34482	2.43206	0.65669
1627.898	-1.21452	4.38471	2.57642	1.67185
1631.897	-1.25463	4.50861	2.59371	0.85489
1635.898	-1.00246	4.51788	2.88646	1.89300
1639.890	-2.21913	4.58471	-0.39065	0.45055
1643.900	-2.48024	4.56565	-2.89710	2.77690
1647.897	-2.17006	4.84530	-4.36288	0.66573
1651.900	-2.55846	4.63229	-1.11807	2.27049
1655.901	-2.50224	4.60657	-2.85022	0.39471
1659.897	-2.45074	4.62732	-2.77607	0.49058
1663.896	-2.50080	4.63824	-0.18894	-1.64582
1667.896	-2.29674	4.68730	-1.26148	0.26331
1671.901	-1.85170	4.82198	-0.57230	0.16526
1675.899	-2.05390	4.76520	-0.71213	0.17164
1679.886	-2.03055	4.82830	-0.19154	0.15339
1683.889	-1.64984	4.80052	0.66429	0.13818
1687.860	-1.85313	4.83051	0.86967	2.43819
1691.896	-1.63621	4.80938	1.06287	1.16787
1695.899	-1.73187	4.78100	1.68937	0.75169
1699.899	-1.65947	4.77405	1.09800	0.51844
1703.801	-1.64439	4.94287	1.73879	1.16505
1707.899	-1.43322	4.86060	2.64067	0.91824
1711.898	-1.35943	4.95313	2.51990	1.06316
1715.900	-1.21303	4.94705	1.78587	2.92560
1719.895	-1.01337	5.04709	2.16902	2.93451
1723.856	-1.01385	5.02012	1.69691	3.34457
1727.899	-3.27148	5.27974	2.45401	3.52306
1731.897	-2.84175	5.50137	1.94989	3.47496
1735.902	-3.10752	5.29116	1.90453	3.97730
1739.864	-3.39421	5.43260	2.13437	3.58709
1743.903	-3.29735	5.56218	2.85759	1.63647
1747.898	-3.38372	5.51505	2.72758	2.25147
1751.769	-3.37440	5.60364	1.97815	3.91086
1755.895	-3.33903	5.67131	2.63522	2.85237
1759.901	-3.36992	5.69147	2.61211	2.58442
1763.883	-3.34907	5.77870	2.76351	2.64953
1767.803	-3.32295	5.90482	2.80325	3.15216
1771.900	-3.36255	6.11362	2.82429	2.83249
1775.901	-3.42178	6.14924	2.84343	1.76218
1779.901	-3.45650	6.20580	2.72313	1.33838
1783.770	-1.16830	5.99330	2.85368	1.90212
1787.902	-1.14295	6.18198	2.70626	0.37063
1791.900	-1.02330	6.27594	2.67685	0.48002
1795.899	-1.05032	6.28834	2.61404	0.00492
1799.902	-1.07309	6.35821	1.86962	-0.17869
1803.897	-1.23719	6.35564	2.41083	-0.67279
1807.893	-1.10425	6.34927	2.13522	-0.69754
1811.899	-1.09326	6.28194	1.79981	-0.46963
1815.905	-1.05036	5.87425	1.66832	-0.22394
1819.863	-1.06272	6.04037	1.60809	-0.19593
1823.900	-1.00278	5.75229	1.42315	-0.23716
1827.900	-1.11740	5.56786	1.88162	-0.29914
1831.904	-1.19572	5.69166	1.51474	-0.07189
1835.899	-1.08837	5.23711	1.36772	-0.26832
1839.901	-1.13526	5.35585	1.52650	-0.22321
1843.901	-0.94319	5.09066	1.27661	-0.07602
1847.904	-0.88984	5.04071	1.15099	0.23510
1851.901	-0.78337	4.96261	1.16984	0.34041
1855.899	-0.67747	4.98514	0.88267	0.40454
1859.902	-1.05942	5.13223	0.84992	0.74217
1863.800	-0.87349	5.02518	0.67548	0.39616
1867.899	-0.95003	4.86433	0.93068	0.41184
1871.901	-1.03908	4.84410	0.83947	0.39957
1875.899	-0.97340	4.66834	0.80848	0.17465
1879.902	-0.96147	4.47636	0.73886	0.46046
1883.903	-0.93899	4.27581	0.69146	0.11529
1887.865	-1.12263	4.37722	0.72784	0.08279
1891.861	-1.29948	4.26795	0.75419	0.00810
1895.906	-1.21454	4.14491	0.75320	-0.28216
1899.897	-1.22018	4.04977	0.83704	-0.99995
1903.898	-1.15704	3.93200	0.92674	-1.38402
1907.899	-1.27351	3.90933	0.85012	-0.44039
1911.803	-1.40204	3.87983	0.83481	-0.40258
1915.901	-1.20326	3.70773	0.63198	-0.15537
1919.903	-1.21097	3.79286	0.59605	-0.21573
1923.902	-1.37677	3.79907	0.45557	-0.58103
1927.803	-1.36804	3.76307	0.74422	1.42337
1931.869	-1.10045	3.84617	0.81533	0.68576
1935.914	-1.02382	3.63872	0.86768	0.83917
1939.862	-0.82538	3.82030	0.90862	0.83059
1943.800	1.45048	3.65825	1.07706	1.22911
1947.901	1.44624	3.83202	1.28489	1.35302
1951.901	-2.78164	3.92215	1.19356	1.37841
1955.865	-1.31736	4.51496	1.81922	1.23258
1959.803	-1.18200	5.14584	1.65265	1.16374
1963.901	-1.00677	4.21079	1.68161	1.23003
1967.899	-1.05431	3.91409	1.31972	1.10811
1971.886	-1.17071	4.08956	0.95884	1.24591
1975.777	-1.11772	4.35870	0.42246	1.07258
1979.769	-0.85548	4.35050	0.60493	1.22044
1983.776	-0.37313	4.21852	0.84639	1.15746
1987.779	0.05577	4.40268	0.29749	1.37797
1991.870	-1.60923	3.71634	0.90783	1.12337
1995.778	-1.36117	3.65198	1.16763	1.19892
1999.779	-0.99422	4.11160	1.38476	1.12147
2003.778	-0.73717	4.37691	1.27812	1.22368
2007.908	-0.65327	4.31399	1.39029	0.93901
2011.778	-0.63541	4.35494	1.52126	0.46831
2015.778	-0.84148	4.51735	1.90264	0.20964
2019.752	-0.52384	4.60663	2.46062	-0.30640
2023.743	-0.67181	4.44529	2.98015	0.61865
2027.779	-0.43792	4.04307	2.17968	0.92046
2031.778	-0.40261	4.04994	3.30235	0.48002
2035.779	-0.26056	3.74030	2.79679	0.13373
2039.772	-0.24244	3.74555	-1.16833	-0.26568
2043.784	-0.16993	3.40664	-0.80593	-0.16160
2047.776	-0.09805	3.36886	-2.01508	0.51164
2051.776	-0.14553	3.50964	-1.51070	0.13421
2055.802	0.09215	3.30593	-1.45837	0.28381
2059.762	-0.88999	3.65210	-1.42771	-0.12838
2063.781	-0.97881	3.72342	-1.04573	-0.25334
2067.776	-0.59523	3.59433	0.18291	0.46981
2071.802	-0.40874	3.73609	1.55933	0.70587
2075.778	-0.45043	3.79327	1.44210	0.52448
2079.779	-0.26761	3.79721	1.57833	1.87974
2083.782	-0.27277	3.71419	2.33071	2.05341
2087.770	-2.32288	3.79792	3.23437	1.58037
2091.778	-2.53159	4.04259	1.86129	1.84476
2095.779	-0.62218	3.72448	2.01028	2.11203
2099.784	-0.44418	3.71044	1.60546	2.08928
2103.770	-0.33692	3.65057	-0.11272	2.79884
2107.784	-0.34687	3.36776	0.40338	2.93160
2111.783	-0.00913	3.62846	0.50185	3.69754
2115.780	0.49048	3.66948	0.26969	3.63889
2119.772	0.22403	3.50742	0.24999	4.47845
2123.778	0.35735	3.61943	-0.31878	2.18288
2127.741	0.35082	3.55733	-0.02842	-1.35912
2131.783	0.31756	3.61249	-0.17720	-1.38633
2135.772	0.25800	4.39647	0.17452	-1.92453
2139.786	-0.06192	3.54408	0.35050	-1.83308
2143.765	-0.32258	3.82529	0.36995	-1.59226
2147.784	-0.59138	3.51248	0.52314	-1.70410
2151.772	-1.01935	3.88910	0.53508	-1.59039
2155.780	-1.06485	3.95260	0.59220	-1.52343
2159.744	-0.85374	3.72090	0.62558	-0.98909
2163.780	-0.61508	2.56910	0.33360	-0.11361
2167.804	-0.93889	2.97534	0.58146	-0.12121
2171.779	-0.94051	3.07341	0.55044	0.19627
2175.782	-0.94974	3.08690	0.65962	-0.06212
2179.782	-1.02211	3.20373	0.64404	0.04376
2183.804	-0.93093	3.29158	0.70052	0.02743
2187.743	-0.61923	3.29529	0.57982	0.21533
2191.743	-1.02218	3.24306	0.40601	0.16482
2195.780	-1.04446	3.53671	0.19685	0.32572
2199.806	-1.17391	3.16567	0.27292	0.21271
2203.746	-1.05170	3.27363	-0.13007	0.17630
2207.782	-1.34596	3.12229	0.16030	0.06978
2211.783	-1.49949	3.21555	0.02519	0.12392
2215.803	-2.08815	3.39519	-0.26019	0.50397
2219.781	-0.29180	3.70577	-2.63153	2.73136
2223.782	-2.67430	6.95871	-4.30176	0.28070
2227.753	7.22319	6.56960	-0.31737	0.94946
2231.751	NaN	NaN	NaN	NaN
2235.781	NaN	NaN	NaN	NaN
2239.781	NaN	NaN	NaN	NaN
2243.781	NaN	NaN	NaN	NaN
2247.786	NaN	NaN	NaN	NaN
2251.779	NaN	NaN	NaN	NaN
2255.785	NaN	NaN	NaN	NaN
2259.782	NaN	NaN	NaN	NaN
2263.746	NaN	NaN	NaN	NaN
2267.767	NaN	NaN	NaN	NaN
2271.783	NaN	NaN	NaN	NaN
2275.783	NaN	NaN	NaN	NaN
2279.744	NaN	NaN	NaN	NaN
2283.779	NaN	NaN	NaN	NaN
2287.781	NaN	NaN	NaN	NaN
2291.746	NaN	NaN	NaN	NaN
2295.744	NaN	NaN	NaN	NaN
2299.785	NaN	NaN	NaN	NaN
2303.785	NaN	NaN	NaN	NaN
2307.781	NaN	NaN	NaN	NaN
2311.755	NaN	NaN	NaN	NaN
2315.743	NaN	NaN	NaN	NaN
2319.782	NaN	NaN	NaN	NaN
2323.782	NaN	NaN	NaN	NaN
2327.781	NaN	NaN	NaN	NaN
2331.784	NaN	NaN	NaN	NaN
2335.782	NaN	NaN	NaN	NaN
2339.779	NaN	NaN	NaN	NaN
2343.780	NaN	NaN	NaN	NaN
2347.788	NaN	NaN	NaN	NaN
2351.762	NaN	NaN	NaN	NaN
2355.783	NaN	NaN	NaN	NaN
2359.785	NaN	NaN	NaN	NaN
2363.783	NaN	NaN	9.59530	5.96677
2367.809	NaN	NaN	14.36132	6.54267
2371.784	NaN	NaN	12.09045	2.60904
2375.788	-20.19455	8.86489	5.74949	-0.32898
2379.784	12.10098	5.84130	9.40274	3.55613
2383.782	-20.03397	-12.07442	3.35189	-3.24980
2387.783	-7.05506	1.29443	4.32219	-4.36945
2391.747	-20.03785	-12.07413	7.90672	-4.91747
2395.776	1.16873	1.13286	1.61555	-3.41285
2399.783	6.84871	1.53126	1.07808	-0.63024
2403.785	-0.15188	0.21000	1.51152	1.74892
2407.775	-7.23831	0.97094	1.37994	0.98513
2411.783	-4.72174	0.80857	1.48845	-0.83144
2415.786	-3.25154	0.91119	1.06853	-0.42111
2419.787	-7.05699	-0.03073	1.17957	-0.70921
2423.795	-0.65910	2.61840	0.84999	-0.41108
2427.785	5.83427	3.13776	12.63688	-0.43494
2431.783	6.35108	4.81792	1.63380	-0.20274
2435.756	-1.83033	6.14411	12.95141	-1.00730
2439.754	-0.49133	3.47506	10.87060	-0.14981
2443.783	-1.66155	3.49504	1.20470	0.04412
2447.790	3.64009	3.16517	1.94005	0.28513
2451.785	1.01186	3.26600	1.90019	0.18130
2455.778	-0.38315	3.50841	-3.93206	0.24612
2459.786	-1.25510	3.27900	1.71216	0.05266
2463.785	-1.75089	3.31232	5.75050	0.31795
2467.786	-1.99810	3.59336	-1.20130	1.38134
2471.778	-0.12597	4.18926	-1.19261	1.24545
2475.768	-0.32072	3.86992	-3.62089	0.28502
2479.783	-0.87758	4.17902	-4.17038	0.30994
2483.783	-0.45098	4.20071	-0.96504	0.23350
2487.784	-0.82305	4.39406	-0.32930	0.44456
2491.787	-0.82684	4.59815	0.23395	0.48283
2495.787	-0.53391	3.79030	-0.37956	0.04453
2499.748	-0.64327	4.21819	-0.68166	1.09713
2503.783	-0.73206	4.06721	0.76409	0.45660
2507.750	-0.85709	4.36077	0.47557	0.89772
2511.784	-0.86679	4.33583	0.17184	1.27087
2515.787	-1.07493	4.45476	0.41686	1.31614
2519.790	-0.88073	4.36959	0.20916	1.25927
2523.793	-0.73863	4.66309	0.79960	0.75105
2527.787	-0.91535	4.76644	0.85173	0.68536
2531.787	-1.29839	4.46209	1.30233	1.46853
2535.787	-1.00814	4.35937	0.39559	1.88163
2539.787	-0.97524	4.50478	0.42045	1.65279
2543.784	-1.10601	3.02856	0.64163	3.19269
2547.791	-1.07599	1.98123	0.24165	-0.33126
2551.779	-1.22382	2.77486	0.66551	0.55353
2555.786	-1.61766	4.04991	0.27446	-0.09236
2559.788	-1.93472	4.56786	0.42991	1.74020
2563.785	-1.43595	4.94493	0.97278	2.37869
2567.751	-1.40209	3.48167	1.74615	1.88593
2571.744	-1.44408	4.39855	2.19316	-0.51086
2575.786	-1.50676	3.78617	2.19997	-0.33926
2579.787	-1.19604	3.37945	1.30124	-0.14277
2583.778	-1.18418	3.48472	0.32853	0.51473
2587.788	-0.72422	3.22706	-0.12672	1.61345
2591.788	-0.88828	4.12468	0.75327	2.23133
2595.788	-1.40281	4.67773	1.77925	2.51456
2599.779	-0.94090	4.57488	1.91476	3.11316
2603.780	-2.46553	3.36776	2.26671	1.05328
2607.790	-0.58987	3.10222	2.38898	-0.51409
2611.789	-1.14821	3.13419	1.92530	-0.15134
2615.787	-0.93393	3.07589	1.75547	0.52885
2619.788	-1.02898	3.20758	1.37736	0.71067
2623.787	-1.38778	3.62441	0.17012	1.46150
2627.752	-1.29834	4.03437	0.87600	1.86616
2631.764	-1.73366	4.22617	0.49058	2.45326
2635.792	-1.25304	3.57353	0.90795	2.25431
2639.790	-1.38404	2.91692	1.66708	2.96210
2643.759	-1.22102	2.84597	1.97161	2.53749
2647.673	-1.38778	3.12699	1.78183	2.42903
2651.787	-1.40051	2.96537	1.62916	-0.18373
2655.786	-2.19920	3.08255	1.52786	-0.97052
2659.788	-1.90596	3.45563	1.60432	-1.18981
2663.786	-2.49508	2.73465	0.97576	-1.20717
2667.790	-0.83637	2.59469	0.98467	-1.00274
2671.787	-1.28539	2.63720	0.48339	-0.80814
2675.788	-0.99688	3.39561	0.48929	-0.78009
2679.687	-1.54673	3.51688	0.93358	-0.47892
2683.775	-1.89288	3.66970	1.33877	0.91226
2687.784	-2.09732	4.15275	1.42270	-0.06906
2691.788	-1.93926	3.38696	0.97613	-0.37208
2695.687	-1.83429	3.63497	1.01729	-0.31824
2699.790	-1.95758	2.96757	1.35288	0.15616
2703.751	-2.01273	4.05079	1.24838	-0.03868
2707.789	-1.89454	4.15581	1.04086	-0.00410
2711.793	-2.08300	4.15494	0.55910	-0.13492
2715.788	-1.77908	4.26149	0.59888	-0.40183
2719.786	-1.97585	4.17332	0.83235	-1.98760
2723.791	-2.00678	3.89614	-0.82957	-0.92836
2727.793	-2.00078	4.08897	1.77891	2.28651
2731.790	-1.90522	4.00802	1.56623	3.00082
2735.789	-1.92029	3.72412	1.51489	2.49843
2739.789	-1.82418	3.03992	1.49602	1.91766
2743.695	-1.71342	3.82812	1.31987	0.68602
2747.796	-1.83752	3.88416	1.34715	1.19899
2751.790	-0.47254	3.78245	1.95988	-0.34430
2755.752	0.25133	3.69591	1.78555	0.04101
2759.685	-0.21306	3.67407	1.63137	-0.06282
2763.792	-0.63079	3.50674	1.74496	-0.46038
2767.753	-1.55618	3.46230	1.58403	-0.31226
2771.790	-1.45611	3.55623	2.13504	2.83518
2775.792	-1.56975	3.32963	2.16082	2.13174
2779.790	-1.29122	3.42817	1.76641	1.74530
2783.787	-1.49629	3.69284	2.29956	0.55603
2787.792	-1.41204	3.49567	2.00202	0.66386
2791.670	-1.39904	3.84021	1.98132	2.07353
2795.790	-1.42280	3.40944	1.86975	1.33072
2799.790	-1.20509	3.45123	2.03459	0.92862
2803.795	-1.53317	3.24365	2.28301	0.97009
2807.786	-1.86565	3.64317	1.87046	0.89216
2811.780	-1.80176	3.62279	-0.42877	0.97280
2815.792	-1.72116	3.60011	-0.66273	0.93103
2819.791	-1.82733	3.80185	-0.66977	0.91451
2823.793	-1.56360	4.13422	-0.33578	0.94735
2827.791	-1.62755	4.92373	1.80928	0.88191
2831.792	-2.15859	4.50699	1.28090	0.81303
2835.790	-1.71880	4.22543	1.96677	0.73044
2839.688	-1.93261	3.91349	1.98179	0.35825
2843.803	-0.64987	3.94959	1.78436	0.04118
2847.793	0.40604	3.86412	2.02797	-0.35487
2851.764	-0.47770	3.77408	2.33968	0.45634
2855.676	-0.64057	3.74906	2.52755	0.65163
2859.789	-1.88888	4.03173	3.11237	2.49959
2863.790	-1.72761	3.94588	-2.99876	1.90089
2867.792	-1.53962	3.84287	0.36630	3.52589
2871.794	-1.21573	3.73792	0.13538	3.23048
2875.788	-0.55364	3.56696	0.26654	2.61956
2879.792	-0.74476	3.29347	1.23925	2.17560
2883.792	-0.48771	3.48840	1.84587	1.25438
2887.797	-2.66761	3.51572	2.07549	0.70718
2891.779	-3.62316	3.32473	1.99087	0.20307
2895.788	-1.35365	4.42917	1.06503	0.43073
2899.790	-1.41038	3.95508	3.28538	0.49695
2903.692	0.01995	3.93869	2.62638	1.53219
2907.755	-0.50555	3.83074	2.40858	1.02240
2911.791	-0.39122	4.14740	2.94297	0.36686
2915.791	-1.09547	4.25843	-0.53198	-0.18542
2919.688	-0.98363	4.34693	-0.51180	0.08222
2923.793	-0.82570	4.00331	0.44028	-0.40067
2927.792	-1.17036	4.26915	1.60657	-0.39571
2931.793	-1.23032	4.54092	1.85480	-0.71110
2935.795	-1.51162	4.54502	2.61375	-0.61510
2939.795	-1.81495	4.60413	3.06409	-0.46120
2943.790	-1.62182	3.76561	2.74668	-0.38600
2947.795	-1.69490	4.18285	3.32135	0.76422
2951.798	-1.40693	2.73151	-1.79552	1.39323
2955.793	-1.80499	4.18754	-0.22301	1.23279
2959.795	-1.73180	4.76024	-0.26433	1.69584
2963.792	-1.04228	3.67473	0.23358	2.68540
2967.692	-1.66457	4.06260	1.55288	2.50583
2971.796	-1.98819	4.62252	0.75392	1.78058
2975.791	-1.86164	4.44439	2.91584	2.37479
2979.793	-1.82366	3.55367	3.19439	0.71029
2983.796	-1.85170	3.50715	2.92812	1.12323
2987.796	-1.62125	3.70251	2.75935	-0.64069
2991.792	-1.65793	3.95914	-0.21241	-0.98519
2995.796	-1.66591	4.09509	-0.14982	-0.66466
2999.800	-1.31982	3.74056	-0.18112	0.77964
3003.755	-2.28276	3.84385	0.39822	2.05861
3007.793	-1.84979	4.58175	2.48487	1.65579
3011.795	-1.60613	3.93964	1.65210	0.60701
3015.693	-0.82295	3.77828	2.23533	0.99021
3019.671	0.30999	3.70327	1.76547	1.52840
3023.641	0.19261	3.76996	0.46554	0.72456
3027.670	-1.18264	4.05721	-0.33397	0.78751
3031.669	-1.80338	4.91184	0.03154	0.29732
3035.668	-1.63760	4.58834	1.26550	0.16824
3039.670	-1.13948	4.30795	1.54559	-0.20466
3043.632	-0.86719	3.86882	1.61265	-0.41923
3047.635	-2.53013	3.96468	1.72718	-0.49406
3051.673	-2.45250	3.87653	1.76066	-0.70972
3055.672	-2.45522	3.55399	1.91008	0.74512
3059.672	-2.39138	3.26347	1.85467	2.60523
3063.657	-1.81681	3.15234	2.03970	2.95623
3067.665	-1.53790	3.29371	2.13685	2.91907
3071.673	-1.47461	3.36946	2.36710	2.15227
3075.666	-1.57391	3.24317	2.51745	1.85456
3079.636	-1.40517	3.45575	2.30363	-0.87809
3083.670	-1.29911	3.58371	-0.99090	-0.92015
3087.670	-1.95971	3.73247	-0.53014	-0.77601
3091.673	-1.57900	3.67065	-0.50371	-0.65375
3095.662	-1.91521	4.16488	-0.41184	-0.60161
3099.669	-1.83821	4.51352	-0.60712	-0.57232
3103.664	-1.57250	4.27125	-0.50049	-0.47909
3107.662	-1.58760	4.37910	-0.43572	-0.47390
3111.664	-1.83139	4.34516	-0.29126	-0.34609
3115.673	-1.58061	4.62033	-0.09535	-0.58063
3119.671	-1.60278	4.54727	0.02554	-0.58920
3123.670	-1.68657	4.63109	0.13136	-0.51501
3127.660	-1.68171	4.67759	1.18941	-0.32530
3131.670	-1.59700	4.63675	1.23605	-0.29198
3135.672	-1.59110	4.69285	1.67834	-1.34967
3139.671	-1.47050	4.63364	1.73125	-1.14661
3143.662	-1.03722	4.53100	1.91124	-1.00327
3147.649	-2.71305	4.56989	2.09584	-0.86954
3151.676	-1.50725	4.38517	2.23018	-1.30786
3155.671	-1.37493	4.32345	2.23192	-1.14217
3159.669	-1.28363	4.21916	1.83709	-0.55066
3163.669	-1.31533	4.19126	2.09472	-0.73530
3167.672	-1.10904	4.12977	2.08612	-0.44509
3171.669	-1.01990	3.99494	2.17066	-0.49224
3175.693	-1.07314	4.00058	2.36921	-0.40007
3179.633	-1.31587	3.91762	2.28041	-0.43999
3183.670	-0.81739	3.90456	2.18414	-0.28379
3187.669	-1.47419	3.96668	2.17254	-0.21484
3191.700	-0.50309	3.87960	2.54373	-0.03952
3195.635	-0.69878	3.89301	2.41462	0.06602
3199.662	-0.42353	3.80746	2.13784	0.37828
3203.670	-0.33144	3.88836	2.08597	0.48261
3207.672	-0.46006	3.87084	2.15663	1.33900
3211.670	-0.26555	3.76492	2.44635	1.88150
3215.671	-0.17814	3.77880	2.50135	1.21396
3219.671	-0.22743	3.55341	2.35073	1.97207
3223.666	-0.15523	2.68943	2.67922	1.55546
3227.674	-2.09304	3.64314	2.72389	1.05011
3231.644	-2.42066	3.70440	2.69329	1.41398
3235.671	-2.52062	3.19839	2.85621	1.09884
3239.665	-2.60287	3.34528	3.13118	1.58692
3243.671	-2.61919	3.38259	2.87940	1.84352
3247.635	-2.54338	3.22509	2.84697	1.39304
3251.677	-2.67697	3.16239	2.67816	1.45364
3255.630	0.69558	3.57954	2.54492	1.27332
3259.677	0.48957	3.69480	1.91838	0.91118
3263.672	-2.70842	4.97103	2.43607	3.12306
3267.678	-2.40218	5.25681	1.83035	2.33237
3271.689	-2.42827	5.16563	1.51405	2.37458
3275.668	-1.79088	4.28285	2.03296	2.25749
3279.673	-1.28804	4.05396	1.62966	1.78836
3283.673	-1.56990	4.40304	1.55016	1.97914
3287.633	-1.72079	5.13265	1.56521	1.76660
3291.674	-1.52997	4.70345	1.60995	1.43549
3295.675	-1.49850	5.30474	1.46675	1.68609
3299.675	-1.60729	4.75854	1.33907	1.72198
3303.695	-1.47226	4.51134	1.18505	1.69932
3307.675	-1.65307	4.22031	1.26073	0.96131
3311.664	-1.47868	3.96388	1.18264	0.60125
3315.636	-1.39659	3.26358	0.65814	0.51259
3319.672	-0.95157	3.06782	0.94616	0.09568
3323.638	-0.80027	3.20484	0.94212	0.21285
3327.672	-1.28075	3.81253	0.53391	0.29231
3331.664	-1.39115	3.40157	0.78980	0.14896
3335.666	-1.07587	3.00609	0.70595	0.05978
3339.675	-1.06324	3.84426	0.25118	-0.19834
3343.675	-1.13526	3.60036	0.80593	-0.46634
3347.676	-1.54887	3.16023	0.87066	-0.55333
3351.670	-1.62517	3.32969	0.75253	-0.54674
3355.653	-1.52593	3.20535	0.40944	-0.97238
3359.673	-1.08981	3.41648	-0.22194	-0.45575
3363.673	-1.49140	3.49240	-1.76033	-0.86006
3367.670	-2.74586	3.60984	0.44907	0.23482
3371.670	-1.40172	4.34921	1.16141	2.86444
3375.672	-1.75039	4.13633	1.99416	3.01057
3379.637	-1.68491	4.52122	0.56193	3.66717
3383.666	-1.56826	4.45282	1.04979	3.20021
3387.674	-1.40408	4.34649	1.66147	3.05086
3391.676	-1.14806	4.10485	1.72227	2.25804
3395.663	-0.88753	3.92246	1.58649	1.83750
3399.666	-0.90505	3.93773	1.42918	1.56373
3403.675	-1.33599	3.80673	1.52307	1.30556
3407.673	-0.62077	4.04723	1.86682	1.08873
3411.673	-0.76888	3.96059	1.71114	1.44532
3415.699	-0.73955	4.01220	1.80526	1.17683
3419.674	-0.75739	4.04319	2.09001	1.17926
3423.676	-0.90902	3.99507	1.65029	1.10087
3427.680	-0.70945	3.80433	2.21167	0.99211
3431.673	-0.78513	3.76708	1.93070	0.98623
3435.675	-1.28507	3.88901	1.73561	0.91008
3439.646	-1.63583	3.81583	1.70529	0.88367
3443.679	-1.76470	3.84629	1.77033	0.87885
3447.668	-1.66926	3.82569	1.72108	0.84257
3451.642	-1.86466	3.84445	2.22010	0.91840
3455.678	-2.31921	3.57487	1.57533	0.92855
3459.674	-2.09405	3.32507	1.52555	0.95162
3463.667	-2.07162	3.21155	1.46812	0.97186
3467.675	-2.19048	3.04917	1.99059	0.90565
3471.638	-2.30315	3.56819	1.61840	0.83913
3475.677	-2.37136	3.23587	1.66847	0.88652
3479.686	-2.21923	3.39022	1.71925	0.71112
3483.674	-2.37704	3.01198	1.62897	0.61837
3487.679	-2.40325	2.96382	1.73591	0.49779
3491.679	-2.35273	2.97004	1.83402	0.76007
3495.669	-2.25080	3.90548	1.68401	0.43407
3499.674	-1.71692	3.36359	1.78629	0.38095
3503.677	-1.29112	3.73994	1.51938	0.28415
3507.676	-1.66998	4.13971	2.97950	0.44655
3511.673	-1.61905	3.34086	2.28849	0.72304
3515.673	-4.05384	3.32135	-1.44483	1.48026
3519.676	-8.94477	3.36485	13.44864	1.95540
3523.672	1.85266	4.89760	9.02128	2.68749
3527.674	NaN	NaN	1.48451	1.46745
3531.677	NaN	NaN	NaN	NaN
3535.678	NaN	NaN	NaN	NaN
3539.678	NaN	NaN	NaN	NaN
3543.677	NaN	NaN	NaN	NaN
3547.675	NaN	NaN	NaN	NaN
3551.678	NaN	NaN	NaN	NaN
3555.644	NaN	NaN	NaN	NaN
3559.674	NaN	NaN	NaN	NaN
3563.654	NaN	NaN	NaN	NaN
3567.683	NaN	NaN	NaN	NaN
3571.634	NaN	NaN	NaN	NaN
3575.678	NaN	NaN	NaN	NaN
3579.676	NaN	NaN	NaN	NaN
3583.681	NaN	NaN	NaN	NaN
3587.638	NaN	NaN	NaN	NaN
3591.675	NaN	NaN	NaN	NaN
3595.640	NaN	NaN	NaN	NaN
3603.666	NaN	NaN	NaN	NaN
3607.676	NaN	NaN	NaN	NaN
3611.641	NaN	NaN	NaN	NaN
3615.672	NaN	NaN	NaN	NaN
3619.677	NaN	NaN	NaN	NaN
3623.678	NaN	NaN	NaN	NaN
3627.678	NaN	NaN	NaN	NaN
3631.640	NaN	NaN	NaN	NaN
3635.677	NaN	NaN	-4.15152	6.11683
3639.675	NaN	NaN	5.43794	3.44731
3643.680	NaN	NaN	-3.67544	-3.10393
3647.680	NaN	NaN	12.90602	4.20632
3651.677	NaN	NaN	7.58807	1.49137
3655.678	NaN	NaN	11.92904	2.23601
3659.680	8.73749	-0.26164	13.48930	1.65299
3663.678	8.63767	3.51865	7.91059	-0.69249
3667.677	10.06499	2.36764	10.73732	0.50192
3671.679	9.08220	6.01623	10.70584	-0.86118
3675.677	3.55473	-1.42135	8.29197	-0.20262
3679.680	0.15893	-0.04334	10.65551	1.27492
3683.682	7.64242	0.61864	7.56286	0.34178
3687.661	-4.81712	-1.40564	10.29678	1.43757
3691.645	-3.42628	1.22648	3.57827	0.29081
3695.640	-4.19506	3.18339	6.35778	0.62877
3699.678	-1.90443	3.02339	14.66159	2.20029
3703.681	-1.81466	5.29346	9.09851	-0.28479
3707.577	4.56755	6.03615	13.47552	0.11408
3711.682	7.47219	5.57070	14.50044	-0.24389
3715.680	-4.06189	5.57318	2.34042	0.39675
3719.680	-3.96822	5.11558	-6.93523	0.17709
3723.577	-1.30816	3.04010	-6.91941	-0.49671
3727.680	-4.33589	2.46199	-4.58205	0.29042
3731.685	8.66598	6.02204	-2.86992	1.56637
3735.678	8.92323	5.88063	-2.76948	0.75732
3739.679	8.34623	6.16199	-2.90242	-0.64688
3743.679	5.29056	7.51745	-2.64696	-0.23447
3747.681	0.22795	4.60022	-2.25181	1.34844
3751.642	-1.10227	5.19663	0.18521	1.25949
3755.614	0.47257	3.99580	-2.19561	0.67815
3759.682	2.41779	4.12554	-0.34873	0.37158
3763.680	2.44343	3.97386	-5.99360	-7.91957
3767.679	1.44671	4.60255	-2.54960	-7.47978
3771.580	1.51938	3.96297	-3.28706	-7.31559
3775.680	0.86979	3.77121	-4.99327	-7.32943
3779.679	NaN	NaN	-0.10972	1.39316
3783.680	NaN	NaN	-4.84849	0.71813
3787.683	NaN	NaN	-3.66179	1.79118
3791.676	NaN	NaN	-3.40264	1.70457
3795.643	NaN	NaN	-3.55525	0.83728
3799.679	NaN	NaN	-3.35132	2.19793
3803.685	-0.80240	3.42006	-2.94186	0.52758
3807.680	-0.89979	3.40480	-4.33527	-7.09918
3811.667	-0.77027	3.45311	-4.22994	-7.05190
3815.670	-0.98636	4.07537	-5.99458	-8.19822
3819.579	-0.94842	3.95519	-5.97934	-8.92728
3823.681	-0.94291	4.06947	0.75848	1.85316
3827.681	-0.87510	4.07748	2.18944	1.28898
3831.681	0.94361	3.98519	2.17792	1.20178
3835.558	1.12747	3.94989	1.19080	0.31208
3839.680	1.29025	3.56014	2.20158	1.27264
3843.680	1.26733	3.03698	2.26445	1.07111
3847.683	1.32937	1.52177	-4.09251	-8.39694
3851.579	1.76911	1.73669	-3.84626	-8.41836
3855.653	-1.27686	1.76883	-3.86059	-8.31341
3859.681	-2.23970	3.04996	-3.81375	-8.08580
3863.681	-2.35761	2.03919	-3.98726	-7.84895
3867.581	-2.28474	1.87073	-3.87112	-7.75598
3871.683	-2.24217	2.99868	-3.66706	-7.65359
3875.681	-2.15608	2.71449	-4.08878	-7.76084
3879.643	-2.09928	2.41470	-4.08878	-7.92768
3883.682	-2.02525	2.74675	-2.19519	0.98226
3887.681	-2.15876	2.85668	0.25165	2.18840
3891.646	-2.11653	2.95943	-1.78637	0.89014
3895.682	-1.91536	3.01544	-1.81880	1.21706
3899.681	-1.89982	3.20664	-1.55700	1.11187
3903.643	-1.92022	3.27359	-0.02814	0.99764
3907.682	-1.84061	3.29896	1.10802	0.91286
3911.682	-0.62893	3.71235	0.60002	0.89052
3915.684	0.15662	3.33530	0.88959	0.76899
3919.644	0.17668	3.39767	0.53689	0.50152
3923.683	-0.01375	3.56490	0.59399	0.41903
3927.651	0.26274	3.52236	1.12846	0.04549
3931.687	NaN	NaN	0.89170	0.19832
3935.644	NaN	NaN	3.74125	0.45736
3939.679	NaN	NaN	2.70790	0.44613
3943.693	NaN	NaN	2.87708	0.83831
3947.688	NaN	NaN	3.14343	0.68046
3951.646	NaN	NaN	3.87235	0.74078
3955.683	NaN	NaN	3.81741	1.22627
3959.681	NaN	NaN	-2.62447	0.92016
3963.686	NaN	NaN	-1.53029	0.86900
3967.646	0.86131	10.99005	-1.47595	1.13856
3971.681	1.25488	10.97904	-2.63841	1.12567
3975.687	2.96804	11.09722	-0.83749	1.08705
3979.582	-1.78052	2.39227	0.06974	1.14976
3983.681	NaN	NaN	-0.70851	1.26343
3987.683	NaN	NaN	-0.38591	1.11931
3991.682	-1.94964	2.61210	-0.29096	1.37035
3995.558	-1.88246	2.86827	0.08011	1.32969
3999.686	0.89518	2.79144	0.88585	1.34989
4003.683	0.20819	2.86486	1.50351	1.38889
4007.681	0.43542	2.95375	0.70687	1.04926
4011.585	0.32340	3.04746	1.25475	1.28413
4015.682	0.37477	2.93380	1.61210	1.21136
4019.673	0.49694	2.86695	-0.25773	-7.75776
4023.676	-2.80417	2.92708	1.97716	1.17465
4027.582	-3.34066	2.97515	-0.60392	-8.07859
4031.683	-2.93720	2.96657	-0.82394	-8.01365
4035.687	-3.17685	2.99196	-0.83982	-8.05613
4039.686	-3.01160	2.97090	0.34923	-8.01835
4043.550	-2.83893	2.97752	-0.04030	-8.29045
4047.686	-2.95572	2.87080	-0.53699	-8.26267
4051.560	-2.85118	2.91823	-0.85535	-9.18301
4055.566	-2.44898	2.86544	-0.78600	-8.93187
4059.552	-2.66667	2.65790	-0.66846	-9.54255
4063.562	-2.39837	2.75785	-0.46800	-9.65265
4067.539	-2.17921	12.75366	-0.38234	-0.39417
4071.561	-1.90517	12.31723	-0.44425	-0.41586
4075.686	-1.73968	12.38419	-0.26788	-0.58793
4079.560	-1.24806	12.08732	-0.18174	-1.16931
4083.560	-1.00233	11.99045	-0.61233	-0.27869
4087.560	-0.94033	11.91445	-0.37514	-0.36418
4091.693	-0.87138	11.94796	0.33208	-1.60069
4095.562	-0.56419	11.99055	0.31332	-0.32653
4099.563	-0.03936	11.96885	0.45673	-0.27676
4103.561	0.82096	11.90140	0.66642	-0.56114
4107.692	-0.20792	12.42413	0.79816	-0.15688
4111.552	-0.14486	12.51498	1.15900	1.84677
4115.561	0.59183	12.48211	1.79986	-0.28746
4119.560	0.30463	2.90393	2.11338	-0.58351
4123.560	0.47465	2.59720	-0.40566	-11.44784
4127.560	0.70293	2.80171	-0.49046	-11.23452
4131.561	-3.41231	2.85605	-1.08237	-10.91985
4135.561	-3.60341	2.94652	-0.67774	-10.54758
4139.553	-3.48296	3.76077	-0.87972	-10.21575
4143.559	-3.50526	3.72096	-1.15034	-9.88108
4147.561	-3.53238	4.26040	-0.32563	-9.45836
4151.561	-3.65287	4.67498	-0.79880	-9.57478
4155.594	-3.66157	4.65839	-0.85639	-9.55181
4159.562	-3.64306	4.81161	2.16922	1.28573
4163.561	-3.71930	4.99589	1.12571	1.21280
4167.562	0.79610	10.96534	1.39416	1.65105
4171.552	0.36807	4.81980	-1.00276	-9.71105
4175.560	0.36154	4.78183	2.19071	1.71323
4179.560	0.42792	4.68438	-1.21670	-9.91643
4183.563	-0.02981	4.72800	3.18314	1.29756
4187.563	0.10185	14.45616	2.78822	0.75398
4191.545	0.12905	14.29594	2.53573	0.69774
4195.562	-1.03570	3.81360	1.52541	0.22130
4199.562	0.13612	13.79551	1.59308	0.17032
4203.560	-0.01571	12.89151	1.32076	-0.73341
4207.561	-0.04274	13.12375	1.25091	-1.04449
4211.562	-1.11943	2.85638	1.17709	-1.28441
4215.561	-0.17531	13.19301	1.09192	-1.43602
4219.585	-0.25703	13.25928	1.12504	-1.28081
4223.562	-0.26443	13.11129	1.01883	-1.17171
4227.561	-0.62828	13.09813	1.00032	-1.13464
4231.564	-0.34563	13.14494	1.00107	-0.54840
4235.560	-0.98390	2.77241	0.91274	-0.07566
4239.564	-1.07063	2.88002	0.84051	-0.03481
4243.561	-1.58502	3.41896	0.75556	0.78241
4247.564	NaN	NaN	1.04684	0.69997
4251.584	0.25793	5.85776	1.24240	0.75894
4255.564	0.38633	3.70213	5.19258	-6.02624
4259.574	-1.03153	4.46601	0.78915	1.17151
4263.561	-0.19013	6.86172	-0.72409	3.06505
4267.554	NaN	NaN	NaN	NaN
4271.565	NaN	NaN	1.41958	3.22539
4275.543	NaN	NaN	1.65547	4.07907
4279.562	NaN	NaN	1.79123	3.65737
4283.587	NaN	NaN	1.68706	3.11293
4287.526	NaN	NaN	1.15793	2.82125
4291.563	NaN	NaN	1.68178	2.45333
4295.526	NaN	NaN	1.56538	2.13271
4299.586	NaN	NaN	1.47853	2.35488
4303.526	NaN	NaN	1.54686	2.60936
4307.565	NaN	NaN	1.82713	3.76495
4311.565	NaN	NaN	1.72684	3.89898
4315.581	NaN	NaN	1.52050	3.93075
4319.555	NaN	NaN	1.53094	3.70396
4323.566	NaN	NaN	1.71345	4.07544
4327.564	NaN	NaN	1.65949	3.93838
4331.589	NaN	NaN	1.71340	3.91743
4335.541	-1.31049	9.23576	1.86003	3.70106
4339.565	NaN	NaN	1.94907	3.67230
4343.565	NaN	NaN	2.04061	3.33278
4347.567	NaN	NaN	2.17420	3.09278
4351.568	-1.23161	8.98346	2.06305	3.31098
4355.568	-1.29993	8.94944	2.04143	3.18993
4359.537	NaN	NaN	2.11090	2.99584
4363.561	-1.48677	9.06828	2.02686	3.54514
4367.566	NaN	NaN	2.04582	3.24188
4371.565	4.10927	4.45771	5.17302	3.35360
4375.562	3.70994	4.50680	5.60878	3.35945
4379.559	4.24640	8.94045	5.69929	3.25863
4383.566	4.48142	8.85108	5.68445	3.37555
4387.567	4.27614	8.74701	5.64582	3.45682
4391.563	4.13695	8.71615	5.54742	3.44535
4395.566	4.04532	8.70369	5.10106	3.52241
4399.551	3.80713	8.73087	4.63252	3.62875
4403.526	3.71518	8.26945	4.57601	3.87358
4407.567	3.63097	8.54483	3.11329	3.40710
4411.587	3.84456	8.05608	4.58986	3.23559
4415.564	3.51436	8.23320	4.33014	3.78836
4419.566	3.32125	8.20159	4.22192	3.23069
4423.567	3.28034	8.07147	4.39666	3.25924
4427.563	2.74534	6.51725	3.88722	3.75193
4431.566	2.48557	6.06716	4.25986	2.86622
4435.567	2.71245	6.29112	3.97232	2.74989
4439.565	2.42978	6.33849	4.32933	2.62864
4443.560	2.34847	6.20257	6.07660	4.49191
4447.567	2.10406	6.16525	4.72263	4.80270
4451.567	2.24488	5.95951	6.03503	4.74327
4455.567	1.61830	6.22364	4.76574	4.81698
4459.559	1.05270	6.50148	5.91432	2.74195
4463.564	1.08393	6.44627	4.22318	3.39031
4467.565	0.56553	6.47073	5.12580	3.09911
4471.566	2.48004	7.45528	5.54243	2.85065
4475.557	0.44122	6.71143	5.82412	3.51510
4479.569	0.99015	5.25412	5.97008	0.82501
4483.547	2.05811	8.11495	4.86544	0.84622
4487.566	1.15014	6.10826	2.63128	1.02873
4491.565	0.43869	6.49689	0.85384	2.88662
4495.567	-0.52575	6.41999	4.16445	2.33062
4499.526	-2.28643	6.12084	3.42396	2.57595
4503.567	-0.88671	6.07186	3.28182	2.41560
4507.590	-0.77655	6.14187	3.11826	1.03365
4511.565	-1.14791	5.88094	2.44467	0.97370
4515.528	-1.05659	6.05443	2.70560	1.29263
4519.569	-3.12274	5.89330	2.54038	1.19856
4523.559	-2.79293	5.82485	2.74098	1.20236
4527.560	-2.65664	5.84558	2.33784	2.83498
4531.569	-2.26874	5.57500	1.64823	1.69940
4535.569	-2.59621	5.53800	1.19296	1.71110
4539.557	-1.50681	3.92079	1.76009	1.72580
4543.566	-1.61734	4.86373	2.05995	1.50035
4547.568	-1.57736	4.73534	0.82560	1.38592
4551.567	-2.65399	4.53116	1.10187	1.29883
4555.558	-2.30908	4.18674	1.38168	1.55596
4559.571	-2.20250	3.77304	1.72443	1.49381
4563.570	-2.28571	3.94683	1.81000	1.38371
4567.569	-2.22659	3.98700	2.00715	1.56904
4571.572	-2.36418	3.83273	2.64049	1.37566
4575.568	-2.26693	3.73554	2.33264	1.54860
4579.571	-2.37166	3.83845	2.41425	2.52938
4583.564	-2.45607	4.06908	2.33695	1.93373
4587.570	-2.39933	4.12364	2.10488	2.79649
4591.568	-2.47105	4.23109	2.79511	2.68802
4595.531	-2.19212	4.51237	2.40000	3.09338
4599.571	-2.29324	4.46006	2.50187	3.51096
4603.567	-2.42421	5.51063	2.56926	4.23830
4607.551	-2.35843	5.84189	1.86915	5.14714
4611.531	-3.93621	5.78026	1.62287	3.32771
4615.569	-3.28543	5.64896	0.70146	-0.48881
4619.560	-2.43335	6.19114	2.22882	-1.62461
4623.567	-2.57716	5.94891	2.56017	-0.68969
4627.567	-2.18758	5.23945	2.58251	2.29878
4631.533	-0.76156	5.17497	3.80097	1.96615
4635.545	0.72513	6.03593	5.10925	3.58346
4639.571	2.81093	6.10401	5.66573	4.03455
4643.571	2.94441	6.11017	8.45932	4.32095
4647.569	5.03324	4.22689	9.38206	7.85650
4651.567	5.51609	3.91270	13.17863	1.79029
4655.569	7.26364	3.38876	13.18136	0.08862
4659.572	7.13233	4.96301	13.76116	1.95724
4663.572	7.64756	4.77082	10.82636	6.55539
4667.560	7.61546	4.81065	12.03460	-1.16609
4671.570	7.49642	4.99764	9.27390	-0.56618
4675.571	7.91195	5.16095	8.59655	-0.38537
4679.571	7.99228	5.66408	13.05971	-0.29892
4683.571	7.42092	5.39702	11.48044	6.45960
4687.572	7.73285	4.74323	12.88919	0.41694
4691.567	7.76274	4.60109	7.57708	1.92172
4695.572	7.95755	4.68026	8.97888	1.19795
4699.569	7.99605	4.53391	9.32574	1.50003
4703.570	7.89337	4.21731	10.31888	1.37685
4707.572	8.32038	3.90656	13.82487	3.43623
4711.568	7.93822	3.96931	16.07372	2.16003
4715.569	7.82915	4.26563	14.18025	4.06038
4719.570	7.58671	4.53196	16.81078	3.66865
4723.570	7.67555	4.96573	17.12224	4.22913
4727.568	7.65193	4.55494	12.46263	4.71634
4731.558	7.89106	4.38015	13.62118	5.08923
4735.569	8.01971	4.41119	13.67735	1.82929
4739.569	7.76272	4.98409	14.80398	1.62776
4743.573	7.81088	4.99354	14.66517	1.01588
4747.571	7.95767	5.27733	14.37666	1.45112
4751.573	8.18242	4.38051	15.58879	1.47876
4755.568	7.84065	4.51440	15.03395	2.00964
4759.575	7.93323	4.82196	14.63802	3.00440
4763.469	7.51761	4.35029	14.65256	2.53681
4767.572	7.49420	4.07650	14.68036	2.76201
4771.572	7.58381	4.15234	14.88336	3.09304
4775.544	7.81361	4.09102	15.31969	3.12750
4779.567	7.26976	4.42962	14.84376	4.50201
4783.571	7.75824	4.07983	14.43571	5.08119
4787.583	7.88461	4.31519	14.23132	5.59502
4791.572	8.06908	4.24971	13.81816	7.46050
4795.537	7.64237	4.51480	13.71156	7.47770
4799.571	7.97398	4.80020	14.62577	3.78377
4803.573	7.78857	4.50914	14.90315	4.74965
4807.572	8.14597	3.72274	12.66493	3.33635
4811.575	7.79951	3.72577	14.53721	0.33013
4815.558	7.76155	3.35559	15.04765	0.47940
4819.564	7.88193	3.40717	15.69169	1.49621
4823.574	8.02260	4.24741	14.77336	3.34182
4827.470	7.87029	4.97978	14.76918	3.82373
4831.574	7.50232	4.91422	15.23198	3.26370
4835.571	7.70553	4.74552	14.91075	4.72716
4839.571	8.11693	4.52099	15.58265	3.69580
4843.574	7.64834	4.69114	12.60176	0.89545
4847.572	7.66078	4.57016	15.10977	5.38742
4851.574	7.82604	4.31771	15.45221	5.35321
4855.573	7.61117	4.26934	14.04311	6.58341
4859.579	7.76969	3.26741	15.02077	7.16379
4863.573	7.79637	3.32376	13.73545	5.29025
4867.572	7.54037	4.08026	12.87798	6.10391
4871.572	7.80721	3.58045	14.99688	0.86797
4875.575	7.68744	4.21291	15.30272	-0.31896
4879.533	7.75224	4.45787	15.72432	0.02220
4883.574	7.26017	4.82921	15.70103	0.77447
4887.535	7.55079	4.97881	15.24450	1.44087
4891.575	7.57605	5.39299	14.78224	4.41917
4895.573	7.55171	5.48347	15.42239	3.79755
4899.552	7.66222	5.05885	14.85823	1.97086
4903.574	7.51754	3.55736	14.47268	1.87875
4907.573	7.49659	2.61613	15.10947	1.97231
4911.571	7.56713	3.32354	14.50169	2.78789
4915.574	7.32417	3.78054	14.13370	3.68819
4919.573	7.57374	4.01017	14.19387	3.85032
4923.575	7.43686	4.36437	14.21092	4.43899
4927.574	7.44379	4.63497	15.59579	3.96907
4931.571	7.54596	4.35444	14.28117	4.36325
4935.571	7.28119	4.70907	13.76256	4.65982
4939.565	6.88653	4.93165	13.08493	6.73082
4943.566	6.97267	4.82789	14.19128	5.14716
4947.536	6.35976	5.36285	14.09824	4.72306
4951.572	6.03545	5.64850	12.75559	6.31849
4955.576	6.03032	5.75934	13.10019	6.05498
4959.571	5.89424	5.91145	12.90359	6.04657
4963.576	5.50343	6.31571	12.77709	6.13533
4967.573	5.30589	6.27333	12.54448	6.78878
4971.575	5.66612	5.42941	12.68893	6.07350
4975.573	5.25293	5.82163	12.82354	6.49751
4979.573	5.43755	5.74565	13.12590	6.35186
4983.545	5.10098	5.74257	12.68642	7.74168
4987.577	5.21885	5.50682	12.57472	7.38744
4991.573	5.16782	5.77063	12.66530	6.60299
4995.532	5.27100	5.77961	12.97443	6.28738
4999.574	5.25119	5.39420	13.33485	4.25161
5003.539	5.21885	5.53214	13.14955	2.75299
5007.573	5.12954	5.45690	13.06626	3.71423
5011.573	5.26344	5.33785	13.30134	2.59396
5015.537	5.31238	5.49177	13.28023	3.12716
5019.578	5.45934	5.31636	13.14673	3.38577
5023.573	5.31448	5.33177	13.39814	2.79494
5027.570	5.29408	5.32245	13.51053	2.88660
5031.573	5.22074	5.36586	13.40713	2.93760
5035.576	5.19820	5.37346	13.56927	2.61734
5039.572	5.24545	5.32304	13.49087	2.62008
5043.575	5.16762	5.35090	13.53692	3.07103
5047.575	5.21695	5.25225	13.60275	2.76099
5051.576	5.47267	5.21202	13.54518	3.05873
5055.576	5.48046	5.23531	13.64288	2.98610
5059.574	5.43356	5.18726	13.39898	2.97312
5063.575	5.35593	5.16829	13.42263	2.95752
5067.443	5.36818	5.11717	13.57947	3.56473
5071.573	5.49524	5.07217	13.42686	6.39455
5075.450	5.53473	4.94540	13.59699	3.47794
5079.413	5.52846	4.89156	13.45432	4.16516
5083.478	5.47697	4.85812	13.34625	3.46004
5087.450	5.64997	4.76074	13.29553	4.04760
5091.451	5.60605	4.66112	13.26316	3.57696
5095.408	5.55411	4.65905	13.46738	2.98478
5099.472	5.47678	4.62538	13.25138	2.78240
5103.460	5.46027	4.57667	12.92866	3.54417
5107.448	5.52490	4.52739	13.45538	3.21541
5111.438	5.49369	4.49009	11.54146	4.49560
5115.452	5.56313	4.38282	12.97816	2.97734
5119.449	5.73077	4.31823	12.06309	3.57256
5123.450	5.60455	4.35986	12.37960	3.57270
5127.450	5.74072	4.21427	12.34564	3.11163
5131.452	5.66850	4.10443	12.80454	2.51854
5135.452	5.79732	4.06078	12.55531	1.93369
5139.451	5.85396	4.16020	12.55933	1.95925
5143.449	6.01468	3.94374	12.41582	2.18180
5147.450	6.22559	3.76732	12.30223	2.13814
5151.451	6.31117	3.59917	12.46966	1.84170
5155.421	6.22893	3.78230	12.23834	1.70339
5159.413	6.18755	3.69992	12.45156	1.33567
5163.450	6.14064	3.60607	13.35971	0.19465
5167.453	6.05280	3.48235	12.71299	0.12161
5171.453	5.57486	4.04269	12.81268	0.17860
5175.454	4.81616	4.01654	10.07074	2.04967
5179.454	4.76399	4.04893	10.07779	2.57263
5183.452	4.23656	4.40539	9.34974	2.68984
5187.454	5.49770	4.98349	9.15570	2.83877
5191.453	5.26625	5.60048	9.56069	2.79658
5195.467	4.68390	7.54958	12.65940	3.60096
5199.417	11.34516	6.90126	12.60030	7.79100
5203.452	16.22947	12.88854	15.17508	11.36986
5207.455	NaN	NaN	13.85585	13.61661
5211.443	NaN	NaN	NaN	NaN
5215.417	NaN	NaN	NaN	NaN
5223.452	NaN	NaN	NaN	NaN
5227.453	NaN	NaN	NaN	NaN
5231.455	NaN	NaN	NaN	NaN
5235.450	NaN	NaN	NaN	NaN
5239.449	NaN	NaN	NaN	NaN
5243.452	NaN	NaN	NaN	NaN
5247.450	NaN	NaN	NaN	NaN
5251.453	NaN	NaN	NaN	NaN
5255.450	NaN	NaN	NaN	NaN
5259.451	NaN	NaN	NaN	NaN
5263.458	NaN	NaN	NaN	NaN
5267.427	NaN	NaN	NaN	NaN
5271.453	NaN	NaN	NaN	NaN
5275.451	NaN	NaN	NaN	NaN
5279.431	NaN	NaN	NaN	NaN
5283.444	NaN	NaN	NaN	NaN
5287.456	NaN	NaN	NaN	NaN
5291.453	NaN	NaN	NaN	NaN
5295.450	NaN	NaN	NaN	NaN
5299.438	NaN	NaN	NaN	NaN
5303.414	NaN	NaN	NaN	NaN
5307.454	NaN	NaN	NaN	NaN
5311.453	NaN	NaN	NaN	NaN
5315.455	NaN	NaN	NaN	NaN
5319.413	NaN	NaN	NaN	NaN
5323.442	NaN	NaN	NaN	NaN
5327.457	NaN	NaN	NaN	NaN
5331.454	1.18475	14.05569	NaN	NaN
5335.457	1.73616	11.12591	-8.48593	6.46925
5339.480	2.37506	11.54221	-6.55675	4.72487
5343.453	5.21178	7.16540	7.65044	4.25957
5347.455	-1.62036	12.51081	9.93378	1.95751
5351.455	2.10084	4.06106	1.76871	4.32629
5355.483	-1.41489	4.27909	1.33532	4.29756
5359.453	-1.55276	4.14034	0.98251	4.34990
5363.459	-2.51586	6.82476	0.80369	3.37965
5367.456	1.37746	2.76849	1.00288	2.59836
5371.476	-1.79135	6.88487	0.87595	2.79036
5375.453	-1.89949	6.67747	0.32225	3.22893
5379.454	-4.89897	4.19520	-0.33548	1.85791
5383.455	-4.63706	4.19571	-0.72729	1.10832
5387.477	-4.62251	4.28967	-0.53555	1.02793
5391.455	-4.63602	2.39680	0.87729	0.96779
5395.457	-4.78513	2.75412	0.07805	0.79738
5399.418	-3.98899	2.33051	0.57553	-0.04743
5403.445	-4.49595	2.79437	0.66419	0.94154
5407.451	-4.73150	4.22423	0.73109	0.80092
5411.456	-4.96499	5.04662	0.38829	0.16119
5415.456	-5.17614	4.68324	0.22614	-0.23368
5419.479	-5.14490	5.13635	-0.12722	0.12484
5423.455	-4.80731	4.35289	0.16370	0.93022
5427.455	-5.20292	4.71684	0.09666	3.67491
5431.456	-5.15918	4.95960	0.47088	4.47310
5435.479	-4.58091	4.36861	0.39618	4.71747
5439.456	-4.85524	3.98081	0.53126	1.51203
5443.457	-4.95480	3.73242	0.31660	1.63039
5447.451	-5.16561	3.78505	-0.05810	2.51957
5451.461	-5.12683	3.69804	0.56481	1.82101
5455.456	-7.24529	4.86097	-2.04614	0.95222
5459.455	-7.02722	6.64977	-3.55463	2.82308
5463.462	-9.59882	7.21642	-4.99004	4.50307
5467.483	-10.70081	5.97176	-6.34770	1.38384
5471.458	-11.00957	4.62140	-8.58711	1.78332
5475.454	-11.29429	4.10367	-10.73749	2.37740
5479.457	-13.73844	3.89485	-11.65261	4.32105
5483.484	-13.93735	4.54018	-12.40160	2.18701
5487.436	-13.92989	7.04429	-12.44562	2.49681
5491.454	-15.32632	6.48375	-12.91416	1.87633
5495.456	-15.73771	6.72798	-12.37780	0.43035
5499.421	-11.84192	7.23607	-12.86978	2.18492
5503.454	-13.55982	6.96879	-12.56200	1.91370
5507.427	-14.04047	7.17790	-12.74999	2.15455
5511.456	-15.14333	4.96612	-12.99057	2.51022
5515.448	-14.63012	4.81118	-12.97971	2.84965
5519.461	-15.01184	5.45021	-12.49100	3.34784
5523.456	-15.70020	5.05374	-12.51870	4.77297
5527.447	-15.72306	4.98588	-13.01958	5.30096
5531.483	-15.30683	4.82412	-13.12743	5.14122
5535.457	-14.93010	5.24611	-12.84498	5.71504
5539.458	-15.14190	5.23420	-12.97846	6.20432
5543.458	-14.99901	5.28470	-13.07521	2.99787
5547.479	-15.02154	7.14623	-12.88855	4.91648
5551.460	-14.92948	5.31669	-12.84845	3.02483
5555.458	-14.99380	5.79501	-12.38637	3.34962
5559.461	-15.23422	4.92427	-12.58505	1.83938
5563.477	-15.81295	4.72720	-12.78517	2.78536
5567.457	-15.20048	5.35504	-12.45726	2.41055
5571.458	-15.09094	5.87538	-12.24315	4.54015
5575.458	-15.22366	5.09657	-12.28479	3.73182
5579.463	-15.73623	4.44948	-12.05222	4.57503
5583.461	-15.21460	5.07964	-12.16131	4.04567
5587.459	-15.18657	5.09925	-12.05948	4.86536
5591.459	-15.90995	4.85135	-12.16190	5.44971
5595.451	-15.60885	4.90644	-12.15398	6.58982
5599.421	-15.10360	4.85554	-12.07372	5.50431
5603.461	-15.58622	4.78176	-12.02361	4.43320
5607.462	-15.80314	4.57688	-11.86598	5.46567
5611.444	-14.92387	5.64558	-11.86904	3.82048
5615.457	-15.05050	5.55346	-11.89804	3.18230
5619.461	-15.94660	4.79239	-11.80388	3.38864
5623.457	-15.39947	5.49730	-11.91548	4.14010
5627.452	-15.21650	6.09327	-11.94895	5.77120
5631.421	-15.61753	5.02115	-11.81679	6.07234
5635.493	-15.46994	5.16004	-11.70561	6.31212
5639.458	-15.14391	5.85277	-11.99315	6.17496
5643.463	-15.42016	6.19220	-11.87589	6.74775
5647.460	-10.12529	4.49363	-11.68348	6.32873
5651.459	-11.40286	3.95741	-11.70785	6.11279
5655.425	-14.63623	3.51470	-11.60092	3.09962
5659.463	-12.54100	4.11968	-11.72424	2.85186
5663.460	-10.34480	4.43133	-11.42165	3.45563
5667.464	-15.70238	4.25208	-11.57660	3.43369
5671.458	-16.88675	4.01960	-11.98792	3.31741
5675.457	-14.95755	4.15032	-12.10706	4.53260
5679.458	-16.26927	4.02547	-11.72608	4.82577
5683.459	-15.97576	4.15099	-11.59375	4.05633
5687.460	-14.91198	4.22564	-10.79363	4.91706
5691.424	-13.82855	3.51010	-9.83009	3.70840
5695.439	-12.88638	2.30298	-9.31107	2.66815
5699.461	-11.08404	4.32679	-8.82858	2.92380
5703.459	-10.85131	4.32637	-8.00331	3.74300
5707.463	-10.72088	4.19740	-7.42422	6.73613
5711.460	-10.30305	4.04426	-5.92805	5.40956
5715.461	-10.35140	2.71661	-5.90941	4.52932
5719.460	-10.42053	3.30502	-5.69352	5.98594
5723.461	-10.41241	2.32516	-5.89664	4.70658
5727.460	-10.17014	2.38828	-5.74618	5.34354
5731.462	-10.33762	2.59461	-5.65390	5.35994
5735.460	-10.43556	3.39132	-5.61945	3.91748
5739.452	-10.95705	2.76961	-5.69416	3.67018
5743.459	-9.96465	3.42913	-5.85507	5.65220
5747.463	-10.43635	4.56136	-5.59745	5.15181
5751.459	-9.91857	3.56550	-5.68649	1.47461
5755.465	-9.64924	4.36334	-5.77170	3.42007
5759.462	-9.86045	2.66525	-5.97931	5.14240
5763.424	-10.20164	3.12440	-5.54289	4.04984
5767.465	-10.18067	3.97436	-5.70028	1.62663
5771.466	-10.03551	2.84560	-5.87349	3.78141
5775.461	-9.56603	2.23817	-5.95081	3.98719
5779.463	-9.88817	2.46865	-5.62463	3.03437
5783.460	-9.86269	3.28212	-5.94396	2.80628
5787.461	-10.69558	4.05103	-5.84974	3.14012
5791.459	-11.44776	3.48748	-7.21391	3.59073
5795.464	-9.85968	3.13157	-5.61345	2.97807
5799.462	-10.06612	3.17252	-5.56360	2.36601
5803.464	-10.07143	4.27462	-6.05592	2.86482
5807.463	-9.78011	4.30452	-5.27255	2.74273
5811.463	-10.09506	3.67965	-5.45172	-0.19718
5815.463	-10.00228	3.34841	-5.23829	1.15575
5819.447	-10.48663	3.42826	-5.45400	1.18687
5823.460	-10.35159	3.69200	-6.15814	2.33678
5827.462	-10.07673	3.31984	-5.79165	2.62927
5831.460	-10.23466	2.81456	-5.88309	4.16856
5835.465	-10.03693	2.87827	-5.74856	6.80181
5839.460	-10.24464	3.61168	-5.89434	6.21626
5843.460	-11.75010	6.62178	-5.97013	7.05449
5847.460	NaN	NaN	-0.94423	8.00068
5851.466	NaN	NaN	-15.88160	7.97665
5855.461	NaN	NaN	NaN	NaN
5859.460	NaN	NaN	NaN	NaN
5863.423	NaN	NaN	NaN	NaN
5867.465	NaN	NaN	NaN	NaN
5871.461	NaN	NaN	NaN	NaN
5875.425	NaN	NaN	NaN	NaN
5879.462	NaN	NaN	NaN	NaN
5883.425	NaN	NaN	NaN	NaN
5887.461	NaN	NaN	NaN	NaN
5891.426	NaN	NaN	NaN	NaN
5895.465	NaN	NaN	NaN	NaN
5899.441	NaN	NaN	NaN	NaN
5903.438	NaN	NaN	NaN	NaN
5907.426	NaN	NaN	NaN	NaN
5911.462	NaN	NaN	NaN	NaN
5915.456	NaN	NaN	NaN	NaN
5923.463	NaN	NaN	NaN	NaN
5927.453	NaN	NaN	NaN	NaN
5931.461	NaN	NaN	NaN	NaN
5935.459	NaN	NaN	NaN	NaN
5939.462	NaN	NaN	NaN	NaN
5943.459	NaN	NaN	NaN	NaN
5947.455	NaN	NaN	NaN	NaN
5951.462	NaN	NaN	NaN	NaN
5955.462	NaN	NaN	NaN	NaN
5959.468	NaN	NaN	NaN	NaN
5963.463	NaN	NaN	NaN	NaN
5967.465	NaN	NaN	NaN	NaN
5971.462	NaN	NaN	NaN	NaN
5975.364	NaN	NaN	NaN	NaN
5979.462	NaN	NaN	NaN	NaN
5983.467	NaN	NaN	NaN	NaN
5987.436	NaN	NaN	NaN	NaN
5991.460	NaN	NaN	-4.94442	14.89185
5995.462	NaN	NaN	NaN	NaN
5999.465	NaN	NaN	0.12764	11.50341
6003.427	NaN	NaN	2.24530	5.42868
6007.425	NaN	NaN	1.10534	6.64645
6011.464	7.05298	11.76730	1.37230	7.34584
6015.467	-2.78557	11.63646	1.57647	5.24433
6019.466	3.57916	9.97849	0.38655	3.92027
6023.467	-11.18463	0.91095	-0.11979	4.78929
6027.449	-8.72234	3.04975	-0.07835	3.62734
6031.466	-5.43676	4.41431	1.64223	1.63907
6035.465	-1.46229	5.84577	1.49361	3.47982
6039.465	-4.46867	4.48830	1.31473	3.30950
6043.466	-1.84285	4.39674	1.81756	3.28804
6047.468	-2.96819	5.14373	1.49974	3.44395
6051.462	-3.72790	4.40608	1.71970	3.95627
6055.464	-4.45853	4.43559	-0.54451	3.62409
6059.466	-4.01161	4.67471	-0.50183	3.36002
6063.466	-3.88456	4.42672	-0.38737	4.14228
6067.430	-3.96869	4.42292	1.76477	2.27212
6071.430	-4.44050	4.18383	0.91460	2.06793
6075.467	-4.13159	4.04475	-0.08852	3.02528
6079.471	-3.99178	3.42936	0.62374	3.01960
6083.465	-3.90691	3.98841	0.75394	2.79915
6087.467	-4.02966	4.01125	0.37477	3.05829
6091.468	-4.14411	3.81294	0.35792	2.36433
6095.467	-4.01492	3.68303	3.22213	2.98025
6099.466	-4.04048	3.83376	-0.77253	2.85257
6103.467	-4.35294	3.64931	-0.58114	3.25222
6107.467	-4.28688	3.54698	-0.76218	2.98249
6111.341	-4.17788	3.49267	-0.50619	3.30776
6115.328	-4.09767	3.59257	-0.65593	3.46699
6119.331	-3.97800	3.61424	-0.72434	3.68838
6123.342	-4.02342	3.73201	-0.17429	3.47002
6127.367	-4.04749	3.76725	0.15640	3.19241
6131.344	-4.07110	3.59472	0.57260	3.65605
6135.340	-4.03779	3.64807	1.56898	3.54328
6139.344	-4.34139	3.78586	-1.11522	3.09286
6143.346	-4.58289	4.06565	-1.03469	3.18846
6147.353	-4.40399	4.06307	-1.12789	3.77865
6151.341	-4.26060	4.72432	-0.69111	3.73777
6155.342	-4.16016	4.94713	-0.68630	4.02226
6159.340	-4.15255	4.35143	0.12841	4.08254
6163.342	-4.62991	4.45222	0.42244	3.51807
6167.345	-4.38531	3.81364	1.54596	3.29164
6171.305	-4.56639	3.95204	3.51874	3.26328
6175.368	-4.50661	3.80416	1.40693	3.19849
6179.345	-3.38108	3.55117	1.91928	3.36379
6183.341	-1.66911	2.92682	1.29338	4.00197
6187.343	-1.61605	5.19863	3.55122	5.10241
6191.332	0.51825	5.03993	3.93105	7.29007
6195.343	2.39371	4.74137	7.04662	5.85034
6199.321	4.06283	4.53106	8.69818	5.68301
6203.346	4.77067	3.88478	8.89434	6.12782
6207.367	7.33088	3.56898	12.27967	5.22491
6211.342	7.10638	3.52867	10.02928	5.81559
6215.344	6.95631	4.41949	12.72015	4.38710
6219.344	6.78887	4.05869	13.40013	3.63034
6223.363	6.71319	4.06733	13.45317	2.87605
6227.342	6.85498	4.06630	13.51020	3.06065
6231.343	7.07728	4.21393	13.15873	3.09265
6235.343	6.64364	4.11505	13.28326	2.40674
6239.362	6.74910	4.05816	12.90357	2.83269
6243.333	6.78177	3.92305	13.02083	3.13650
6247.345	6.73571	3.82418	12.92835	7.35178
6251.304	6.85358	3.81224	13.32750	6.93817
6255.379	6.57301	3.86791	12.90341	7.17041
6259.343	6.40979	4.06500	12.71706	7.36651
6263.342	6.75930	3.69227	12.65075	7.25387
6267.345	6.69268	3.38615	13.19917	6.37474
6271.341	6.65750	3.65244	13.03138	5.54424
6275.346	6.42775	3.40514	12.56621	5.39930
6279.340	6.35300	3.49302	12.39738	5.85127
6283.325	6.68856	3.32055	12.19515	5.53233
6287.367	6.68090	2.84622	13.19007	5.24811
6291.343	6.95411	2.82140	13.48451	4.88686
6295.343	7.01399	2.90013	13.65573	4.12655
6299.344	6.47392	3.20102	12.65803	4.50929
6303.366	6.68873	3.28412	12.62353	4.79711
6307.343	6.63377	2.81505	12.92177	3.97948
6311.345	6.88438	2.64669	14.13050	3.76918
6315.343	6.64601	2.98680	13.07172	3.90108
6319.344	6.48526	3.39487	12.99390	3.07276
6323.347	6.68871	3.47832	13.20279	3.41481
6327.337	6.88543	3.15080	13.10240	3.45544
6331.347	7.01973	3.26870	13.91409	3.02271
6335.343	6.60120	3.57767	14.11367	3.23739
6339.345	6.37761	4.39217	12.95855	2.52096
6343.343	6.63881	4.06760	13.14522	2.67643
6347.345	6.76689	3.77637	13.29779	2.85740
6351.343	6.57754	4.00053	15.15913	2.46691
6355.345	6.54947	4.73082	14.69854	2.71935
6359.344	6.46520	4.57277	13.77373	2.38168
6363.348	6.60610	4.47959	13.17567	2.32428
6367.367	6.47414	4.51449	13.11399	2.57834
6371.348	6.88453	3.89120	14.35079	1.17377
6375.347	6.37440	5.05418	14.23820	2.96554
6379.307	6.45319	4.86835	12.90805	0.52266
6383.368	6.83692	4.25198	13.72495	0.64646
6387.347	6.56620	4.58362	13.41157	0.49589
6391.344	6.13260	4.87389	9.71898	3.59240
6395.345	5.53321	4.42095	12.58157	5.64231
6399.367	3.89799	3.82721	10.06556	3.54144
6403.347	1.45261	3.15937	7.97359	2.77418
6407.326	0.47108	2.39495	5.33790	0.17428
6411.341	-1.66916	4.29439	1.90681	1.21030
6415.369	-2.35789	4.27209	4.60582	3.13272
6419.346	-2.36420	3.09822	1.99367	2.68962
6423.309	-2.91064	3.49492	1.49775	1.30806
6427.349	-4.11029	3.18573	1.33800	0.75069
6431.371	-4.48335	2.82882	-0.27413	0.76128
6435.347	-4.17539	2.26517	-0.10523	0.54217
6439.346	-3.63651	2.34179	0.79543	0.38008
6443.348	-3.48284	2.10740	1.13005	0.16946
6447.338	-3.99529	2.11956	0.68605	-0.07457
6451.338	-4.40966	1.91504	0.49656	-0.62690
6455.344	-4.17571	2.01021	0.40613	-0.48083
6459.346	-4.20995	2.07682	1.04841	-1.69381
6463.346	-4.19171	2.21974	0.58600	-0.04647
6467.346	-4.28661	1.92545	0.11237	-0.03133
6471.350	NaN	NaN	NaN	NaN
6479.346	-4.27686	1.84636	0.57051	-0.00676
6483.372	-4.26358	1.97570	0.85741	-0.33122
6487.347	-4.25097	1.97096	0.98410	-0.10763
6491.321	-4.45663	2.01454	0.44862	0.21824
6495.346	-4.31309	1.96132	0.57734	-0.59876
6499.369	-4.43712	2.22729	0.61141	-0.54698
6503.347	-4.26198	2.37446	0.69345	1.11436
6507.348	-4.13201	2.49725	0.41212	-0.01093
6511.346	-4.27205	2.16106	0.76890	-0.22273
6515.371	-4.58737	2.94849	0.56099	-0.35045
6519.350	-4.49501	3.65829	0.60047	-0.32245
6523.350	-3.97669	3.89215	0.70652	-0.47007
6527.351	-4.81199	3.89116	0.71032	0.00214
6531.369	-5.08815	1.34909	0.69131	1.16352
6535.340	-4.89575	1.81530	0.95385	3.22024
6539.344	-4.88880	1.94930	0.54215	-0.04301
6543.344	-4.10379	1.84981	0.70017	0.15738
6547.351	-3.73151	-0.06060	0.24011	0.96015
6551.348	-5.56642	1.41295	0.72541	1.79301
6555.347	-5.42112	1.93593	0.84893	3.04249
6559.347	-5.38211	1.53129	1.22439	2.38040
6563.370	-4.95768	1.67801	0.86086	2.33231
6567.352	-4.79053	1.46952	0.77883	1.93034
6571.354	-4.62621	2.49540	0.64153	1.86934
6575.348	-4.26741	3.33438	0.76414	0.86297
6579.342	-4.55751	2.85297	1.10378	0.32929
6583.347	-4.48414	1.74203	0.80111	1.90884
6587.347	-3.02724	2.34857	2.36091	0.64007
6591.350	-1.55683	3.96572	3.07756	0.56312
6595.373	0.70436	2.35278	6.07413	1.66311
6599.349	2.12751	3.06445	6.44711	2.02062
6603.349	1.97867	2.93929	10.10872	0.34799
6607.349	4.20355	2.99486	10.05948	2.37118
6611.356	4.85561	2.19007	7.47526	2.45183
6615.328	5.71898	2.27298	13.05710	1.99898
6619.349	6.07673	2.26069	12.67223	2.32405
6623.347	6.14423	2.00576	12.80369	3.18270
6627.349	5.84669	2.25018	15.17166	2.37787
6631.349	6.16371	2.03890	9.80036	3.26343
6635.351	6.13807	1.93674	10.01705	1.94281
6639.348	6.04328	1.93439	9.99883	2.11611
6643.352	6.26547	2.02077	10.14068	3.01877
6647.312	6.12077	2.09715	10.58596	2.40884
6651.351	6.10571	2.36982	12.90817	2.15477
6655.345	5.90954	2.34879	12.93832	2.12394
6659.352	6.07599	2.56122	15.36968	2.23837
6663.350	5.49696	2.92352	9.33790	2.26003
6667.348	5.55435	2.71325	9.58289	2.57200
6671.349	5.83110	3.08839	12.38453	1.77626
6675.355	5.86725	3.01274	11.49888	2.11968
6679.352	5.71192	3.68531	12.97005	2.48039
6683.351	5.46153	3.94115	12.28121	2.70570
6687.347	5.64759	4.36158	12.89409	3.33077
6691.351	5.49119	4.47285	12.53835	2.30274
6695.310	5.58388	4.01162	12.10350	2.08576
6699.320	5.71979	4.43925	13.13978	2.06375
6703.350	5.69119	4.18047	12.44415	2.87076
6707.315	5.63414	3.92565	12.80457	2.92737
6711.350	5.70074	3.86219	13.24047	2.16571
6715.351	5.76070	3.90148	13.55935	2.19683
6719.349	5.72396	3.15383	10.11206	3.57656
6723.350	5.62987	2.21622	11.90307	2.69892
6727.350	5.75288	3.64597	12.39655	1.87640
6731.350	5.66956	3.57869	12.50744	1.61847
6735.350	5.67698	2.71547	12.75764	1.54400
6739.341	5.59056	3.69701	13.40258	1.36770
6743.356	5.73519	3.33348	13.07012	1.23847
6747.352	5.82830	2.43022	13.73510	1.29966
6751.353	5.70391	3.25370	11.46740	1.22278
6755.344	5.53104	3.39519	10.50623	1.19441
6759.350	5.70089	2.42341	11.27254	1.06450
6763.353	5.71733	3.31173	11.79670	1.66463
6767.351	5.74121	2.96252	12.68045	2.95917
6771.360	5.82346	2.05449	12.92220	5.73159
6775.351	5.90821	2.16064	13.26822	5.80181
6779.356	5.49964	2.80266	10.98186	2.34414
6783.317	5.86278	2.86992	11.15362	2.62798
6787.355	5.80749	2.68335	12.51409	5.34693
6791.350	5.70089	2.38703	12.64201	5.08403
6795.348	5.48688	2.86322	13.03680	4.96885
6799.350	5.67492	2.73766	13.37122	4.97449
6803.355	5.47719	3.88016	12.21302	2.04141
6807.314	5.69657	3.37412	14.48422	3.54950
6811.350	5.79162	4.31644	13.72484	0.58078
6815.349	6.79124	3.41730	14.52433	2.89966
6819.356	7.59951	2.97665	14.15155	1.73260
6823.350	8.02891	3.39307	13.81322	-0.25305
6827.349	7.82864	4.76318	15.24383	-7.81189
6831.352	7.31057	4.73273	11.42611	-6.25393
6835.352	8.03918	5.06481	13.90747	1.40521
6839.355	8.00601	5.29640	15.97906	4.57525
6843.351	7.71255	4.62042	16.47429	4.30747
6847.354	8.24801	4.33390	16.80530	3.27471
6851.355	6.17129	4.22828	15.17991	4.77115
6855.351	7.97709	3.72451	15.33490	5.22462
6859.356	7.87927	5.16997	15.81445	4.89608
6863.349	7.79775	3.95577	16.59184	3.99075
6867.356	7.85253	3.78606	14.26452	5.02718
6871.356	8.28325	4.66610	14.42865	5.10530
6875.313	8.01835	4.71087	16.49056	4.49409
6879.352	7.86800	4.84843	17.00614	3.90309
6883.357	7.86340	4.83484	16.52175	4.70941
6887.352	8.06871	5.20144	14.60806	5.22759
6891.354	8.11549	5.31449	16.26008	4.58176
6895.351	8.02932	5.43466	16.48070	4.27897
6899.356	7.81081	5.67592	17.32411	3.44524
6903.352	7.80394	5.76802	15.76996	4.02419
6907.315	8.08744	5.25836	14.36989	4.43811
6911.357	8.01214	5.88161	15.37330	4.08751
6915.357	7.89642	5.36545	16.50336	3.18178
6919.352	7.91740	5.59925	17.61451	2.19990
6923.354	8.10571	5.67069	16.31921	2.56388
6927.354	7.59478	5.73735	14.63832	3.99607
6931.356	7.89581	5.60458	14.96001	3.30116
6935.354	7.19486	5.35597	15.60648	2.60628
6939.350	7.87689	4.96759	16.26330	1.89896
6943.355	7.91468	5.41278	16.57404	2.04014
6947.339	8.12296	5.50780	15.74099	1.88868
6951.352	8.02572	5.78238	14.66828	2.06394
6955.357	7.82418	5.58136	14.94326	2.19964
6959.354	7.79651	4.74525	15.96319	1.53680
6963.356	7.46487	5.17374	15.44723	2.10535
6967.353	7.82426	5.37145	16.67897	1.93443
6971.352	8.16189	5.18077	16.01284	1.75758
6975.355	8.32203	4.20787	15.49395	0.31520
6979.252	7.99206	3.86457	14.45823	1.82527
6983.354	7.94214	4.10094	15.25355	1.91647
6987.356	8.41155	3.82673	15.71501	2.10476
6991.351	8.23114	4.38396	15.72104	2.03358
6995.358	8.31734	4.37162	15.69532	1.83273
6999.352	8.05976	4.82223	15.90988	1.86670
7003.355	7.95207	5.00491	17.63428	1.84294
7007.354	8.30320	5.10441	15.60857	1.93158
7011.321	8.52930	5.04557	15.37743	2.29075
7015.351	8.44856	5.28267	14.51416	2.94721
7019.350	7.93058	5.63956	15.16985	3.45045
7023.352	8.05720	5.42114	15.30231	4.23578
7027.358	7.87440	5.57040	15.87099	3.74987
7031.353	7.96631	5.56721	15.18409	4.19990
7035.355	8.19944	5.23300	14.93650	4.80380
7039.354	7.34465	5.34005	15.10105	3.88476
7043.356	4.83006	5.75391	13.33170	3.75532
7047.354	4.25956	5.45649	9.88311	4.31954
7051.356	2.98227	5.30395	9.80857	2.52504
7055.354	0.31667	5.34302	6.43319	2.74663
7059.357	-0.51051	5.43400	7.49966	-0.32934
7063.316	-2.08662	4.99472	4.64199	1.53518
7067.354	-1.76326	2.89407	3.66580	-0.71123
7071.355	-3.61068	5.14014	1.44884	0.96534
7075.360	-3.79959	5.27162	1.21554	0.57618
7079.320	-3.67919	5.53306	1.29722	0.91222
7083.355	-3.36809	5.75644	3.17250	4.96496
7087.357	-3.45841	5.88667	3.64753	4.44424
7091.360	-3.50521	6.06673	3.11970	4.61415
7095.357	-3.42819	5.48349	1.74033	3.82777
7099.358	-3.45875	5.67056	1.55063	3.82648
7103.358	-3.45509	5.38560	2.54955	2.84251
7107.360	-3.46464	4.95493	2.23162	1.47807
7111.356	-3.48561	5.28968	2.42317	1.58656
7115.354	-3.45438	4.83652	2.92535	1.44797
7119.357	-3.46041	3.94849	2.79028	1.70850
7123.359	-3.48454	3.99553	2.61441	2.15221
7127.358	-3.50415	3.43045	2.46109	2.06889
7131.353	-3.51664	3.04319	2.78664	1.93025
7135.357	-3.51948	3.14509	2.78770	2.84795
7139.358	-3.47304	2.51599	2.47281	1.81348
7143.357	-3.38860	2.81385	2.57110	2.44902
7147.357	-3.29226	2.95839	2.46778	2.85978
7151.360	-2.93342	3.00625	2.30045	2.33012
7155.234	-2.92656	2.97627	2.16198	3.21696
7159.230	-2.92866	3.21673	2.61969	3.41299
7163.230	-3.13281	3.33521	2.28212	3.45200
7167.234	-2.92827	3.21171	2.42889	3.74179
7171.256	-2.80149	3.74567	2.46498	3.59049
7175.238	-2.73685	3.40025	2.59532	3.83130
7179.231	-2.75083	4.01106	2.21980	3.61390
7183.234	-2.75995	3.80973	1.89783	3.86855
7187.225	-2.89146	4.06594	2.13656	4.42839
7191.195	-3.02816	3.81064	2.82939	4.21294
7195.232	-3.31566	4.10948	2.67098	4.42358
7199.236	-3.19420	3.93772	2.62863	5.46518
7203.224	-3.35204	3.80008	2.78008	3.41368
7207.235	-3.22285	3.98033	2.76629	3.96274
7211.236	-2.98896	3.45413	3.21349	3.80653
7215.235	-2.86896	2.72787	2.48475	3.38230
7219.255	-3.05264	3.14057	3.01653	4.96785
7223.235	-3.17710	3.69036	2.79860	4.02875
7227.235	-3.27732	3.95335	3.01472	4.07766
7231.232	-3.19293	5.32224	2.49922	3.24774
7235.256	-3.34591	5.26297	2.84549	3.72264
7239.235	-3.31976	5.22635	2.93988	3.39600
7243.221	-3.16389	4.72292	2.69413	4.43882
7247.227	-3.06927	4.12337	2.58192	3.71245
7251.255	-3.18781	3.11385	3.11569	2.39041
7255.237	-5.11598	3.37567	2.19861	0.17277
7259.235	-5.45196	3.33162	-0.40601	2.93388
7263.235	-5.64565	1.44041	-1.91219	0.46565
7267.232	-5.78470	0.54153	-0.84808	-1.67720
7271.234	-6.62912	1.45801	-1.47384	-3.58015
7275.238	-6.05675	-0.11441	-2.68980	-5.39635
7279.234	-7.47334	-0.66929	-1.01898	-3.01521
7283.256	-7.36540	-1.75719	-2.66219	-2.85409
7287.201	-7.06525	-2.58503	-2.47838	-4.82527
7291.233	-7.66716	-2.77659	-2.90418	-2.43326
7295.234	-7.52920	-1.94352	-3.23541	-3.09233
7299.259	-7.72242	-2.31279	-3.94191	-3.03282
7303.234	-7.49198	-2.73915	-2.72560	-2.79724
7307.197	-7.25697	-2.71323	-3.09099	-3.40804
7311.234	-7.23062	-2.63551	-2.99532	-3.30578
7315.258	-7.35620	-2.69254	-2.94074	-5.02772
7319.235	-7.34790	-3.02083	-2.98336	-6.44140
7323.197	-7.53010	-3.13316	-3.23989	-6.55736
7327.195	-7.46275	-2.88062	-4.12633	-4.36766
7331.256	-7.52100	-2.61825	-2.99997	-3.38933
7335.235	-7.73711	-2.54566	-3.82126	-3.93008
7339.234	-7.78309	-2.79970	-2.86549	-3.57680
7343.233	-7.28461	-2.52578	-2.81850	-4.10289
7347.225	-7.49310	-2.83424	-2.85140	-4.34712
7351.233	-7.50100	-2.88877	-2.83722	-4.46607
7355.234	-7.53703	-3.06883	-3.11022	-4.43125
7359.233	-7.68917	-2.48623	-3.15523	-4.06041
7363.234	-7.76854	-2.65585	-3.21035	-3.68821
7367.235	-7.92812	-2.41236	-2.76468	-3.85387
7371.231	-7.27179	-2.39474	-2.81905	-3.64045
7375.242	-7.51593	-2.69198	-2.99789	-3.75508
7379.258	-7.76752	-2.82378	-3.25597	-3.69412
7383.237	-7.32600	-2.91420	-3.15728	-3.57186
7387.237	-7.58905	-2.46874	-3.03425	-3.10310
7391.236	-7.92059	-2.45169	-2.88740	-2.48420
7395.256	-7.47407	-2.31518	-2.81677	-2.82557
7399.235	-7.51574	-2.53338	-3.10930	-3.31142
7403.237	-7.62792	-2.40961	-2.97250	-3.24725
7407.197	-7.36667	-2.72655	-2.94210	-3.03511
7411.232	-7.60651	-1.84175	-2.83704	-2.43271
7415.237	-7.92286	0.63117	-2.87257	-2.13425
7419.235	-7.64240	0.35041	-2.88804	-2.28231
7423.237	-7.63650	-1.00901	-3.09809	-2.48303
7427.239	-7.63082	-1.42283	-2.93614	-2.55320
7431.234	-7.75999	-0.70623	-2.32298	-2.43850
7435.234	-7.77824	-0.65879	-2.73533	-1.82555
7439.237	-7.86308	-0.84775	-2.70158	-2.00997
7443.229	-7.91529	-1.54858	-3.03521	-2.31473
7447.236	-7.76438	-2.49793	-3.29988	-2.54563
7451.240	-8.00647	-1.96139	-2.85031	-2.10876
7455.227	-7.90146	-2.28622	-2.69884	-2.44332
7459.260	-7.98357	-1.87060	-2.74118	-1.95082
7463.236	-7.95470	-1.97531	-2.47177	-2.04376
7467.236	-7.97043	-2.07345	-2.82425	-2.21141
7471.238	-7.98632	-3.03540	-2.68269	-2.72674
7475.262	-7.79461	-3.74233	-2.83140	-1.98357
7479.234	-7.92025	-4.47890	-2.43080	-2.21424
7483.232	-7.77856	-2.87317	-2.85066	-1.53314
7487.234	-7.92264	-2.43276	-2.69188	-1.24925
7491.257	-7.72432	-2.27984	-2.64775	-2.46540
7495.237	-7.81084	-3.34516	-2.55227	-1.86433
7499.237	-7.70706	-3.63138	-2.84326	-2.29449
7503.234	-7.72878	-3.51587	-2.66293	-2.53764
7507.235	-7.72712	-3.37925	-2.79340	-3.00469
7511.199	-7.72212	-2.93490	-2.71869	-4.55724
7515.236	-7.79695	-3.06711	-2.85462	-4.79686
7519.240	-7.62272	-2.95669	-2.88217	-3.35892
7523.260	-7.80043	-2.95260	-3.06828	-4.21729
7527.237	-7.80752	-2.77704	-2.47450	-3.52350
7531.240	-7.72612	-2.69823	-2.94626	-3.05046
7535.223	-7.64949	-3.16085	-3.02764	-3.07177
7539.262	-7.75797	-3.97685	-3.19749	-3.31052
7543.236	-8.03467	-3.30159	-3.38832	-3.40736
7547.237	-7.73014	-5.02709	-3.73386	-3.91930
7551.237	-8.16116	-3.63792	-4.10974	-3.88206
7555.260	-8.39622	-3.97945	-4.18102	-3.91494
7559.238	-8.59752	-3.72793	-4.34285	-3.64206
7563.237	-8.67449	-4.30384	-4.43892	-3.42776
7567.244	-8.34358	-4.51121	-4.29507	-3.58532
7571.269	-8.65142	-4.21999	-4.28019	-3.37243
7575.242	-8.85470	-4.05898	-4.40688	-3.53400
7579.234	-8.93995	-4.05564	-4.40458	-3.69180
7583.240	-8.72862	-3.97696	-4.41995	-3.76541
7587.260	-8.84835	-4.35969	-4.32111	-3.04778
7591.238	-9.03856	-3.95571	-4.48017	-3.40501
7595.240	-8.97242	-2.85331	-4.28575	-3.84801
7599.238	-9.03057	-0.78632	-4.17519	-4.48338
7603.262	-8.88651	-2.00928	-4.50441	-4.86573
7607.241	-9.00181	-1.71380	-4.58488	-5.31341
7611.242	-9.06226	-1.58371	-4.42025	-4.90778
7615.241	-8.93002	-1.38056	-4.32829	-4.04684
7619.265	-8.96910	-1.65326	-4.10303	-4.80920
7623.240	-8.99772	-1.44846	-4.19334	-3.85410
7627.239	-9.12217	-1.66594	-4.62540	-4.43511
7631.242	-9.21771	-1.47630	-4.15152	-3.63160
7635.244	-9.00295	-1.47537	-3.92932	-2.84090
7639.240	-8.96416	-1.72962	-4.35368	-2.96737
7643.241	-9.04972	-1.51967	-4.22683	-3.21950
7647.238	-9.09505	-1.69389	-4.27101	-3.19740
7651.240	-9.11856	-1.58685	-4.38956	-2.43224
7655.242	-8.89763	-1.54027	-4.25776	-2.48544
7659.228	-9.10284	-1.87265	-4.14376	-2.03655
7663.230	-9.13722	-2.06865	-4.21214	-1.37754
7667.237	-9.21614	-2.09004	-4.16665	-4.25943
7671.239	-8.97513	-1.94701	-4.07122	-4.45832
7675.240	-9.03633	-2.12274	-4.54540	-5.04496
7679.244	-9.13565	-2.30372	-4.42782	-3.84179
7683.238	-9.16542	-2.10536	-4.24421	-2.55479
7687.241	-8.59674	-2.64137	-3.81607	-1.89405
7691.241	-9.06526	-2.01966	-3.38422	-3.62163
7695.242	-9.14510	1.26652	-3.93576	-0.19428
7699.232	-9.06731	-1.52567	-3.80152	-2.17992
7703.211	-9.03701	1.37640	-3.54267	1.90035
7707.203	-8.87353	4.12922	-2.90948	4.70475
7711.240	-9.08621	4.60078	-3.82704	5.46315
7715.235	-9.00540	4.35624	-3.34324	2.37333
7719.239	-8.99542	3.87793	-3.44401	2.08623
7723.240	-8.84557	4.53953	-3.41436	2.41622
7727.241	-8.75625	4.66538	-3.38068	4.02139
7731.243	-8.95649	3.93792	-3.23667	5.05264
7735.197	-8.95484	4.35279	-3.28922	5.22777
7739.244	-8.99523	3.76048	-3.52027	6.81289
7743.228	-8.67621	3.02664	-3.33564	6.00759
7747.244	-8.49984	3.34412	-3.31868	6.44525
7751.237	-8.93626	2.77817	-3.38174	2.38482
7755.202	-8.92355	2.99030	-3.30641	1.77421
7759.243	-9.04744	3.75070	-3.24415	2.25626
7763.247	-9.23991	2.49461	-3.25595	2.38798
7767.242	-8.57406	3.85014	-3.21735	4.15322
7771.242	-8.88300	3.47402	-3.23195	3.71044
7775.239	-8.93074	3.19802	-3.26334	3.17486
7779.233	-9.27109	3.05350	-3.29491	3.60516
7783.238	-8.97472	3.80150	-3.21713	5.10689
7787.241	-8.38942	3.82054	-3.29379	3.90689
7791.243	-8.64437	4.20475	-3.24570	4.07380
7795.241	-9.17965	4.38893	-3.30567	4.97788
7799.239	-9.07908	3.87721	-3.33431	4.97948
7803.233	-9.05086	4.02361	-3.70440	4.74994
7807.205	-8.70745	4.12356	-3.41909	4.44267
7811.244	-8.52685	4.15268	-3.37875	4.39302
7815.243	-8.52406	3.48628	-3.35635	5.02506
7819.245	-8.63151	4.09790	-3.43130	4.94373
7823.243	-8.79148	3.60466	-3.57070	5.17933
7827.144	-8.96065	2.90127	-3.76574	5.09406
7831.243	-8.65897	3.27732	-3.87341	5.05134
7835.243	-8.84913	2.96213	-3.50568	4.90595
7839.243	-8.76258	2.97232	-3.36794	4.37336
7843.140	-8.78513	2.55520	-3.63646	4.21364
7847.244	-8.70245	2.34395	-3.41973	3.72903
7851.241	-8.68863	2.09116	-3.54089	4.89510
7855.242	-8.78280	1.67196	-3.53864	5.18955
7859.143	-8.78125	1.55445	-3.57933	4.40843
7863.241	-8.83391	1.68490	-3.66965	4.64240
7867.231	-8.78949	2.04120	-3.78951	4.49050
7871.243	-8.83020	1.97044	-3.54761	4.40143
7875.235	-8.91762	1.98863	-3.40094	3.69630
7879.208	-8.76857	1.79878	-3.41001	4.66758
7883.242	-8.83999	1.63534	-3.57513	4.01612
7887.241	-8.70194	1.54234	-3.41248	5.14467
7891.245	-8.72522	1.56485	-3.30559	5.18244
7895.241	-8.57209	1.99593	-3.37178	4.74821
7899.242	-8.61009	1.68459	-3.31949	5.53471
7903.242	-8.66181	2.05959	-3.41859	4.52994
7907.217	-8.51324	1.88968	-3.67153	5.37677
7911.211	-8.69792	1.92561	-3.63394	5.32812
7915.243	-8.77366	1.83205	-3.42816	5.56584
7919.243	-8.61295	2.09438	-3.24805	5.27955
7923.243	-8.76302	2.01417	-2.93955	4.51095
7927.242	-8.66547	2.27777	-2.91124	5.02298
7931.243	-8.77790	3.16210	-3.33075	5.44652
7935.245	-8.92558	2.46790	-3.02764	4.61011
7939.247	-8.63947	2.53984	-2.91710	5.66871
7943.246	-8.17184	1.92636	-2.67610	5.33485
7947.246	-4.91602	3.21728	-1.53317	5.76748
7951.229	-6.43221	2.63698	-1.03421	5.61221
7955.245	-5.33972	2.40268	-0.16476	5.34441
7959.245	-4.71402	1.82813	0.66528	4.61696
7963.247	-4.51006	2.32699	1.00881	4.62309
7967.244	-4.54821	1.85514	1.27944	5.49561
7971.248	-4.59292	1.85539	1.31530	4.25528
7975.242	-4.38721	2.90365	1.58696	3.92356
7979.250	-4.32651	3.04030	1.40896	3.73001
7983.243	-4.30324	2.82540	1.63564	3.32719
7987.140	-4.38077	2.99583	1.75106	3.52043
7991.238	-4.29515	2.01361	1.71469	3.15375
7995.235	-4.19684	2.16397	1.76120	2.88761
7999.244	-4.12303	2.33505	1.78892	2.97903
8003.144	-4.20390	2.68476	1.81010	2.07291
8007.245	-4.12409	2.59080	1.76165	2.77938
8011.207	-4.10211	2.27406	1.88231	2.20192
8015.244	-4.06448	2.73630	1.80176	2.74384
8019.142	-4.10547	2.88758	1.69974	2.79637
8023.245	-4.15270	3.06829	1.62946	2.97865
8027.246	-4.22135	3.07130	1.93001	3.25698
8031.244	-4.16260	3.25739	1.97808	3.39158
8035.186	-4.22338	3.40742	1.98883	2.75588
8039.246	-4.29199	3.55592	2.01332	3.43088
8043.245	-4.38013	3.81128	1.93596	3.55879
8047.245	-4.39637	3.67020	2.01578	3.42927
8051.250	-4.42227	3.78691	2.17281	3.47499
8055.245	-4.53911	3.98584	2.23843	3.31223
8059.244	-4.55310	4.30262	2.24854	3.56357
8063.248	-4.63001	4.42435	2.16984	3.50870
8067.250	-4.62685	4.34156	2.23729	3.38149
8071.209	-4.66233	4.11687	2.20699	3.43073
8075.235	-4.58121	4.15213	2.08999	3.27506
8079.213	-4.58715	4.15365	1.91120	3.24808
8083.252	-4.48031	4.04254	1.92396	2.90905
8087.245	-4.34105	3.77644	1.99555	2.86220
8091.249	-4.11880	3.65834	1.95800	2.70053
8095.246	-4.22740	3.76955	1.90403	2.69824
8099.251	-4.07411	3.37418	1.87146	1.32379
8103.245	-3.89943	3.63300	1.90661	1.98465
8107.248	-4.22343	3.16376	1.96603	2.70173
8111.246	-4.12804	3.23080	1.93993	2.56245
8115.252	-4.14431	3.22708	2.11561	2.99180
8119.213	-4.13300	3.55476	2.16843	5.33130
8123.248	-4.26608	3.54219	2.15185	8.68177
8127.250	-4.28219	3.37914	2.24515	6.78760
8131.247	-4.11451	3.02531	1.76995	7.10030
8135.247	-3.86949	3.12391	1.94322	7.09673
8139.246	-4.09216	3.02196	2.15995	6.03871
8143.209	-4.32254	2.95953	2.07467	6.82114
8147.145	-4.26617	3.04081	1.84991	7.43273
8151.249	-3.94364	3.34598	1.88127	6.00115
8155.246	-4.10592	4.39032	2.29649	5.23546
8159.233	-2.70889	4.29759	2.27875	5.96679
8163.144	-1.43530	4.51163	3.29003	5.93452
8167.246	-0.24028	5.83556	7.37087	5.51107
8171.245	NaN	NaN	6.89879	9.24998
8175.248	NaN	NaN	19.68700	3.64579
8179.149	NaN	NaN	NaN	NaN
8183.249	NaN	NaN	NaN	NaN
8187.245	NaN	NaN	NaN	NaN
8191.120	NaN	NaN	NaN	NaN
8195.206	NaN	NaN	NaN	NaN
8199.119	NaN	NaN	NaN	NaN
8203.123	NaN	NaN	NaN	NaN
8207.125	NaN	NaN	NaN	NaN
8211.083	NaN	NaN	NaN	NaN
8215.121	NaN	NaN	NaN	NaN
8219.121	NaN	NaN	NaN	NaN
8223.120	NaN	NaN	NaN	NaN
8227.123	NaN	NaN	NaN	NaN
8231.081	NaN	NaN	NaN	NaN
8235.123	NaN	NaN	NaN	NaN
8239.122	NaN	NaN	NaN	NaN
8243.148	NaN	NaN	NaN	NaN
8247.109	NaN	NaN	22.45104	6.04786
8251.121	NaN	NaN	NaN	NaN
8255.126	NaN	NaN	NaN	NaN
8259.117	NaN	NaN	NaN	NaN
8263.123	NaN	NaN	6.43251	10.26287
8267.122	15.73794	14.32205	10.63480	8.18207
8271.126	22.41450	1.87764	19.13015	3.85289
8275.123	22.40343	0.48802	16.22725	6.76282
8279.126	19.93630	0.18599	19.26075	4.67194
8283.147	16.64975	2.54566	19.43827	4.43722
8287.126	16.94709	0.90663	16.18693	4.56174
8291.091	15.44953	1.01952	18.81566	1.26413
8295.125	13.83826	0.83071	15.35147	0.78664
8299.149	12.36397	1.12803	17.97605	1.23284
8303.127	10.76218	1.60953	18.86910	4.42330
8307.125	7.96702	3.27412	17.89561	4.44246
8311.123	8.81680	2.96089	17.54224	1.83503
8315.147	10.16673	1.59373	17.90300	0.84481
8319.085	10.21197	1.36434	16.78276	0.93137
8323.123	9.56566	2.03909	16.49859	4.40368
8327.127	7.66080	2.93395	17.44510	4.06570
8331.132	8.81142	2.12446	18.05301	1.35507
8335.121	9.09630	2.09151	16.23926	3.07881
8339.126	8.97465	2.23841	16.45128	1.81059
8343.123	8.86759	2.13595	16.01401	1.69013
8347.147	8.66789	2.73808	16.55176	1.80658
8351.124	8.51659	2.41983	16.61953	3.47477
8355.126	8.36538	2.68449	17.21372	1.84788
8359.126	8.39853	2.62772	16.83425	2.44055
8363.150	8.57736	2.58638	16.31173	2.70408
8367.125	8.48971	2.70829	16.21174	1.59382
8371.122	8.29961	2.73609	15.80415	-0.49282
8375.118	8.16970	2.63827	16.49451	2.15174
8379.118	8.36275	2.55850	16.40614	3.38062
8383.128	8.32961	2.13815	16.92796	1.83705
8387.128	8.33972	2.33844	17.37245	1.86102
8391.126	8.38000	1.68960	16.06398	2.61783
8395.126	8.38163	1.16685	16.37085	1.78843
8399.126	7.93671	2.20957	16.20169	1.29982
8403.128	8.29083	1.39665	16.20025	2.07336
8407.128	8.01005	1.88262	16.71276	3.79913
8411.149	8.13164	1.35313	16.91027	1.87309
8415.089	8.38675	1.06333	15.91996	2.41146
8419.126	8.28765	1.12700	16.30131	3.36409
8423.126	8.17534	1.37078	14.83724	0.53103
8427.149	7.94336	2.10920	16.25605	2.14556
8431.125	7.87591	2.35620	16.44110	3.23367
8435.126	7.71593	2.09362	16.99837	2.06129
8439.127	7.96507	2.28002	17.15143	2.15274
8443.152	8.04779	2.20708	16.96986	2.34416
8447.125	7.95000	2.33349	13.72664	0.04801
8451.129	8.07175	3.28078	14.17439	0.13102
8455.123	7.98581	2.51582	16.86639	-1.14354
8459.152	8.05402	2.63619	16.82527	2.40517
8463.129	7.94214	2.55166	16.83413	2.27349
8467.125	8.09304	2.56773	17.11376	2.19295
8471.128	8.07000	2.86304	13.20185	0.34135
8475.152	8.12790	2.77534	14.92220	-1.28537
8479.125	8.08394	2.86677	15.10230	-0.45623
8483.094	8.18346	2.63163	16.98262	-0.97149
8487.127	8.06402	2.45407	17.02431	0.14589
8491.148	8.06003	1.64052	17.10902	2.32005
8495.126	8.03706	2.15193	13.40932	-0.30434
8499.094	8.45759	2.46119	17.14662	-0.76392
8503.128	10.84432	0.48112	16.27078	-8.41822
8507.162	11.66063	-0.05035	20.02455	-0.16707
8511.090	12.31706	-0.43247	20.39719	-1.65558
8515.129	12.80603	-0.82533	18.53629	-0.61141
8519.129	12.78290	-0.85658	19.69063	-0.08238
8523.151	11.82492	-0.97915	21.47558	-1.11906
8527.127	12.54315	-1.02806	21.84702	-0.65380
8531.127	12.30744	-0.69328	20.80538	-1.64498
8535.092	12.66476	-0.62309	20.35839	-0.86849
8539.131	12.72853	-0.65846	18.46121	-0.20579
8543.129	12.80086	-0.63368	19.17571	-1.17605
8547.126	12.63355	-0.62132	20.51457	-1.29561
8551.091	12.68321	-0.63225	21.79362	-1.61730
8555.153	12.61393	-0.37312	22.04990	-1.98810
8559.126	12.60968	-0.06688	19.44460	-1.17356
8563.128	12.60209	-0.05961	19.15064	-0.99090
8567.128	12.61055	0.22264	19.27497	-1.27161
8571.150	12.50278	0.60759	20.21000	-2.62098
8575.130	12.39771	1.18371	21.68741	-3.16001
8579.131	12.58966	1.60499	22.45888	-2.55358
8583.125	12.50129	0.92939	19.07079	-1.67511
8587.155	12.42001	1.62208	19.71294	-1.72678
8591.128	12.52967	0.96773	19.26851	-2.16739
8595.130	12.58129	0.67077	21.17842	-2.52059
8599.128	12.38978	1.03747	21.96341	-2.90231
8603.132	12.60465	-0.45182	21.46900	-2.61621
8607.134	12.64645	0.25100	18.96671	-1.52820
8611.127	12.65248	0.34722	18.98129	-1.94174
8615.128	12.32864	0.07084	19.36740	-2.10224
8619.131	12.76770	-0.29532	21.24013	-2.35042
8623.102	12.77176	-0.00577	21.45905	-2.53586
8627.128	12.72320	-0.11070	21.54221	-2.58765
8631.128	12.82889	0.13309	19.05986	-1.43653
8635.153	12.35900	0.21317	19.64180	-2.49928
8639.130	13.00617	-0.04850	19.04052	-1.92073
8643.129	11.99049	0.95763	20.39448	-1.70320
8647.127	12.39087	0.57584	21.56235	-2.03695
8651.150	12.24246	1.61878	21.82275	-2.27356
8655.130	12.42520	1.04051	19.50396	-2.01186
8659.133	12.42441	1.28093	18.94367	-1.40707
8663.117	12.80818	1.35682	18.85990	-1.85037
8667.131	12.73987	1.28936	20.24009	-2.07152
8671.131	12.26607	1.52432	21.76308	-2.32441
8675.132	12.27334	2.39557	22.05732	-2.35843
8679.131	12.23239	1.79866	19.73372	-1.92374
8683.138	12.94490	1.21121	18.99738	-1.51594
8687.094	12.80032	1.33250	19.00439	-2.39990
8691.131	12.76090	1.48801	19.48504	-2.27885
8695.129	12.64593	1.38522	21.19199	-2.80939
8699.130	12.84999	1.31507	21.50231	-2.67869
8703.128	12.77138	0.98731	21.73321	-2.87486
8707.096	12.80268	0.70398	21.61228	-2.69441
8711.134	12.36172	0.66556	21.19216	-3.05128
8715.133	11.68122	0.65498	19.24394	-2.20532
8719.132	10.78419	1.03803	17.04087	-0.92544
8723.134	9.57944	1.23822	15.84344	-2.62369
8727.130	8.50799	1.12771	13.83931	-3.03386
8731.133	7.52349	1.64631	15.03652	-3.45555
8735.129	7.06823	2.13413	13.73500	-3.34799
8739.130	7.50827	1.48495	15.27376	-4.15048
8743.137	7.79585	0.80562	13.56838	-3.33526
8747.134	7.74493	1.49538	14.51928	-3.36604
8751.087	8.01849	1.78121	14.37687	-2.92353
8755.093	6.73353	1.94869	15.96340	-3.16478
8759.133	6.96421	2.06933	16.33548	-3.29384
8763.135	6.79582	1.42230	16.83418	-3.38188
8767.109	7.85833	0.26339	14.41413	-3.61837
8771.131	7.29067	0.19682	14.55595	-3.53721
8775.131	7.83692	0.16530	14.48478	-3.21348
8779.133	7.69439	0.27332	13.91699	-3.06984
8783.137	7.55525	0.79058	14.13080	-3.08698
8787.126	7.78153	1.00822	14.70971	-3.25203
8791.123	7.35212	1.43832	14.95104	-3.24896
8795.135	7.18880	1.60814	15.83172	-2.98054
8799.133	7.23733	1.71506	15.38491	-2.92363
8803.131	7.50608	1.71141	15.44165	-2.54798
8807.095	7.57864	2.14827	15.32514	-2.55254
8811.131	7.29768	2.33781	15.35951	-2.56065
8815.095	7.54120	1.32171	15.66933	-2.55925
8819.095	7.29873	1.51128	15.57286	-2.01325
8823.133	7.49764	1.78462	13.43963	-1.09596
8827.137	7.58766	1.80952	15.39391	-1.91769
8831.103	7.80194	1.84548	15.28307	-1.62066
8835.133	7.86776	1.83291	15.37058	-1.29517
8839.131	7.09360	1.88033	15.02520	-1.37112
8843.133	6.95462	1.44960	15.08053	-0.93336
8847.135	7.19231	0.72337	15.49654	-1.08328
8851.132	6.99717	1.12875	15.77228	-1.15033
8855.132	6.83335	1.54076	16.29621	-1.06887
8859.131	7.50608	1.16486	15.30847	-1.18766
8863.132	7.05161	1.05171	15.29866	-1.29763
8867.134	7.06359	1.01591	16.24722	-1.88665
8871.122	7.35058	0.83804	14.85146	-0.85112
8875.138	7.26591	0.69664	14.91900	-1.30523
8879.131	7.26908	0.61210	14.52205	-0.99288
8883.138	7.42400	0.69952	14.46170	-1.00963
8887.132	7.57122	0.52862	15.03654	-1.12447
8891.139	7.20917	0.59726	14.84872	-0.95831
8895.135	7.48422	0.49062	14.78456	-1.32888
8899.132	7.53327	0.56210	14.58250	-1.13642
8903.132	7.30744	0.55275	14.83543	-1.03127
8907.100	7.20748	0.56638	14.61392	-1.26854
8911.136	7.18354	0.55199	14.76419	-1.48443
8915.098	7.27702	0.62369	15.06679	-0.94409
8919.136	7.39405	0.62498	15.28633	-1.01577
8923.135	7.14641	0.87816	14.90551	-0.57320
8927.133	7.29064	0.68923	15.14130	-0.93383
8931.131	7.35510	0.82468	15.35339	-0.90838
8935.134	7.26092	0.97331	15.70271	-1.22351
8939.135	7.04997	1.00627	15.75281	-0.70792
8943.133	7.20526	0.94227	15.72998	-1.27948
8947.135	7.15735	1.10100	16.44880	-1.47222
8951.134	7.20458	1.26693	15.71299	-0.98227
8955.116	7.32153	1.17752	15.55038	-0.84558
8959.096	7.95134	1.20223	15.66822	-1.08349
8963.131	7.55725	1.15175	16.11757	-1.01096
8967.131	7.26549	1.29458	15.47316	-0.88152
8971.135	7.30620	1.51627	14.46703	-0.53742
8975.136	8.15596	1.53682	14.26030	0.08034
8979.135	7.73692	2.14872	15.71310	-0.05978
8983.133	8.54413	2.23095	17.14080	0.62260
8987.141	9.49344	2.37839	16.70652	0.11100
8991.140	10.15232	2.26768	15.05452	-0.69156
8995.130	10.52849	2.35354	18.48155	-0.85070
8999.099	10.76089	2.02105	18.12210	-0.37963
9003.100	10.89875	2.21168	17.27925	0.81886
9007.136	10.15569	1.94909	18.10222	0.51746
9011.136	9.95748	1.72875	18.52440	0.14415
9015.134	10.31818	1.62328	17.71023	1.14193
9019.137	10.45389	1.34560	18.75160	-0.16048
9023.141	10.17687	1.55306	18.53690	-0.16240
9027.092	10.48533	1.44295	18.65753	-0.36873
9031.136	10.37085	1.49837	18.76310	-0.26629
9035.137	10.47765	1.35248	18.79843	-0.45588
9039.106	10.49553	1.45328	18.10971	0.02837
9043.135	9.96232	1.63384	18.62005	-0.17096
9047.135	10.23740	1.60593	18.43633	-0.21068
9051.137	10.14903	1.74385	18.28127	0.20242
9055.136	10.21853	1.98503	18.32201	-0.20874
9059.135	10.30538	1.86353	18.97741	-0.24161
9063.134	10.36689	1.95443	18.44129	-0.30701
9067.033	10.43102	2.13342	18.50064	-0.33554
9071.137	10.29293	2.10255	18.16504	-0.05251
9075.138	10.33495	2.17287	18.21538	-0.04362
9079.101	10.22582	2.28213	17.67155	0.30999
9083.142	10.33502	2.19994	18.01682	0.11834
9087.139	10.35383	2.07241	17.26468	0.53608
9091.135	10.31114	1.89685	18.16953	0.20456
9095.097	10.38564	1.70282	18.36436	0.01743
9099.140	10.32570	1.63973	17.61974	0.00819
9103.138	10.17180	1.54991	17.60876	0.34288
9107.139	10.37995	1.17330	17.22459	0.71637
9111.136	10.32890	1.21307	18.39543	-0.45745
9115.039	10.33553	1.21630	17.87904	0.01707
9119.141	10.46419	1.07884	18.29065	0.01069
9123.104	10.53778	1.05660	18.34853	-0.14309
9127.149	10.45968	1.10174	18.17161	-0.04056
9131.000	10.44148	1.11453	18.38955	-0.02639
9135.135	10.35822	1.21716	18.04554	-0.10970
9139.139	10.44062	0.95528	17.92432	-0.31845
9143.138	10.45133	1.08199	18.29060	-0.58808
9147.137	10.55881	0.76674	18.39590	-0.73012
9151.136	10.62099	0.44650	18.33420	-1.07137
9155.137	10.67756	0.63145	17.83832	-0.30429
9159.138	11.09779	0.54771	17.79383	-0.85157
9163.139	10.70126	0.39159	18.36617	-1.08893
9167.137	10.76048	0.25315	18.15252	-0.88511
9171.138	10.80841	0.91375	18.26861	0.33809
9175.138	10.78738	0.91127	18.38790	0.19060
9179.140	10.82217	0.76566	18.45791	0.34191
9183.137	10.78712	0.95100	18.13432	-0.79509
9187.137	10.97339	0.68151	18.58567	-0.90258
9191.138	10.87943	0.95490	18.52268	-0.98404
9195.035	10.59399	1.12758	18.30403	-1.24894
9199.139	10.78647	1.47192	18.60473	-1.24401
9203.129	10.59241	1.83819	18.59341	-1.24065
9207.139	10.05067	2.11118	18.46266	-1.24219
9211.036	10.70692	1.48973	18.27141	-0.94922
9215.136	10.42759	1.81387	18.40419	-1.43493
9219.137	10.13107	1.84336	18.05595	-0.80872
9223.141	10.01869	2.29628	18.16702	-0.94778
9227.042	10.27316	2.13616	17.78348	-1.01905
9231.114	10.27270	2.27886	17.44908	-0.72389
9235.011	10.34629	2.31079	18.02952	-0.77083
9239.014	10.56733	1.78675	18.20451	-0.79444
9243.012	10.60639	2.05899	18.28139	-0.60712
9247.015	10.63657	1.81938	17.69651	-0.20468
9250.998	10.54164	2.13517	17.47119	-0.01325
9255.014	10.48564	1.83250	17.18244	0.78580
9259.013	10.49241	1.94944	17.49548	0.15561
9263.013	10.41278	1.85991	17.52891	0.10111
9267.015	10.46565	1.60604	15.94103	-0.28533
9271.014	10.49325	1.18320	15.77839	-0.04610
9275.004	10.49997	1.30306	15.46955	-0.29114
9279.014	10.30110	1.45030	15.26028	-0.12054
9283.014	10.38351	1.48666	14.80263	0.13672
9287.020	10.63674	1.09667	13.30442	0.57934
9290.980	10.55078	0.62572	13.85522	-0.19064
9294.980	10.44984	0.44262	13.38538	0.26038
9298.977	10.53663	0.84324	16.80198	0.90020
9303.014	10.57848	0.78877	16.88600	0.67233
9307.005	10.27184	1.06247	15.59372	1.28925
9311.013	10.16262	1.40434	17.13697	2.01126
9315.015	9.80199	1.52837	17.06691	2.45266
9318.977	10.78427	1.57573	17.05390	1.76325
9323.036	10.31669	1.54277	14.75785	0.15958
9327.019	9.92336	1.44932	16.38931	0.72423
9331.015	8.04356	2.06791	14.52377	2.27554
9334.996	8.58650	1.97300	12.60604	2.73634
9338.984	7.29846	1.74219	12.05658	2.99996
9343.015	6.61577	2.75950	12.03895	2.05454
9347.017	5.03206	3.16834	11.90942	2.18324
9351.017	6.05759	2.74325	11.16108	2.76978
9355.038	5.83432	2.48847	9.60456	-0.54028
9359.016	6.29805	2.80435	10.38082	-0.73030
9363.016	6.28258	3.16371	10.15944	-1.10235
9366.978	5.05641	2.40351	9.65360	-0.62360
9371.045	5.01342	2.93601	10.17187	-1.45334
9375.003	4.63861	2.66915	9.96821	-0.71867
9378.979	5.01824	2.29902	11.46013	-0.05828
9383.018	4.74654	2.77261	10.24370	-0.59348
9387.013	4.92349	2.57700	9.67888	-0.15782
9391.017	5.37979	1.13382	9.68539	0.21024
9395.016	5.22677	1.48969	9.47604	0.26748
9399.014	5.28775	1.72931	10.30178	0.58046
9403.009	5.19268	1.43825	9.55932	0.78423
9407.020	5.16319	1.46451	10.02998	0.65984
9411.018	5.10413	1.33795	10.18002	0.26079
9415.018	5.14776	1.61647	10.58078	-0.22152
9419.011	5.08958	1.39997	10.56001	-0.07434
9423.013	5.13611	1.46529	10.59752	-0.54350
9427.019	5.11543	1.57513	10.29341	-0.54718
9431.013	4.83617	1.43547	10.71044	-1.01476
9435.016	4.59314	1.50229	10.28251	-0.81731
9439.016	5.17863	1.43123	10.49994	-0.68898
9443.018	5.86777	1.44642	10.76760	-0.59243
9447.019	6.28918	1.53074	11.93037	-0.54188
9451.014	6.25460	2.05004	10.92031	-0.73945
9455.018	5.00145	4.85588	11.73007	-0.51844
9459.001	4.87554	4.47970	13.25000	-0.77316
9463.015	5.16105	3.94442	11.45245	-0.76731
9467.015	5.01356	3.95163	12.03479	-0.66106
9471.016	5.34899	3.75888	11.05895	-0.63749
9475.019	5.08234	3.39531	10.94985	-0.61487
9479.017	5.96895	1.74504	10.63794	-0.58303
9483.009	6.33679	1.65856	9.52741	-0.23244
9487.021	5.53095	2.01411	10.60872	-0.72796
9491.017	5.33008	1.86232	10.44749	-0.69586
9495.017	5.63889	2.00334	9.86095	-0.78874
9499.010	5.63530	2.11135	10.58426	-1.07822
9502.980	5.61384	3.16883	10.73722	-1.32772
9507.018	5.60062	3.05405	10.94126	-2.18120
9511.020	5.84456	3.26457	10.58958	-1.05196
9515.014	6.08318	3.57099	11.57548	-1.12081
9518.983	5.59290	3.97141	11.24998	-0.41614
9523.020	5.76495	3.86442	12.00837	-0.32248
9527.019	5.54587	3.65631	12.00645	-0.63070
9531.016	5.54422	3.21968	10.99606	-0.05313
9535.018	5.41025	3.17213	11.41464	-1.19481
9539.023	5.01337	3.46910	10.94516	-1.56315
9542.991	5.35608	3.24510	10.69019	-2.03835
9547.042	5.64668	2.89752	9.05698	-1.40067
9551.020	5.54786	3.05930	6.99177	-1.28413
9555.018	5.07050	2.85828	11.49150	0.61396
9559.019	5.39460	2.61602	11.08046	2.86216
9563.017	5.44001	2.22084	10.66181	3.63516
9567.022	5.40390	2.04060	10.63137	-1.14561
9570.981	5.43524	2.23320	10.30857	-1.59324
9575.021	5.49947	2.04665	8.72311	-0.61824
9579.009	5.40931	1.83922	10.07495	2.93086
9583.006	5.47446	1.36333	10.79480	3.37781
9587.012	5.37638	1.96597	10.59589	1.41270
9591.019	4.50310	1.93934	8.51379	-1.34120
9595.019	3.23403	1.81622	8.08562	1.55946
9599.020	0.69737	2.14558	5.29297	-1.08934
9603.017	0.69243	2.40332	6.24855	-0.29372
9606.982	-1.50787	2.95616	4.48088	-1.23389
9611.020	0.57488	3.83800	3.78284	-1.10086
9615.020	0.25895	4.00139	4.28481	-0.91286
9619.023	-0.04135	4.82567	5.56308	-0.76551
9623.021	-0.12009	4.86804	4.40463	-1.09922
9627.009	0.25577	4.87018	4.38677	-0.97946
9631.019	0.13181	3.55682	4.38988	-0.59503
9635.021	0.51818	3.95806	3.37561	-1.40426
9639.019	0.15156	4.23189	6.17313	-0.98072
9643.013	-0.01420	4.10134	4.23458	-0.62085
9647.033	0.23132	4.43622	4.34031	-0.58476
9651.021	0.20998	4.12727	4.35366	-0.57516
9655.020	0.13813	4.02914	5.45319	-0.92730
9659.023	0.08982	4.06015	4.58493	-0.84609
9663.019	0.07356	3.96329	4.49736	-0.73608
9667.005	0.33245	3.75473	4.37764	-0.59554
9671.015	0.04772	3.72272	4.51186	-0.65735
9675.043	-0.11548	3.87667	4.99041	-0.17655
9679.021	-0.11071	3.81379	4.19531	-0.43740
9683.021	-1.71079	4.11437	4.49415	0.84008
9687.019	-4.23821	4.70413	-1.43468	3.35491
9691.014	-4.66534	4.70657	-3.08894	1.27275
9695.020	-5.57247	3.41060	-3.12131	1.46539
9699.022	-6.63078	2.84134	-5.82886	1.67059
9703.019	-7.36364	3.19791	-7.48624	-0.63219
9707.016	-9.88215	3.14578	-8.50018	-0.92497
9711.017	-11.11566	2.11979	-8.82591	-1.68629
9715.019	-11.11824	2.44472	-9.20593	-1.53560
9719.020	-7.54532	2.96950	-9.54027	-1.69240
9723.020	-10.11524	2.60526	-9.59768	-1.58488
9727.018	-9.84606	-3.71237	-10.78149	-1.78183
9731.022	-7.86125	-3.81046	-10.46251	-1.34256
9735.021	-9.27247	2.12405	-10.74805	-1.17458
9739.019	-11.87660	2.30022	-10.19875	-0.25232
9743.022	-12.39826	1.93137	-10.33043	-0.40768
9747.026	-12.27273	1.91782	-9.94286	0.07235
9751.005	-12.60032	1.90765	-10.22483	0.28264
9754.986	-11.75317	2.02078	-10.33250	0.69886
9759.022	-12.93493	2.11006	-10.12541	0.85381
9763.022	-11.52040	2.29452	-10.39938	1.31504
9766.984	-12.03629	1.96434	-10.54747	0.85342
9771.026	-11.75586	2.03721	-10.10432	1.05693
9774.985	-11.87570	2.02748	-9.94224	-2.16685
9779.020	-12.70130	1.88491	-10.11938	0.29250
9783.020	-11.67153	1.59596	-9.83122	-0.14431
9787.022	-12.44687	1.33975	-9.76105	-2.20467
9791.009	-11.85383	0.86575	-9.85064	-1.31046
9795.013	-11.97878	0.58199	-9.88665	-1.48302
9798.985	-11.74413	0.42057	-10.23918	-0.02563
9803.025	-12.10191	0.24890	-10.30363	-0.55770
9807.021	-12.10193	0.04335	-9.80091	0.43281
9811.022	-12.03503	0.30082	-9.81021	0.80844
9815.022	-12.39009	0.15181	-9.90031	2.14195
9819.023	-11.95736	0.17489	-9.77789	2.48783
9823.020	-12.23756	0.29399	-9.79942	2.52822
9827.024	-12.05407	0.06068	-9.96877	3.02235
9831.025	-12.28434	0.42647	-9.92906	1.48021
9835.024	-11.82121	-0.06423	-9.82209	-1.45316
9839.024	-12.33743	0.36886	-9.81187	0.33381
9842.984	-12.33153	1.66473	-9.77929	-0.16635
9847.024	-12.43888	0.89558	-9.73745	-0.38233
9851.023	-12.43911	0.88340	-9.80212	-0.46388
9855.023	-11.89535	0.77917	-9.77997	-0.53189
9859.023	-12.53348	0.46752	-9.82744	0.11628
9863.024	-12.16939	1.83255	-9.76445	0.79710
9867.021	-12.48767	1.96597	-9.76714	0.71580
9871.024	-13.62556	1.28467	-9.73793	1.66150
9875.014	-12.53722	1.57951	-9.76567	1.11722
9878.985	-13.07436	1.52231	-9.68351	1.39489
9883.025	-12.30223	1.63166	-9.73467	1.54141
9887.024	-12.01563	1.86422	-9.71254	1.85276
9891.022	-12.70300	1.06638	-9.71893	2.29208
9895.023	-12.24986	1.01290	-9.68276	2.68359
9899.024	-12.37015	1.25210	-9.66506	2.67891
9903.023	-12.48639	1.25077	-9.64482	1.90849
9907.025	-12.28870	0.65412	-9.59645	0.20642
9911.024	-12.40006	0.50448	-9.64528	0.10573
9915.024	-12.49573	0.13996	-9.71908	2.03085
9919.021	-11.92120	0.41572	-9.59040	-0.24306
9923.020	-12.14110	0.13155	-9.62302	-0.97807
9927.020	-12.31575	-0.21194	-9.69390	-0.69445
9931.027	-12.14727	-0.38244	-9.74396	-0.15378
9935.021	-12.26500	0.21577	-9.82561	-0.46779
9938.987	-12.61235	0.18340	-9.76343	-0.40936
9943.018	-12.30779	0.38373	-9.87601	-0.04431
9947.026	-12.14696	0.21885	-9.71273	0.08115
9951.024	-12.24218	-0.09638	-9.90460	0.67328
9955.027	-12.18213	1.99184	-9.78672	0.56684
9959.005	-12.16181	0.96491	-9.81619	1.21517
9963.025	-12.37884	0.37625	-9.84235	1.15642
9967.025	-12.47614	0.56180	-9.69942	1.59865
9971.024	-12.19361	1.38000	-9.63242	2.05127
9975.026	-12.49311	2.02924	-9.66381	2.47731
9978.992	-12.78351	1.58559	-9.52768	2.90084
9983.026	-12.32888	0.81819	-9.75975	3.50741
9987.023	-12.63376	1.00355	-9.57889	0.91199
9991.028	-12.57219	1.73996	-9.62803	1.50498
9994.921	-12.66393	2.00925	-11.44058	0.60533
9999.016	-12.32326	0.58983	-9.39455	-1.07796
10003.015	-12.95631	1.99819	-9.38581	1.34348
10007.024	-12.43341	2.36111	-9.56470	-0.46737
10010.924	-12.63078	2.11531	-10.01120	-0.55212
10015.024	-14.97544	-1.94154	-10.43966	-0.28025
10019.027	-14.34294	2.00986	-11.47014	-0.34157
10023.028	-13.85498	0.68698	-11.87565	-0.70412
10026.923	-15.26134	0.65472	-11.84591	-0.40971
10031.027	-15.12754	0.27596	-12.56179	-0.41096
10035.026	-15.15862	-0.04651	-11.92177	-0.46359
10039.025	-14.41555	-0.41738	-11.38003	-0.48662
10042.926	-14.93809	-0.34323	-11.81218	-0.49044
10046.988	-15.41361	-0.60440	-12.16833	-0.52530
10051.026	-15.33599	-0.95319	-12.34557	-0.66871
10055.025	-14.78640	-0.71121	-12.23026	-1.15475
10059.032	-15.18375	-0.90893	-12.29708	-0.65347
10063.027	-14.85964	-1.53715	-12.08900	-1.24736
10067.032	-15.38387	-1.28426	-12.26180	-1.31720
10071.028	-15.40136	-1.38721	-12.16562	-1.28687
10075.029	-14.78517	-0.38848	-12.24498	-1.31180
10078.984	-15.02184	1.03863	-12.05649	-0.79095
10083.009	-15.10235	0.67570	-12.15270	0.03666
10087.027	-15.28062	0.69809	-12.25671	0.13193
10090.926	-14.90470	0.63274	-12.19633	0.06456
10095.029	-15.00684	-0.15606	-12.09486	-0.09367
10099.026	-14.94738	0.61512	-11.89488	-0.15769
10103.029	-15.08479	0.71975	-11.99096	-0.31117
10106.926	-15.18106	0.80083	-11.96629	-0.27058
10111.025	-15.21361	0.74091	-11.94346	0.08113
10115.028	-15.15656	0.81773	-11.93068	-0.95449
10119.027	-15.14067	1.01287	-12.05086	-0.08447
10123.029	-15.16821	0.95937	-11.78904	-0.25845
10126.990	-15.06147	0.48395	-11.73997	-0.03221
10131.031	-15.14752	0.27037	-11.85808	0.01165
10135.030	-15.14347	0.64463	-11.71311	0.33259
10138.927	-14.99394	-0.06025	-11.68688	1.53861
10143.026	-15.24965	-1.30313	-11.82873	2.13067
10147.026	-15.20066	-1.83802	-11.93961	0.79049
10151.027	-15.62986	-1.45838	-11.83600	0.34538
10154.926	-14.96726	-1.55157	-11.81482	0.85459
10159.029	-15.17112	-1.78854	-11.64480	0.57987
10163.031	-15.10226	-1.95143	-11.79097	0.94073
10167.009	-14.74576	-0.59219	-11.48282	0.91129
10171.030	-14.96809	-1.14117	-11.61042	0.81714
10175.025	-14.67815	-1.07866	-11.55064	0.87332
10179.027	-14.63932	-1.30148	-11.47469	1.02808
10182.990	-14.61167	-0.96993	-11.36195	0.48945
10187.030	-13.85927	-0.70547	-10.14242	0.93082
10191.034	-11.25803	0.38274	-9.16743	1.15539
10195.029	-10.53104	0.14436	-11.37686	6.75081
10199.027	-10.50184	0.17711	-6.35135	3.05891
10203.032	-9.03169	-0.54826	-6.07182	4.06430
10206.992	-8.77148	0.68763	-5.75647	5.26253
10211.028	-8.51156	0.93467	-4.90311	5.70073
10215.030	-7.61080	0.71646	-4.64036	5.90676
10219.000	-7.98230	1.07976	-4.66403	5.65803
10223.029	-8.22358	1.07941	-3.78234	5.45124
10227.031	-7.62002	1.51725	-3.42159	5.48072
10231.030	-7.80075	1.17976	-3.53216	5.18648
10235.034	-7.71857	0.80220	-3.72971	4.72574
10239.029	-7.80085	0.98866	-3.78813	5.29086
10243.031	-8.01097	1.09238	-3.53792	5.03176
10247.030	-7.98741	0.93847	-3.52974	3.59711
10250.990	-8.16681	1.08586	-3.34623	2.26113
10255.028	-8.28279	0.76578	-3.39423	2.26186
10259.029	-8.06823	0.91688	-3.32765	1.83746
10262.904	-8.20909	1.01452	-3.34212	1.87352
10266.925	-7.75470	0.97870	-3.43632	1.39312
10270.906	-8.27013	1.08604	-3.36488	1.64785
10274.905	-8.16442	0.95402	-3.33493	1.68434
10278.905	-8.14164	1.08971	-3.41174	1.50597
10282.906	-8.22120	1.15760	-3.37648	1.64498
10286.905	-8.30053	2.37878	-3.44461	1.84500
10290.905	-8.08438	1.38272	-3.60321	1.77967
10294.900	-8.14974	2.55850	-3.58227	1.77483
10298.897	-8.09338	1.84110	-3.61223	1.75198
10302.904	-8.16175	2.37313	-3.78321	1.51527
10306.905	-8.08224	2.38787	-3.86136	1.71933
10310.904	-8.23486	2.59647	-3.79072	1.77132
10314.925	-8.16885	2.73179	-3.86783	1.87211
10318.908	-8.19056	3.04540	-3.86986	1.85485
10322.905	-8.28818	2.94374	-3.79413	1.92954
10326.904	-8.24230	3.17927	-3.87581	1.85285
10330.930	-8.32152	3.29250	-3.81936	1.86036
10334.905	-7.84827	3.19774	-3.65927	1.90501
10338.880	-7.81997	3.20491	-3.73384	1.93824
10342.906	-7.55954	3.26983	-3.61090	1.96273
10346.930	-7.73750	3.15470	-3.71350	1.94264
10350.906	-7.27926	3.30362	-3.64508	1.97586
10354.906	-7.66997	3.25995	-3.64847	1.89971
10358.905	-8.20790	3.34274	-3.66160	1.89133
10362.898	-8.03584	3.26256	-3.63967	1.92797
10366.907	-8.07051	3.26721	-3.63671	1.98970
10370.907	-7.48539	3.13081	-3.66036	2.12277
10374.910	-7.84708	3.23660	-3.65490	2.11904
10378.927	-7.87888	3.12595	-3.71031	2.10319
10382.905	-7.90073	3.25416	-3.69805	2.01334
10386.870	-8.14336	3.43062	-3.72343	2.10920
10390.909	-8.07324	3.50463	-3.64106	2.10256
10394.930	-7.99897	3.49152	-3.70099	2.03179
10398.905	-8.12916	3.66861	-3.67729	2.11436
10402.904	-8.04925	3.59097	-3.62225	1.92528
10406.870	-8.04579	3.58870	-3.55046	2.13182
10410.934	-8.07584	3.53559	-3.62726	1.74018
10414.904	-7.97984	3.40758	-3.55609	1.88895
10418.907	-8.01567	3.22828	-3.53211	1.62139
10422.873	-7.93905	3.38528	-3.55293	1.46869
10426.898	-7.86980	3.33522	-3.62838	1.67953
10430.906	-7.88838	3.29467	-3.63428	1.73516
10434.908	-7.81081	3.03846	-3.65440	1.54540
10438.906	-7.76184	3.08863	-3.54457	1.61671
10442.869	-7.79149	3.12101	-3.44609	1.34632
10446.909	-7.73022	3.02671	-3.58069	1.54186
10450.906	-7.71406	2.89917	-3.68411	1.44040
10454.906	-7.62731	3.03624	-3.64130	1.58730
10458.900	-7.60327	2.96505	-3.59619	1.62130
10462.888	-7.57822	3.03631	-3.71006	1.72912
10466.908	-7.53805	3.12915	-3.61681	1.89093
10470.908	-7.57539	3.17841	-3.41189	1.96563
10474.930	-7.56069	3.35712	-3.63836	2.37986
10478.907	-7.54681	3.50004	-3.57382	2.24316
10482.909	-7.61275	3.58089	-3.45504	2.46419
10486.911	-7.51639	4.13583	-3.39866	2.49336
10490.932	-7.57864	3.81599	-3.37106	2.61880
10494.913	-7.52976	4.09092	-3.45321	2.60825
10498.910	-7.58551	4.18425	-3.43939	2.79502
10502.876	-7.64108	4.17369	-3.45915	2.86660
10506.906	-7.66702	4.61654	-3.38526	2.88446
10510.906	-7.70448	4.72344	-3.43274	2.97034
10514.909	-7.70160	4.88528	-3.47594	3.03276
10518.913	-7.74791	4.97808	-3.40467	3.15039
10522.929	-7.75999	5.04296	-3.40264	3.20663
10526.908	-7.31340	5.04109	-3.47908	3.13942
10530.908	-7.75166	5.10376	-3.50474	3.38440
10534.908	-7.61338	5.03946	-3.50791	3.40389
10538.931	-7.62418	5.10321	-3.40712	3.57870
10542.907	-7.79568	5.35073	-3.63920	3.72408
10546.883	-7.73214	5.58260	-3.45235	4.10878
10550.909	-7.69590	7.96478	-3.58067	4.38219
10554.907	-15.45537	14.06323	-7.98162	7.77214
10558.909	NaN	NaN	NaN	NaN
10562.909	NaN	NaN	NaN	NaN
10566.907	NaN	NaN	NaN	NaN
10570.930	NaN	NaN	NaN	NaN
10574.910	NaN	NaN	NaN	NaN
10578.909	NaN	NaN	NaN	NaN
10582.912	NaN	NaN	NaN	NaN
10586.892	NaN	NaN	NaN	NaN
10590.904	NaN	NaN	NaN	NaN
10594.871	NaN	NaN	NaN	NaN
10598.908	NaN	NaN	NaN	NaN
10602.907	NaN	NaN	NaN	NaN
10606.910	NaN	NaN	NaN	NaN
10610.875	NaN	NaN	NaN	NaN
10614.916	NaN	NaN	NaN	NaN
10618.906	NaN	NaN	NaN	NaN
10622.908	NaN	NaN	NaN	NaN
10626.871	NaN	NaN	NaN	NaN
10630.874	NaN	NaN	NaN	NaN
10634.871	NaN	NaN	NaN	NaN
10638.909	NaN	NaN	NaN	NaN
10642.872	NaN	NaN	NaN	NaN
10646.933	NaN	NaN	NaN	NaN
10650.909	NaN	NaN	20.41260	12.82298
10654.911	NaN	NaN	18.90540	11.89366
10658.910	NaN	NaN	19.64501	12.45700
10662.903	NaN	NaN	19.95525	10.83650
10666.911	NaN	NaN	19.15833	12.07155
10670.893	NaN	NaN	15.68773	8.16040
10674.912	NaN	NaN	18.98457	12.24524
10678.914	NaN	NaN	18.28774	8.56064
10682.911	NaN	NaN	19.92705	9.38315
10686.909	NaN	NaN	19.37418	11.75939
10690.910	NaN	NaN	19.02367	11.57736
10694.913	NaN	NaN	20.59671	11.25711
10698.914	19.33543	11.35978	19.30718	10.76265
10702.913	14.73051	10.69643	16.26022	11.52920
10706.912	17.90019	9.49941	16.55705	10.56051
10710.903	18.08152	8.58817	14.31489	11.69148
10714.904	15.41211	8.92470	14.49646	10.76216
10718.910	14.11285	8.88109	14.67534	10.69693
10722.914	14.97696	8.48335	14.16634	11.46119
10726.911	14.08206	8.34037	13.76916	11.10283
10730.911	13.99316	7.84801	14.52319	10.74550
10734.911	12.82840	7.78699	14.40696	10.22441
10738.916	11.67974	7.28332	14.39625	9.84507
10742.913	9.74340	7.30558	12.57621	9.39292
10746.913	7.00216	7.76199	12.54197	9.57427
10750.917	9.36390	6.53582	13.25752	9.14142
10754.874	9.14641	7.06634	13.14023	8.97913
10758.914	9.19287	6.34438	13.27092	8.63980
10762.910	8.85216	6.61888	13.69261	8.40682
10766.874	9.00702	6.49476	13.13774	10.87403
10770.915	8.81062	6.70904	13.02747	3.30974
10774.914	8.79489	6.67802	13.97994	7.85582
10778.912	8.75395	6.76576	14.12702	6.72256
10782.911	8.11542	6.74883	13.86778	6.48360
10786.912	8.59114	6.37315	14.04477	6.58367
10790.913	8.31946	6.37197	13.91748	7.06488
10794.877	8.29244	6.16093	13.40265	6.43028
10798.904	8.35843	5.93336	13.91173	6.73222
10802.912	8.38464	5.63417	13.28888	6.73333
10806.912	7.95519	5.68465	12.76508	6.49859
10810.911	7.97515	5.48442	13.13767	6.50325
10814.913	7.75868	5.68193	13.58294	6.34407
10818.911	7.70358	5.82637	13.80868	6.45464
10822.906	7.40487	5.76735	13.63494	6.63280
10826.914	6.81067	5.83469	14.08575	6.34694
10830.914	7.07860	5.93268	14.78558	6.27106
10834.914	7.39771	5.79837	14.52663	5.95570
10838.925	7.49922	5.49187	14.19508	6.75392
10842.912	7.39120	5.48711	13.46773	6.14431
10846.915	7.39078	5.69932	13.54148	5.84584
10850.913	7.57064	5.46963	13.40039	6.32238
10854.906	7.43923	5.81095	13.66114	5.92433
10858.912	7.47195	5.76782	13.64178	6.37125
10862.875	7.26217	5.75050	14.42146	6.30229
10866.911	7.22346	5.63155	14.70971	5.52884
10870.905	7.58695	5.35029	15.04126	5.58280
10874.917	7.85414	5.21206	14.90684	7.19469
10878.876	7.98946	4.83967	14.31964	5.91666
10882.876	8.12417	5.16208	13.51712	6.84402
10886.919	7.80991	4.94060	10.60469	6.39142
10890.911	7.59702	5.90374	13.63752	10.14136
10894.914	7.55764	5.66157	14.34778	9.92576
10898.915	7.32949	6.15480	13.66733	9.50634
10902.914	7.08077	6.32444	14.80790	7.76892
10906.915	7.33542	6.81630	13.44073	7.59916
10910.912	7.61156	6.68677	6.82633	4.15432
10914.917	7.35405	6.64444	14.17374	6.72668
10918.903	7.37785	6.29529	13.88418	6.83819
10922.876	7.38829	6.40256	14.28797	5.54839
10926.915	7.25711	6.39194	13.61827	5.92564
10930.877	7.00079	6.18663	13.42981	5.93206
10934.918	5.97187	6.31134	7.77083	5.92471
10938.915	3.93934	6.60009	8.91556	7.99104
10942.917	2.01070	7.66132	7.02394	5.58391
10946.916	0.50488	7.61768	6.17798	7.64223
10950.914	1.29236	6.48168	2.83316	4.67501
10954.914	-0.39589	6.24246	3.83220	5.48080
10958.917	-1.11589	6.22204	3.05038	5.06506
10962.894	-1.21030	5.63055	2.62427	3.47207
10966.910	-0.71307	5.22932	2.66602	4.12255
10970.915	-1.38959	5.85886	2.91527	3.44078
10974.914	-1.23461	5.57976	2.92495	3.19581
10978.915	-1.14414	5.03630	2.89965	3.32927
10982.814	-1.29578	4.69748	2.81375	3.35257
10986.914	-1.31476	4.91470	2.53043	3.32724
10990.913	-1.72183	5.08854	2.12580	3.55540
10994.914	-1.54686	5.20082	1.98846	3.31437
10998.883	-1.48133	5.06306	2.63794	3.18912
11002.905	-1.34070	4.95257	2.78067	3.05568
11006.912	-1.57548	5.05658	2.82043	2.87369
11010.878	-1.45214	4.97860	3.14513	2.58254
11014.820	-1.49674	4.83989	2.64805	3.09525
11018.915	-1.48059	4.61405	2.87039	1.79566
11022.915	-1.53768	4.72801	2.90829	3.47609
11026.915	-1.54787	4.71348	3.17675	4.22268
11030.815	-1.53969	4.70303	2.16538	3.10387
11034.917	-1.40477	4.57160	2.44856	3.00309
11038.919	-1.51444	4.55193	2.37092	2.56752
11042.917	-1.43907	4.47069	3.40267	2.28391
11046.815	-1.46075	4.81210	3.43741	6.39288
11050.931	0.11801	4.73719	3.64078	4.73537
11054.915	-1.37007	5.43953	2.18738	5.70960
11058.919	-1.40812	6.96918	2.47286	5.06010
11062.816	-1.12348	6.61552	2.81895	4.67961
11066.915	-1.09805	6.33131	2.57016	4.31048
11070.917	-1.39334	6.08500	2.40585	4.03549
11074.916	-1.37367	6.12049	2.80310	3.18541
11078.785	-1.43007	5.95821	2.97581	2.67519
11082.921	-1.27368	5.81702	2.41219	3.06887
11086.898	-1.25726	5.72108	2.88968	3.01298
11090.918	-1.36060	5.77069	2.99354	2.75042
11094.914	-1.30464	5.88544	2.74742	1.64701
11098.919	-1.46757	5.24723	0.74245	2.79764
11102.917	-1.54192	5.47403	0.28977	3.67197
11106.921	-1.51216	5.37255	2.72892	3.07297
11110.821	-1.57307	5.15395	2.94901	-3.40072
11114.920	-1.47615	5.20291	-2.07512	2.65348
11118.917	-1.40001	4.95487	-1.52357	2.04898
11122.916	-1.17647	4.74161	-1.69334	2.04930
11126.819	-1.15511	4.49358	-1.36528	1.70813
11130.920	-1.38319	4.18677	-1.18098	1.45621
11134.882	-1.42469	4.23729	2.74061	4.70829
11138.921	-1.21668	4.42227	2.71718	4.42887
11142.925	-1.29529	4.25872	2.83390	4.86605
11146.916	-1.38557	4.10828	2.85311	4.16274
11150.921	-1.35378	3.96199	3.00344	4.32270
11154.920	-1.34162	4.10872	2.90794	4.72960
11158.915	-1.34911	4.06978	3.18942	4.54262
11162.920	-1.55633	3.82372	2.70659	4.74296
11166.917	-1.59028	3.99181	2.48770	5.01555
11170.892	-1.74095	4.07951	2.40005	4.64231
11174.832	-1.77090	4.19488	2.84455	5.28685
11178.919	-1.77915	4.17377	2.49637	5.51164
11182.918	-1.75148	3.90197	2.42498	5.64591
11186.919	-1.58572	3.98999	2.37701	5.62228
11190.816	-1.46484	4.15662	3.34368	6.00408
11194.919	-1.55350	4.27289	-3.97427	1.68926
11198.920	-1.55955	4.40699	-3.78746	2.26443
11202.882	-1.66200	4.48422	-3.62613	1.89431
11206.879	-1.52977	4.66799	-3.77990	1.77736
11210.903	-1.46975	4.60946	-3.63374	1.72347
11214.916	-1.31181	4.57474	-3.38694	1.91528
11218.918	-1.43176	4.96994	-2.85913	-4.98106
11222.816	-1.66130	5.11255	-1.33118	-4.82600
11226.920	-1.56749	5.35298	-1.94469	-4.74539
11230.920	-1.53352	5.16461	-0.96147	-4.71589
11234.920	-1.48860	5.34055	-0.40075	-4.71377
11238.923	-1.51266	5.06133	0.15742	-4.71801
11242.920	-1.26644	5.38288	-4.10839	-4.97424
11246.919	-1.42769	5.44593	-3.62032	-5.16476
11250.923	-1.36335	5.62234	-3.27282	-5.04870
11254.924	-1.34663	5.67923	2.32312	4.87201
11258.921	-1.40668	5.77294	1.04282	4.46182
11262.921	-1.33249	5.67552	2.21623	4.49092
11266.922	-1.30712	5.48871	2.60996	3.79972
11270.821	-1.82172	5.47795	2.64228	4.05299
11274.922	-2.05871	5.74479	1.81456	4.19782
11278.919	-1.69681	5.71784	2.59133	4.07721
11282.918	-1.48054	5.80381	1.86858	4.11955
11286.820	-1.50832	5.83171	2.77911	4.46143
11290.796	-1.14255	5.83436	2.82472	4.31741
11294.798	-1.46955	5.95923	2.51294	4.80402
11298.787	-1.79373	6.46258	-1.61376	-5.99006
11302.795	-1.50601	5.60971	1.73130	5.66599
11306.757	-1.73809	3.75327	2.27402	5.12219
11310.794	-1.30107	4.49695	2.62013	4.39208
11314.795	-1.77930	4.57505	2.48267	3.95482
11318.922	-1.73561	5.48650	2.36757	1.05430
11322.797	-1.74511	5.56329	2.07628	1.39166
11326.797	-1.40527	5.27592	2.12620	1.65628
11330.796	-1.13149	5.89548	1.97949	1.75052
11334.823	-1.48639	5.69198	1.89523	3.19068
11338.799	-1.08088	4.69550	2.02758	3.62407
11342.763	-1.16180	3.59763	1.91933	5.03530
11346.759	-0.94448	3.64806	2.22706	3.81397
11350.785	-1.04992	3.89678	2.49010	3.25393
11354.798	-1.31094	4.55181	2.48180	2.34339
11358.796	-0.88791	3.30539	3.81293	0.94147
11362.802	-0.27587	4.42185	3.57234	0.14022
11366.788	0.76059	3.04843	3.64612	-0.08442
11370.797	0.71819	3.86581	3.37744	3.16577
11374.796	0.40613	3.03395	4.70027	2.40620
11378.799	1.12583	1.82358	5.49133	0.80844
11382.772	0.85275	1.66168	5.67556	0.25855
11386.794	1.00395	2.23363	5.77583	0.22112
11390.797	1.19906	2.34729	5.88827	0.42702
11394.798	1.09916	2.70064	5.94786	0.16359
11398.826	1.06595	2.96081	5.94718	0.29792
11402.800	1.12328	3.28777	6.04490	0.04062
11406.758	1.23484	3.27645	5.70866	0.17105
11410.797	1.31778	3.37449	5.77089	0.14503
11414.796	0.88064	3.35411	5.65966	0.03902
11418.797	0.70089	3.50223	5.95906	0.21279
11422.794	0.27900	3.57803	6.02313	-0.08802
11426.797	0.15240	3.76430	6.05690	-0.23181
11430.793	0.33650	3.53402	5.97639	0.13133
11434.796	0.33603	3.84218	5.83265	0.11821
11438.799	0.33002	3.69079	5.84389	0.31414
11442.797	0.27644	3.71550	5.65432	0.25327
11446.791	0.32238	1.45667	5.77443	0.26812
11450.799	0.21122	2.55807	5.86924	0.57571
11454.798	0.39517	2.83113	5.90494	0.76108
11458.801	0.38608	2.84335	5.86831	0.81562
11462.799	0.63384	1.32084	5.78954	0.93062
11466.779	0.48587	2.93710	5.79904	1.20991
11470.799	0.48607	1.98855	5.59165	2.22615
11474.763	1.19418	2.00889	3.23808	1.24636
11478.800	1.43696	1.65462	3.08953	1.64859
11482.796	1.32312	2.16437	5.70949	2.10767
11486.798	1.33661	2.24398	5.93114	2.10079
11490.798	1.34492	2.29190	5.96814	1.65990
11494.790	1.35531	2.41113	5.77892	1.67462
11498.803	1.32299	2.54615	5.61851	1.02613
11502.800	1.12365	2.57914	5.90180	0.68103
11506.796	1.09100	2.47872	5.85873	-1.01297
11510.821	1.35365	2.68871	5.65000	-1.21443
11514.798	1.36511	2.72387	5.96036	-0.70713
11518.800	1.33874	2.83322	5.81322	-1.56005
11522.800	1.26118	2.83145	5.91685	-0.65025
11526.797	1.22204	2.85323	5.65771	-1.03812
11530.798	1.05845	2.96317	5.68556	-0.70824
11534.800	1.25376	2.79641	5.28109	-1.17499
11538.798	1.24007	2.95280	5.21776	-1.16162
11542.789	1.27701	2.90491	4.98965	-1.39054
11546.801	1.35152	2.96025	4.77463	-1.51153
11550.770	1.38835	2.96266	4.54681	-1.57729
11554.801	1.31778	2.89406	4.73347	-1.90769
11558.800	1.07599	2.70386	4.96810	-3.54981
11562.799	1.08185	2.68509	4.64601	-2.06956
11566.802	1.04307	2.47871	4.39683	-1.93850
11570.762	1.05691	2.45561	4.11303	-0.68339
11574.821	1.09187	2.52811	3.60252	2.68784
11578.799	0.84307	2.49475	4.51677	2.08137
11582.800	0.87969	2.27090	4.79541	4.73073
11586.804	0.79014	2.20144	3.87285	4.00384
11590.814	0.67546	2.20889	4.01164	4.22766
11594.797	0.64074	2.08821	3.89794	3.37865
11598.807	0.60732	1.99556	2.43275	3.71166
11602.799	0.55384	2.03003	2.18786	3.47432
11606.791	0.53617	2.05639	2.61664	3.53468
11610.762	0.46088	1.88223	2.05152	3.04907
11614.799	0.42849	1.97842	2.08307	3.39715
11618.799	0.36928	2.00114	2.04582	3.32918
11622.790	0.29761	1.93846	3.83458	3.73611
11626.804	0.29453	1.93412	3.97884	3.75712
11630.802	0.35638	1.98258	1.90646	2.80230
11634.766	0.38727	2.08837	1.83878	2.69977
11638.798	0.48922	2.02166	4.79504	-3.61659
11642.799	0.49359	2.02637	4.92299	-4.25953
11646.800	0.64022	2.05307	4.66297	-3.66098
11650.798	0.66660	2.14654	5.05868	-3.49835
11654.825	0.57508	2.26130	4.84041	-3.20843
11658.798	0.33727	2.27869	5.01209	-2.34032
11662.803	-0.06152	2.24040	3.16545	-0.43714
11666.802	-0.72876	2.15621	2.11021	0.08771
11670.795	-1.03208	1.92773	1.79995	1.11000
11674.781	-1.06905	1.00206	1.98120	1.24311
11678.805	-1.25634	0.36119	2.10934	1.21869
11682.802	-1.15243	0.66323	2.03928	1.27863
11686.824	-1.26512	1.39613	2.11871	1.63054
11690.801	-1.27152	2.24598	2.22929	1.47380
11694.801	-1.26115	1.87037	2.32692	1.61837
11698.801	-1.19095	1.97641	2.28611	1.85562
11702.795	-1.42171	1.98531	2.34855	1.38579
11706.803	-1.61845	2.04789	1.48694	1.18225
11710.802	-1.64553	2.22023	1.10743	1.46901
11714.791	-1.69004	2.23933	1.08577	-2.23960
11718.793	-1.66502	2.38445	1.86838	0.47008
11722.801	-1.46626	2.34490	1.79765	-4.43860
11726.804	-1.33959	2.23882	1.34616	-4.50311
11730.804	-1.57528	2.27237	2.12300	-4.34670
11734.825	-1.41916	1.96271	2.00366	2.69852
11738.801	-1.21097	1.80876	1.77414	2.88271
11742.802	-1.09857	1.93952	1.77697	2.36492
11746.764	-0.96901	1.68727	1.12261	1.41820
11750.805	-0.98797	1.57056	1.92401	1.19614
11754.764	-1.12938	1.40995	1.63182	0.24931
11758.774	-1.15947	1.53438	1.65614	0.01398
11762.803	-1.31870	1.53428	1.03248	-0.05369
11766.799	-1.55923	1.51752	1.15139	-0.41524
11770.802	-1.10227	1.41526	1.52528	-0.78297
11774.804	-0.87944	1.41853	1.16967	-0.99892
11778.805	-0.85091	0.86648	1.29593	-1.09754
11782.805	-0.50073	0.97935	1.56861	-1.33207
11786.805	-1.26778	0.72237	1.11956	-1.21260
11790.806	-1.30660	0.44535	1.21464	-1.57769
11794.804	-1.82648	1.19290	1.35653	-1.61968
11798.807	-1.70465	0.96482	1.67524	-1.63778
11802.802	-1.22591	0.89586	1.53694	-1.74042
11806.801	-1.73737	1.30711	1.65652	-1.92537
11810.801	-1.64300	1.26581	1.93452	-1.95033
11814.798	-1.86551	1.70079	2.09408	-2.05024
11818.800	-1.85440	2.16602	2.02820	-1.97639
11822.806	-1.44170	1.06651	2.33715	-1.90007
11826.802	-1.70274	1.73658	2.41192	-1.99854
11830.805	-1.63561	1.64412	2.46095	-2.09720
11834.804	-1.45991	1.87511	2.17720	-1.93945
11838.803	-1.65614	2.31746	2.23271	-1.71963
11842.768	-1.67003	1.70008	1.88621	-1.38725
11846.797	-1.78907	1.58656	1.41137	-1.76829
11850.803	-1.83804	1.85183	2.00676	-1.67226
11854.803	-1.58200	1.88138	0.18653	-1.56393
11858.804	-1.67050	1.83457	1.64851	-1.40093
11862.802	-1.59814	1.81464	0.77193	-1.51660
11866.804	-1.59269	2.01852	0.78573	-1.53678
11870.806	-1.51246	1.92551	1.05974	-1.56427
11874.804	-1.51551	1.88479	0.69223	-1.43146
11878.811	-1.62212	1.60278	0.67183	-1.41378
11882.768	-1.55343	1.62646	0.92435	-1.52694
11886.806	-1.49351	1.56676	1.00628	-1.55854
11890.766	-1.33210	1.67170	0.85912	-1.62144
