time (ms)	lx (deg)	ly (deg)	rx (deg)	ry (deg)
0.000	NaN	NaN	NaN	NaN
4.038	NaN	NaN	NaN	NaN
8.039	NaN	NaN	NaN	NaN
11.951	NaN	NaN	NaN	NaN
16.039	NaN	NaN	NaN	NaN
20.041	NaN	NaN	NaN	NaN
24.002	NaN	NaN	6.92347	15.16771
27.937	NaN	NaN	5.53513	10.24582
32.043	NaN	NaN	6.77360	7.37622
36.022	11.85794	6.93852	6.81705	4.18209
40.036	-4.05789	1.39000	10.18113	6.66719
43.938	5.15044	6.89162	6.28911	2.01004
48.000	0.17496	6.03307	6.02757	3.75540
52.040	7.19009	6.74806	1.72870	5.26954
56.039	1.09410	5.66561	6.90070	4.30768
60.030	7.14287	7.04933	3.00957	4.71954
64.040	7.72078	6.39809	1.32704	6.85239
68.040	7.21354	6.26270	5.77040	1.94732
72.043	5.64712	5.96832	6.56064	1.67889
75.942	6.46135	5.88137	5.21752	1.48929
80.001	4.92750	4.65028	5.47909	1.43259
84.039	4.14441	4.70523	5.97629	1.26802
88.038	1.82443	5.44646	6.08188	1.57025
91.941	2.03871	4.85404	5.45366	2.10753
96.039	3.01405	4.13151	2.82868	4.13108
100.043	2.78726	4.55116	2.62489	4.64998
104.035	2.85465	4.51583	2.36936	6.47017
107.936	2.18758	5.62196	3.52630	3.79297
112.039	2.02837	6.00093	2.72687	-1.75933
116.041	2.52711	1.79300	3.10371	1.04792
120.040	2.17128	4.11409	2.95270	2.12057
124.039	2.40424	4.27293	3.99121	2.72398
128.043	1.84255	6.68345	4.04493	-0.09414
132.040	0.89984	6.11977	4.30040	-1.61919
136.039	1.65195	2.63176	3.79507	-0.78683
139.937	1.37367	1.90679	4.93940	-0.32835
144.003	1.28472	2.52524	4.73552	2.50460
148.039	0.96745	2.68519	4.08130	2.50619
152.044	-0.06510	2.75300	2.64049	2.38313
156.042	-0.51964	2.25586	0.76645	2.48205
160.028	-0.65657	2.69303	0.86374	2.38757
164.032	-1.14471	2.33868	1.39678	1.73375
168.042	-1.00990	2.65347	-0.19740	0.06242
172.042	-1.04746	2.71157	0.93477	0.84276
176.044	-1.28770	3.01386	1.46273	0.14410
180.042	-1.68706	3.70140	1.29439	-0.90815
184.041	-1.49463	3.04769	1.20442	-1.15224
187.938	-1.75795	3.07906	2.97760	0.60057
192.042	-2.70872	3.18344	1.45795	0.60021
196.041	-2.24024	2.85511	2.84170	1.24232
200.041	-1.69126	2.79750	3.16285	0.48426
203.939	-2.02787	6.50488	3.29998	-0.27192
208.041	-1.42084	3.25033	3.00269	0.68161
212.044	-1.84409	3.08360	3.38024	0.52433
216.001	-2.73784	3.28713	2.56248	0.22617
219.938	-1.44473	3.18410	1.27981	3.49343
224.041	-1.47704	3.27976	1.82656	2.88352
228.040	-1.30412	4.47050	1.63844	2.57519
232.040	-1.58611	5.25135	1.52171	2.00755
236.045	-1.62277	4.92265	1.65255	1.27732
240.043	-1.64585	4.19849	1.26530	0.92612
244.003	-1.56089	4.18063	1.44321	0.73747
248.038	-1.52860	4.38374	1.58014	0.43995
251.934	-1.59732	4.38367	1.43337	0.21011
256.043	-1.52642	4.21484	0.25406	0.46732
260.043	-1.53396	4.61251	1.32949	1.26192
264.044	-1.58269	4.80815	1.42362	0.83563
267.942	-1.61158	3.97567	1.51345	1.11872
272.044	-1.56186	2.82821	1.61071	2.15779
276.045	-1.39939	3.08611	1.56528	1.32641
280.043	-1.98655	3.50175	1.86275	0.46502
283.939	-1.09001	3.62189	1.64362	-0.95879
288.043	-0.89726	4.12578	1.83997	-0.03236
292.040	-2.18263	3.41020	1.75257	1.00090
296.042	-1.82653	3.19070	2.09103	1.49932
299.943	-1.59172	3.76984	1.98202	1.57837
304.001	-2.02086	3.97109	2.14602	-0.54991
308.042	-1.70680	4.29707	1.71878	0.22809
312.043	-1.47915	3.70687	1.43843	1.85212
316.043	-1.20757	3.28765	1.39130	2.66011
320.041	-1.84126	3.51979	1.86186	0.94294
324.004	-1.54443	3.85599	2.49664	-1.31954
328.022	-1.46710	4.35447	2.31824	-0.68812
331.934	-4.00156	3.68926	1.63189	1.15131
336.043	1.52399	2.99674	2.31772	1.54266
340.046	-2.37637	3.04987	2.36091	1.72391
344.043	-2.99804	3.51104	2.30073	1.97229
347.944	-2.32731	2.43710	1.83576	2.15109
352.046	-2.65300	2.41445	1.72059	2.52067
356.043	-3.11638	3.66448	1.64310	2.42174
360.045	-2.92540	3.56865	1.63688	1.86398
363.909	-0.69412	3.80738	1.89615	2.04270
367.921	-1.54569	4.56411	1.63908	1.30742
371.918	-2.37228	4.27281	1.59132	0.43886
375.886	-3.00339	4.64500	0.67444	0.26045
379.922	-1.33187	3.88041	3.55456	1.40697
383.919	-1.40023	3.74635	2.15229	2.68229
387.917	-1.92592	4.05359	1.51338	0.84402
391.918	-2.41487	3.82060	2.62368	1.20270
395.912	-2.80899	4.65371	1.93916	0.18509
399.917	-1.82735	4.76926	2.04850	-0.78908
403.920	-1.85886	3.62015	1.76876	0.49733
407.921	-2.46962	4.82404	1.89275	1.04102
411.943	-2.59596	4.22397	2.05291	2.77664
415.899	-0.73898	5.12304	2.22042	2.41369
419.919	-0.90904	5.19826	1.86352	1.52963
423.882	-1.60652	5.26410	1.63655	1.38490
427.945	-1.41782	5.24512	1.31947	1.85350
431.881	-1.83796	5.42274	0.68635	2.10487
435.920	-2.14602	5.50126	1.58314	1.60787
439.919	-2.10374	5.63006	2.15613	1.68426
443.941	-2.12721	5.35579	1.56543	2.03137
447.919	-1.14432	4.96539	2.55844	1.95625
451.920	-1.91112	5.21594	2.53157	1.46988
455.916	-2.06148	4.01513	2.74336	1.15629
459.881	-2.13138	4.75710	2.72870	0.08186
463.918	-2.17606	5.06195	2.40694	0.92908
467.920	-2.98077	5.14434	2.01350	2.20954
471.922	-1.96635	3.19993	2.36884	3.00665
475.924	-2.16954	3.97099	2.05095	1.97014
479.919	-2.18104	4.06263	1.95393	0.98932
483.919	-2.11849	3.53986	1.98975	-0.27782
487.894	-1.87017	3.97236	2.19678	-0.22668
491.944	-1.74166	4.45359	1.95889	-0.13205
495.923	-2.02909	4.59168	1.88355	0.12209
499.893	-1.61791	4.60551	1.98303	0.92629
503.921	-1.25835	4.50830	1.83338	1.51725
507.944	-1.09579	4.46360	1.82311	1.27939
511.921	-0.42616	4.06867	1.77950	1.38562
515.919	0.22800	4.29950	1.77722	1.24869
519.920	0.43031	4.09042	1.58924	1.05432
523.886	-0.37305	4.27279	1.64189	1.26132
527.919	0.33667	4.16487	1.81292	0.51768
531.920	-1.40452	4.48016	1.59993	0.12656
535.922	-1.62406	4.40776	1.58363	0.11821
539.920	-1.99186	4.40705	1.74201	-0.44603
543.921	-2.36487	4.42919	1.65820	-0.08763
547.923	-2.44138	4.22879	1.38205	-0.66059
551.923	-2.58729	4.18178	0.54232	1.38923
555.947	-2.74799	4.06175	2.27741	1.14518
559.924	-2.84257	4.09187	3.16260	1.12487
563.885	-0.61871	4.03650	2.90772	2.07661
567.926	-0.74704	3.82955	2.13893	3.71413
571.942	-0.54979	4.03910	2.07896	3.78761
575.926	-0.79684	4.03815	2.35722	3.88302
579.923	-0.93544	3.87725	2.33997	3.37143
583.889	-0.59531	3.88228	2.20647	3.60443
587.922	-1.77677	4.33373	2.83348	1.89341
591.924	-1.60962	4.50917	2.35900	1.39020
595.924	-1.30789	4.37544	2.32788	1.59237
599.920	-1.10147	4.30196	2.82917	1.64992
603.944	-1.18252	4.74711	2.32122	1.96500
607.924	-1.29707	4.51700	2.23261	2.22311
611.922	-1.35028	4.69656	2.30806	1.40618
615.925	-1.21102	4.29972	2.13522	-0.70042
619.945	-1.34398	3.55939	2.20946	-0.20006
623.889	-1.36578	4.47658	2.42758	-0.34544
627.923	-1.38421	3.57208	2.11227	-0.46833
631.922	-1.32240	4.49189	2.00668	-0.22000
635.913	-1.65974	3.77835	2.01226	0.27054
639.923	-1.71883	4.34678	1.37779	0.68156
643.924	-1.51261	4.46988	1.32151	0.79988
647.925	-1.72277	4.33497	0.97477	1.16318
651.914	-1.28723	4.06279	1.44907	1.20678
655.924	-1.49093	4.21498	2.27459	1.28514
659.925	-1.45537	4.33182	1.82693	1.42547
663.918	-1.48696	4.35653	1.79879	1.39280
667.918	-1.63365	4.46246	1.96811	2.95284
671.924	-1.76524	4.56775	1.20581	2.74823
675.886	-1.45842	4.68004	1.96933	1.35281
679.928	-1.64417	4.70354	1.43168	1.53146
683.921	-1.46162	4.80297	1.88772	0.48900
687.924	-1.62929	4.82057	1.97976	1.25537
691.888	-1.53411	4.68785	1.89689	1.36870
695.925	-1.64476	4.22424	1.92758	1.14983
699.918	-1.74742	4.68799	2.08092	-1.86103
703.921	-2.01702	4.31027	1.89969	-0.93247
707.900	-1.89124	4.59976	2.03843	-1.12645
711.923	-1.97728	4.43883	2.38883	-1.43716
715.921	-1.88628	4.21635	1.84401	-0.21719
719.923	-1.98948	4.22277	1.98812	-0.53151
723.925	-1.88529	4.41592	2.05278	-1.11373
727.923	-2.03893	4.18406	1.85879	-1.21237
731.915	-2.16107	4.12857	1.95423	-1.39059
735.924	-2.02554	3.92731	2.13368	-1.53263
739.924	-2.03945	3.95706	2.13787	-2.63117
743.927	-1.70083	4.20774	1.92669	-0.18994
747.918	-1.85113	4.44079	1.95658	1.81506
751.924	-2.02953	4.38774	1.82728	4.40697
755.926	-2.02262	4.06539	1.86285	3.94346
759.886	-1.59856	4.03940	1.85658	2.76574
763.918	-1.59197	4.37593	1.84835	2.34115
767.924	-1.73224	4.29785	1.75671	2.37866
771.923	-1.84123	4.15962	1.79537	2.28176
775.925	-1.65840	4.24624	1.76105	2.11152
779.919	-1.70698	4.18813	1.11105	1.51322
783.927	-1.51075	4.08485	1.67844	1.38296
787.926	-1.46695	4.02239	1.69857	0.84710
791.891	-1.16639	3.87744	1.61724	0.63164
795.888	-1.28078	3.82440	1.68600	0.62317
799.935	-1.28782	3.99172	1.96382	0.64118
803.924	-1.40311	4.00246	1.76869	0.58477
807.923	-1.30826	4.02333	1.70703	0.79278
811.917	-1.17140	4.16309	1.68347	0.93471
815.927	-1.23484	3.99326	1.82254	1.17175
819.925	-1.29668	4.18064	1.82301	1.31775
823.929	-1.22640	4.39486	1.81076	1.87389
827.921	-1.18259	4.38560	1.79420	2.43541
831.904	-0.76960	3.16828	2.43709	1.02444
835.925	-1.04781	4.03587	2.08448	1.08409
839.926	-1.16706	3.81981	1.95535	0.86540
843.889	-1.13873	4.57296	1.83541	1.69479
847.926	-2.34483	3.82942	1.85108	3.22911
851.924	-1.05200	3.06577	-0.61225	0.19779
855.927	-0.75987	4.11735	-0.48115	0.55884
859.923	-1.77583	4.07321	1.75389	2.29731
863.888	-0.62238	2.74796	1.34636	0.86417
867.889	0.38320	3.92450	1.41365	0.46130
871.923	-0.99216	3.44964	1.65153	1.07634
875.918	-0.21271	2.31509	3.33545	0.87803
879.933	1.15230	1.26461	3.24949	0.78640
883.925	2.59990	0.67395	3.63305	-3.23978
887.925	2.25295	1.06506	5.29314	-3.63888
891.928	1.03883	1.18621	3.85810	-3.64634
895.926	0.73427	0.78047	4.56217	-3.53397
899.929	2.41284	1.22580	4.36520	-8.08141
903.929	1.03491	0.54188	4.16438	-3.57489
907.933	1.89654	0.51659	4.16971	-7.96364
911.928	1.47171	-0.02646	4.00756	-3.50232
915.901	1.21685	0.93816	4.03967	-7.98475
919.927	1.08941	0.01525	4.01929	-3.53803
923.925	1.67660	-0.80981	4.29293	-7.91560
927.890	1.36424	-0.04735	4.62914	-3.50812
931.890	1.24315	-0.40385	4.42180	-6.08615
935.928	1.15389	-0.02288	4.54395	-3.44951
939.928	1.32200	-0.79466	4.60846	-5.18728
943.926	1.61597	-0.21401	4.76857	-1.66621
947.928	1.58532	-0.50421	4.64002	-4.20734
951.932	0.39765	-0.81515	4.02813	-3.61441
955.887	1.19224	-0.10730	4.45880	-3.91692
959.926	1.15811	-0.22250	4.83772	-3.97551
963.889	1.54827	-0.31390	4.44053	-3.76267
967.926	1.22094	0.30525	4.33206	-2.71019
971.925	1.30427	-0.29250	4.10676	-6.32959
975.929	1.25724	-0.42722	3.97052	-4.95237
979.930	1.19341	-0.65754	4.11127	-3.75157
983.931	1.24473	-0.07277	3.87630	-3.75953
987.927	0.98792	-0.05337	4.54185	-3.29518
991.928	1.04225	-0.42208	4.47452	-2.82152
995.932	1.07321	0.02216	4.06873	-2.10150
999.897	1.12238	0.27890	4.63686	-2.26844
1003.924	1.23722	-0.30356	4.55842	-2.13401
1007.929	1.30112	-0.91289	4.07458	-3.16418
1011.930	1.10363	-2.15988	3.84028	-5.19190
1015.928	0.91877	-1.15066	3.74582	-3.35158
1019.931	0.37591	-4.04172	3.16847	-5.36501
1023.930	0.13446	-1.10274	3.14630	-8.21149
1027.930	0.56446	-4.08708	3.10282	-6.13401
1031.890	-0.57260	-1.63539	1.67162	-7.82613
1035.935	-0.23115	-3.49581	3.22092	-5.83245
1039.907	-0.82081	-1.72287	2.68442	-6.70269
1043.929	-0.41698	-4.17361	4.39476	-4.89422
1047.931	-0.60387	-2.30031	3.59426	-7.38395
1051.895	-0.66866	-1.81443	3.67442	-5.59006
1055.930	-0.31565	-4.21281	2.80070	-4.83309
1059.932	-0.54863	-2.47417	3.23113	-8.01433
1063.930	-0.27054	-2.40676	2.97955	-6.16856
1067.826	-0.50356	-1.89334	2.93087	-4.56440
1071.931	-0.54716	-4.31125	3.56398	-3.30626
1075.930	-0.76886	-4.29653	3.47769	-7.82057
1079.927	-0.63357	-3.52164	3.03749	-6.24732
1083.827	-0.45108	-2.94767	2.78097	-5.61397
1087.932	-0.77059	-2.36398	2.75982	-4.81411
1091.930	0.16114	-1.94766	3.32446	-4.69724
1095.932	-0.35350	-2.07143	2.89903	-2.69826
1099.932	0.13818	-3.76002	2.91369	-4.49233
1103.929	-0.42470	-4.21404	3.14360	-8.14337
1107.930	-0.67687	-3.97704	2.77641	-5.25401
1111.932	-0.55843	-3.78992	2.61637	-6.06345
1115.829	-0.71732	-2.92857	2.70342	-4.97322
1119.929	-0.99737	-1.26465	2.74841	-4.42676
1123.932	-0.51086	-1.93561	3.24264	-2.31469
1127.933	-0.02976	-3.29744	3.13712	-6.85301
1131.934	-0.57168	-2.13548	2.96832	-6.29965
1135.932	-0.13421	-2.15975	3.02838	-5.05044
1139.931	-0.67154	-3.26720	3.32605	-4.88048
1143.928	-0.36201	-2.27206	4.59329	-7.11542
1147.834	-0.50066	-4.02674	4.40752	-4.66557
1151.930	-0.20909	-2.23972	3.76228	-5.63835
1155.931	-0.34568	-2.67002	3.33045	-4.31988
1159.933	-0.70558	-1.91568	3.31054	-6.36974
1163.831	-0.07890	-2.73265	3.10059	-6.95498
1167.886	-0.33551	-4.03815	3.75002	-3.41361
1171.928	-0.21889	-2.69737	2.55118	-4.73749
1175.933	-0.25063	-1.98121	2.93738	-5.99504
1179.832	-0.97705	-1.96553	4.55482	-6.83460
1183.932	-0.61034	-2.43835	4.10495	-5.58287
1187.934	-0.55220	-2.54113	4.33024	-4.01226
1191.931	-0.33015	-2.06957	4.38132	-3.66475
1195.830	-0.56662	-2.42433	4.90013	-3.01348
1199.931	-0.62940	-2.11085	0.84702	-6.11158
1203.935	-0.47957	-2.02414	3.46689	-7.33284
1207.897	-0.57478	-3.75299	3.87151	-7.09154
1211.935	-0.90674	-2.61541	3.24323	-5.16836
1215.931	-0.93105	-2.39427	3.41775	-4.43439
1219.933	-0.97001	-2.15660	3.96165	-3.55196
1223.933	-0.65493	-3.38830	4.16006	-2.20459
1227.830	-0.83290	-3.48287	4.15144	-6.37900
1231.933	-0.69603	-2.25433	4.04253	-5.52359
1235.891	-0.80568	-2.13893	3.88787	-4.90763
1239.932	-0.57173	-3.66023	3.36228	-1.80444
1243.804	-0.77876	-2.99987	3.49886	-7.32479
1247.929	-0.63692	-2.71500	3.38664	-4.93852
1251.933	-0.79836	-3.49339	3.16035	-1.75847
1255.931	-0.98700	-2.64419	2.66157	-6.74316
1259.934	-0.43172	-3.46892	3.19363	-3.49210
1263.933	-0.83039	-2.43910	3.44582	-7.03056
1267.895	-1.40172	-3.35461	3.08639	-3.50608
1271.932	-0.82920	-2.78536	2.97730	-6.91466
1275.832	-1.52216	-3.12237	3.20805	-4.00710
1279.931	-1.14017	-2.68087	2.99651	-6.82907
1283.934	-1.70467	-3.23414	3.05617	-3.61558
1287.929	-0.95921	-2.02683	2.73922	-6.57777
1291.838	-1.41268	-4.09847	3.22893	-3.30841
1295.932	-1.32297	-1.75222	3.02900	-6.63524
1299.933	-1.43441	-3.97474	2.91626	-4.28834
1303.929	-1.15069	-1.82806	2.96440	-5.90028
1307.935	-1.50735	-4.93747	2.64448	-3.72910
1311.935	-1.35184	-2.64451	2.76715	-5.86003
1315.936	-1.23226	-3.06989	3.14209	-4.57611
1319.934	-1.40715	-3.23673	2.15978	-6.09406
1323.835	-0.97097	-2.25283	3.46328	-4.20336
1327.932	-0.92068	-3.86085	4.12424	-5.57258
1331.907	-1.05309	-3.32791	3.92672	-5.37376
1335.936	-1.16265	-2.57796	4.10634	-4.08971
1339.833	-1.23394	-2.26025	4.17445	-5.60512
1343.935	-1.15302	-2.97460	3.91104	-6.42034
1347.935	-1.01717	-3.78891	3.73900	-5.66448
1351.932	-0.85143	-3.60307	3.50917	-5.03593
1355.835	-0.97035	-2.92932	3.69635	-4.79635
1359.933	-1.11373	-2.98958	3.54393	-3.72076
1363.936	-0.86969	-3.48063	3.85414	-4.06824
1367.938	-1.05376	-3.36604	3.31905	-4.43725
1371.919	-1.04334	-2.89920	3.46694	-3.09947
1375.923	-0.99060	-3.31188	3.49762	-3.99123
1379.934	-1.01834	-3.25710	3.30802	-3.97064
1383.936	-0.99157	-3.26726	3.24128	-4.11196
1387.936	-1.05185	-3.52074	2.99519	-4.03361
1391.935	-1.14498	-3.49942	2.94163	-4.21260
1395.936	-1.11489	-3.09717	2.63470	-4.15589
1399.933	-0.98467	-2.71611	2.19479	-5.19155
1403.833	-0.99147	-1.76598	3.24882	-5.76400
1407.897	-1.33168	-2.40505	3.23185	-5.28305
1411.811	-1.50847	-3.48304	4.05577	-5.26182
1415.810	-1.14273	-3.75447	3.70633	-4.02751
1419.808	-1.21435	-4.50470	3.73438	-3.29520
1423.810	-1.43458	-2.15928	3.14083	-4.22584
1427.768	-1.11427	-2.24176	3.05370	-5.02110
1431.773	-1.18319	-2.67506	3.01353	-7.15521
1435.801	-1.22866	-4.17887	3.17524	-6.62667
1439.809	-1.00650	-3.88734	3.18754	-7.55130
1443.820	-1.02851	-4.64419	3.29112	-7.92427
1447.810	-1.13097	-2.83543	3.46041	-5.76131
1451.809	-0.50071	-1.67323	6.48218	-5.58553
1455.809	0.29089	1.03832	6.25509	-2.91122
1459.798	2.53236	0.87283	8.74944	-0.84601
1463.798	3.71424	-0.81787	6.19552	-1.46416
1467.808	3.87270	2.08152	10.57234	-1.10723
1471.811	4.43877	2.46096	9.79814	0.11323
1475.810	4.43443	3.00344	10.71442	0.74306
1479.812	4.56027	3.68608	9.79291	1.77352
1483.800	4.19899	3.83026	9.29449	2.22458
1487.814	4.55578	3.43079	9.92875	2.52307
1491.811	4.43327	3.67431	10.11315	1.86304
1495.815	4.83126	3.41056	9.81739	2.01714
1499.805	4.92583	3.54050	9.89181	1.37175
1503.809	4.77754	4.13599	9.85609	1.38871
1507.809	4.93938	3.68628	10.07646	1.65030
1511.809	4.86648	3.87566	9.96542	1.23270
1515.810	5.00711	3.76766	10.33877	1.34256
1519.811	5.11189	3.86648	10.12267	1.46175
1523.811	5.28670	3.88061	8.20649	2.55546
1527.814	5.37195	3.91516	10.23644	1.21531
1531.807	5.27971	3.92910	7.90107	2.46274
1535.812	5.23421	3.87965	7.87645	2.94332
1539.814	5.18604	3.96096	8.43652	2.42889
1543.797	5.17705	4.05273	8.16571	1.67892
1547.792	5.30205	3.85975	8.32475	2.70442
1551.810	5.24134	3.99450	8.73560	1.87787
1555.810	5.40289	3.78038	10.30218	1.73927
1559.815	5.49642	3.70942	9.90501	2.60224
1563.804	5.51282	3.65577	10.11512	3.12592
1567.815	5.40420	3.35035	11.35816	3.42149
1571.812	5.31300	3.59283	12.30573	3.38005
1575.774	5.40065	3.67850	12.61455	2.99824
1579.802	5.36939	3.35049	10.06087	2.94339
1583.820	5.57899	3.20960	10.13366	2.99676
1587.808	5.67892	3.39189	11.00556	2.14972
1591.813	5.54095	3.66560	9.03820	3.35452
1595.812	5.28960	5.78150	9.97818	2.92541
1599.814	5.53033	4.04981	10.33197	2.12765
1603.811	5.60546	4.23717	10.52933	2.48898
1607.810	5.23667	3.97286	10.33303	2.99288
1611.820	5.10657	4.10600	12.52944	3.95993
1615.814	5.24201	4.09865	12.12680	3.54560
1619.813	5.60182	3.86896	10.31602	4.47486
1623.817	5.44500	3.62696	12.38668	2.17970
1627.840	5.26125	3.77905	12.06603	2.86903
1631.814	5.33561	4.01167	10.60167	2.97629
1635.814	5.20524	3.66076	12.06653	2.55786
1639.812	5.12127	3.63309	12.65859	2.16968
1643.838	5.52706	3.37478	12.26266	2.52049
1647.813	5.43086	3.62114	10.87065	3.10882
1651.825	5.64501	3.42992	12.22630	2.79124
1655.812	5.46573	3.72437	11.19698	3.58512
1659.836	5.66924	3.84273	10.88451	3.80802
1663.811	5.30252	3.93435	11.69457	2.89612
1667.801	5.39790	4.32585	11.94225	3.39780
1671.804	5.80757	4.06096	11.38108	5.16492
1675.773	4.08710	3.70449	11.52188	3.70994
1679.815	4.38963	3.53186	9.88988	1.17176
1683.817	5.61743	3.99770	11.62009	0.87882
1687.813	5.32402	3.05249	12.47491	0.97928
1691.804	5.25402	3.97667	11.69229	2.18924
1695.813	5.86958	3.95761	9.76823	3.01938
1699.813	5.59740	4.64515	13.71369	1.81548
1703.814	6.22270	6.36725	12.75077	3.15679
1707.838	7.97663	4.48521	13.06544	3.01914
1711.776	5.66403	3.86953	13.97038	3.24900
1715.815	6.07832	3.81746	13.64436	3.09114
1719.816	6.94738	3.40564	13.61101	3.29798
1723.775	5.22963	3.58823	12.88402	3.17369
1727.815	6.11039	3.73293	13.77352	3.08201
1731.814	6.19969	3.81854	13.13952	3.78399
1735.813	7.07708	4.10295	13.88888	3.50143
1739.808	7.11604	3.74599	13.88750	3.50847
1743.777	5.48007	3.96331	13.84673	3.46192
1747.817	6.47088	3.80282	14.08029	2.79561
1751.799	6.88179	4.08979	13.88792	3.50860
1755.815	6.71787	4.31244	14.08865	3.30304
1759.814	6.96372	4.20892	14.25525	3.49106
1763.815	7.24109	3.95455	14.11248	3.04385
1767.809	7.33342	4.09569	14.16840	3.23292
1771.810	7.34165	4.15247	13.45916	3.88413
1775.811	7.25638	4.42588	14.04545	4.23341
1779.777	6.90180	4.96663	14.08099	4.28736
1783.821	7.47948	4.89532	14.35654	4.88091
1787.814	7.05599	4.65595	14.34555	4.46298
1791.814	6.92131	4.26165	13.69326	3.30853
1795.808	7.28959	4.47963	13.35247	0.80365
1799.777	7.20287	3.99034	14.38491	-0.12565
1803.840	7.64466	3.42668	14.62552	1.09735
1807.815	7.30825	3.65803	14.56341	0.59774
1811.814	7.99155	3.80472	14.45830	0.61041
1815.818	7.64976	4.33731	14.33923	2.24885
1819.814	6.93834	4.52690	14.22475	2.32644
1823.816	7.13209	4.95944	14.65126	2.59198
1827.839	7.09798	5.15058	14.12056	2.49525
1831.825	7.13803	4.18811	14.44760	2.45171
1835.815	7.17907	4.48116	14.05432	2.51409
1839.815	6.65360	3.91340	14.10594	2.49964
1843.814	6.96555	4.21155	14.07956	2.76296
1847.779	7.36830	3.79987	14.36229	2.82899
1851.842	7.17871	3.86832	14.24907	1.87300
1855.819	7.68018	3.60618	14.02835	5.09825
1859.815	6.43466	3.72668	13.96136	4.45468
1863.817	5.96031	3.53676	14.29364	4.73723
1867.773	6.21554	3.96571	14.70809	3.26997
1871.780	6.99692	3.74358	14.93921	4.40554
1875.804	6.64344	3.69880	14.09404	4.64369
1879.807	6.49666	3.98407	13.72842	5.20466
1883.819	6.80264	4.08737	13.59827	3.26566
1887.819	6.94902	3.96268	13.63048	3.71614
1891.817	6.72244	3.70612	13.54469	2.49072
1895.816	7.76906	3.37469	15.00573	2.26670
1899.810	8.20644	3.00765	15.20954	2.63817
1903.818	6.11182	3.19254	14.13678	3.57294
1907.819	6.11108	3.45061	13.89110	4.00089
1911.818	6.71343	5.30044	15.18939	2.96278
1915.810	6.71361	5.29704	15.34243	2.17825
1919.784	6.50464	5.24379	13.67602	2.21434
1923.785	6.57255	5.34573	14.05201	1.77423
1927.779	7.07236	4.13322	14.33068	1.76498
1931.815	6.69929	4.62498	15.55112	1.95507
1935.819	5.81722	4.81112	13.86446	1.22057
1939.817	5.09012	5.14737	9.09810	1.24287
1943.815	2.39012	4.53790	9.11479	2.42018
1947.808	2.14421	4.69229	4.97970	1.74009
1951.818	-0.32213	5.25886	3.65099	2.37037
1955.819	-1.05386	4.81302	3.42848	3.02712
1959.818	-1.15917	1.42024	2.71196	2.08591
1963.821	-2.66659	4.42540	-0.01454	1.10461
1967.815	-5.20076	4.10052	-1.27629	2.66725
1971.817	-6.22770	3.64303	-1.95185	2.00511
1975.819	-6.39165	3.60358	-2.94990	1.33323
1979.820	-6.50440	3.12455	-2.63482	1.49663
1983.780	-6.31424	2.84989	-2.33422	1.27995
1987.821	-6.13836	2.74496	-2.17797	1.70391
1991.789	-6.06878	3.14315	-2.61672	2.33690
1995.823	-5.79275	2.82468	-2.66862	1.43274
1999.819	-5.88066	2.90353	-2.12114	2.02576
2003.813	-5.79779	3.05253	-2.37560	2.67031
2007.817	-5.56478	2.67402	-2.49084	1.68451
2011.823	-5.61691	2.83380	-2.57583	2.18130
2015.816	-5.65105	2.80951	-2.46293	1.81134
2019.816	-5.54594	2.55879	-2.45106	1.62140
2023.821	-5.36548	2.69265	-2.48356	2.06813
2027.822	-5.42412	2.80637	-2.56706	2.09907
2031.818	-5.44144	2.66040	-2.48668	1.74377
2035.818	-5.37205	2.63607	-2.39002	1.57583
2039.820	-5.40270	2.40060	-2.37563	1.64285
2043.824	-5.39409	2.00318	-2.50647	1.39528
2047.819	-5.38956	1.79667	-2.49079	1.38964
2051.822	-5.35116	1.58714	-2.54412	1.19496
2055.821	-5.24932	1.40387	-2.52869	1.00749
2059.821	-5.31007	2.08317	-2.40337	0.52429
2063.820	-5.41812	4.01234	-2.45899	-1.15379
2067.820	-5.68374	3.67436	-2.43258	-0.55732
2071.820	-5.86904	4.17791	-2.47395	-1.19225
2075.716	-6.08981	2.15573	-2.38608	-0.83941
2079.819	-5.53648	2.11388	-2.60726	-0.37153
2083.817	-7.86897	1.71202	-3.82047	-1.40655
2087.813	-7.14890	1.35467	-5.93242	-1.85368
2091.716	-10.07538	1.47663	-8.87270	-1.08322
2095.820	-10.67874	1.78505	-8.30451	-0.92642
2099.819	-11.04221	1.14484	-8.98644	-1.46357
2103.818	-11.56753	-0.78769	-9.85274	-1.70843
2107.820	-11.36496	0.75610	-10.36824	-4.15232
2111.820	-11.65568	0.67704	-11.14983	-4.85039
2115.820	-11.85747	1.11578	-10.94770	-4.41070
2119.783	-12.19617	0.50892	-10.51036	-4.65405
2123.799	-13.67513	-0.68213	-10.55447	-4.70956
2127.824	-11.43982	0.55307	-10.75794	-4.99912
2131.821	-12.07687	-0.82252	-10.79785	-4.85641
2135.820	-12.39075	-1.87543	-10.78601	-4.12151
2139.727	-12.67657	0.40081	-10.44461	-4.25082
2143.821	-12.21762	0.29595	-10.89274	-4.58355
2147.819	-12.37565	0.20109	-10.50134	-4.74005
2151.823	-13.11606	-0.22669	-10.46714	-4.57871
2155.720	-11.97237	0.20439	-10.50621	-4.63850
2159.821	-12.28135	-1.89654	-10.52367	-3.69463
2163.823	-12.91175	-0.11212	-10.50160	-2.53404
2167.805	-12.05665	-0.00525	-10.27114	-3.02692
2171.785	-12.59831	0.17456	-10.41916	-1.81094
2175.819	-12.76546	-0.46036	-10.67162	-2.35046
2179.821	-12.24519	-0.17426	-10.28808	-2.79038
2183.820	-13.02219	-0.76545	-10.37153	-1.93208
2187.787	-12.18341	-1.72813	-10.07391	-2.25742
2191.821	-13.07556	-2.25362	-10.19214	-1.97713
2195.820	-12.22165	-0.13304	-9.95928	-2.00733
2199.820	-12.50990	0.47671	-10.23178	-1.89005
2203.717	-12.70666	-0.04373	-9.57370	-1.72589
2207.819	-12.37577	-0.64458	-9.95839	-2.15878
2211.817	-12.81292	-0.78519	-9.51283	-2.32805
2215.824	-12.04652	-0.90486	-9.89983	-2.24511
2219.719	-12.85109	-1.24755	-9.92760	-3.00901
2223.785	-12.33797	-0.89969	-10.13001	-1.92813
2227.823	-12.90463	-1.19867	-9.80371	-2.78303
2231.821	-12.39272	0.00558	-9.94139	-3.29539
2235.721	-12.89918	-0.03178	-9.93557	-3.06129
2239.824	-12.73132	-0.14460	-9.46747	-3.50951
2243.785	-12.21089	-0.34609	-9.62012	-3.30267
2247.826	-13.30214	-1.17556	-9.54114	-3.15509
2251.733	-12.48618	-1.61318	-10.08594	-3.30895
2255.826	-13.01159	-2.30424	-10.00071	-2.61456
2259.824	-12.62483	-1.69301	-9.59127	-3.07618
2263.819	-13.36048	-3.00380	-9.64716	-2.36074
2267.721	-12.90407	-4.83307	-9.92492	-3.55623
2271.826	-13.47843	-4.02215	-10.06232	-4.65710
2275.821	-12.82028	-2.74383	-10.03104	-4.62964
2279.826	-13.93784	-3.83140	-10.00562	-4.56477
2283.824	-12.89645	-3.59887	-9.73193	-4.21197
2287.827	-13.74088	-5.62405	-10.29505	-4.63852
2291.810	-12.87706	-5.07938	-10.16543	-4.55238
2295.812	-13.10582	-4.46589	-10.25843	-4.36972
2299.721	-13.75451	-3.86676	-10.19281	-4.34278
2303.825	-13.19341	-3.08953	-10.24387	-3.98598
2307.822	-13.23222	-2.63921	-10.40435	-4.32046
2311.822	-12.80737	-2.41655	-10.24182	-4.05246
2315.720	-13.89587	-2.64210	-10.61967	-4.41590
2319.829	-13.00174	-3.42295	-10.11428	-2.81599
2323.824	-13.11342	-3.32704	-10.60682	-5.10496
2327.824	-13.57567	-3.51979	-10.57714	-4.35082
2331.720	-13.27807	-3.28161	-10.24692	-4.45268
2335.823	-13.22328	-3.57010	-10.31946	-4.81825
2339.824	-13.28731	-3.64429	-10.25814	-4.82843
2343.827	-13.11126	-3.77004	-10.32496	-4.92261
2347.723	-13.33685	-5.71361	-10.18832	-5.33981
2351.824	-13.53212	-4.37081	-10.18370	-5.33244
2355.826	-13.13235	-4.05232	-10.09239	-5.20507
2359.822	-13.18682	-4.28366	-10.26867	-5.26317
2363.827	-13.38848	-4.55731	-10.31102	-5.26215
2367.824	-13.33549	-3.52594	-10.07093	-5.01862
2371.825	-13.12213	-3.90320	-10.21582	-5.06882
2375.808	-13.52008	-3.95829	-10.27407	-5.09118
2379.717	-13.19896	-3.20823	-10.18976	-4.68488
2383.823	-13.00916	-2.46890	-9.86753	-4.28841
2387.829	-13.33861	-2.91707	-10.36026	-4.03526
2391.787	-13.64743	-3.04761	-10.44607	-3.89878
2395.722	-13.24325	-3.12481	-9.95704	-3.63612
2399.824	-12.87758	-3.23743	-10.02692	-3.68252
2403.825	-13.46486	-3.33348	-10.04853	-3.53044
2407.824	-13.76191	-3.41072	-10.08443	-3.39849
2411.827	-13.41594	-3.23220	-10.30560	-3.39533
2415.824	-12.85624	-2.69081	-9.80749	-3.23493
2419.821	-13.67712	-2.82903	-10.00425	-3.24997
2423.825	-13.68352	-2.27547	-10.13785	-3.14243
2427.721	-12.50245	9.10038	-11.45975	-2.70729
2431.825	-21.85000	3.62270	-14.14847	2.51125
2435.827	-20.02477	-12.07511	-14.32710	6.75789
2439.699	-20.00928	-12.07626	NaN	NaN
2443.721	-20.00404	-12.07665	NaN	NaN
2447.699	-20.00139	-12.07685	NaN	NaN
2451.700	-19.99977	-12.07697	NaN	NaN
2455.699	-19.99868	-12.07705	NaN	NaN
2459.696	-19.99789	-12.07711	NaN	NaN
2463.676	-19.99727	-12.07716	NaN	NaN
2467.688	-19.99681	-12.07719	NaN	NaN
2471.727	-19.99642	-12.07722	NaN	NaN
2475.696	NaN	NaN	NaN	NaN
2479.697	NaN	NaN	NaN	NaN
2483.663	NaN	NaN	NaN	NaN
2487.704	NaN	NaN	NaN	NaN
2491.663	NaN	NaN	NaN	NaN
2495.701	NaN	NaN	NaN	NaN
2499.666	NaN	NaN	NaN	NaN
2503.702	NaN	NaN	NaN	NaN
2507.704	NaN	NaN	NaN	NaN
2511.704	NaN	NaN	NaN	NaN
2515.701	NaN	NaN	15.03478	-0.59625
2519.703	NaN	NaN	1.55115	-3.49978
2523.723	NaN	NaN	-2.13475	-1.63243
2527.702	8.64141	-4.74760	-0.72685	1.69609
2531.699	8.52472	-5.42283	13.17212	-0.29429
2535.704	8.98511	-4.96459	-1.21298	0.15401
2539.701	8.23335	-1.59889	-0.62243	0.06393
2543.699	-1.78042	-2.82544	-0.71967	-0.12548
2547.689	6.99311	-1.18379	3.44758	1.80329
2551.664	1.22529	-0.82472	0.42683	1.95787
2555.702	1.11948	-0.94728	0.22229	1.77618
2559.700	-0.66302	-0.84269	1.10824	0.51993
2563.668	-1.60218	-1.04952	1.32865	0.31505
2567.702	-1.99114	-0.93803	5.42533	-0.20955
2571.704	-1.20291	-1.36679	1.67293	-1.10059
2575.693	-0.91195	-1.18610	1.42474	-1.48253
2579.704	0.01258	-1.17843	0.35849	-1.97188
2583.702	-0.43639	-1.16637	1.64144	-3.01658
2587.702	-1.50100	-1.53034	2.15001	-2.60929
2591.728	-1.81535	-1.75620	0.88423	-2.72630
2595.703	-0.82248	-1.90694	1.28591	-2.97844
2599.701	-1.18805	-1.34629	1.59207	0.76501
2603.701	-0.98586	-1.60428	1.46571	0.04263
2607.724	-1.03062	-1.45546	2.32189	0.45741
2611.705	-1.85663	-1.50604	2.38338	0.26240
2615.703	-1.33408	-1.60328	3.24741	-1.15531
2619.704	-1.01809	-1.34833	4.24238	-1.04233
2623.670	-1.87421	-0.93526	2.87195	-0.77953
2627.707	-1.44376	-1.78303	3.86971	-0.80771
2631.677	3.18024	4.48173	3.40586	-1.91663
2635.703	0.56545	-0.29228	7.61319	-2.71533
2639.696	3.36092	1.34238	7.79851	0.11711
2643.706	3.77080	0.20354	5.27449	-8.83784
2647.705	5.67531	-0.47562	10.83618	2.53903
2651.706	5.97006	0.23597	11.24354	1.76743
2655.696	5.36526	1.10551	10.01857	-1.12023
2659.706	5.69969	1.23481	9.93287	1.89075
2663.704	5.73618	1.32123	11.39070	2.92170
2667.708	5.62866	1.90133	11.12923	3.37420
2671.663	5.69244	2.46437	11.55371	1.96833
2675.701	5.56618	2.25763	11.40233	3.32296
2679.705	5.64658	2.63579	11.90980	2.40283
2683.705	5.59059	2.36422	11.21326	3.31862
2687.694	5.71576	2.48727	11.21859	1.94912
2691.705	5.65334	2.71706	11.67422	1.16128
2695.705	5.54538	2.67280	10.99307	0.62807
2699.701	5.85834	2.75549	9.93451	2.73430
2703.699	5.43927	2.81881	11.43183	1.12871
2707.703	5.58402	2.96530	11.42599	1.76017
2711.704	5.25173	2.98756	11.48933	0.69970
2715.670	5.56396	2.47955	10.76360	-0.10143
2719.705	5.53849	2.54285	11.08089	0.06538
2723.706	5.76807	2.94312	11.06356	0.42599
2727.704	3.48054	2.90819	11.75569	-0.27057
2731.668	5.39256	1.96681	12.00286	0.93722
2735.703	5.44493	2.45777	10.14234	-0.10090
2739.709	5.40351	-0.42827	10.79933	-0.20164
2743.703	5.30582	0.56233	10.98949	0.08747
2747.703	5.47309	1.31144	12.15362	-0.24224
2751.698	5.54285	1.13082	12.14928	-0.48620
2755.684	5.40247	1.41316	10.70684	-0.66854
2759.706	5.38363	1.28807	10.56157	0.03762
2763.704	5.73804	1.80418	11.52357	0.01700
2767.726	5.30586	2.23177	11.43402	0.36536
2771.705	5.46588	2.38885	11.85003	0.37143
2775.706	5.46003	2.37761	11.87332	-0.03302
2779.706	5.49770	2.64418	10.63396	0.77146
2783.697	5.35096	2.67939	11.17496	0.90864
2787.705	5.42796	2.16631	11.68362	0.46387
2791.708	5.60502	0.58530	11.58622	0.52616
2795.700	5.68686	0.17415	12.19541	0.56862
2799.699	5.55354	0.15134	10.35589	0.84488
2803.708	5.40420	1.15601	10.27254	0.84176
2807.705	5.51007	0.38048	10.60977	0.77345
2811.704	5.64267	0.99943	12.17314	-0.07921
2815.697	5.75495	0.47348	11.67572	-0.34750
2819.708	5.96046	0.47165	9.87791	0.91205
2823.708	5.85993	2.25674	11.02383	1.52184
2827.782	6.75314	2.18054	12.03672	2.33125
2831.732	6.03591	3.37072	11.24129	2.97755
2835.706	6.51295	3.37571	12.39527	4.46488
2839.709	6.88710	3.76133	13.23685	4.13979
2843.705	6.59655	4.09091	13.08844	4.96443
2847.729	7.48012	3.39069	11.01522	5.63784
2851.708	6.30394	3.94130	12.99439	3.15363
2855.707	6.58185	2.77636	12.61930	0.70214
2859.706	7.15320	3.21331	12.94136	4.72905
2863.710	7.36132	2.38429	13.32548	3.42806
2867.669	6.86337	3.61258	10.41750	2.04248
2871.708	7.37777	3.85810	13.19296	0.27808
2875.706	6.87849	3.91219	13.11662	1.36399
2879.700	7.21574	4.14029	12.49874	3.72787
2883.705	6.56806	4.07803	11.87251	1.15612
2887.709	6.74442	2.36113	10.00033	2.91301
2891.706	6.97460	3.61205	11.94045	2.87551
2895.697	6.91491	3.18560	12.91680	2.71254
2899.706	7.32412	2.61504	12.99394	1.58965
2903.709	6.94682	3.36467	12.26531	3.96683
2907.707	6.98927	3.81363	12.98624	3.07088
2911.698	7.16415	3.70147	13.51780	2.78333
2915.707	6.99641	4.08786	14.33001	3.83559
2919.710	6.88959	3.57129	12.77745	2.68056
2923.706	7.15362	3.81179	12.73144	3.85204
2927.676	6.99998	4.10825	14.14334	4.04166
2931.709	6.86337	4.49027	13.23236	3.72297
2935.673	7.12425	4.03347	14.53330	4.12491
2939.708	7.17595	4.30423	12.78887	4.10974
2943.713	7.02079	4.04105	13.27908	4.07521
2947.710	7.26749	4.01317	14.07840	3.80320
2951.706	7.07977	4.32816	13.69612	3.82648
2955.671	7.01590	4.33814	12.66500	3.86511
2959.708	7.23335	4.08186	13.50150	3.51409
2963.689	7.33286	4.02092	12.81065	3.74213
2967.708	6.88558	4.28589	12.77518	3.13885
2971.705	6.83183	4.16017	13.56343	3.16989
2975.702	7.24041	4.21206	12.64482	2.68203
2979.709	7.25042	3.89566	11.70016	2.79725
2983.709	7.24840	3.68301	12.32085	3.06339
2987.669	7.31687	3.65042	11.61556	3.06288
2991.703	7.12632	3.75334	12.03845	2.61286
2995.708	7.21638	3.89917	12.59070	2.98715
2999.710	7.34758	3.51746	11.84185	2.53964
3003.671	7.34536	3.51735	12.00785	2.58296
3007.706	7.45575	3.78400	11.67989	2.85452
3011.708	7.55457	3.53028	11.94330	2.70061
3015.707	7.40179	3.82097	11.87981	3.05076
3019.711	7.58051	3.41806	11.75562	2.88555
3023.675	7.18946	3.69786	11.89022	2.97104
3027.709	7.81948	3.42163	11.85854	3.02978
3031.707	7.52359	3.78891	11.89504	3.09382
3035.708	7.80099	3.61424	11.80053	2.46554
3039.703	8.04533	3.55034	11.76281	3.58690
3043.711	8.00277	3.40688	11.73281	3.09313
3047.683	8.08234	3.35798	11.64230	2.01435
3051.714	7.84664	3.10992	11.55123	2.54947
3055.711	7.97853	2.93852	11.58267	2.34544
3059.709	7.93338	3.06448	11.65585	2.19344
3063.708	7.59510	2.86109	11.71870	2.50241
3067.709	7.83339	2.77923	12.75981	2.50114
3071.708	7.59783	2.67220	11.44201	2.65312
3075.710	6.31659	2.66241	10.95452	1.72713
3079.710	3.89090	2.52646	6.04480	2.61850
3083.711	7.25291	-2.94924	5.08567	2.51730
3087.695	0.02132	2.48395	2.10714	1.95960
3091.713	-0.49324	2.71319	-1.22886	2.45536
3095.673	-1.96603	2.84003	-1.27547	2.47917
3099.710	-4.97714	3.22349	-1.26629	2.67247
3103.709	-5.27808	2.80869	-2.24341	2.29114
3107.713	-6.11731	2.71877	-4.49588	2.40691
3111.710	-7.26615	2.69832	-5.01369	1.88612
3115.714	-6.99152	2.61862	-2.62974	1.50661
3119.610	-7.06195	2.19850	-4.97263	2.01406
3123.714	-6.96729	1.47547	-4.15882	1.99191
3127.712	-7.20487	1.31247	-4.92940	1.86611
3131.712	-6.44275	1.13727	-5.25537	1.45176
3135.714	-6.63783	1.71663	-6.00634	1.91420
3139.673	-6.60306	1.26385	-4.52572	1.43205
3143.712	-6.91576	1.22928	-4.46169	1.27587
3147.710	-7.02193	1.24609	-2.58554	1.10492
3151.713	-7.66468	1.71415	-3.98361	1.11532
3155.713	-7.56049	2.44267	-4.09189	0.90709
3159.710	-7.36652	2.07533	-4.78563	0.96468
3163.711	-6.96685	1.73561	-4.63989	0.60275
3167.714	-6.59758	2.03510	-3.89179	0.56362
3171.692	-6.62699	2.55469	-5.24779	0.87291
3175.708	-6.79567	2.24591	-3.69931	0.40617
3179.712	-7.26368	1.81600	-4.22814	0.52979
3183.703	-7.53108	1.97522	-4.37090	0.59566
3187.709	-8.00253	1.70514	-4.45350	0.50615
3191.719	-7.78187	1.78265	-3.94641	0.35930
3195.715	-7.11892	1.44549	-3.96012	0.56549
3199.613	-6.90938	1.31020	-4.68439	0.53689
3203.710	-6.67977	1.26899	-3.83890	0.34695
3207.714	-6.56321	0.85976	-3.70158	0.63245
3211.711	-6.68631	1.11696	-4.33290	0.80244
3215.612	-7.63284	0.65097	-4.01685	0.34301
3219.712	-7.31740	2.40606	-4.23406	0.52143
3223.715	-6.85295	1.64971	-4.01250	0.69424
3227.710	-7.12161	2.49354	-3.77819	0.46420
3231.613	-6.64055	2.71737	-3.70922	0.53171
3235.713	-7.07850	2.29957	-3.75652	0.53049
3239.712	-7.42070	2.13007	-3.72808	0.48340
3243.715	-7.45870	1.86492	-3.87818	0.37220
3247.717	-6.94108	1.21921	-3.83255	0.39570
3251.715	-7.11257	1.05790	-3.77542	0.21398
3255.689	-6.73862	1.12133	-3.65505	0.51860
3259.714	-6.42501	1.02295	-3.71990	0.33847
3263.718	-6.68873	0.70532	-3.68490	-0.20118
3267.715	-7.18491	0.13244	-3.81170	-0.04550
3271.713	-7.29138	1.87747	-3.66345	-0.04050
3275.675	-7.12280	2.09753	-3.93082	-0.19178
3279.611	-7.07300	2.17848	-3.91699	-0.00025
3283.685	-7.07271	2.02486	-3.85995	0.22866
3287.713	-6.83976	1.69987	-3.61446	-0.55919
3291.716	-6.24644	1.99037	-3.95592	-0.77392
3295.704	-6.19189	2.02221	-3.84925	-0.73470
3299.704	-6.58313	2.07552	-4.05940	-1.19245
3303.713	-6.83198	1.77986	-4.32424	-0.64315
3307.715	-7.10010	1.67557	-3.50363	-0.96069
3311.715	-7.10734	1.11138	-4.00475	1.38142
3315.713	-7.09614	0.90633	-4.02564	1.79420
3319.715	-7.45069	0.53589	-3.81407	3.62842
3323.714	-7.12684	-0.08832	-3.36426	3.06663
3327.615	-6.95012	0.22913	-3.39287	2.78702
3331.715	-7.21992	1.87711	-3.88557	3.06553
3335.714	-6.92841	2.29221	-4.20237	2.94324
3339.713	-6.70550	2.34617	-4.17295	3.16055
3343.679	-5.77797	2.37565	-4.23261	2.68050
3347.714	-6.59322	2.16390	-4.02386	2.94325
3351.713	-6.36542	2.47095	-4.07026	2.99158
3355.716	-6.21720	2.44165	-4.20602	3.04806
3359.610	-6.25193	2.36924	-4.41610	2.89605
3363.726	-6.29099	2.42119	-4.56227	2.88789
3367.717	-6.55555	2.07113	-3.69271	2.71588
3371.716	-6.49602	2.00432	-4.04295	2.61389
3375.614	-6.55964	1.83462	-4.29646	2.33478
3379.693	-6.77051	1.58751	-4.21456	2.38557
3383.715	-7.11630	1.48170	-3.68868	2.08241
3387.715	-7.29606	0.53953	-3.67264	2.18472
3391.719	-7.33857	0.73021	-3.53988	1.91780
3395.714	-7.23296	0.84484	-3.22646	2.09928
3399.715	-7.42485	1.10148	-3.45885	1.92473
3403.714	-7.50676	0.88336	-3.38775	1.82992
3407.613	-5.75942	0.85024	-3.35199	1.99927
3411.713	-5.86303	0.77641	-3.46229	1.91010
3415.716	-5.61097	0.90225	-3.70935	1.90904
3419.708	-5.60536	0.91692	-3.44191	1.90744
3423.716	-5.71079	0.68774	-3.65512	1.95979
3427.716	-6.28562	1.01041	-4.08932	2.08041
3431.716	-7.33667	2.38005	-3.97163	1.81109
3435.714	-8.17537	0.97738	-4.83018	-1.48102
3439.719	-8.78137	0.77868	-5.60359	-2.96707
3443.715	-9.90643	-1.90738	-8.75070	-1.97393
3447.716	-11.21773	-1.85108	-8.51967	-2.78733
3451.714	-11.42899	0.31743	-9.19737	-2.05076
3455.617	-11.56124	0.10936	-9.14610	-1.75020
3459.719	-11.98671	-0.46441	-9.71522	-1.95739
3463.693	-12.81898	-1.85649	-9.71107	-2.63238
3467.715	-13.10718	-1.86005	-9.93667	-2.42846
3471.614	-12.70522	-1.68071	-10.00268	-2.01500
3475.590	-12.23758	-1.86738	-9.77001	-2.11008
3479.552	-12.79838	-1.74500	-10.00312	-2.07510
3483.592	-11.26295	-1.72290	-10.17495	-1.87150
3487.612	-11.40293	-1.70212	-10.04162	-1.97375
3491.590	-11.51780	-1.65618	-9.93682	-1.80451
3495.593	-12.25045	-1.91071	-10.00360	-1.89071
3499.591	-12.26995	-1.95109	-9.74465	-1.75357
3503.592	-12.37359	-1.97532	-9.82149	-1.61343
3507.590	-12.67816	-1.95897	-9.64393	-1.39618
3511.588	-12.73689	-2.01843	-9.65177	-1.31952
3515.593	-12.48317	-2.20760	-9.99960	-1.21973
3519.557	-12.43637	-2.17068	-9.60569	-0.95657
3523.592	-12.32807	-2.05448	-9.62791	-0.81638
3527.592	-12.27877	-2.24040	-9.41059	-2.00745
3531.592	-12.19889	-2.08700	-9.38020	-1.95130
3535.615	-12.09648	-2.15780	-9.48526	-1.83229
3539.591	-11.53375	-1.90942	-9.49950	-4.04914
3543.593	-11.85621	-1.99651	-9.74398	-4.20391
3547.556	-11.83933	-1.72526	-9.56680	-4.36345
3551.616	-12.43963	-1.75326	-9.49494	-2.87259
3555.554	-12.23599	-1.68062	-9.47094	-3.05925
3559.591	-11.94698	-1.35700	-9.53764	-2.56425
3563.595	-12.02990	-1.21441	-9.68910	-2.47116
3567.592	-12.05473	-1.41271	-9.94368	-2.56334
3571.605	-11.77396	-1.11865	-9.59484	-1.34574
3575.594	-11.75572	-1.01476	-9.76037	-0.80812
3579.595	-11.57865	-1.06230	-9.60398	0.22916
3583.615	-11.94641	-2.93793	-9.38673	-0.35911
3587.591	-12.18889	-2.88869	-9.71447	-2.79364
3591.582	-12.39220	-4.61312	-9.53356	-3.57579
3595.587	-12.36390	-3.01271	-9.54141	-3.75843
3599.564	-12.11664	-3.30664	-9.70116	-2.86046
3603.594	-11.87981	-3.12248	-9.25069	-2.71251
3607.595	-11.68710	-3.25026	-9.58412	-2.78947
3611.596	-12.30917	-3.33783	-10.02374	-3.27931
3615.552	-12.61193	-2.40940	-9.83243	-2.65070
3619.591	-13.52416	-3.18144	-9.48794	-3.11766
3623.592	-12.80693	-2.34548	-10.04405	-5.06567
3627.555	-13.26946	-2.91170	-10.11055	-5.01310
3631.624	-13.25776	-2.63598	-10.43292	-4.72407
3635.564	-12.71533	-2.71079	-10.79705	-4.66101
3639.598	-12.66030	-2.37901	-10.41623	-4.38882
3643.593	-12.50583	-2.22613	-10.60486	-4.02545
3647.591	-12.93997	-2.48533	-10.40663	-3.13117
3651.594	-13.36149	-2.60675	-10.43299	-3.34951
3655.595	-13.37796	-2.49084	-10.22248	-2.38848
3659.594	-12.90178	-2.73402	-10.69388	-2.33213
3663.586	-12.85897	-2.32219	-10.68724	-2.21082
3667.595	-13.09941	-2.49489	-10.59817	-2.03928
3671.595	-12.78146	-2.43191	-13.41589	-5.67721
3675.587	-13.15339	-2.56513	-10.41338	-3.66978
3679.559	-13.44461	-2.46231	-10.60639	-6.03914
3683.593	-12.91998	-2.52454	-11.55855	-4.07874
3687.593	-12.89414	-2.51827	-10.56925	-4.65411
3691.595	-12.42058	-2.44648	-10.91959	-5.56500
3695.592	-12.67230	-2.68718	-10.46061	-3.70086
3699.595	-11.51070	-4.77660	-10.33850	-5.29856
3703.595	-11.56576	-11.21441	-10.68166	-5.73112
3707.594	-12.37645	-2.57657	-10.69340	-4.41729
3711.593	-13.05745	-2.57487	-10.90516	-4.12289
3715.592	-12.91892	-2.23492	-10.59586	-3.88316
3719.558	-12.60670	-2.48623	-10.58011	-3.82588
3723.598	-12.76539	-4.98173	-10.24920	-3.42895
3727.617	-12.02743	-4.76934	-10.29560	-1.92691
3731.594	-12.61727	-4.85451	-10.43493	-1.28716
3735.593	-12.78368	-1.89130	-10.15870	-4.50875
3739.595	-12.74093	-2.03866	-13.34049	-5.32274
3743.586	-12.80440	-2.28691	-13.79522	-4.93655
3747.594	-12.94535	-4.66752	-10.27977	-5.09442
3751.595	-13.22584	-4.24613	-10.24516	-5.44693
3755.594	-12.90671	-1.94684	-10.55356	-5.25621
3759.588	-12.81787	-1.88054	-10.39741	-4.91509
3763.596	-12.81283	-2.05398	-10.30684	-4.21417
3767.595	-12.89876	-3.25473	-10.08880	-4.89812
3771.597	-13.13785	-2.45245	-10.41563	-5.16845
3775.618	-13.06148	-3.20237	-10.52533	-5.07795
3779.596	-13.01381	-3.88285	-10.70718	-5.35068
3783.595	-13.02043	-3.50304	-10.56517	-4.62963
3787.596	-12.80277	-4.29863	-10.28376	-4.36364
3791.586	-12.90744	-4.31188	-10.40545	-3.63324
3795.599	-12.89199	-2.56288	-10.25485	-4.26841
3799.585	-12.96713	-2.69262	-10.43613	-1.90293
3803.585	-12.95973	-2.67805	-10.44698	-2.49298
3807.621	-12.50406	-2.60174	-10.44153	-2.75703
3811.595	-12.52809	-2.91708	-10.53221	-3.72740
3815.596	-12.77806	-3.88527	-10.19625	-3.18780
3819.597	-12.93318	-4.43430	-10.45430	-3.96275
3823.595	-13.19426	-5.33061	-10.40653	-4.62180
3827.596	-12.88600	-4.87341	-10.58824	-4.14953
3831.595	-12.66474	-5.16819	-10.43311	-4.00198
3835.595	-12.93726	-5.16127	-10.55349	-4.25001
3839.587	-12.77129	-5.41067	-10.40274	-3.70765
3843.563	-12.95214	-4.79198	-10.39431	-4.04681
3847.594	-13.00141	-5.04323	-10.42823	-4.01566
3851.598	-12.55817	-4.17188	-10.67476	-3.59563
3855.595	-10.43714	-2.23958	-9.74998	-1.86924
3859.557	-8.94595	-0.38499	-10.56668	-1.27419
3863.596	-8.16299	-0.64971	-7.89233	-1.12456
3867.599	-6.19557	-0.73024	-4.53132	-0.33934
3871.591	-4.23883	-0.37231	-3.48899	0.20993
3875.596	-3.81943	0.88812	-1.33411	0.89080
3879.600	-1.21271	2.62683	-0.91475	1.42371
3883.581	-0.04916	2.65916	-0.02715	3.17111
3887.576	-1.59916	1.00145	0.26580	2.49554
3891.597	-0.19613	-0.24583	0.24396	2.66112
3895.614	-1.82686	0.84160	0.22780	2.29204
3899.598	-1.71265	0.36581	0.73650	1.88988
3903.591	-2.01776	1.10648	0.61563	2.19477
3907.597	-1.52860	2.74923	1.20953	1.82323
3911.597	-2.48032	3.06909	0.68508	1.94773
3915.597	-0.09381	0.25378	0.54791	1.76373
3919.588	-2.45941	3.24635	0.88902	1.53783
3923.561	-2.38306	3.35814	1.28400	1.00283
3927.594	-2.21896	2.82380	1.30647	2.33804
3931.561	-1.95604	3.23978	1.79832	2.24103
3935.589	2.10528	-0.47108	1.55539	3.04443
3939.555	2.26653	-0.29247	2.72966	2.66747
3943.598	-0.72243	3.20631	2.76690	2.56558
3947.595	-0.29389	3.18269	2.53612	2.54622
3951.593	-2.32360	1.43110	-1.02379	0.21175
3955.599	-2.34713	2.12155	-0.68759	0.46645
3959.602	-2.40127	2.66773	-0.72444	0.76838
3963.601	-2.27352	2.17376	0.58664	0.11875
3967.590	-2.29366	2.22428	0.10572	0.00291
3971.597	-2.35655	2.87910	-0.38167	0.82541
3975.599	-2.34062	3.09139	-0.34605	1.67356
3979.598	-2.38447	2.98347	0.04822	2.29597
3983.591	-2.34614	3.29419	0.16700	2.41963
3987.598	-2.38229	3.23424	-0.11121	2.94429
3991.600	-2.39698	3.06547	0.08939	3.36534
3995.600	-2.34322	3.19255	-0.05619	3.11455
3999.593	-2.29265	3.37451	0.05184	3.37121
4003.600	-2.38824	3.59673	0.31156	3.48147
4007.589	-2.39418	3.59498	0.28776	3.52862
4011.591	1.24178	0.26093	0.58496	3.72646
4015.600	3.39873	0.13375	0.15764	3.67418
4019.601	-2.34332	1.99844	0.46428	3.44573
4023.562	3.61809	5.13638	0.36876	3.40185
4027.602	3.45739	1.32434	0.43877	3.05081
4031.601	-1.44562	1.66181	0.42720	1.96368
4035.598	-2.62207	6.81414	0.46398	1.03693
4039.597	-0.11446	7.10492	0.30662	1.71378
4043.601	-1.85100	1.50892	0.46393	1.68192
4047.591	-1.41328	1.43778	0.30498	1.65509
4051.600	-1.05905	0.86176	0.29014	1.42844
4055.600	-3.31558	1.42004	0.07073	1.63436
4059.600	-0.49947	1.35552	0.43653	1.77309
4063.593	-1.03702	1.81460	1.94682	1.36660
4067.600	2.24418	2.48408	-0.75243	-7.99764
4071.600	2.26202	4.69594	1.24344	4.57299
4075.603	2.85868	2.29005	5.53899	2.41917
4079.602	5.85794	1.78794	4.76864	4.66320
4083.600	5.96166	2.02525	10.12888	1.81090
4087.602	8.34592	1.91274	5.44731	3.10764
4091.563	8.18932	2.77246	8.76748	2.82284
4095.600	8.28191	3.22746	8.68240	2.74341
4099.604	8.17892	2.06341	8.45533	3.59123
4103.599	8.08742	1.20446	9.66974	3.13174
4107.601	8.22640	1.35055	5.78814	3.23247
4111.607	7.84810	2.27430	11.70116	2.44554
4115.562	8.23705	2.36790	11.04391	3.00338
4119.600	8.17797	2.33441	8.40310	3.44630
4123.603	7.95451	2.88943	10.71533	2.96033
4127.602	8.09703	3.26648	11.57910	2.33602
4131.599	7.86259	3.43803	11.21985	2.78043
4135.598	7.98632	2.55939	8.32998	3.29324
4139.601	7.75717	3.45948	8.20094	2.30702
4143.603	7.45001	2.94907	7.90158	2.89952
4147.603	7.53352	4.05246	7.92690	1.93746
4151.604	7.51049	3.07430	7.87211	2.26303
4155.603	7.37621	3.15510	8.01939	2.26217
4159.501	7.87197	2.82275	8.58704	3.26085
4163.601	7.34775	2.76107	7.55996	5.85082
4167.604	7.59549	2.94125	7.41438	4.30195
4171.604	7.51330	3.02264	7.82606	3.36776
4175.585	7.48532	2.68263	8.30719	4.79097
4179.603	7.24906	2.64682	8.90216	4.17315
4183.601	7.44589	2.21191	9.36663	3.46067
4187.601	7.07273	2.42867	11.60935	2.73264
4191.604	7.17512	2.74220	9.43136	3.07569
4195.603	6.92107	2.53674	8.22487	3.42009
4199.600	7.00788	2.29283	6.75781	3.65336
4203.604	7.53030	2.22407	9.85970	2.89697
4207.593	7.20568	2.42868	9.55823	3.57146
4211.615	7.59727	2.06043	9.44769	3.03362
4215.590	6.88575	2.47342	10.90585	2.31672
4219.593	7.11990	2.74130	8.45434	2.45062
4223.571	7.19576	3.40686	8.02100	2.63375
4227.602	7.16603	2.98888	8.57469	2.90198
4231.602	7.54523	3.49875	8.90451	2.70552
4235.564	7.37636	3.41961	4.81779	2.94714
4239.505	8.07818	3.79272	7.73058	3.97723
4243.602	7.25384	4.14590	7.42263	2.87904
4247.604	7.75902	3.34388	8.62348	4.58245
4251.603	6.84228	4.09874	8.61181	4.00768
4255.501	7.13167	3.80787	11.19788	3.97653
4259.576	7.48458	3.72417	9.40380	3.16854
4263.602	7.43544	3.70969	8.24499	3.50629
4267.605	6.90021	3.78515	7.00230	3.00568
4271.605	8.07757	3.69736	9.69752	2.44748
4275.606	7.20678	3.83211	8.90650	3.36141
4279.603	7.95402	4.14020	8.74585	3.28621
4283.604	6.84248	4.30512	8.65965	4.91323
4287.607	8.00783	3.68946	10.01585	4.30619
4291.603	6.72920	4.30215	9.34875	3.81846
4295.606	8.01810	4.48715	11.27099	2.83308
4299.571	6.87817	4.66506	8.02506	1.76946
4303.499	7.37758	3.73368	11.22518	1.45207
4307.605	7.47409	4.18569	9.91736	2.16560
4311.604	7.12525	4.44745	8.06321	2.50906
4315.605	8.15817	3.40927	8.89940	1.90950
4319.503	6.54070	3.39503	7.07275	1.78304
4323.603	7.61451	2.65015	7.61538	2.29987
4327.602	7.89089	2.70421	9.92870	1.73807
4331.603	7.12031	2.41090	8.74224	2.01544
4335.609	7.73852	2.99287	8.88198	2.96826
4339.605	7.46033	2.87741	7.31067	4.44524
4343.597	8.02818	3.08080	8.83389	2.14912
4347.608	7.80847	3.04825	8.43950	2.77101
4351.609	7.26139	2.95993	9.03711	4.84882
4355.605	7.02255	3.25545	9.74692	4.29289
4359.606	7.81149	3.15657	9.43945	4.29392
4363.570	7.02546	3.18490	9.70610	3.12684
4367.607	7.62916	3.31464	4.58449	4.47894
4371.568	7.67182	3.53923	10.21466	2.27122
4375.606	7.86564	3.61589	10.25999	4.23364
4379.605	9.83705	3.77907	10.10853	3.99086
4383.506	10.32825	3.95984	14.13748	3.51493
4387.606	10.07673	4.17608	12.34410	4.81054
4391.604	9.35462	4.60996	12.06351	1.82342
4395.606	9.69957	4.08729	10.65542	3.43473
4399.506	9.61515	4.31114	12.48606	1.84968
4403.605	9.20441	4.90092	12.19972	4.94390
4407.604	10.02872	4.36076	13.30331	4.93990
4411.607	10.02788	4.53817	12.17084	6.74876
4415.609	9.32888	4.82898	12.42472	6.70080
4419.606	9.73294	4.91688	13.18009	2.74326
4423.605	9.17936	5.03213	12.07813	4.55525
4427.568	9.49009	4.92494	12.43942	5.31570
4431.506	9.87278	3.83029	12.19856	6.09769
4435.605	9.63264	3.30477	11.08976	8.73555
4439.607	9.57334	3.40315	9.85618	2.60502
4443.604	9.80530	4.21003	12.21146	2.54430
4447.504	9.43581	4.61497	13.29464	2.33017
4451.605	9.58132	4.73630	16.03160	2.57278
4455.603	9.69853	4.76595	10.86395	3.88481
4459.603	9.36786	5.39849	11.91581	0.63811
4463.606	9.27641	4.84339	12.13640	0.77194
4467.576	9.05950	4.92214	12.18284	0.97195
4471.607	8.99152	3.88838	12.70730	0.53994
4475.607	9.49482	2.61647	12.30346	1.90438
4479.503	9.21698	3.10051	13.01494	2.50212
4483.604	9.46942	3.05377	13.15124	2.24713
4487.606	9.58634	3.84927	11.29920	2.45620
4491.606	9.46594	3.70713	13.58596	2.08020
4495.502	9.49480	3.59790	12.25661	2.26768
4499.608	9.25444	3.53105	11.47016	2.89142
4503.481	10.08763	3.42900	11.25092	2.62552
4507.482	9.37503	3.52307	11.23225	2.96673
4511.466	9.43216	3.56386	11.62328	2.63883
4515.474	9.59267	3.59497	11.05106	2.55031
4519.480	9.66125	3.56635	11.47925	2.46277
4523.482	9.79110	3.71942	12.85055	2.17239
4527.610	9.58292	3.74407	12.17044	2.00576
4531.483	9.66484	3.90200	12.00794	2.50922
4535.484	9.56006	5.05421	11.75569	2.25265
4539.493	9.31806	5.03947	12.73894	1.97235
4543.504	9.14530	3.71477	12.69535	2.24804
4547.480	9.16271	3.80597	12.47527	2.76481
4551.485	9.19019	3.78596	12.32667	3.67101
4555.456	9.13918	3.82527	13.21630	6.96746
4559.611	9.19686	4.13370	11.76804	6.49689
4563.485	9.17432	5.00316	8.03720	2.28163
4567.483	9.12115	3.36663	12.47548	1.92477
4571.483	9.09526	3.05925	10.91894	2.71933
4575.505	10.20159	3.45430	12.05072	4.77752
4579.482	9.18485	3.89752	12.82035	4.59002
4583.482	9.09960	4.18528	12.85989	4.74339
4587.482	9.21205	5.41362	10.53077	1.35836
4591.483	9.20552	3.94952	11.26686	2.08425
4595.470	8.12038	4.02653	12.27668	0.28360
4599.477	7.58954	3.58211	10.45447	1.80512
4603.484	9.53395	3.14045	11.02251	1.83828
4607.483	9.47806	3.37010	11.20364	1.74931
4611.481	9.70044	3.65979	11.63113	1.41023
4615.486	9.94303	3.55021	13.67902	3.17992
4619.481	9.81301	3.51973	12.56261	1.62108
4623.486	8.72447	3.38744	12.56826	1.77667
4627.483	7.17729	3.82084	11.19889	2.52328
4631.483	7.31125	3.87006	11.40078	2.51052
4635.485	7.97220	3.64790	11.32245	4.73908
4639.477	8.89802	3.86106	12.48452	4.55802
4643.484	7.35886	3.72493	11.93952	3.23775
4647.483	9.62068	3.86332	12.72114	3.06300
4651.482	9.27066	5.86394	12.59540	2.74640
4655.475	9.35329	5.13588	11.30822	2.54757
4659.483	8.90577	4.92500	11.64644	2.85613
4663.482	8.79729	5.07462	11.27565	2.44008
4667.486	8.81622	5.28479	11.15814	2.71192
4671.447	8.86999	4.90801	11.19650	2.74765
4675.484	8.49911	5.52593	10.89721	2.69311
4679.487	9.11876	4.92202	12.63163	2.08182
4683.483	9.15887	5.29201	10.96641	2.68329
4687.479	9.06644	5.33108	12.61178	2.46762
4691.488	8.83566	5.49270	12.43970	2.11145
4695.481	8.98813	5.42747	8.94995	4.82318
4699.486	8.62003	5.65178	9.50721	3.43340
4703.477	8.45135	5.63620	9.04282	5.04695
4707.485	8.71649	5.65557	8.23522	5.29217
4711.486	8.88717	5.12293	10.64233	4.96641
4715.487	8.52666	5.14612	12.56153	3.63523
4719.508	9.22627	5.32456	10.49790	4.46012
4723.487	9.12752	5.35518	11.51688	2.96904
4727.483	9.28011	5.23381	14.34566	3.17305
4731.488	8.97714	5.48699	11.78557	4.53390
4735.511	9.36281	5.29394	11.37400	3.18644
4739.485	9.13190	5.22718	10.75703	4.39620
4743.524	9.20165	4.99837	10.97071	3.10148
4747.490	9.16267	5.13768	11.80711	3.70899
4751.476	9.28830	4.95494	11.83693	2.97884
4755.484	9.32869	4.91526	12.39028	2.97227
4759.485	9.50892	4.82930	11.42947	3.87469
4763.458	9.85992	4.67581	11.40031	3.78841
4767.510	9.70094	4.31043	12.57753	4.62282
4771.486	9.34964	4.30388	12.97768	5.90060
4775.484	9.71191	4.45802	14.00795	5.30633
4779.485	9.08360	4.71886	11.36842	4.75956
4783.512	9.17996	4.54205	11.81187	6.22136
4787.487	9.09379	4.44742	12.73087	4.36730
4791.485	8.88988	4.29415	11.60439	4.96718
4795.484	7.49927	4.27846	11.29307	4.54565
4799.513	5.38253	3.21687	7.09673	4.18927
4803.476	5.08673	3.59444	6.68308	1.12192
4807.483	4.07935	4.23611	5.18897	-0.03329
4811.485	3.20926	3.85163	5.28217	-1.68169
4815.478	4.42595	3.88318	4.27052	-1.95672
4819.485	0.17591	2.48734	0.61804	-2.82116
4823.486	0.46341	1.94495	1.04245	-2.92849
4827.487	-0.54764	1.70881	0.85580	-2.78961
4831.478	-1.00288	1.87309	2.25712	-3.00033
4835.485	-0.90505	2.28664	1.01819	-2.89759
4839.488	-0.99474	3.97613	1.47570	-2.08780
4843.487	-1.11425	4.10324	1.02764	-1.20367
4847.486	0.92808	4.16151	0.65568	-2.27141
4851.489	-0.31248	-0.90534	0.14888	-1.85173
4855.486	-0.04432	2.70967	1.81781	-1.83932
4859.486	0.04889	2.48589	1.55539	-2.71335
4863.488	0.20147	2.48104	1.45321	-1.97250
4867.488	-0.97683	2.24434	0.38789	-1.82369
4871.486	-0.49046	2.13316	0.55014	-1.60998
4875.485	-0.94428	2.27073	0.59213	-1.49108
4879.510	-1.06292	2.70893	0.60612	-1.69231
4883.488	-1.05659	1.76862	0.72757	-1.60441
4887.467	-1.12633	1.98273	0.35769	-1.69729
4891.488	-1.05649	1.70927	0.79913	-1.63810
4895.478	-0.95080	1.01755	0.87483	-1.62776
4899.487	-0.81057	1.03289	1.25729	-1.58255
4903.493	-0.78089	1.05225	1.07220	-1.40211
4907.487	-0.94013	0.81447	0.89972	-1.33389
4911.488	-0.80838	0.49508	0.57295	-1.01364
4915.488	-0.80449	0.50005	1.04873	-0.03051
4919.487	-0.68030	0.49015	0.78833	0.37329
4923.451	-0.27634	0.77459	1.03392	-0.24336
4927.454	-0.46612	0.36251	1.25059	-1.56858
4931.479	-0.35481	0.45882	1.02960	-3.92574
4935.489	-0.19420	0.44548	1.06049	-3.69824
4939.489	0.03658	0.67224	1.25580	-3.21332
4943.484	0.00908	0.83669	2.01593	-3.52302
4947.492	0.36923	1.10332	1.20618	-3.23775
4951.487	-0.06435	1.75911	1.37712	-3.00707
4955.487	-0.41087	2.14072	1.49986	-2.83102
4959.488	-0.34509	2.25396	1.34026	-2.61280
4963.488	-0.39057	2.26910	1.64970	-2.82467
4967.492	-0.60434	1.11538	1.79254	-2.50351
4971.461	-0.86376	1.20715	1.57133	-2.73398
4975.486	-0.59047	1.16746	1.74685	-2.60583
4979.489	-0.79848	1.32948	1.79725	-2.43457
4983.486	-0.88475	2.70315	1.79894	-2.57100
4987.487	-0.78389	2.50069	1.82643	-2.69402
4991.491	-0.97154	2.60956	1.84376	-2.40802
4995.491	-0.83736	1.89011	1.81287	-2.54610
4999.488	-0.76476	2.38009	1.65101	-2.45545
5003.493	-0.78446	2.28050	1.53071	-2.43532
5007.489	-0.78871	2.22163	1.05433	-2.42307
5011.491	-0.49545	2.64835	0.84793	-2.39070
5015.485	-0.44711	2.57316	1.18815	-2.11377
5019.489	-0.53969	2.82120	0.72097	-2.31261
5023.490	-1.09906	2.27487	0.67434	-2.08341
5027.491	-0.94805	1.59339	0.66484	-1.22258
5031.492	-0.18005	2.31256	1.43868	-0.97016
5035.489	0.89282	2.71452	4.15458	-0.54171
5039.488	3.46976	2.91914	3.24085	-0.43272
5043.452	2.12349	2.88058	3.90513	1.96839
5047.489	3.68732	3.29268	5.62657	1.98668
5051.448	3.92803	3.49764	6.05290	4.80081
5055.488	3.95599	4.05436	6.07309	4.86474
5059.490	4.27205	4.40942	6.69285	2.31314
5063.453	4.19872	4.14402	6.67835	2.32617
5067.501	4.02680	4.31995	6.54964	2.18421
5071.491	4.05330	4.48234	7.17460	2.02643
5075.490	3.71597	4.63911	6.20823	1.83945
5079.488	3.16772	4.72081	6.89896	2.03975
5083.489	3.05269	4.65576	7.38761	2.05338
5087.493	2.80682	4.97705	7.24925	2.02314
5091.492	3.40818	4.72835	7.07185	1.86197
5095.469	3.02937	4.84576	7.04574	1.97766
5099.490	2.82803	4.79303	6.59072	2.04233
5103.485	2.90017	4.88006	7.16635	2.08593
5107.493	2.92143	4.86802	6.98756	1.84211
5111.493	3.11086	4.86200	6.82738	1.56817
5115.489	2.97735	4.86127	6.95054	2.16400
5119.494	3.21842	4.80856	6.61979	1.90923
5123.491	3.38009	4.75627	6.36121	0.23681
5127.491	3.47163	4.69519	6.58932	0.56549
5131.490	3.35842	4.67845	6.53242	1.67844
5135.491	3.73389	4.70271	6.06372	1.22040
5139.485	3.99756	4.65144	6.26959	0.51514
5143.494	4.14892	4.64348	6.22738	0.38254
5147.492	3.85792	4.70492	5.91042	0.34248
5151.496	3.78625	4.77892	5.64196	-0.08650
5155.490	3.80016	5.12709	5.14823	0.19163
5159.493	3.85624	5.08069	5.42496	0.35328
5163.492	3.61102	5.36951	5.72281	0.17918
5167.485	3.52779	5.11177	5.60873	0.50594
5171.491	3.71407	5.15008	5.56512	-0.01689
5175.490	3.73974	5.31807	5.42486	0.29665
5179.463	3.50563	5.11049	5.43829	0.28138
5183.486	3.38689	5.12104	5.57955	0.20369
5187.495	3.61290	5.04019	5.28724	0.24065
5191.494	3.37536	5.06494	5.29469	0.27232
5195.492	4.00438	4.85689	5.38225	0.09478
5199.391	3.22371	4.90827	6.41824	-0.09853
5203.499	3.06172	4.77828	5.80273	-0.54871
5207.492	3.50093	4.69574	5.18651	0.09008
5211.495	3.35246	4.48094	6.27263	0.15005
5215.498	3.21913	3.97252	5.91757	1.49880
5219.481	3.56504	3.90833	5.34405	1.59801
5223.497	3.68718	3.28566	5.35229	3.06081
5227.492	4.20901	3.11091	5.83026	2.83223
5231.495	4.36883	3.21554	5.68256	2.15647
5235.495	4.56313	3.53569	5.81631	2.05415
5239.491	4.24463	4.50746	6.64856	1.77437
5243.493	3.93216	4.28894	6.19096	1.61456
5247.497	3.60348	5.28795	5.92110	1.27796
5251.495	3.55817	5.10990	6.15210	1.60908
5255.494	1.81498	3.75383	7.55966	1.22083
5259.496	3.57315	4.37357	7.02286	1.67646
5263.403	3.60667	3.22102	6.24195	1.44705
5267.495	2.87103	3.17164	6.40258	2.11646
5271.492	3.30067	4.28456	6.13046	2.56308
5275.493	3.61960	3.56161	6.72325	3.27735
5279.392	4.14690	4.30173	3.81298	3.36654
5283.496	4.04315	4.27246	6.38096	3.98362
5287.495	3.53597	4.27409	6.06730	4.12107
5291.495	3.64859	3.99670	4.17415	3.96160
5295.393	2.97891	3.40255	3.15357	2.20795
5299.457	-0.08877	2.39290	1.22313	0.78212
5303.481	-0.16878	2.62937	0.69779	-2.59564
5307.495	0.02045	1.77987	1.51090	-4.08309
5311.495	-2.71501	1.67337	-0.30486	-3.19834
5315.457	0.13799	1.35869	3.43301	-0.95633
5319.493	0.21132	1.43927	1.03114	-1.53792
5323.494	0.29741	1.20427	1.51060	-1.88223
5327.393	-2.79468	1.40471	1.86332	-1.76015
5331.495	-2.02589	1.14463	1.64382	-2.08170
5335.494	-1.82259	1.14953	1.50311	-1.76072
5339.497	-1.93137	1.01441	1.47771	-2.31721
5343.395	-1.66867	1.13108	2.53503	-2.15747
5347.472	-1.78315	1.05965	3.23512	-2.84302
5351.498	-1.87381	1.13172	1.95477	-2.63382
5355.494	-1.87656	0.85121	1.85638	-2.84918
5359.395	-1.76448	0.62295	1.79113	-2.30056
5363.498	1.09840	0.65279	1.76125	-2.53509
5367.497	0.94894	0.69679	2.06017	-2.54848
5371.496	0.51163	0.50560	2.32474	-2.39822
5375.499	0.60290	0.74723	2.47615	-2.34831
5379.496	0.09957	0.92751	2.30169	-2.30897
5383.460	-0.87458	0.79354	1.95901	-2.96259
5387.469	-1.20576	0.61036	1.74595	-2.93416
5391.381	-1.58096	1.37777	1.63735	-3.42682
5395.495	-0.12332	1.25515	2.07442	-6.88023
5399.493	0.48242	0.80548	-0.85466	-4.66681
5403.495	1.07994	0.62085	1.38394	-5.58996
5407.398	0.59506	0.78539	1.42285	-4.51896
5411.498	-0.03132	0.90851	1.55442	-3.27783
5415.495	-0.06619	0.98030	1.63549	-3.72292
5419.499	-0.45641	1.17849	1.59700	-3.69274
5423.403	-0.66913	0.98498	1.21685	-3.49267
5427.457	-0.12555	0.94321	1.38733	-3.98946
5431.487	0.26728	0.76684	0.97331	-4.33958
5435.500	-0.31409	0.57570	1.16917	-4.58997
5439.398	-0.08694	0.28797	2.08399	-2.61855
5443.493	-0.21517	0.69882	2.09437	-4.09970
5447.495	-0.30627	0.38928	1.54740	-4.13759
5451.459	-0.72521	0.51067	1.38924	-4.60088
5455.497	-1.12189	0.69894	-1.48972	-4.04027
5459.495	-0.44013	0.78084	2.70156	-2.81812
5463.497	-0.36665	1.21057	1.59894	-4.57799
5467.502	-0.45455	1.45260	2.01419	-4.44730
5471.499	-0.53394	1.66766	1.09252	-3.05441
5475.500	-0.47033	1.44363	-0.78945	-2.20615
5479.498	0.23946	1.18465	1.93435	0.64173
5483.497	-0.21152	0.72414	2.29473	-0.46234
5487.464	-0.11103	0.74295	1.82031	-2.57615
5491.494	-0.07778	0.37725	2.22545	-1.58219
5495.499	-0.35275	0.95825	1.47843	-3.14042
5499.498	-0.18323	-0.44196	0.33399	-6.89909
5503.498	0.05036	-3.49437	0.06616	-3.98454
5507.502	-0.42281	-3.27219	1.26941	-3.59494
5511.476	-0.01911	-1.98138	1.47434	-4.47568
5515.497	-0.27674	-2.82276	2.06996	-4.01261
5519.395	-0.47969	-3.19956	0.69250	-4.09155
5523.497	0.12347	-2.57846	1.23687	-4.07844
5527.500	-0.38564	-2.03630	2.04679	-4.46952
5531.497	-1.22677	-2.84623	1.66941	-4.43764
5535.366	-1.20797	-2.90625	1.36330	-4.01123
5539.497	-0.23626	-0.56564	1.00610	-4.22811
5543.372	-0.36546	0.01143	1.35405	-4.13858
5547.372	-0.04177	-0.88742	1.67251	-5.74353
5551.495	-0.10284	-0.89705	1.53751	-4.71495
5555.374	-0.61044	-0.73714	1.51653	-4.10997
5559.372	-0.41869	-0.82429	1.38128	-4.35120
5563.379	-1.24694	-0.99830	0.89031	-4.78394
5567.400	0.40120	-1.01975	1.40435	-4.82958
5571.376	-0.26421	-0.98730	1.56863	-4.88000
5575.374	-0.41963	-0.91407	1.40046	-4.59471
5579.375	0.00911	-1.02899	1.11043	-5.01829
5583.372	0.22328	-1.10805	1.19326	-4.51063
5587.374	0.22152	-1.18689	0.73310	-4.98392
5591.380	-0.16893	-1.24780	2.90983	-5.25498
5595.377	-0.56193	-1.23185	1.43324	-4.96301
5599.384	0.06036	-1.30304	1.04148	-4.78488
5603.370	-0.17290	-1.44573	1.16280	-5.05513
5607.376	0.08957	-1.59031	1.02930	-5.42546
5611.373	0.19611	-2.02547	0.88222	-5.35757
5615.365	-0.17807	-1.57814	1.16481	-4.55631
5619.376	-0.82458	-1.73185	0.69561	-4.33218
5623.376	-0.14704	-2.07012	0.47190	-4.21095
5627.375	-0.00409	-2.03466	0.95815	-5.46231
5631.368	0.01062	-2.21030	2.22693	-5.55214
5635.374	-0.04018	-2.23943	0.82141	-5.35138
5639.376	-0.16821	-2.32326	0.91113	-3.93913
5643.373	0.09242	-2.31922	0.61858	-3.99360
5647.401	0.08520	-2.30361	0.99568	-3.74678
5651.376	-0.03288	-2.43554	3.86748	-4.23697
5655.369	-0.11952	-2.31788	0.52193	-4.21947
5659.375	-0.21849	-2.38274	1.43171	-3.60660
5663.371	-0.15548	-2.40351	1.50663	-3.54744
5667.375	0.11314	-2.31468	1.16133	-3.52818
5671.375	-0.30342	-2.42186	2.18310	-3.89600
5675.375	0.01350	-2.45169	1.72364	-4.15642
5679.370	-0.18839	-2.42816	0.95748	-6.60349
5683.356	-0.42485	-2.37624	1.60223	-4.81795
5687.377	-0.24999	-2.58301	0.17747	-4.36158
5691.378	0.14196	-2.50488	1.87302	-3.80586
5695.374	-0.08644	-2.63667	1.96035	-3.53192
5699.377	-0.18688	-3.07475	1.73718	-4.62561
5703.374	0.09853	-3.01393	1.48141	-4.12155
5707.380	-0.10178	-3.10033	1.63948	-3.94235
5711.368	-0.38658	-3.39536	0.29185	-4.02229
5715.377	-0.32357	-3.39719	1.49589	-4.84552
5719.377	-0.49513	-2.93571	1.15841	-5.05580
5723.364	-0.75441	-2.20706	0.91488	-5.04563
5727.368	-0.20601	-0.40133	1.25954	-6.00519
5731.375	-0.08800	-0.72777	2.41908	-5.01101
5735.376	-0.51505	-0.60451	1.96824	-5.50062
5739.374	-0.01154	-2.11921	1.42804	-5.26870
5743.367	0.00953	-3.16051	1.69465	-5.54001
5747.377	0.62861	-2.87871	0.72097	-6.32515
5751.375	0.31310	-2.89904	1.69458	-6.02787
5755.376	0.60655	-2.67131	2.14322	-6.12454
5759.375	0.48979	-4.34091	1.98988	-6.24545
5763.376	1.04034	-2.55754	1.19807	-5.44960
5767.338	1.34795	0.02410	2.50568	-6.86118
5771.378	3.59063	-0.13090	3.47554	-5.15917
5775.374	6.59525	2.94629	5.78570	-0.36994
5779.376	6.92295	4.07127	2.14332	-0.38489
5783.377	6.86442	2.63668	6.13370	2.73438
5787.376	8.19047	2.93288	9.89219	2.41875
5791.400	6.69060	6.23553	7.62282	4.98521
5795.379	8.71482	4.93256	7.59044	5.40614
5799.377	9.40479	4.79424	9.68216	4.83949
5803.381	9.10840	4.81252	9.78517	4.14529
5807.389	9.08430	4.78867	10.29735	3.61065
5811.372	8.65620	4.76866	10.54800	5.30419
5815.375	7.79522	5.67486	10.54418	4.97628
5819.375	8.00752	5.36973	13.42566	5.03672
5823.371	8.40431	5.52998	10.74154	5.19609
5827.376	7.97955	3.41401	10.41770	5.05235
5831.378	7.80884	3.77765	10.13936	4.83202
5835.375	7.76881	4.48089	10.37532	4.80233
5839.367	9.18439	3.97739	10.52885	4.94173
5843.377	8.62561	4.05262	11.08036	4.90201
5847.375	8.19550	3.86754	10.34564	6.36659
5851.343	8.16588	4.05909	10.20428	7.55217
5855.376	8.18062	4.60721	10.18486	4.75814
5859.336	7.88680	4.57762	10.26944	2.91938
5863.376	7.88336	4.66992	11.90414	1.67685
5867.339	8.04998	4.93409	11.51973	4.59950
5871.370	8.09297	5.11005	10.43594	4.62321
5875.379	8.00803	5.60377	10.86268	5.15988
5879.377	8.27178	5.50712	10.07543	5.57055
5883.376	8.21419	5.39788	9.79245	6.72724
5887.371	8.15163	5.41491	9.77247	6.68974
5891.357	8.27411	5.00558	9.92596	4.02501
5895.379	8.38658	5.71929	10.20154	3.56915
5899.375	7.79853	5.73310	11.13592	3.91742
5903.374	8.21062	5.78176	10.17577	4.32823
5907.388	7.95655	5.88056	9.78850	3.95762
5911.379	8.11807	5.84724	10.59651	3.85830
5915.377	8.43717	4.57540	9.46020	3.81135
5919.376	8.34069	5.32182	9.55010	3.46130
5923.341	8.54236	4.52426	10.17031	3.78366
5927.380	8.60878	6.07997	10.13049	3.92076
5931.336	7.80691	4.53805	11.07628	3.67533
5935.371	8.34516	2.87129	10.28515	3.36100
5939.377	8.07219	2.65802	9.97556	3.35395
5943.378	8.38573	3.37490	9.53603	3.04301
5947.377	8.20347	2.81638	9.20915	2.59245
5951.380	8.78224	2.70291	10.57826	2.06523
5955.377	9.20151	2.88022	10.06939	2.47932
5959.378	9.08012	3.11854	9.42856	2.97336
5963.377	9.36051	3.38786	10.27739	2.18938
5967.406	8.93220	4.26622	10.21942	2.17779
5971.382	8.16129	4.73029	10.35541	2.19911
5975.353	8.17101	3.71676	9.97028	2.46156
5979.382	8.66115	4.26713	9.83799	1.98968
5983.387	9.35295	4.35252	10.37119	2.04730
5987.341	8.70815	4.58935	10.80067	2.32680
5991.380	8.64621	5.13276	9.87798	3.30144
5995.379	8.53472	5.36783	10.63192	3.46580
5999.373	8.38039	5.59410	10.37897	3.55313
6003.380	8.41478	5.57778	9.68961	3.64341
6007.380	8.17974	5.33232	9.93711	3.44044
6011.382	6.99656	5.05497	10.26670	3.02453
6015.378	8.21811	4.27096	9.74316	3.27186
6019.378	8.31061	2.75866	9.86611	3.38373
6023.342	7.92188	2.55829	10.75145	3.29813
6027.378	8.55811	2.55666	9.00121	3.71919
6031.381	8.31431	2.39529	8.80524	3.51546
6035.380	8.52945	2.70228	10.05734	3.52249
6039.378	7.98111	3.49211	10.37599	3.06479
6043.379	7.78316	4.26370	10.94124	3.16026
6047.373	7.34941	3.26265	9.16153	3.06083
6051.383	8.80500	2.98528	9.23246	2.82793
6055.379	8.50610	3.16044	10.22161	3.06980
6059.377	8.51013	3.01727	9.44066	3.29739
6063.384	7.90287	4.14054	10.08010	3.09709
6067.380	8.07329	4.30039	10.30778	2.89303
6071.379	8.17174	4.77468	10.40821	5.46641
6075.381	7.79030	5.30799	10.35690	6.19738
6079.382	7.93177	6.67682	17.67017	4.01576
6083.380	8.39428	9.51347	20.24588	5.60226
6087.381	NaN	NaN	17.69651	11.18653
6091.382	12.88937	10.43611	10.54185	11.53618
6095.372	NaN	NaN	10.51074	6.22551
6099.360	NaN	NaN	NaN	NaN
6103.381	NaN	NaN	NaN	NaN
6107.381	NaN	NaN	NaN	NaN
6111.385	NaN	NaN	NaN	NaN
6115.381	NaN	NaN	NaN	NaN
6119.382	NaN	NaN	NaN	NaN
6123.344	NaN	NaN	NaN	NaN
6127.383	NaN	NaN	NaN	NaN
6131.372	NaN	NaN	NaN	NaN
6135.382	NaN	NaN	NaN	NaN
6139.342	NaN	NaN	NaN	NaN
6143.381	NaN	NaN	NaN	NaN
6147.376	NaN	NaN	NaN	NaN
6151.385	NaN	NaN	NaN	NaN
6155.344	NaN	NaN	NaN	NaN
6159.380	NaN	NaN	NaN	NaN
6163.405	NaN	NaN	18.49593	-0.34283
6167.382	17.86470	7.71420	NaN	NaN
6171.383	17.13124	7.74206	20.51634	-4.93251
6175.345	20.00832	8.80105	16.77452	-10.42275
6179.376	14.52177	5.49026	20.77267	-9.95912
6183.353	16.90623	6.74998	20.70625	-12.15741
6187.345	13.31930	5.85918	20.60641	-9.24597
6191.383	19.55110	6.77443	-19.99372	-12.14899
6195.376	16.69101	7.43080	15.44220	7.16092
6199.382	14.78605	5.45480	16.57037	3.55797
6203.384	14.57620	4.47017	18.31606	3.66143
6207.384	11.86310	4.12071	20.42683	3.51382
6211.385	12.38256	3.59804	10.15588	3.27731
6215.387	12.28628	3.88723	12.27213	2.58983
6219.385	12.15021	3.75776	10.84829	5.96007
6223.368	11.94574	3.94776	11.47529	3.68310
6227.384	11.72155	3.95631	14.17567	-7.08049
6231.384	11.21930	3.99062	9.96232	-7.00914
6235.383	10.99341	4.11889	13.27045	4.69069
6239.347	10.41683	3.96818	11.60461	1.50628
6243.281	10.63528	3.55698	10.67945	2.00716
6247.386	10.63106	3.16610	12.09163	1.81019
6251.383	10.54495	2.36765	13.80030	-6.45173
6255.382	10.42670	2.15244	14.80966	-6.84314
6259.386	10.56301	1.93299	11.83296	3.06351
6263.382	10.40051	1.78937	13.44221	1.89817
6267.382	10.42305	2.43738	12.51553	3.50290
6271.385	10.37837	1.77973	12.63908	2.60531
6275.282	10.36720	1.63649	11.98524	3.43902
6279.386	10.30610	2.01730	12.37155	1.55219
6283.383	10.46251	1.88539	12.44586	1.31572
6287.386	10.56181	2.76222	12.04559	2.76772
6291.385	10.39935	3.31618	12.53391	0.97664
6295.383	10.23202	1.65292	12.41353	0.98570
6299.387	10.40668	1.82496	12.46465	2.26968
6303.386	10.37422	1.94393	14.88744	1.17614
6307.285	10.48857	2.12456	8.96143	0.91148
6311.385	10.22913	2.01366	12.41317	0.88987
6315.384	10.18649	1.86493	12.69745	0.77427
6319.384	10.08760	1.88408	12.59292	0.61540
6323.261	10.44398	1.59846	12.50486	1.40654
6327.383	10.22401	2.08020	12.51690	0.76699
6331.348	10.43095	1.86810	12.42650	0.56754
6335.385	10.34396	2.08766	12.69946	0.67058
6339.281	10.35508	2.18142	12.40967	1.26380
6343.388	10.64060	1.94728	12.13695	2.73110
6347.388	10.29858	2.41560	12.31194	3.02652
6351.384	10.33043	2.68888	12.44155	2.54866
6355.284	10.39549	2.84292	11.61661	1.92322
6359.386	10.43894	3.33890	12.23924	0.93147
6363.386	10.51851	2.91739	13.53193	1.33019
6367.386	10.38905	3.10531	12.18737	2.22767
6371.386	10.53308	3.30604	12.29967	1.77472
6375.386	10.21202	3.71389	12.65455	2.13100
6379.385	10.94693	2.60772	11.64078	-0.19222
6383.381	10.24235	2.74977	11.80614	-0.69890
6387.385	10.28325	2.94185	11.66770	0.19047
6391.359	9.88051	2.77264	12.21900	2.28284
6395.389	10.00757	2.51325	12.14402	2.37656
6399.385	9.99763	2.38968	12.75037	1.75116
6403.283	9.95500	2.80773	11.48342	2.14619
6407.385	9.89046	2.53678	12.32876	2.10236
6411.390	9.75244	2.72608	12.07329	2.46599
6415.385	9.88639	2.61980	12.16373	2.38281
6419.285	10.15841	2.05048	12.31672	2.15230
6423.349	10.68799	1.83846	12.27960	2.46714
6427.391	11.03107	1.34823	11.95289	1.82521
6431.387	11.11807	1.45683	12.20252	2.43551
6435.281	10.92846	1.42943	11.58972	2.02849
6439.388	10.71331	1.63055	10.21010	2.21419
6443.390	10.93787	1.38530	12.06161	1.49191
6447.387	10.93873	1.66133	12.09897	1.11362
6451.284	10.07242	1.53929	12.11107	1.80077
6455.386	10.28508	1.68167	14.85901	0.55783
6459.385	10.40226	1.45384	12.11455	-0.37600
6463.386	10.13621	1.60493	12.04151	-0.93828
6467.289	10.32676	1.58887	12.01977	-1.24531
6471.386	10.21462	1.41768	11.90692	-0.81985
6475.383	10.39561	1.55987	11.43646	-0.71797
6479.388	10.32952	1.69469	11.69386	0.43631
6483.284	10.67008	1.48127	11.72481	-0.19382
6487.386	10.69448	0.77814	16.64920	-0.41672
6491.387	8.26410	3.29671	16.46281	0.21261
6495.386	8.26546	3.91858	11.10625	0.04660
6499.390	11.81146	3.83627	10.91968	1.21231
6503.385	10.62056	3.94134	9.95724	2.71409
6507.386	10.37373	3.65542	14.13316	2.29202
6511.390	9.96997	4.97801	16.01805	4.87130
6515.364	10.90612	4.15838	11.27252	4.86145
6519.387	10.27648	4.15606	10.10778	6.46592
6523.351	11.01914	4.14782	9.53021	5.29920
6527.388	12.86140	4.20129	9.26244	4.40068
6531.388	12.37442	4.10764	15.10871	3.01674
6535.388	11.02796	4.10051	16.77345	0.25819
6539.386	10.70133	4.05736	16.29726	1.10134
6543.389	11.23380	4.23346	15.22410	-0.09423
6547.290	10.15095	6.16767	15.88429	0.72445
6551.390	10.26485	5.63254	12.61096	3.56246
6555.377	9.95574	5.99290	15.00269	0.89888
6559.388	10.03286	6.13013	14.89770	0.64002
6563.389	9.85117	6.06506	13.01703	3.47193
6567.388	9.81915	6.07755	12.68101	3.35276
6571.386	9.35534	6.17932	12.56578	3.38349
6575.388	9.34560	5.21289	13.72292	1.02248
6579.255	8.47855	4.74230	15.05360	1.69212
6583.261	8.09280	5.33615	15.35893	2.37722
6587.262	8.25751	4.77216	14.86279	1.64318
6591.264	8.36754	5.22112	15.44190	1.81171
6595.255	8.05304	5.01312	15.33169	1.45097
6599.268	8.63277	5.24250	12.66934	7.06133
6603.244	8.54666	4.92762	15.55526	5.07853
6607.225	8.51098	4.99518	14.99669	3.03562
6611.261	8.61198	4.87305	15.55570	6.70823
6615.226	8.55469	4.80769	15.72044	3.51400
6619.265	8.81460	4.79140	13.77829	4.28084
6623.268	8.73332	4.80254	15.20205	3.89654
6627.288	8.80391	4.65722	14.71045	3.73332
6631.265	9.47186	4.58473	11.22943	3.96603
6635.264	9.08612	4.62530	14.28688	3.74733
6639.267	9.29865	4.51415	14.22701	3.46949
6643.282	9.29940	4.30001	11.11122	4.15392
6647.259	9.40441	5.33647	14.12070	2.58270
6651.267	9.45853	6.78551	12.51894	3.02502
6655.265	9.79734	5.54173	12.44666	2.58592
6659.256	9.73229	5.98471	11.87482	3.40254
6663.266	9.91575	6.01193	13.55130	2.22867
6667.267	9.98230	6.22360	11.98510	3.50560
6671.263	9.00053	5.78813	12.15554	3.11067
6675.257	8.27516	5.60064	12.13702	3.67114
6679.265	8.29392	4.89465	12.30294	4.09614
6683.267	8.16710	4.84082	12.48355	3.32533
6687.239	8.24397	5.19751	13.64068	2.04381
6691.234	8.14925	5.12181	12.24694	4.12204
6695.264	8.32296	5.23924	12.38917	4.49258
6699.264	8.24225	5.25765	12.39404	4.77024
6703.265	8.23794	5.38637	12.32449	4.02272
6707.258	8.41755	5.06403	12.25441	4.48861
6711.266	8.40339	5.03836	12.13164	4.63989
6715.267	8.29844	5.00857	12.33371	4.54984
6719.265	8.55498	4.78601	11.98353	4.44210
6723.260	9.07924	4.93366	11.96660	4.18492
6727.253	9.83934	5.05989	11.97797	4.19096
6731.257	10.10812	5.06004	13.25684	0.96896
6735.225	10.39571	5.13728	12.27036	3.76715
6739.264	10.45370	5.08959	11.79770	3.99739
6743.266	10.35940	5.00050	11.78814	2.50345
6747.265	9.62567	5.25689	11.53377	0.11102
6751.266	9.00801	5.55995	12.50538	1.00359
6755.293	9.05870	5.40215	13.35586	-1.91450
6759.266	9.15108	5.66080	12.98249	-1.47893
6763.266	8.99058	5.72166	15.60542	0.11217
6767.266	11.13403	5.26631	17.07068	0.99388
6771.259	10.21637	5.15843	15.49525	3.61940
6775.266	10.86301	5.08966	15.72129	1.62543
6779.265	10.03967	5.01344	16.62970	1.48064
6783.266	9.92784	5.16599	16.16974	1.15575
6787.259	9.11641	5.26539	14.79505	0.01809
6791.266	9.70099	5.18557	13.97106	0.84367
6795.266	9.74625	5.22475	13.65331	0.12284
6799.252	9.33686	5.37846	12.93693	2.59236
6803.293	9.21674	5.18274	12.40602	2.79172
6807.268	11.41893	4.90199	15.01001	-0.22441
6811.252	10.24863	4.97789	13.61180	3.49570
6815.269	10.21911	4.99437	13.37488	1.83760
6819.265	9.95873	5.17599	13.41930	3.82601
6823.268	9.94910	5.17874	12.74862	4.28362
6827.266	9.89966	5.14897	12.68756	3.09596
6831.268	9.44708	5.28320	12.18478	0.50266
6835.263	9.88051	5.26760	13.83065	-1.95041
6839.270	9.90530	5.36329	13.93218	-0.28500
6843.267	10.00528	5.54777	14.01795	1.23280
6847.266	10.04049	5.60484	12.62086	1.24626
6851.261	9.67625	5.36976	12.23158	0.31242
6855.261	6.33544	5.28705	9.76705	0.18964
6859.268	6.86944	4.08805	8.36487	0.73394
6863.266	5.33138	3.09264	8.32974	-1.37929
6867.229	4.45937	3.45410	5.46568	-1.63395
6871.271	2.47328	2.62131	5.57097	-2.21015
6875.264	2.13346	3.34473	5.63279	-1.54246
6879.272	0.63002	3.42224	4.97935	-1.90427
6883.288	3.07345	2.32622	5.10512	-1.86197
6887.268	2.25382	2.44258	4.59938	-0.04614
6891.273	1.62316	2.34071	4.38832	-3.93477
6895.240	1.43074	2.42992	4.34485	-6.08344
6899.261	1.36635	2.30815	5.06240	-3.21525
6903.270	2.90987	2.60220	4.74309	-3.38551
6907.270	1.35216	2.97690	4.15860	-2.68011
6911.268	1.50735	2.39110	4.29841	-2.79217
6915.290	1.46623	2.76113	4.88399	-2.76481
6919.271	2.92765	2.41862	4.60915	-1.61403
6923.229	1.56407	2.29076	4.78328	-2.41285
6927.231	1.42496	2.44592	4.56809	-2.55486
6931.261	2.10560	2.93431	4.71365	-1.94468
6935.270	2.25248	2.90874	4.05552	-1.65652
6939.267	1.82683	3.43702	4.83792	-2.02003
6943.270	2.38952	3.51254	4.94162	-1.95302
6947.293	2.32040	3.53035	4.74370	-1.80779
6951.273	2.40776	3.38930	3.38949	-2.15735
6955.270	1.89218	3.49049	4.22567	-2.41139
6959.269	2.09415	3.21398	4.87091	-2.41410
6963.294	2.26601	2.42692	4.63247	-2.64705
6967.270	2.55183	2.67984	4.06730	-3.05811
6971.271	0.91520	3.11822	4.80810	-2.88930
6975.272	1.81448	3.04479	5.16039	-1.72862
6979.269	1.81810	3.55277	5.86251	-3.05390
6983.269	2.48061	3.68708	4.23342	-3.30998
6987.266	1.92024	3.77203	4.84304	-5.62825
6991.270	2.07861	3.48114	6.13162	-2.46786
6995.269	2.75061	2.96987	5.33613	-3.10888
6999.268	2.27773	2.76495	4.36172	-4.24864
7003.270	2.56882	3.06089	4.30322	-4.58316
7007.272	2.49738	2.99669	0.81178	-1.82060
7011.268	2.42559	2.59586	6.27231	-1.94577
7015.234	1.74107	2.99820	4.90454	-1.87778
7019.250	2.37295	2.66489	3.92037	-2.33286
7023.271	2.77869	2.44477	1.07349	-2.22949
7027.263	2.30918	3.98756	2.15351	2.10053
7031.270	1.45309	3.99265	4.22123	0.48576
7035.274	2.83081	3.17121	5.55148	0.86167
7039.269	2.62229	3.59614	4.24517	0.23889
7043.269	2.31760	2.97576	4.03851	0.53269
7047.270	2.66669	2.59054	3.43363	-0.40384
7051.268	2.32018	2.33824	4.08048	-2.12268
7055.270	1.31677	3.33364	3.94839	-2.36646
7059.261	1.80529	2.82974	4.37428	-2.31091
7063.266	2.42446	3.99217	4.54313	-2.66555
7067.271	2.06079	3.91358	5.31445	-2.67406
7071.270	2.41180	3.91841	5.37884	-2.07592
7075.262	3.19145	4.07229	5.49419	-1.43651
7079.272	4.90661	3.87294	5.38764	0.74122
7083.274	7.03504	4.47604	6.93313	1.54758
7087.272	9.05231	4.44701	10.78836	1.89167
7091.271	7.99815	4.85606	12.61006	-1.36399
7095.273	8.71077	8.80556	11.22317	0.11663
7099.271	7.87905	7.69159	12.87728	1.74639
7103.245	9.55999	6.24718	14.31615	2.20068
7107.262	9.73880	6.73602	13.09419	2.14124
7111.232	9.69967	7.00995	12.88562	2.33106
7115.274	9.52121	7.29913	12.77667	2.26875
7119.273	9.01280	7.84427	12.75259	2.43848
7123.266	9.04275	8.06510	12.71942	2.51445
7127.274	9.58786	7.58512	12.78975	3.27150
7131.274	8.67386	5.36648	13.04723	4.22614
7135.275	9.35280	5.04004	12.97811	3.76770
7139.278	9.53603	5.72913	13.30609	3.06925
7143.261	10.10718	5.63710	12.99917	2.86947
7147.263	9.49711	5.85650	13.02528	3.37906
7151.275	10.98322	5.90371	13.56786	2.85272
7155.266	11.09843	5.39164	12.32783	2.95683
7159.272	10.32337	5.45928	13.27240	2.47331
7163.273	10.97399	5.96727	12.91637	2.69172
7167.275	9.19882	5.99511	12.95796	2.49515
7171.271	8.68492	6.03437	11.65185	2.60602
7175.234	8.73480	6.19815	13.89943	2.69208
7179.272	9.06327	6.23677	13.42174	1.51992
7183.274	9.21892	5.90596	13.76626	1.29903
7187.274	9.21546	6.06168	13.79620	2.49779
7191.275	9.51230	5.52729	13.95121	2.60692
7195.272	9.45341	6.09410	13.35550	2.70476
7199.275	10.40010	6.01060	12.66887	2.91476
7203.272	9.40499	5.99509	12.21791	5.90359
7207.272	8.94196	6.57430	13.69671	5.96252
7211.272	9.36537	7.03132	14.19786	2.29451
7215.279	12.04507	5.67539	13.86058	1.25447
7219.273	10.47093	5.37813	13.80882	3.07435
7223.237	9.42854	5.31438	13.99508	3.40942
7227.256	9.41446	5.53847	14.60841	2.77702
7231.272	9.35677	6.97521	14.59533	5.07237
7235.265	9.76751	7.23062	14.47340	5.90609
7239.236	8.92990	6.05725	14.55800	2.63729
7243.273	9.03902	5.47606	14.54598	2.47893
7247.273	9.13562	5.25963	14.36111	3.27976
7251.276	9.53067	5.10182	14.89569	2.08166
7255.273	10.01982	5.21380	11.79922	3.10014
7259.274	9.87476	5.01013	12.29716	2.75779
7263.274	9.88256	5.32869	14.68352	2.92075
7267.171	9.96636	5.38597	13.06139	2.78545
7271.267	10.19745	5.21465	14.04624	3.13350
7275.275	10.16988	5.23533	14.07015	3.28234
7279.276	10.43556	5.05868	14.29282	2.95976
7283.277	10.74213	4.95526	13.87943	3.35259
7287.275	10.23916	4.75439	13.02676	3.08607
7291.275	10.05009	5.13459	15.86551	2.68132
7295.275	10.07552	5.00058	15.77400	2.99018
7299.249	10.11786	4.95600	14.37587	3.35417
7303.274	9.95509	4.96147	13.54094	3.21597
7307.275	10.01147	4.70280	15.48824	3.53238
7311.258	9.83105	4.50002	14.58155	3.52166
7315.286	9.67126	4.54270	14.68391	3.32232
7319.275	9.73636	4.54846	14.73729	2.58638
7323.238	9.66528	4.74559	15.70112	2.70216
7327.276	10.51007	4.65349	14.50246	3.03311
7331.180	9.74629	4.50542	13.79768	2.31024
7335.274	9.94510	4.56540	13.17628	3.33164
7339.274	9.91936	4.65311	12.85055	3.84026
7343.276	9.96126	4.85300	13.47784	3.49280
7347.279	10.53766	5.10455	12.58366	3.93132
7351.277	10.27391	5.05849	14.17194	5.55886
7355.265	9.99448	5.51600	13.54973	6.26035
7359.275	9.72045	5.92363	13.33321	7.03518
7363.174	10.26521	5.28337	13.99478	6.91326
7367.271	10.33012	8.60927	14.23522	9.81250
7371.278	14.55421	11.49251	19.48087	8.84440
7375.277	10.56047	13.76394	NaN	NaN
7379.173	NaN	NaN	NaN	NaN
7383.276	NaN	NaN	NaN	NaN
7387.278	NaN	NaN	NaN	NaN
7391.277	NaN	NaN	NaN	NaN
7395.242	NaN	NaN	NaN	NaN
7399.277	NaN	NaN	NaN	NaN
7403.276	NaN	NaN	NaN	NaN
7407.249	NaN	NaN	NaN	NaN
7411.276	NaN	NaN	NaN	NaN
7415.277	NaN	NaN	NaN	NaN
7419.276	NaN	NaN	NaN	NaN
7423.275	NaN	NaN	NaN	NaN
7427.277	NaN	NaN	NaN	NaN
7431.258	NaN	NaN	NaN	NaN
7435.256	NaN	NaN	NaN	NaN
7439.274	NaN	NaN	NaN	NaN
7443.276	NaN	NaN	NaN	NaN
7447.276	NaN	NaN	NaN	NaN
7451.277	NaN	NaN	NaN	NaN
7455.240	NaN	NaN	NaN	NaN
7459.278	NaN	NaN	NaN	NaN
7463.277	NaN	NaN	NaN	NaN
7467.240	NaN	NaN	NaN	NaN
7471.280	NaN	NaN	NaN	NaN
7475.271	NaN	NaN	NaN	NaN
7479.270	NaN	NaN	NaN	NaN
7483.240	NaN	NaN	NaN	NaN
7487.279	NaN	NaN	NaN	NaN
7491.249	NaN	NaN	NaN	NaN
7495.278	NaN	NaN	NaN	NaN
7499.277	15.58543	12.62143	19.13890	11.59854
7503.179	17.27504	10.04171	22.07324	14.09774
7507.280	12.88725	12.80382	NaN	NaN
7511.279	14.38323	12.42329	NaN	NaN
7515.276	15.82343	7.61073	NaN	NaN
7519.282	16.73887	9.40440	NaN	NaN
7523.280	15.80383	9.21668	NaN	NaN
7527.281	15.59328	9.78234	NaN	NaN
7531.278	16.34529	9.59248	15.87648	5.04609
7535.284	16.87369	12.67829	NaN	NaN
7539.277	16.98212	11.16678	NaN	NaN
7543.279	15.73417	10.76581	NaN	NaN
7547.277	10.57929	9.31496	NaN	NaN
7551.180	14.26989	9.10704	NaN	NaN
7555.291	16.86700	10.02952	23.49047	8.22019
7559.266	15.15915	9.13732	20.99611	9.34689
7563.268	15.67572	7.14455	19.24927	6.49289
7567.180	15.76495	6.87562	19.55248	6.70505
7571.278	14.47033	6.53142	15.97275	10.62764
7575.279	14.12602	6.59069	15.63302	6.89557
7579.281	13.84925	6.60065	18.95754	5.62604
7583.178	13.24019	6.65984	14.03865	8.97669
7587.278	12.90418	6.86863	15.87171	3.85875
7591.280	12.31703	5.14546	19.46841	4.52761
7595.278	13.28340	4.45583	19.10443	1.07263
7599.182	13.27993	5.91682	18.60977	3.42971
7603.246	12.99109	6.45439	14.66152	6.17763
7607.279	13.43369	6.50286	16.20139	5.42326
7611.154	18.71886	6.62498	16.31009	4.28247
7615.144	13.14642	13.91731	14.87209	5.81019
7619.157	12.97274	3.63877	17.03913	4.27691
7623.117	12.52227	3.92462	14.87441	5.73072
7627.154	13.27015	4.86111	15.78823	5.77512
7631.154	13.21771	5.06609	17.39045	5.71154
7635.154	13.04492	4.89850	12.91685	9.02606
7639.158	12.08463	4.94620	16.43695	6.12838
7643.155	12.23670	4.30256	17.91084	5.79413
7647.169	12.84347	4.26459	15.10607	2.69124
7651.148	12.72773	4.67995	14.84009	4.25091
7655.157	12.79017	5.05603	12.62696	3.67089
7659.155	12.75014	4.80126	13.30973	3.56001
7663.148	12.89279	5.06267	18.25489	2.54065
7667.157	13.11349	4.43121	12.68217	6.01152
7671.155	12.91364	4.14030	14.87297	4.46686
7675.158	12.50891	4.29365	14.95862	6.10636
7679.154	12.91920	4.26471	16.63209	6.12913
7683.160	12.76435	4.49884	15.58992	6.00173
7687.156	13.60819	4.74126	14.13407	6.40637
7691.121	12.59576	5.40363	14.95644	6.31977
7695.176	13.00264	5.20144	15.12046	6.97538
7699.154	13.05557	4.09397	12.96713	5.61645
7703.156	12.89907	3.76050	15.34746	6.28885
7707.155	13.02245	3.84688	14.89189	6.01180
7711.179	12.96291	3.97350	11.56114	2.64734
7715.156	12.57987	3.96109	16.15067	1.36387
7719.159	12.40356	5.06843	15.43051	2.73453
7723.159	12.84744	4.94294	13.43449	3.02657
7727.157	12.80737	4.86340	12.94092	3.71911
7731.139	13.01590	4.98784	14.61239	3.50066
7735.119	12.73536	4.35301	15.18791	3.28028
7739.157	13.08945	3.77377	14.95855	5.58609
7743.147	12.94188	3.72824	14.77078	4.37796
7747.155	12.99540	4.11187	13.17113	5.54116
7751.156	12.55377	4.50915	14.90271	5.90658
7755.159	12.82998	5.23349	14.82003	6.60745
7759.148	12.74617	4.71969	14.27000	3.66815
7763.159	12.62273	3.72683	14.49488	4.31669
7767.156	12.34119	4.11035	13.67749	3.86060
7771.157	12.49048	4.46559	15.16239	3.65625
7775.150	12.80025	4.75423	14.15500	6.23933
7779.160	12.87506	5.09896	14.97724	5.95121
7783.157	12.40091	4.92156	16.33592	7.02067
7787.159	13.12218	4.11716	13.89215	6.95926
7791.151	12.66160	4.15668	13.79730	4.97926
7795.155	12.17461	4.71187	14.28702	4.71204
7799.117	12.43594	4.56533	13.78033	5.91535
7803.157	12.30739	4.90883	14.97622	6.00310
7807.151	12.32295	4.64559	13.88649	6.49658
7811.156	13.51525	4.56523	16.24363	3.79570
7815.159	12.70024	4.48860	13.78899	5.34424
7819.160	12.29907	4.26236	13.88238	5.05843
7823.149	12.39047	4.41877	14.42742	4.60749
7827.156	13.28044	4.14975	15.04853	3.96803
7831.121	12.68186	4.10908	14.84387	3.97333
7835.160	12.52606	4.25887	16.43021	6.29758
7839.153	12.66975	4.48376	14.42667	6.43942
7843.158	12.77544	4.83606	14.46687	4.83099
7847.159	12.72008	5.01083	13.91986	4.14515
7851.161	12.65337	4.86466	14.09565	3.33986
7855.160	12.54091	4.39668	13.95072	4.71221
7859.121	12.73727	4.11542	16.23894	2.13786
7863.159	12.53157	4.00965	15.98629	4.70443
7867.159	12.74813	3.74192	14.49886	4.92719
7871.180	13.62357	4.35413	14.38130	2.67568
7875.121	12.93429	5.10872	16.02759	5.86729
7879.160	12.57626	5.58490	13.83016	7.86636
7883.157	13.00198	6.07408	16.12781	5.89705
7887.182	12.51837	5.59467	14.98850	4.39697
7891.157	12.89282	5.38884	13.90600	5.00203
7895.158	12.97111	5.37849	11.02172	5.45730
7899.121	12.89782	5.40604	11.96833	5.07044
7903.182	13.42409	5.12632	11.05034	5.47849
7907.158	13.17652	5.26303	14.91946	7.14237
7911.160	12.80829	5.18684	15.82348	6.29876
7915.161	12.89312	5.28176	14.81614	5.04057
7919.161	12.82451	4.79588	16.96582	5.97413
7923.162	12.83364	4.42274	15.20452	6.09030
7927.161	13.08347	4.51068	14.74606	5.23018
7931.160	12.82712	5.30166	9.20427	7.13692
7935.158	12.13711	5.29885	15.44080	5.09860
7939.159	13.16845	5.01267	15.72945	1.71859
7943.154	13.18353	4.60304	13.20477	4.29434
7947.159	13.06426	6.15719	15.98909	5.61819
7951.184	13.15077	5.02189	15.25233	4.42517
7955.158	12.83394	4.56054	15.26374	3.28770
7959.159	12.99006	3.97037	18.35727	4.22555
7963.162	13.09508	6.57804	15.35701	4.72787
7967.183	11.98526	6.25288	16.51739	5.42811
7971.159	13.32592	4.84525	15.72414	4.19667
7975.162	13.39950	4.56416	15.56531	4.26960
7979.170	13.55212	4.38582	15.73246	3.76355
7983.150	13.55013	4.27666	15.48639	3.39682
7987.159	13.47632	4.84219	12.61559	4.45466
7991.161	12.95612	5.52235	11.21587	3.72673
7995.159	13.34392	5.82071	15.44488	3.02768
7999.185	12.78831	6.14251	16.04643	4.53843
8003.159	13.15988	6.21587	15.54794	4.58732
8007.158	12.45722	6.33280	15.72796	4.60607
8011.159	13.26457	6.08711	15.67722	3.41470
8015.163	12.54606	5.82316	14.59405	4.19102
8019.127	12.17124	4.90558	12.81731	5.87187
8023.141	11.72788	4.32552	15.19498	6.80869
8027.162	12.05561	4.18168	13.72095	5.23552
8031.183	10.42749	3.56998	11.26078	5.77881
8035.162	9.70369	4.62629	10.75756	5.36569
8039.160	11.45069	5.59119	14.25564	2.40559
8043.160	11.19010	5.32036	18.63146	1.16722
8047.160	10.92157	5.64039	16.04801	6.29369
8051.159	12.42167	5.72061	20.38871	7.77319
8055.161	13.56488	6.90168	19.59921	4.32870
8059.162	15.15672	7.47713	21.84865	4.02383
8063.173	13.65448	6.73457	15.82614	5.06611
8067.151	14.98535	6.21202	18.85657	6.98101
8071.162	14.99192	6.68558	20.20902	7.05828
8075.160	12.85810	6.81416	16.23295	4.31453
8079.154	11.72186	7.14745	20.57054	3.72722
8083.162	8.61688	7.30769	12.01072	3.29627
8087.162	13.22380	6.49114	7.38092	-2.80133
8091.161	11.73248	6.52601	13.29939	0.72873
8095.155	12.59084	6.82312	20.56215	2.58738
8099.165	12.67140	6.38463	19.60851	4.75385
8103.163	11.37705	5.78560	15.15187	4.88999
8107.132	8.76331	5.72006	17.65643	7.09393
8111.152	11.38864	5.35621	20.64728	6.82964
8115.162	11.70913	5.44763	14.49379	4.53919
8119.125	10.60977	5.44294	13.79204	5.12821
8123.166	9.16124	5.16571	12.28469	5.55423
8127.165	10.15324	5.63138	16.96412	3.22233
8131.162	10.12443	6.96031	14.37659	2.85448
8135.162	11.14388	6.01602	14.01830	2.48065
8139.162	10.43702	5.67240	20.85945	1.00165
8143.163	9.75124	5.82023	16.86155	1.62152
8147.145	10.00006	5.68740	17.37128	1.56030
8151.160	10.47173	5.78733	20.54439	4.43652
8155.161	8.53302	5.84282	20.73511	1.88261
8159.162	10.48548	5.51309	16.86537	0.92975
8163.163	9.50090	6.08949	20.55588	2.40416
8167.163	9.55710	5.94298	20.37673	4.47712
8171.165	10.56615	6.28600	21.48628	4.77231
8175.127	9.45283	5.99982	16.28711	5.71639
8179.162	9.50766	5.83995	16.04615	0.70918
8183.163	10.62030	4.82168	16.26607	2.11681
8187.171	10.24276	5.99342	15.89127	4.86350
8191.170	10.25302	5.67154	11.63990	7.93801
8195.163	10.54202	4.89023	14.79294	3.58219
8199.163	10.01864	4.16933	12.88086	4.87310
8203.165	9.21225	4.64519	15.27048	3.74409
8207.165	10.32815	6.22326	14.64770	3.63132
8211.161	9.85252	6.18958	13.08258	4.28974
8215.163	10.41923	5.04629	19.97408	3.28502
8219.164	10.21298	4.62212	20.33068	3.43849
8223.131	9.28168	5.37085	18.17548	3.96465
8227.168	9.22349	5.00178	14.58082	1.85253
8231.144	8.69792	4.94548	11.82894	3.63291
8235.141	8.52811	5.31034	14.71473	2.81166
8239.129	10.70840	5.31670	15.88440	0.73002
8243.165	9.85139	5.34967	17.95043	1.49425
8247.163	8.70970	6.40119	NaN	NaN
8251.163	9.96181	7.53689	21.83794	3.67906
8255.155	12.96635	6.57151	20.55401	4.12701
8259.166	15.47074	8.62918	NaN	NaN
8263.163	14.11960	5.97745	17.67714	6.18366
8267.164	16.61211	8.01127	18.11554	0.76530
8271.156	13.43707	8.90592	16.62252	2.16679
8275.155	16.29836	14.07620	18.51791	10.87504
8279.165	NaN	NaN	NaN	NaN
8283.164	NaN	NaN	NaN	NaN
8287.166	NaN	NaN	NaN	NaN
8291.165	NaN	NaN	NaN	NaN
8295.165	NaN	NaN	NaN	NaN
8299.167	NaN	NaN	NaN	NaN
8303.168	NaN	NaN	NaN	NaN
8307.140	NaN	NaN	NaN	NaN
8311.166	NaN	NaN	NaN	NaN
8315.168	NaN	NaN	NaN	NaN
8319.165	NaN	NaN	NaN	NaN
8323.128	NaN	NaN	NaN	NaN
8327.164	NaN	NaN	NaN	NaN
8331.165	NaN	NaN	NaN	NaN
8335.168	NaN	NaN	NaN	NaN
8339.166	NaN	NaN	NaN	NaN
8343.131	NaN	NaN	NaN	NaN
8347.166	NaN	NaN	NaN	NaN
8351.165	NaN	NaN	NaN	NaN
8355.148	NaN	NaN	NaN	NaN
8359.129	NaN	NaN	NaN	NaN
8363.165	5.21700	2.62194	18.91400	13.06873
8367.132	14.50195	10.89890	12.06624	6.73729
8371.166	10.25129	8.93329	NaN	NaN
8375.165	14.23729	8.76441	10.75639	1.55206
8379.166	14.97777	8.03953	10.31016	6.51294
8383.070	14.05708	5.58512	2.45302	-7.36021
8387.166	14.59798	4.90353	2.40213	-2.76097
8391.167	14.13962	4.76576	8.04847	0.95690
8395.165	14.22729	4.20661	7.97072	0.31987
8399.067	10.55402	4.67948	9.80800	3.26529
8403.167	9.21058	4.03065	12.16176	3.29582
8407.167	10.49980	4.08487	16.06997	2.75611
8411.167	9.37757	4.18052	13.10469	2.92766
8415.065	7.82604	4.51214	17.11444	1.36352
8419.167	7.55586	5.79626	15.58822	1.42088
8423.172	8.79065	4.58354	10.39119	2.21899
8427.131	7.20277	4.57290	12.34299	2.54288
8431.045	8.02917	4.42055	9.68223	3.02914
8435.166	7.75129	4.56366	9.19660	2.87886
8439.148	8.69532	4.36251	9.27631	2.16619
8443.167	7.23518	4.42781	9.75794	2.33514
8447.064	7.14687	4.42219	9.42448	2.37339
8451.167	7.07586	4.60423	8.47595	-1.25462
8455.166	6.77416	4.80802	8.69067	1.67834
8459.166	6.69534	4.57152	9.13427	1.54431
8463.065	7.30556	1.37425	9.16097	2.06264
8467.168	6.82843	2.23108	9.22175	1.72885
8471.166	6.64383	4.06869	9.05095	-1.28449
8475.170	7.00497	4.50342	10.17827	1.90945
8479.067	7.85256	2.60523	9.64540	2.52891
8483.128	6.85160	2.42349	8.46560	-1.20792
8487.130	6.69069	3.45480	8.59735	-1.40004
8491.168	6.76912	4.15894	9.14423	1.42438
8495.170	6.95098	4.30426	9.01801	2.12346
8499.169	6.77313	2.32091	8.32422	-0.09387
8503.167	6.51785	2.76852	8.72512	-0.80004
8507.168	6.78512	2.98550	9.26312	1.31370
8511.135	6.77739	3.22098	8.64781	1.42570
8515.167	6.81762	3.95469	8.93762	-0.89461
8519.169	7.76430	3.76707	8.48156	0.46118
8523.148	6.87682	3.58623	9.42815	-0.34348
8527.071	6.97252	3.71079	9.80238	-0.56168
8531.168	6.64893	3.28279	10.15240	0.92356
8535.168	6.77528	2.63274	9.47420	1.34345
8539.168	6.78862	1.90551	8.79761	0.60142
8543.169	6.56740	4.63519	8.62988	-0.91058
8547.168	6.95487	3.94338	10.01631	-2.75942
8551.169	6.63825	3.91317	9.10429	-1.29762
8555.168	7.12593	2.93986	8.68169	2.91529
8559.072	6.61726	1.50454	9.85500	0.18119
8563.152	7.06398	3.36311	8.79179	0.39050
8567.165	6.43312	3.95171	9.11835	-0.79771
8571.171	6.52559	1.92355	6.83810	1.24591
8575.172	3.86939	3.62345	6.81887	-0.33992
8579.132	3.10794	1.17955	3.35862	-1.69366
8583.172	3.65527	0.80089	4.68666	-2.73240
8587.172	2.82152	0.61105	4.52022	-5.28085
8591.174	2.38355	-0.27824	4.87739	-5.95234
8595.169	2.22785	-0.12507	1.44183	-3.26297
8599.170	1.94397	-0.33316	3.33715	-4.01770
8603.164	1.53547	-0.16178	2.91913	-4.46072
8607.071	1.03459	-0.07429	2.79345	-4.46836
8611.170	2.49632	-0.46408	1.81260	-3.90187
8615.172	1.67846	-0.56471	3.88357	-4.53963
8619.169	1.23796	-0.03741	3.70935	-4.94574
8623.072	1.20120	-0.31025	3.41765	-3.72071
8627.173	1.34247	-0.29172	2.68133	-4.41049
8631.172	0.92572	-0.33035	1.14948	-4.31950
8635.172	1.57282	-0.47771	3.54170	-4.95403
8639.044	1.50118	-0.51436	3.82924	-4.66720
8643.171	1.53173	-0.66706	3.90214	-5.06162
8647.047	1.19524	-1.47261	4.23503	-5.75754
8651.032	1.34762	-1.41120	3.51167	-7.50749
8655.008	1.05401	-2.73278	1.76951	-9.01063
8659.046	1.00754	-1.23472	1.55660	-2.78158
8663.044	1.06175	-0.26996	1.69983	-4.77245
8667.044	0.90778	-0.21228	2.65149	-5.08900
8671.046	1.15717	-0.96903	3.96148	-5.16237
8675.009	1.26713	-1.38530	3.83870	-5.18876
8679.047	1.33289	-2.70103	3.94752	-6.29915
8683.047	1.12330	-2.86991	3.40727	-5.50622
8687.044	2.21891	-1.93103	3.26225	-3.38765
8691.048	1.43711	-2.72166	2.97792	-4.78814
8695.013	1.42067	-0.82344	2.94020	-5.21207
8699.046	1.51831	-0.40472	2.67491	-5.07130
8703.044	1.45408	-0.93551	2.51814	-5.23536
8707.047	1.20948	-0.80987	2.71825	-5.29295
8711.047	1.24096	-1.17545	1.71079	-5.26871
8715.047	1.05833	-1.63073	2.90104	-6.26741
8719.012	1.04468	-0.87475	4.22570	-5.29753
8723.046	0.89116	-1.04082	3.14998	-4.82332
8727.048	1.45341	-0.41596	3.04717	-3.92699
8731.050	2.19303	-2.10355	2.74383	-3.31658
8735.057	2.15346	-2.73821	3.59162	-3.57074
8739.042	2.51829	-2.43497	3.75578	-4.08413
8743.010	1.22385	-1.91780	2.97626	-4.65746
8747.046	0.66496	-0.57073	2.80758	-5.58936
8751.045	0.65573	-1.57226	4.01601	-5.75632
8755.047	0.55587	-1.86019	3.13130	-6.63980
8759.047	1.22635	-2.82725	2.43204	-7.29055
8763.047	0.89924	-4.49745	2.92242	-10.01253
8767.070	0.87582	-2.56228	2.87735	-3.86380
8771.047	1.40703	-2.11532	2.85457	-5.96223
8775.044	0.58114	-2.87844	3.11401	-6.25345
8779.048	0.12635	-3.44762	3.33374	-5.90151
8783.072	0.63429	-1.82395	2.87641	-4.53037
8787.048	0.65295	-2.64897	2.69913	-5.95906
8791.047	0.74327	-4.59360	2.34493	-8.16784
8795.046	1.06064	-2.64864	3.13605	-3.59828
8799.037	1.19869	-2.69971	2.89015	-5.40975
8803.046	0.56659	-3.00412	2.49114	-5.45371
8807.047	0.79387	-2.59117	2.12476	-7.07701
8811.049	1.17086	-2.64824	1.67305	-8.48932
8815.041	0.90448	-1.60091	3.37569	-7.46600
8819.021	1.08939	-1.50512	2.37530	-5.75689
8823.010	0.85731	-1.78091	2.45889	-9.13268
8827.047	0.83940	-2.14787	-0.40132	-6.25201
8831.042	1.13070	-2.33450	3.84841	-6.86991
8835.049	1.02360	-1.71502	3.06273	-7.62762
8839.049	0.89361	-1.54349	2.53493	-7.45597
8843.047	-0.09026	-1.55542	2.08295	-7.57406
8847.048	0.78826	-1.33157	1.10638	-7.60207
8851.051	1.13141	-2.03238	3.44525	-7.14925
8855.049	0.60655	-1.80184	2.80872	-6.37432
8859.035	-0.40519	-1.95112	2.59037	-5.84782
8863.039	-0.45716	-2.01484	1.38270	-5.16348
8867.049	1.10199	-1.58567	3.46098	-5.73572
8871.051	1.72540	-2.13145	2.51081	-5.64204
8875.049	0.43199	-2.18563	2.48210	-5.42304
8879.049	1.11985	-2.20700	1.35226	-5.41001
8883.048	0.41812	-1.65822	2.43124	-5.55131
8887.048	0.90659	-1.63224	1.98462	-6.85633
8891.050	0.51915	-2.32533	0.86801	-7.08235
8895.047	0.83128	-2.24659	3.39760	-6.37783
8899.051	1.13253	-3.57940	3.16948	-5.09061
8903.015	0.89294	-3.11400	3.78121	-4.09094
8907.050	1.10093	-1.95848	2.18362	-5.15048
8911.071	0.39812	-2.01630	2.17038	-6.55395
8915.049	0.66642	-1.90433	2.82764	-5.80876
8919.053	0.74685	-3.38742	3.73984	-6.65346
8923.011	0.86947	-3.11851	1.97959	-6.27656
8927.011	0.78689	-1.55180	0.82059	-2.90340
8931.006	0.84880	-1.29284	3.72714	-4.37800
8935.052	1.00077	-1.92993	2.75799	-4.13745
8939.050	1.15019	-2.40058	2.74219	-3.85817
8943.042	0.64461	-2.26924	2.45227	-4.64467
8947.050	-0.16983	-1.58876	-1.12186	-6.75314
8951.049	-1.06585	-0.83967	-0.47981	-5.19930
8955.050	-3.31736	-1.80326	0.38226	-2.88026
8959.075	-4.90474	-1.39215	-2.15871	-2.78182
8963.048	-6.10394	-0.98527	-6.90270	-3.69798
8967.049	-7.99783	-0.54103	-7.90267	-2.32666
8971.048	-7.91224	1.44012	-9.35672	1.02565
8975.049	-10.62097	0.07110	-10.24226	-2.98981
8979.048	-10.82859	-0.74553	-12.94601	-4.92879
8983.048	-11.36777	-0.07440	-12.31372	-3.43488
8987.041	-11.02550	-0.01895	-13.24186	-3.61348
8991.049	-11.05154	-0.56167	-12.50841	-2.90910
8995.050	-11.64751	1.45234	-12.12497	-3.30683
8999.048	-11.45295	2.53835	-13.05319	-3.92134
9003.051	-11.51335	1.88100	-12.38045	-2.66351
9007.049	-11.04561	-0.42438	-11.83743	-3.57025
9011.049	-11.94912	1.19995	-12.14551	-3.74616
9015.049	-10.78647	0.87503	-11.74130	-2.90434
9019.050	-11.49676	0.01473	-12.10191	-3.94867
9023.047	-11.32793	0.95573	-12.02914	-2.85854
9027.029	-10.65673	0.32804	-11.90443	-2.65410
9031.048	-11.76535	0.71691	-11.94014	-4.40902
9035.051	-11.90668	2.24270	-12.02762	-2.55864
9039.075	-10.13183	-0.09085	-11.99913	-2.06751
9043.051	-12.18284	1.88945	-11.96484	-3.64819
9047.053	-11.73093	0.92858	-11.85359	-1.72121
9051.051	-8.72789	-0.76116	-11.87803	-3.07682
9055.048	-12.11486	1.04795	-11.86360	-4.30383
9059.052	-11.97194	0.85560	-11.97175	-2.56800
9063.057	-11.98887	1.84335	-11.47596	-3.73290
9067.041	-12.32082	1.60464	-11.87073	-2.61256
9070.983	-11.85797	2.21930	-10.14961	-1.40281
9075.050	-11.50556	-0.52360	-11.74463	-0.31688
9079.052	-12.28062	-0.39159	-11.77598	-0.88093
9083.050	-12.12589	0.17835	-11.43140	-2.25084
9087.073	-12.15697	0.10841	-11.53853	-2.45554
9091.053	-12.69623	0.91150	-11.68636	-0.83411
9095.050	-12.32513	1.18464	-11.75053	-0.66387
9099.051	-12.60280	1.51835	-9.92357	0.00725
9103.077	-12.99465	0.82524	-11.39663	-0.47782
9107.052	-12.42122	1.21756	-11.47186	-2.62402
9111.017	-12.47170	0.95080	-11.53484	-2.80315
9115.053	-12.48814	1.05762	-11.05569	-1.62444
9119.043	-12.75840	0.50680	-11.25027	-2.37130
9123.020	-12.24348	0.40403	-11.51321	-2.77410
9127.058	-11.99754	0.19972	-10.60581	0.50399
9131.052	-12.00189	0.20422	-11.39227	-0.76153
9135.054	-12.34065	1.36785	-10.78161	-1.92548
9139.053	-12.82092	0.47852	-11.21627	-2.42912
9143.016	-12.92276	-0.66577	-11.35222	-0.28889
9147.056	-12.12433	1.38757	-10.60370	-2.55700
9151.039	-12.10264	-0.08929	-11.28794	-3.57756
9155.053	-11.71839	-0.43773	-11.49254	0.75971
9159.053	-12.33842	1.86065	-9.10151	-1.10591
9163.051	-12.26121	0.86140	-11.12992	-2.34030
9167.055	-12.52263	-0.21369	-11.38793	-2.22051
9171.052	-13.06087	-1.51847	-11.66718	0.88205
9175.091	-12.08713	-0.12720	-10.53816	0.48287
9179.056	-12.21269	1.55912	-10.57102	0.27439
9183.059	-12.27955	1.80496	-10.64149	-0.77981
9187.058	-12.15199	1.50784	-10.05223	-0.71422
9191.050	-12.43149	0.23070	-10.27333	-1.14825
9195.047	-12.18054	0.64040	-11.48544	-1.12052
9199.051	-12.11738	0.65760	-11.64599	-1.08710
9203.053	-12.40751	0.46102	-10.44631	-0.77647
9207.054	-12.40119	-0.88940	-10.00716	-1.08137
9211.053	-12.01027	0.15626	-11.22792	-1.12443
9215.055	-12.41180	0.54932	-10.76599	-1.63507
9219.054	-12.56850	0.14271	-10.50690	-1.95894
9223.057	-12.14433	-0.93496	-11.51385	-1.52574
9227.058	-12.06639	2.35984	-9.98877	1.79850
9231.057	-12.64250	-0.41034	-10.62790	-0.83032
9235.028	-12.43497	1.60891	-10.47717	-2.09240
9239.053	-12.38131	-0.65930	-11.23418	0.96118
9243.056	-12.29344	0.64874	-10.68425	-0.99141
9247.060	-13.45214	0.22797	-10.55104	0.61818
9251.054	-11.90745	0.00912	-10.76702	-2.03286
9255.057	-12.72431	1.38726	-11.07470	0.41727
9259.018	-12.66523	1.86198	-10.46582	-1.58726
9265.703	NaN	NaN	NaN	NaN
9275.054	-11.18422	-7.60403	-10.59251	-2.40364
9279.056	-13.47719	0.43924	-10.78872	1.38797
9283.029	-7.64357	-7.26325	-10.65088	-0.89122
9287.057	-13.07999	0.56392	-10.52166	-2.01127
9291.056	-11.32488	0.25264	-14.85616	4.17069
9295.054	-10.07091	-6.70612	-11.23256	-0.26769
9299.058	-12.98829	0.69368	-10.67804	-0.51591
9303.059	-12.92323	0.50337	-10.96610	-0.93285
9307.054	-13.34578	0.65517	-10.60248	-0.50807
9311.058	-12.98148	0.66620	-10.48317	-1.18089
9315.052	-13.33180	0.69568	-10.57579	-0.94126
9319.021	-13.60800	0.60657	-10.81164	-0.60644
9322.934	-12.94514	0.53192	-10.43680	-0.51907
9327.021	-12.60148	-5.06250	-10.32938	1.62662
9331.038	-10.37345	0.61059	-11.26357	1.15374
9335.057	-11.71882	0.86428	-9.06688	0.38741
9339.061	-9.88405	-4.77844	-7.80711	3.17509
9343.054	-5.75220	1.31395	-7.74184	1.99909
9347.056	-6.26740	2.30175	-6.62273	13.22753
9351.055	NaN	NaN	-1.49014	7.14768
9355.061	-2.57162	5.29754	-2.62229	3.16003
9359.043	-0.86123	4.18311	NaN	NaN
9363.020	-1.02955	1.39403	-6.28337	9.56099
9367.056	NaN	NaN	NaN	NaN
9370.957	NaN	NaN	NaN	NaN
9375.060	NaN	NaN	NaN	NaN
9379.055	NaN	NaN	-0.75796	6.06328
9383.022	NaN	NaN	-0.99318	6.61803
9387.059	NaN	NaN	-1.65480	7.40824
9391.056	NaN	NaN	-2.16523	7.96372
9395.025	NaN	NaN	-0.37501	8.74608
9399.018	NaN	NaN	0.13503	7.87547
9403.051	NaN	NaN	-0.32595	8.55679
9407.057	NaN	NaN	0.17509	8.95511
9411.058	NaN	NaN	0.06641	9.75274
9415.020	NaN	NaN	0.64657	7.44735
9419.059	NaN	NaN	-0.08498	8.94263
9423.056	2.42136	-3.76764	0.15124	6.42919
9427.057	2.06766	-3.80170	-0.76729	6.80823
9431.057	1.81577	-3.85758	0.29585	6.00426
9434.958	4.01608	-4.28047	1.54415	5.78070
9439.061	2.60644	-3.93144	0.24780	6.91986
9443.028	-2.73202	6.27854	0.39437	8.06805
9447.058	1.31196	6.36515	NaN	NaN
9451.060	4.47111	-10.00250	-0.57823	6.32559
9455.060	5.07434	-11.30369	-0.42810	5.36424
9459.059	4.80716	-10.28560	-0.58754	4.81927
9463.057	4.29369	-10.15957	-2.14607	5.96784
9467.060	-2.89497	6.42338	-1.98204	5.95712
9471.060	-2.42924	5.85711	2.59544	6.38526
9475.057	-2.56213	5.69422	-0.09406	5.28821
9479.060	1.18145	5.59133	0.35923	5.97552
9483.057	-0.03477	5.60913	-0.87138	5.88545
9487.021	-1.17999	5.42418	-1.49277	5.84764
9491.059	-2.34030	5.38189	-1.19187	5.86920
9495.058	-2.71780	5.35824	-1.82262	5.48385
9498.956	-3.15775	5.42116	-2.22770	5.24133
9503.057	-3.35496	5.33238	-1.78409	5.56660
9507.058	-1.15208	5.19558	-1.43684	6.23313
9511.037	-2.07918	5.38185	2.98131	6.44783
9514.960	-1.97840	5.71741	0.20122	8.28337
9519.058	-2.25295	5.26640	0.57997	6.04925
9523.059	-3.13402	5.08434	0.42777	7.74676
9527.025	-0.92170	6.66400	0.32349	7.55886
9530.941	-2.87948	7.37947	-0.01948	7.98172
9535.058	-2.74826	6.72530	0.07877	7.18436
9539.060	-2.79632	7.24819	0.04311	8.38235
9543.058	-2.13938	6.15674	0.02665	8.12954
9547.062	-2.72100	5.64520	0.14139	7.24916
9551.058	-2.12620	5.71629	-0.08098	7.50681
9555.062	-2.76510	5.52143	2.05402	7.18166
9559.061	0.14389	5.36484	0.66193	6.65822
9563.028	0.24344	5.33663	0.09952	6.68794
9567.042	-1.03469	5.41169	0.35576	6.64142
9571.065	-0.35290	6.04239	0.24572	6.17101
9575.061	-1.98539	5.18975	0.34268	5.96439
9578.956	-2.65694	5.30612	0.08959	5.32768
9583.060	-2.00693	6.36335	0.13094	5.74541
9587.063	-0.78853	6.10891	0.54466	6.95174
9591.061	0.41859	5.13814	-0.29024	5.62503
9595.074	0.46408	7.52216	2.17745	9.46821
9599.061	3.43454	8.12924	0.46582	9.75224
9603.061	3.20845	8.86877	0.88532	9.82886
9607.054	2.50140	10.73705	1.28688	10.56923
9610.959	3.60012	9.66561	2.45433	14.03330
9615.050	-1.96196	11.52761	NaN	NaN
9619.022	-1.83826	12.23068	0.63814	11.61015
9623.060	1.79619	8.45697	2.03667	11.37219
9626.958	2.54516	9.03169	1.09443	12.86270
9631.060	-1.27460	9.99843	2.12892	13.01717
9635.061	2.06295	10.17941	1.78942	14.20909
9639.062	5.61008	7.84127	2.05189	14.83248
9642.963	4.75615	9.18510	2.23152	13.53016
9647.063	NaN	NaN	3.68483	13.70733
9651.039	-0.22897	10.73029	1.90182	14.71982
9655.060	-1.28854	11.90803	NaN	NaN
9659.062	4.77291	8.94760	-1.14436	13.34892
9663.062	5.89353	9.64497	2.39686	13.92039
9667.063	2.94893	9.89060	3.27826	14.75646
9671.060	3.28882	11.03620	1.69019	13.72463
9674.961	-0.59905	11.93661	2.83779	13.98668
9678.936	-0.66640	11.34861	4.10634	13.83766
9682.937	2.23558	10.15543	-0.73630	13.68724
9686.937	7.34563	10.27404	2.17534	13.77517
9690.931	-0.56200	10.92866	NaN	NaN
9694.936	-0.43949	11.67666	NaN	NaN
9698.935	2.58675	11.89834	2.21682	14.09144
9702.935	3.41812	11.68712	2.92176	14.06167
9707.028	-0.35558	12.10896	NaN	NaN
9710.936	3.13410	11.86200	-1.40467	9.40346
9714.936	7.28092	12.58537	2.21784	14.04026
9718.937	1.27048	12.72153	2.11772	14.26025
9722.961	1.82524	11.16134	NaN	NaN
9726.938	8.14229	12.94801	2.27421	13.96368
9730.940	1.33723	10.10683	-2.75121	9.43189
9734.936	2.39884	10.88742	-4.91420	7.99217
9738.930	1.33634	10.83028	2.57934	13.12417
9742.900	3.83579	11.27407	-1.48721	14.53630
9746.900	1.69599	11.19169	2.27845	14.37117
9750.938	2.58450	10.71945	1.83080	9.56831
9754.928	1.26421	10.49577	-2.69438	10.03903
9758.937	3.05949	10.73578	0.56034	12.22295
9762.936	1.84431	11.06699	-0.88374	13.25690
9766.935	2.66704	10.51270	1.56000	7.13779
9770.931	1.14814	10.85279	0.03502	12.97608
9774.938	2.99472	10.82666	NaN	NaN
9778.932	2.06934	10.39077	NaN	NaN
9782.924	2.40218	11.14590	3.49057	13.15924
9786.933	2.40838	11.96267	-0.19618	13.73009
9790.939	3.13605	10.67180	-3.75052	9.88132
9794.940	2.38544	11.62852	-0.36204	13.62330
9798.939	3.24585	10.09013	-3.86973	6.37369
9802.929	2.41586	11.35762	0.07597	13.51770
9806.939	3.28009	11.03314	-3.95278	2.49047
9810.939	2.27947	10.51230	-1.69949	5.32585
9814.938	2.69896	11.15178	0.60238	13.27228
9818.965	2.11212	10.77783	-3.46375	1.90621
9822.909	1.94491	10.95234	-0.27510	-3.99525
9826.938	3.12393	10.89562	NaN	NaN
9830.941	3.46540	13.93078	1.67985	14.84349
9834.940	5.88528	14.08073	13.75580	10.46373
9838.937	1.08492	11.18603	NaN	NaN
9842.939	NaN	NaN	NaN	NaN
9846.940	8.95307	14.44855	NaN	NaN
9850.964	NaN	NaN	NaN	NaN
9854.937	NaN	NaN	NaN	NaN
9858.940	NaN	NaN	NaN	NaN
9862.936	NaN	NaN	NaN	NaN
9866.935	NaN	NaN	NaN	NaN
9870.932	NaN	NaN	22.53836	5.40463
9874.940	15.34081	10.11446	19.21666	-0.13084
9878.938	15.84093	8.70793	17.99094	-2.84565
9882.939	15.76904	7.27780	17.74654	-6.60402
9886.964	15.77738	8.84854	17.09551	-10.55563
9890.944	16.19137	9.55184	-19.99372	-12.07028
9894.940	16.63596	6.25877	17.22466	-9.69006
9898.943	13.66180	5.71184	17.31264	-11.83465
9902.940	13.54239	6.46830	-19.99372	-11.97286
9906.935	2.06533	3.65982	-5.27786	-10.69530
9910.939	6.10804	5.50479	-4.40601	-13.19687
9914.941	7.74893	5.45357	-3.82586	-10.16742
9918.931	7.65953	4.93766	12.94846	-11.46294
9922.941	6.71299	4.48564	9.10722	-13.09296
9926.941	6.94159	5.13351	6.06905	-7.49966
9930.904	7.59576	4.54190	4.30966	-9.25244
9934.939	7.41458	3.84740	0.78109	-10.93058
9938.940	7.37536	4.16123	0.96298	-11.12398
9942.945	7.35241	3.36215	3.24768	-11.18286
9946.918	6.45339	2.90998	2.03501	-13.27712
9950.909	3.76947	4.99639	-1.01427	-7.70977
9954.943	7.31640	4.12431	-0.73427	-9.36109
9958.940	3.34007	4.22760	-0.52071	-9.79748
9962.939	3.61523	4.33311	-19.99372	-12.20111
9966.938	6.98800	3.38467	-19.99372	-12.07499
9970.939	7.45194	4.19847	-19.99372	-12.07611
9974.943	6.88766	3.73226	-19.99372	-12.07678
9978.940	7.28642	2.23490	-0.64660	-12.92712
9982.942	7.40413	3.61976	-0.10354	-12.43512
9986.929	6.88108	4.34694	5.05900	1.57650
9990.931	6.94318	1.73338	5.59231	5.16292
9994.942	6.69865	3.96636	-19.99372	-12.05817
9998.964	7.25785	2.15549	-19.99372	-12.06068
10002.944	6.87597	4.31961	-19.99372	-12.06271
10006.904	7.08480	3.16133	3.45620	-14.23767
10010.940	6.73370	3.11759	-19.99372	-12.07039
10014.920	6.89554	4.11237	-19.99372	-12.07077
10018.942	7.15914	2.72673	-19.99372	-12.07117
10022.945	6.83286	2.08133	-19.99372	-12.04189
10026.945	6.36962	4.17608	8.29178	1.72796
10030.972	6.87499	3.34268	-19.99372	-12.08497
10034.942	6.97930	2.23643	-19.99372	-12.08401
10038.942	5.81302	2.81143	6.55616	3.38971
10042.943	7.04059	3.07166	-19.99372	-12.08432
10046.934	6.93132	2.43541	6.34687	3.69372
10050.940	7.09067	3.93296	7.09969	1.73078
10054.967	7.12891	2.62950	10.02348	2.37088
10058.943	6.17592	4.18512	9.92237	5.42548
10062.964	7.13485	2.12348	8.07849	1.51266
10066.943	7.01455	4.22185	9.72281	3.26268
10070.923	7.12144	5.60003	8.40793	6.39788
10074.904	12.56295	5.43833	8.66583	10.82092
10078.933	16.73973	8.75754	19.86907	3.78451
10082.941	NaN	NaN	NaN	NaN
10086.942	NaN	NaN	NaN	NaN
10090.942	NaN	NaN	NaN	NaN
10094.944	NaN	NaN	NaN	NaN
10098.943	NaN	NaN	NaN	NaN
10102.942	NaN	NaN	NaN	NaN
10106.941	NaN	NaN	NaN	NaN
10110.942	NaN	NaN	NaN	NaN
10114.909	NaN	NaN	NaN	NaN
10118.941	NaN	NaN	NaN	NaN
10122.905	NaN	NaN	NaN	NaN
10126.945	NaN	NaN	NaN	NaN
10130.906	NaN	NaN	NaN	NaN
10134.943	NaN	NaN	NaN	NaN
10138.935	NaN	NaN	NaN	NaN
10142.947	NaN	NaN	NaN	NaN
10146.944	NaN	NaN	NaN	NaN
10150.942	NaN	NaN	NaN	NaN
10154.944	NaN	NaN	NaN	NaN
10158.947	NaN	NaN	NaN	NaN
10162.944	NaN	NaN	NaN	NaN
10166.943	NaN	NaN	NaN	NaN
10170.907	NaN	NaN	NaN	NaN
10174.947	NaN	NaN	NaN	NaN
10178.942	NaN	NaN	NaN	NaN
10182.942	NaN	NaN	NaN	NaN
10186.942	NaN	NaN	5.40336	-1.36940
10190.946	-0.43055	4.79950	-11.87382	-3.88657
10194.932	NaN	NaN	0.18256	-0.03106
10198.934	-0.01377	7.53867	8.30471	0.71075
10202.941	-0.12535	9.39816	1.31989	-0.32645
10206.946	0.05294	4.69270	-2.83249	2.23316
10210.945	0.68680	2.56799	5.47252	-2.47529
10214.944	-2.46617	5.05003	2.36490	-0.84325
10218.942	2.84524	3.17204	4.48182	-0.26557
10222.944	1.59122	1.23545	-11.63447	2.86217
10226.943	-2.79981	4.22726	0.98998	3.27236
10230.948	-5.73903	3.52651	-1.73911	2.16400
10234.940	-4.74614	2.45797	-2.52812	2.28797
10238.916	-5.69622	1.80688	-4.66834	-4.08372
10242.945	-5.44508	1.44740	-11.81772	0.78270
10246.949	-5.67207	1.47843	-4.91058	2.04117
10250.944	-5.86214	1.47973	-4.00754	-0.53541
10254.948	-7.41990	1.43103	-8.97305	2.02444
10258.945	-7.50481	1.23847	-8.91851	3.18939
10262.945	-7.66090	1.24718	-9.15464	2.41112
10266.912	-7.41446	1.28678	-9.03541	3.12788
10270.945	-6.99397	1.69843	-9.38339	3.90965
10274.951	-7.35419	2.30235	-9.25997	-3.53642
10278.928	-7.62609	2.28730	-9.19365	-0.68546
10282.912	-7.42451	1.00367	-9.14019	0.03064
10286.947	-7.56625	1.12013	-6.19635	0.31576
10290.946	-7.61799	1.78723	-5.90625	0.15626
10294.945	-7.71055	2.26582	-9.05219	-4.08215
10298.941	-7.43486	1.76218	-8.35678	-2.23819
10302.908	-7.28029	1.28187	-5.78799	-0.17939
10306.964	-7.34660	2.67951	-5.10327	-0.12885
10310.945	-6.20774	1.84960	-5.48101	2.44659
10314.952	-6.59216	1.67999	-7.76857	0.43025
10318.948	-6.63881	2.19883	-5.35128	0.34540
10322.912	-6.26937	2.15440	-5.55863	0.55802
10326.945	-6.34942	1.29386	-5.86752	1.45722
10330.937	-7.45074	1.63115	-5.83083	-0.35417
10334.950	-8.35709	1.77815	-5.61652	-0.23058
10338.946	-6.86559	1.58335	-5.32737	1.77757
10342.947	-6.60223	1.25692	-5.48750	-0.28841
10346.947	-6.71157	1.47076	-5.10559	-0.48280
10350.945	-6.36687	2.11183	-5.54405	-1.05991
10354.947	-6.41611	1.90043	-5.41507	0.06578
10358.950	-6.64347	1.94693	-5.34287	0.95858
10362.951	-5.96456	1.65083	-5.44729	1.54423
10366.946	-6.60463	1.04403	-5.28463	1.84004
10370.946	-6.38408	1.46864	-5.28495	1.85966
10374.947	-6.45331	1.13925	-5.16787	1.65883
10378.844	-7.48895	1.67741	-5.16445	1.93297
10382.949	-6.53651	2.08876	-5.03548	1.30853
10386.947	-6.31818	2.91030	-5.07175	-0.08161
10390.946	-5.67285	2.23522	-5.03785	-0.48451
10394.949	-6.61151	1.99898	-5.08936	-0.28664
10398.948	-6.70714	1.70095	-5.02765	2.01211
10402.941	-7.51703	1.45257	-9.09026	-2.94952
10406.909	-5.88304	2.04462	-8.77773	-3.56788
10410.946	-6.09084	3.85039	-6.90075	-4.39372
10414.949	-5.58567	3.98281	-5.16824	-6.88652
10418.948	-5.24727	2.63771	-5.61514	-7.35869
10422.946	-5.36868	1.57451	-9.27989	-4.26064
10426.818	-5.40766	3.28314	-9.12532	-6.90718
10430.950	-4.89631	2.65244	-9.42680	-2.44473
10434.953	-4.92772	1.44545	-9.47507	-3.29975
10438.947	-4.29172	3.42984	-9.18052	-5.06714
10442.955	-4.77742	3.53052	-9.17911	-7.55821
10446.923	-6.44422	3.23882	-6.88746	-2.78200
10450.949	-5.50461	1.88185	-6.61352	-4.47678
10454.948	-5.63410	0.72601	-10.37090	-7.28852
10458.949	-5.63405	3.81165	-6.33944	-7.43883
10462.947	-5.01955	3.70735	-9.53673	-8.22528
10466.948	-4.23434	3.33136	-5.98852	-8.84321
10470.948	-5.16890	2.87739	-10.49306	-11.46999
10474.847	-5.48895	2.45147	-3.54220	1.39363
10478.950	-5.49249	2.65129	-3.24466	1.33445
10482.912	-5.82840	2.94801	-2.94916	1.53844
10486.931	-5.58474	2.48472	-5.33143	-5.50992
10490.817	-5.55760	2.34278	-5.17686	-6.27002
10494.950	-5.30702	1.99345	-4.90388	-12.83414
10498.949	-5.27422	2.08279	-5.12590	-13.33546
10502.949	-5.09227	1.84802	-9.16240	-9.18438
10506.846	-4.92142	1.89497	-4.13878	-9.47833
10510.947	-4.88481	1.10775	-8.85744	-10.28933
10514.949	-5.33527	2.21279	-3.03717	0.18166
10518.948	-5.44886	3.23901	-2.13512	-0.02088
10522.952	-5.36102	3.12858	-2.40471	-0.41645
10526.947	-4.93309	3.63772	-1.61287	-0.32375
10530.949	-4.51857	3.46342	-8.21281	-6.81554
10534.953	-4.68957	3.59234	-8.67294	-7.08545
10538.849	-4.62037	3.28914	-8.75897	-7.95149
10542.952	-4.55312	3.01382	-4.41761	4.31711
10546.949	-4.41011	2.76395	-3.54057	3.86160
10550.913	-4.35378	2.54423	-3.22923	2.97041
10554.852	-4.83008	2.96307	-3.36832	2.44097
10558.912	-5.22827	3.14310	-3.43561	1.49639
10562.950	-5.51327	2.85392	-3.20229	1.22168
10566.951	-5.24235	2.41459	-3.40136	0.34635
10570.854	-5.19906	2.99941	-3.20689	0.36820
10574.952	-4.87695	2.78228	-2.67546	-0.36282
10578.949	-5.19177	2.40162	-2.16634	-0.39223
10582.953	-5.55467	2.26093	-1.94506	-0.67607
10586.953	-5.26017	2.05815	-2.06845	-0.90851
10590.952	-5.40577	1.97628	-6.07484	-5.76841
10594.951	-5.42899	1.87356	-5.69679	-5.76685
10598.951	-5.26984	1.90516	-4.08658	0.12229
10602.854	-5.19389	1.73239	-4.47661	-0.08686
10606.951	-5.10738	1.40958	-4.30571	-0.26102
10610.952	-5.29103	1.93767	-5.69495	-1.68880
10614.941	-5.16568	2.54746	-5.07478	-1.47941
10618.816	-5.52114	3.82772	-1.61840	-1.97468
10622.953	-5.65390	3.03352	-2.51935	-4.76149
10626.951	-5.78408	2.17331	-3.65176	1.26735
10630.951	-5.18779	1.32768	-4.27044	0.38969
10634.857	-5.48814	3.41639	-4.80389	-1.62902
10638.951	-5.56443	3.22440	-1.37151	-2.00421
10642.949	-5.32862	3.50983	-2.67207	-3.85390
10646.953	-5.55991	1.66036	-3.81187	0.65260
10650.849	-5.59442	3.42314	-4.46090	-1.41004
10654.918	-4.89892	3.39224	-0.77987	-2.10693
10658.951	-5.46263	2.38469	-2.73457	2.01294
10662.952	-5.72001	3.40508	-4.49494	0.89217
10666.851	-5.73529	3.05942	-5.59821	-1.81833
10670.952	-5.51981	2.71834	-7.10299	2.68332
10674.954	-5.45592	2.00806	-5.27764	0.51208
10678.952	-5.73148	3.51185	-5.96625	2.56368
10682.956	-5.65214	1.69063	-7.94061	-2.49409
10686.918	-5.76195	1.43832	-7.12945	3.21088
10690.956	-5.61259	3.52403	-4.54945	-1.03256
10694.935	-5.81680	3.96989	-5.26802	2.67612
10698.850	-6.02956	2.15925	-3.94446	3.45751
10702.954	-5.40353	1.90868	-4.08925	3.08200
10706.953	-6.08286	2.24771	-3.91207	0.20733
10710.826	-6.30754	3.83917	-7.74576	-0.48091
10714.851	-6.35180	2.01715	-7.19671	-0.07085
10718.828	-9.98052	1.78214	-7.36716	-0.31256
10722.827	-10.18014	0.50949	-9.85074	3.19436
10726.826	-12.72447	1.74788	-10.16781	0.21712
10730.850	-12.53093	1.93412	-10.46669	-0.67496
10734.829	-12.75620	-0.53162	-10.71854	-3.14304
10738.828	-12.56744	-0.26953	-10.71902	-2.11219
10742.802	-14.81996	-1.35625	-10.93440	-3.35540
10746.955	-15.33663	0.73743	-11.14457	-5.09784
10750.826	-11.82476	0.46918	-11.01567	-2.39809
10754.790	-12.61939	0.51365	-11.62818	-1.81699
10758.828	-14.57731	-0.13181	-11.32109	-1.98097
10762.853	-12.80808	-0.86633	-10.60378	-1.89155
10766.824	-12.77445	-1.25372	-11.15269	-1.84409
10770.828	-13.31739	0.33710	-11.11934	-1.87002
10774.830	-12.76159	0.61458	-11.36684	-2.43464
10778.831	-12.76324	-0.03395	-10.83369	-2.97533
10782.812	-13.43822	-0.04155	-11.04396	-3.05511
10786.820	-12.31985	0.59255	-10.79131	-2.33418
10790.909	-12.49949	-0.99496	-11.56955	-3.17232
10794.854	-12.95848	0.01761	-10.93641	-1.67236
10798.831	-12.79279	0.43407	-10.81046	-2.82603
10802.828	-12.78380	0.69522	-10.86486	-1.40098
10806.827	-13.01317	0.69146	-10.88305	0.47288
10810.849	-13.01845	-0.07881	-11.07501	-2.72276
10814.828	-12.75967	0.28229	-10.53847	0.17037
10818.830	-12.55781	0.56771	-10.97865	0.65286
10822.791	-13.03882	0.05377	-10.81870	-1.15966
10826.822	-12.94320	-0.01950	-10.75435	-1.45930
10830.792	-12.84362	-0.06524	-10.81001	-3.61471
10834.827	-13.17080	0.16746	-10.83984	-3.34450
10838.832	-12.87883	0.43961	-10.71602	-2.61336
10842.820	-12.97502	0.30423	-10.79794	-1.99998
10846.830	-13.00082	0.18752	-11.02610	-1.77511
10850.831	-12.58389	0.18128	-10.67993	-1.34371
10854.828	-13.10036	0.27721	-10.63540	-0.94974
10858.850	-13.03293	0.48988	-10.80390	-0.25695
10862.832	-13.08957	0.30143	-10.70950	-0.40494
10866.810	-12.93389	0.87948	-10.61377	-0.37674
10870.827	-13.11931	0.41980	-10.68549	0.18023
10874.853	-12.91097	0.99429	-10.74386	-1.22601
10878.828	-12.93460	0.59028	-10.80486	-1.02713
10882.830	-12.94568	0.99226	-10.74218	-1.20291
10886.831	-12.85043	0.88045	-10.58363	-1.03903
10890.795	-12.98091	0.85547	-10.73181	-1.54375
10894.828	-12.94888	0.80076	-10.73346	-2.96407
10898.831	-12.93995	0.31524	-10.70562	-3.13684
10902.829	-12.82866	0.67770	-10.61392	-2.01122
10906.821	-12.65120	0.50486	-10.66817	-2.34244
10910.823	-12.85010	0.53961	-10.63401	-2.25276
10914.828	-12.82075	0.28523	-10.61718	-2.50179
10918.829	-13.10822	-0.13860	-10.34374	-2.34471
10922.828	-13.07300	-0.76082	-10.28018	-1.99463
10926.787	-13.00297	-0.77396	-10.22466	-2.75517
10930.793	-13.10313	-0.91387	-10.50827	-2.27127
10934.818	-12.74881	-1.03200	-9.69822	-0.09440
10938.853	-12.92427	-1.53864	-9.79392	-0.00360
10942.832	-12.94568	-0.94781	-10.29106	-1.59352
10946.830	-13.04947	-0.15026	NaN	NaN
10950.828	-13.11260	0.18081	NaN	NaN
10954.829	-12.92694	-0.13500	NaN	NaN
10958.830	-12.88463	0.38902	-12.59959	-2.27861
10962.833	-12.92665	0.16552	-11.75981	-2.04440
10966.831	-12.82602	0.62131	-12.12957	-1.97164
10970.791	-12.79295	0.40193	-12.12139	-2.06342
10974.832	-12.75106	0.05056	-12.32591	-2.46990
10978.831	-12.66795	0.16964	-9.46464	-2.06873
10982.831	-12.88676	-0.14117	-10.95830	4.73847
10986.791	-12.95883	-0.25337	-11.11590	4.70528
10990.821	-13.01053	-0.69998	-11.10347	4.20021
10994.823	-12.98343	-0.08288	-11.14925	4.09039
10998.831	-12.77410	0.01461	-12.63920	3.60498
11002.823	-12.75089	0.04915	-12.91152	2.18190
11006.836	-13.39593	0.16488	-12.93929	3.19928
11010.832	-13.18219	-0.43801	-11.11946	1.44888
11014.806	-13.36408	-6.54305	-11.85262	1.19731
11018.822	-13.19769	1.58382	-11.64504	1.19388
11022.832	-13.47550	1.12870	-11.68584	1.16583
11026.794	-13.53692	1.36926	-11.18155	1.10589
11030.839	-13.53019	1.32858	-11.20572	0.76632
11034.847	-12.94440	-0.94121	-8.31686	5.48941
11038.841	-12.73769	-0.82368	-8.16722	5.50498
11042.828	-12.98492	0.55731	-7.94883	5.65420
11046.832	-13.00287	0.67374	-11.31522	-0.73923
11050.855	-12.82108	-0.70003	-14.61153	-4.03811
11054.832	-12.47432	-1.12714	-13.70823	-3.78549
11058.834	-12.74345	-1.89980	-12.01941	-6.62563
11062.834	-12.31499	-7.43259	-12.39227	-6.99443
11066.830	-12.15087	-6.24659	-12.23365	-7.75517
11070.833	-11.74406	-5.73968	-10.66495	-6.94132
11074.812	-11.63247	-5.06771	-11.79781	-6.93339
11078.828	-11.87891	-4.82821	-11.11996	-6.45870
11082.830	-11.44316	-9.53661	-11.71092	-7.03700
11086.834	-15.15404	-4.91295	-11.41686	-6.20038
11090.835	-14.89400	-3.75368	-12.07756	-6.85589
11094.795	-14.66313	-3.34322	-12.09790	-6.91577
11098.834	-14.79690	-3.44283	-12.71193	-6.80342
11102.832	-14.52544	-3.30019	-12.25346	-6.52678
11106.833	-14.03554	-2.68513	-12.13213	-1.55515
11110.838	-13.65941	-1.85505	-11.79834	-1.09689
11114.851	-13.14762	-1.63970	-11.65530	-0.76510
11118.831	-12.33852	-1.34407	-11.18069	-0.95302
11122.831	-12.17371	-1.27967	-11.46103	-0.97943
11126.833	-12.73252	-1.22338	-11.37681	-1.32113
11130.828	-13.16798	-1.30535	-10.93713	-1.36236
11134.833	-13.14077	-1.75725	-10.82801	-1.24030
11138.837	-13.24800	-2.06308	-10.41436	-0.99804
11142.835	-13.01517	-2.39446	-9.57377	-1.00602
11146.834	-12.99015	-2.28996	-9.45274	-1.07089
11150.835	-12.62979	-2.36660	-9.30450	-1.53507
11154.833	-12.91340	-3.90144	-9.09979	-1.65511
11158.806	-12.30585	-2.83527	-8.89063	-1.83639
11162.803	-12.64695	-2.48954	-8.86117	-1.99029
11166.833	-12.08770	-2.40338	-8.34016	-1.82897
11170.832	-12.25612	-2.90533	-7.71996	-1.65471
11174.833	-13.58873	-2.93005	-7.74315	-2.23647
11178.834	-13.79110	-3.14229	-10.47429	-2.12061
11182.834	-13.00019	-2.83833	-12.36852	-2.55116
11186.834	-12.53228	-2.77062	-11.75612	-2.34648
11190.837	-13.30834	-3.06900	-9.16557	-1.99344
11194.827	-12.53232	-2.71336	-8.77102	-1.42280
11198.836	-13.40413	-2.75732	-8.69443	0.47119
11202.823	-12.90873	-2.50128	-8.45672	-0.40611
11206.835	-12.82340	-2.23563	-8.17162	-5.33811
11210.836	-12.72154	-2.12369	-11.25440	-5.77863
11214.837	-12.64189	-1.83093	-11.37014	-5.78511
11218.835	-12.66998	-2.58765	-6.85941	-2.99793
11222.836	-13.96061	-3.26376	-12.15016	-5.10129
11226.832	-13.90595	-3.01668	-10.00148	-3.62129
11230.798	-13.21493	-2.65228	-11.13043	-4.36797
11234.796	-13.03821	-2.01709	-11.03090	-3.83450
11238.799	-12.96797	-1.81298	-11.15962	-3.64381
11242.828	-12.63662	-1.74691	-10.90162	-2.26638
11246.833	-12.30322	-1.76434	-10.92473	-3.14806
11250.798	-12.38034	-1.65070	-10.72568	-2.33998
11254.835	-11.28364	-1.47786	-10.47050	-2.56893
11258.827	-11.49133	-1.69035	-7.81359	-2.13589
11262.838	-12.94452	-1.67398	-7.53798	-1.92072
11266.837	-13.13468	-2.36257	-7.39298	-2.21579
11270.838	-13.23956	-2.54257	-7.03956	-2.00059
11274.829	-12.77750	-1.68970	-6.81997	-1.97314
11278.833	-12.21561	-1.60271	-6.60749	-2.68524
11282.815	-12.43471	-1.73376	-6.17509	-2.52593
11286.837	-12.03890	-1.82228	-6.19020	-3.04293
11290.834	-12.24448	-1.93001	-9.09998	-4.05915
11294.836	-12.37134	-1.64789	-8.70999	-4.32742
11298.834	-12.63846	-0.93513	-7.98861	-4.79946
11302.837	-12.43734	-0.28600	-7.39806	-5.13961
11306.835	-12.20494	-0.97983	-7.37926	-5.11710
11310.836	-12.18732	-1.39183	-6.55146	-5.82411
11314.836	-12.06057	-0.67086	-6.93665	-5.49365
11318.841	-12.28375	-1.33294	-6.61717	-5.51536
11322.825	-12.20273	-1.14259	-6.30146	-5.54947
11326.829	-12.23011	-1.06515	-6.31117	-5.32038
11330.838	-12.20890	-1.44279	-6.16496	-5.14999
11334.838	-12.08990	-1.21195	-6.14945	-4.89718
11338.838	-12.28936	-1.39642	-5.86472	-4.24037
11342.836	-12.26602	-1.03337	-5.52527	-2.89593
11346.836	-12.41445	-1.27341	-5.34562	-2.24477
11350.838	-12.65203	-2.36429	-4.90944	-0.99470
11354.835	-12.55079	-1.74917	-4.73722	-0.66774
11358.836	-12.46138	-2.00618	-4.85135	-0.17169
11362.839	-12.33340	-1.62424	-4.41026	1.14096
11366.839	-12.32196	-1.63620	-7.97383	-5.70861
11370.836	-12.42579	-1.74099	-7.96361	-4.61095
11374.838	-12.31644	-2.06393	-7.83186	-4.26034
11378.835	-12.25955	-2.69131	-3.33913	-3.14351
11382.837	-12.96925	-2.71345	-6.39023	-2.94138
11386.831	-13.61998	-2.21163	-7.61117	-2.90810
11390.839	-12.20591	-1.21494	-7.66044	-2.41164
11394.801	-12.67849	-2.34239	-7.51927	-1.62216
11398.840	-12.31409	-2.57234	-4.24917	-0.92375
11402.735	-12.58434	-2.04451	-3.97797	1.16603
11406.827	-12.58727	-2.26121	-3.76403	0.65847
11410.826	-12.38045	-2.11094	-3.24444	0.93679
11414.838	-12.41831	-2.16026	-2.45294	-5.59072
11418.737	-12.14902	-2.02620	-6.40954	-6.55419
11422.839	-12.39904	-1.77504	-6.32331	-6.27288
11426.840	-11.93539	-1.25369	-4.71464	-6.47882
11430.840	-11.95838	-1.10793	-4.30608	-6.06532
11434.738	-12.38805	-1.59017	-4.30569	-5.42626
11438.838	-12.24370	-1.07466	-4.20170	-5.50658
11442.836	-12.34536	-1.56998	-3.82188	-4.90703
11446.837	-12.37103	-1.60756	NaN	NaN
11450.739	-12.38888	-1.66180	NaN	NaN
11454.838	-12.45376	-1.48279	-3.64326	-4.35891
11458.839	-12.77228	-1.69753	-3.47888	-4.09077
11462.838	-12.67057	-1.69336	-3.26374	-4.13645
11466.841	-12.97443	-1.69943	-2.94250	-3.74812
11470.838	-12.67546	-1.74824	-2.95651	-3.58170
11474.838	-12.73809	-1.98497	-2.56404	-3.56109
11478.841	-12.72279	-1.71953	-2.50358	-3.67861
11482.743	-12.65016	-1.62475	-2.12801	-3.50644
11486.842	-12.70955	-1.84531	NaN	NaN
11490.821	-12.75606	-1.98349	NaN	NaN
11494.834	-12.65429	-1.96181	NaN	NaN
11498.741	-12.71285	-1.82918	-6.11643	-6.38401
11502.802	-12.64045	-1.41549	-1.83409	-6.45687
11506.836	-12.62788	-1.71887	-1.48491	-6.18316
11510.835	-12.71734	-1.86678	-1.37017	-0.15924
11514.710	-12.43241	-1.64780	-1.28847	-0.16702
11518.838	-12.50080	-1.85353	-1.29829	-0.69072
11522.841	-12.52111	-2.08126	-1.25654	-0.62769
11526.844	-12.57562	-1.87830	-1.29020	-1.43728
11530.736	-12.27491	-2.00077	-0.97226	-0.82598
11534.803	-10.03084	-1.67198	-11.25337	-6.22844
11538.841	-10.51741	-1.67131	-8.46898	-3.91760
11542.845	-9.78462	0.05505	2.26026	-0.12147
11546.841	-6.56059	-1.21160	6.31419	-6.38324
11550.839	-6.56569	-0.21805	-8.76985	-1.87313
11554.841	-5.44709	0.25239	-4.15737	-1.88618
11558.841	-5.43637	0.12139	2.66040	-6.43462
11562.740	-4.94674	0.37983	6.58616	-6.36553
11566.843	-5.06109	0.68382	3.23133	-6.36711
11570.803	-4.73747	0.60435	3.27054	-5.31064
11574.811	-4.87899	0.72664	3.19694	-5.70355
11578.725	-4.91316	0.52248	3.21305	-4.95890
11582.841	-4.56141	-0.71437	2.79642	-4.51489
11586.842	-4.60155	-0.49908	4.30788	-2.14377
11590.843	-4.80665	-0.97495	3.96723	-1.18430
11594.735	-4.86460	0.04727	3.57444	-0.67177
11598.840	-5.09414	-0.66241	4.23313	-0.33207
11602.842	-5.05910	0.05767	-1.43825	0.12932
11606.842	-4.70197	0.53802	-7.48956	-5.49353
11610.845	-4.68580	0.88076	-2.23135	-4.75101
11614.836	-4.41176	-0.43327	-2.20327	-3.71268
11618.803	-4.70404	-0.52749	-3.47579	-3.53375
11622.843	-4.87549	-1.06809	-2.74155	-1.18269
11626.847	-5.27616	-0.99324	-4.82057	-5.40938
11630.844	-5.26061	-0.98572	-4.40169	-5.36604
11634.843	-5.18988	-0.94135	-5.89350	-4.40850
11638.803	-5.37982	-0.80888	-1.93303	-3.18711
11642.845	-4.38706	-0.69254	-1.48592	-3.48756
11646.840	-4.65306	-0.62849	-2.00100	-1.58996
11650.841	-5.18975	0.03838	-4.45513	-3.42472
11654.841	-5.31871	0.02360	-3.68278	-5.03389
11658.843	-5.73374	-0.93014	-4.74762	-4.91545
11662.844	-5.45290	-1.10873	-3.80530	-5.05317
11666.841	-5.29772	-1.31182	-4.41085	-3.92580
11670.841	-5.19731	-0.93169	-2.43451	-3.39779
11674.845	-5.19005	-0.76670	-4.16633	6.79600
11678.843	-4.85147	-0.68468	-3.13227	-3.08302
11682.843	-4.95573	-0.29423	-3.75516	-3.42979
11686.840	-5.14860	0.06544	-3.99907	-5.20616
11690.847	-5.16186	0.98984	-4.27516	-3.54935
11694.844	-5.16898	1.11300	-3.57152	-5.13672
11698.823	-5.05698	1.25339	-2.89730	-3.65577
11702.842	-5.06218	-1.02609	-2.75351	-3.14133
11706.809	-5.03270	-0.60542	0.28222	-1.78849
11710.842	-5.11297	1.48785	-5.40914	0.68498
11714.842	-3.50843	2.31681	2.10305	3.39013
11718.842	-13.05840	2.69612	-3.48417	0.77781
11722.743	NaN	NaN	0.45815	3.65700
11726.845	NaN	NaN	NaN	NaN
11730.846	NaN	NaN	NaN	NaN
11734.843	NaN	NaN	NaN	NaN
11738.838	NaN	NaN	NaN	NaN
11742.800	NaN	NaN	NaN	NaN
11746.689	NaN	NaN	NaN	NaN
11750.717	NaN	NaN	NaN	NaN
11754.719	NaN	NaN	NaN	NaN
11758.720	NaN	NaN	NaN	NaN
11762.717	NaN	NaN	NaN	NaN
11766.729	NaN	NaN	NaN	NaN
11770.717	NaN	NaN	NaN	NaN
11774.677	NaN	NaN	NaN	NaN
11778.718	NaN	NaN	NaN	NaN
11782.716	NaN	NaN	NaN	NaN
11786.703	NaN	NaN	NaN	NaN
11790.680	NaN	NaN	NaN	NaN
11794.718	NaN	NaN	NaN	NaN
11798.718	NaN	NaN	NaN	NaN
11802.716	NaN	NaN	NaN	NaN
11806.719	NaN	NaN	NaN	NaN
11810.719	NaN	NaN	NaN	NaN
11814.718	NaN	NaN	NaN	NaN
11818.717	-14.57053	-1.96423	-22.73784	5.12864
11822.722	NaN	NaN	-18.39634	2.74921
11826.719	-12.79734	-7.10224	-19.70462	3.37970
11830.714	-17.00157	-2.10153	-18.11453	2.39866
11834.719	-3.63572	-8.65764	-16.16935	-0.45051
11838.719	-17.09828	-2.87207	-15.97230	1.88096
11842.682	-17.41431	-2.61792	-16.23078	1.37803
11846.713	-17.68464	-2.67736	-16.09455	-0.95996
11850.721	-17.52550	-2.42161	-16.19045	-1.88765
11854.722	-17.43509	-2.77301	-16.13049	-0.86239
11858.721	-16.98902	-2.84539	-16.04276	-3.20129
11862.711	-8.95494	-1.36707	-15.96344	-3.70197
11866.684	-11.81952	-0.97474	-15.74336	-2.44742
11870.700	-9.80590	-0.84748	-15.67947	-2.87885
11874.721	-11.41903	-0.64610	-15.15695	-2.33868
11878.742	-11.72458	-0.68186	-13.52135	-3.64022
11882.722	-11.79660	-0.52452	-13.71271	-4.08307
11886.722	-11.79313	-0.70321	-13.36927	-3.39366
11890.722	-11.32199	-0.70686	-11.83933	-2.41105
11894.722	-11.32858	-0.62694	-12.30204	-3.25584
11898.722	-11.41926	-0.65779	-11.81206	-3.32137
11902.718	-11.21880	-0.45601	-11.43390	-3.18676
11906.720	-11.23342	-0.55635	-11.24020	-3.69168
11910.721	-11.17677	-0.35077	-11.18475	-3.25708
11914.709	-11.35184	-0.46545	-12.00025	-3.70697
11918.723	-11.40229	-0.01086	-11.94686	-3.59507
11922.722	-11.35294	-0.35908	-11.93284	-3.06995
11926.712	-11.33304	-1.22370	-10.93914	-1.42955
11930.684	-11.42072	-0.47617	-11.23244	-3.41623
11934.721	-11.37505	-0.28782	-11.22382	-3.60377
11938.720	-11.43231	0.06352	-11.05189	-3.81400
11942.715	-11.53577	0.38410	-11.21568	-2.98450
11946.725	-11.60675	-0.80028	-10.78431	-2.79328
11950.725	-11.55230	-1.37758	-11.13965	-2.38019
11954.683	-11.55664	-0.96406	-11.77827	-2.71452
11958.688	-11.60811	-0.54960	-11.56162	-2.69065
11962.720	-11.49278	-0.66568	-11.69007	-2.87206
11966.725	-11.52245	-0.73236	-11.21787	-2.47872
11970.723	-11.55762	-0.82951	-11.23855	-2.40692
11974.716	-11.63813	-0.95945	-11.44296	-2.46323
11978.722	-11.70288	-1.21861	-11.51792	-1.76120
11982.723	-11.67708	-1.56067	-11.32042	-1.66678
11986.720	-11.83436	-2.03547	-11.16263	-1.54889
11990.748	-11.78179	-1.83205	-10.92181	-1.75545
11994.704	-11.90840	-1.85947	-10.07218	-2.48482
11998.719	-12.04379	-0.58423	-10.24968	-2.90214
12002.726	-12.29919	-1.02611	-11.47229	-3.44249
12006.744	-12.50430	-0.77088	-10.43932	-3.55753
12010.720	-12.25289	-1.02221	-10.41088	-4.37233
12014.725	-12.53325	-2.02067	-10.64830	-1.04196
12018.723	-12.39994	-2.11388	-10.01691	-0.85809
12022.715	-12.36589	-2.33410	-10.48660	-1.51542
12026.721	-12.20895	-2.54820	-10.28916	-1.54562
12030.685	-12.34832	-3.41610	-10.62636	-1.90412
12034.722	-12.45388	-2.90364	-11.04068	-2.17545
12038.713	-12.71290	-3.06825	-11.45035	-2.43392
12042.728	-12.42037	-2.31341	-10.65752	-1.64734
12046.685	-12.66516	-0.96370	-10.67411	-0.23205
12050.721	-12.36251	-0.67056	-10.07314	-2.16447
12054.680	-12.42309	-0.82011	-9.35532	-2.94946
12058.726	-12.46088	-2.80832	-9.92815	-3.16167
12062.721	-12.55141	-2.81073	-9.80922	-2.41559
12066.723	-12.54843	-2.08087	-10.21356	-2.03315
12070.744	-12.58533	-0.83768	-10.70167	-1.85604
12074.724	-12.62443	-0.48847	-10.30749	0.43466
12078.704	-12.71089	-0.76968	-11.01027	-1.89002
12082.722	-12.59157	-1.68381	-8.96995	-2.88874
12086.717	-12.21089	-2.84938	-10.57663	-3.07009
12090.722	-12.45608	-3.11205	-10.61330	-2.91479
12094.724	-12.04258	-2.34141	-10.17565	-2.86037
12098.724	-11.97185	-2.72399	-9.98824	-2.85595
12102.746	-11.82744	-2.10472	-10.59296	-2.91359
12106.724	-11.76997	-1.95102	-10.66783	-3.07802
12110.723	-11.85281	-1.93418	-10.83244	-3.43389
12114.697	-11.52035	-2.33774	-10.75469	-1.56742
12118.714	-11.71275	-2.72823	-10.91705	-2.76801
12122.722	-11.62292	-2.82233	-10.69136	-2.15946
12126.714	-11.67922	-0.44252	-9.42028	-2.23469
12130.686	-11.56448	-0.88564	-10.06140	-2.28516
12134.746	-11.49996	-1.90607	-10.59920	-2.46037
12138.724	-11.34421	-2.74857	-9.55254	-1.74125
12142.725	-11.30543	-2.10860	-10.36307	-3.89892
12146.726	-11.34747	-2.83074	-8.97227	-3.12544
12150.745	-11.30987	-4.22120	-9.00014	-3.64751
12154.724	-11.05378	-3.11763	-9.62483	-3.88593
12158.725	-11.15878	-2.80417	-9.58009	-4.39918
12162.699	-10.89463	-3.13784	-8.13967	-4.44950
12166.718	-10.94418	-2.98775	-9.10531	-4.73685
12170.723	-10.05190	-1.76229	-9.22721	-5.00064
12174.723	-10.98607	-2.99915	-9.15727	-4.88720
12178.724	-9.66214	-1.59907	-8.99361	-5.21188
12182.746	-11.19492	-2.98005	-8.52304	-4.90021
12186.726	-11.08600	-3.57599	-8.70245	-5.08875
12190.723	-9.16741	-3.14358	-8.85945	-4.46666
12194.725	-9.00714	-3.23532	-9.03682	-4.95770
12198.718	-9.81633	-3.82207	-8.94908	-4.67965
12202.708	-9.82033	-3.55148	-8.83633	-4.10262
12206.727	-9.84650	-3.82143	-8.92493	-3.87040
12210.727	-10.35049	-3.67115	-8.80498	-4.13724
12214.717	-10.31525	-3.99102	-8.80556	-4.21737
12218.725	-10.24404	-4.19684	-8.81874	-3.59576
12222.728	-10.54646	-3.76045	-8.77514	-3.41549
12226.729	-10.64691	-3.34361	-8.89843	-4.23194
12230.717	-10.64935	-2.83606	-9.09219	-4.66652
12234.725	-10.27294	-2.80044	-8.93672	-5.12557
12238.730	-10.71068	-3.45636	-8.92120	-3.68598
12242.729	-10.65472	-3.93574	-8.96842	-3.92205
12246.726	-10.73579	-4.41910	-9.02844	-3.87888
12250.689	-10.70042	-2.58920	-9.04502	-4.47952
12254.725	-10.72687	-2.97996	-8.99949	-5.21308
12258.724	-10.56877	-3.06530	-8.99024	-4.06597
12262.724	-10.58891	-3.96562	-8.96719	-3.94686
12266.725	-9.65114	-4.15687	-8.81288	-3.17929
12270.728	-10.36223	-4.49063	-7.90750	-3.02069
12274.726	-9.92779	-3.62479	-8.21847	-3.79247
12278.729	-10.42223	-4.32163	-8.72665	-4.04860
12282.727	-10.45598	-4.43289	-8.78353	-3.99446
12286.705	-10.70114	-4.73035	-8.94561	-4.01261
12290.726	-10.36636	-4.17097	-8.96305	-4.00094
12294.717	-10.59176	-4.17500	-8.93135	-3.74393
12298.726	-10.08938	-3.63549	-8.97281	-3.56975
12302.694	-9.87293	-2.92069	-8.80338	-2.98772
12306.726	-9.70777	-3.99114	-8.74813	-4.39979
12310.727	-9.59703	-4.05501	-8.35352	-4.96304
12314.728	-10.63995	-4.48407	-8.64376	-5.56125
12318.693	-10.69599	-4.31534	-7.43832	-4.67853
12322.726	-8.69050	-4.34364	-8.58672	-4.61270
12326.722	-7.71138	-3.95423	-6.86657	-4.75013
12330.725	-7.26930	-4.73137	-6.70969	-5.19302
12334.725	-4.89727	-4.39561	-4.54666	-3.77347
12338.728	-6.27219	-4.32164	-4.79048	-4.20289
12342.725	-4.47057	-4.54885	-4.62367	-4.77588
12346.728	-5.79531	-4.44289	-1.40981	-4.73711
12350.728	-4.52481	-4.52203	-2.17938	-5.21566
12354.728	-4.26931	-4.73527	-2.90616	-6.72315
12358.727	-4.12996	-5.14404	-2.89844	-7.52135
12362.717	-4.01179	-4.43602	-1.43845	-4.55334
12366.728	-3.47047	-4.20017	-1.11249	-4.13747
12370.700	-3.72049	-4.06761	-1.77831	-4.63948
12374.694	-3.20597	-4.12429	-1.89322	-6.06193
12378.730	-3.83855	-3.67069	-0.93162	-8.57670
12382.726	-4.47533	-4.09600	-2.15918	-4.34931
12386.689	-3.68424	-4.24672	-1.30114	-4.03619
12390.726	-2.99086	-5.98211	-0.73042	-4.51695
12394.729	-4.56622	-4.50916	-0.92371	-5.24232
12398.726	-4.43628	-3.52932	-1.72820	-5.63105
12402.729	-4.68220	-3.64885	-1.80018	-6.28046
12406.734	-3.69543	-3.75547	-1.52771	-6.19082
12410.710	-3.67185	-4.82384	-1.01332	-5.61827
12414.728	-4.81369	-4.39212	-1.33182	-5.84821
12418.728	-4.97450	-3.37073	-1.02335	-6.05595
12422.693	-3.96456	-4.13223	-2.35340	-7.13222
12426.727	-4.99137	-4.33860	-1.65627	-6.67795
12430.729	-4.75230	-4.00139	-1.12201	-6.32351
12434.727	-3.74127	-3.58718	-1.09507	-5.78117
12438.735	-4.72615	-3.74038	-0.61565	-5.64141
12442.728	-3.90642	-3.37855	-0.61977	-4.94678
12446.733	-3.66135	-1.31072	-1.34777	-4.05617
12450.728	-4.36180	-2.74670	-1.74333	-4.72750
12454.694	-4.79699	-4.58126	-2.17717	-7.61473
12458.730	-4.37621	-4.28801	-1.30642	-5.32062
12462.727	-3.57496	-3.90180	-0.97115	-5.22402
12466.731	-4.95593	-3.92522	-0.87796	-7.15834
12470.734	-4.61329	-3.01132	-2.52745	-7.91525
12474.729	-5.11310	-3.43372	-3.11173	-6.62912
12478.731	-3.55014	-3.66672	-0.64136	-6.24735
12482.727	-5.48142	-3.46116	-1.96697	-3.74477
12486.724	-5.00044	-3.42734	-0.76243	-3.54711
12490.692	-4.96898	-3.90619	-1.45123	-4.66374
12494.707	-4.50052	-4.14660	-1.15850	-5.37544
12498.730	-3.53822	-4.13959	-1.41246	-5.03210
12502.732	-5.22421	-4.14793	-3.56074	-6.81372
12506.730	-3.28664	-1.28265	-2.02190	-6.62402
12510.730	-3.22307	-2.64043	-2.95485	-6.18059
12514.723	-4.29890	-3.19670	-4.57860	-13.01416
12518.635	-3.72509	-2.27197	-1.01010	-3.71972
12522.693	-4.12967	-2.40498	-1.54068	-3.35032
12526.729	-4.14809	-2.02775	-1.39559	-3.38596
12530.730	-3.90975	-2.11570	-1.96769	-4.15114
12534.721	-3.93453	-2.12202	-2.35536	-3.65770
12538.721	-4.13300	-2.18875	-2.35471	-3.48866
12542.729	-4.11895	-2.01733	-6.36413	-13.59849
12546.734	-4.80862	-2.01846	-1.89268	-6.31115
12550.627	-4.26025	-4.09759	-2.28053	-6.45525
12554.730	-4.11438	-4.31687	-3.59053	-6.58017
12558.730	-4.71856	-2.66148	-2.88955	-6.81883
12562.731	-4.88779	-2.29068	-2.58053	-6.10643
12566.733	-4.93733	-2.03773	-1.95106	-4.96253
12570.729	-4.68957	-2.82403	-3.25231	-4.67788
12574.733	-4.90528	-4.07952	-3.49421	-4.39111
12578.702	-4.86054	-4.34494	-3.47408	-4.06898
12582.619	-4.92253	-3.74002	-2.62167	-4.37919
12586.733	-4.01774	-3.20315	-1.57823	-3.78983
12590.693	-4.25721	-2.88920	-3.69153	-5.39988
12594.731	-4.91526	-3.09698	-3.09156	-4.13973
12598.629	-5.12691	-2.95078	-3.46090	-5.07150
12602.730	-5.05132	-3.08812	-1.85980	-4.16167
12606.731	-3.56376	-2.94694	-3.85486	-4.60408
12610.692	-5.07471	-3.04908	-3.58858	-4.73040
12614.626	-5.23612	-3.16805	-3.35439	-5.51335
12618.695	-5.08444	-2.92243	-3.26821	-5.79434
12622.727	-4.83075	-3.18103	-4.08574	-6.64504
12626.735	-4.71124	-3.09215	-3.62321	-6.88664
12630.700	-4.58185	-3.00046	-3.37237	-7.17980
12634.732	-5.40370	-3.32510	-1.84909	-5.92820
12638.732	-4.25912	-3.39423	-1.51516	-6.28823
12642.732	-4.00519	-3.43720	-3.48140	-6.25944
12646.738	-4.69854	-3.74263	-2.80528	-3.84277
12650.731	-4.88892	-3.61399	-3.08389	-4.16380
12654.733	-4.69105	-3.66967	-2.36465	-5.07454
12658.694	-4.20138	-3.78737	-2.94525	-4.33980
12662.633	-4.20390	-3.80680	-3.26557	-4.68581
12666.732	-4.73951	-3.76882	-2.97881	-5.17199
12670.732	-6.07876	-3.53390	-2.91683	-4.93046
12674.731	-4.57689	-3.60942	-2.54118	-5.50845
12678.605	-4.48103	-3.70920	-3.28823	-5.14618
12682.772	-4.19010	-3.44822	-3.62168	-5.13959
12686.732	-4.73239	-3.09141	-3.10537	-5.22435
12690.734	-4.12838	-3.06596	-2.73231	-5.36172
12694.736	-5.07537	-3.21385	-2.67657	-5.70661
12698.735	-4.81234	-2.91780	-3.25241	-6.34820
12702.731	-4.52760	-3.30194	-3.44478	-6.93298
12706.731	-4.47585	-3.23619	-3.78262	-8.32947
12710.635	-4.31654	-3.56054	-3.01415	-8.54393
12714.736	-4.73724	-3.88697	-3.13120	-6.41058
12718.731	-4.92679	-3.82634	-2.76287	-3.61924
12722.735	-5.24523	-4.12384	-2.73355	-4.94954
12726.735	-4.90183	-4.50888	-2.38965	-4.78316
12730.695	-4.64004	-4.71471	-3.07726	-5.24378
12734.733	-4.18099	-3.43290	-3.40299	-5.40993
12738.733	-5.26438	-1.07358	-3.55587	-6.68821
12742.627	-4.82981	-0.98583	-3.46859	-6.35573
12746.731	-5.60440	-0.94644	-2.34067	-6.33826
12750.729	-5.55263	-3.70932	-2.52827	-6.50588
12754.731	-5.30444	-2.07036	-3.15622	-6.81923
12758.732	-5.08291	-3.73980	-3.48340	-7.53913
12762.733	-4.44926	-2.92454	-3.68797	-6.73401
12766.733	-4.92652	-1.44508	-3.56853	-6.72124
12770.736	-4.89503	-4.91574	-3.64756	-7.27574
12774.631	-4.57638	-5.70731	-4.21982	-7.03031
12778.733	-6.32897	-3.05613	-6.24372	-8.98412
12782.608	-9.92538	-1.01888	-6.65370	-1.00413
12786.611	-6.61807	-3.36415	-8.13969	-7.17367
12790.602	-10.39851	-1.52833	-8.71974	-5.56524
12794.604	-10.33754	-2.99652	-9.92550	-4.49133
12798.611	-11.77375	-1.19967	-10.21498	-4.29073
12802.609	-13.18125	-2.18216	-11.41035	-1.83665
12806.636	-13.45186	-2.47620	-9.40818	-4.61110
12810.609	-13.43925	-2.31789	-11.26137	-1.51621
12814.609	-13.29161	-2.18383	-10.76460	-3.25954
12818.611	-13.15522	-2.52364	-10.74606	-2.69829
12822.631	-12.35528	-2.09308	-10.87630	-4.09129
12826.612	-12.00815	-0.51738	-11.31285	-4.42261
12830.573	-11.82887	-1.28556	-11.13638	-4.31065
12834.605	-11.81891	-1.39578	-11.23855	-4.29025
12838.635	-11.72650	-1.61351	-10.92636	-4.02581
12842.609	-12.75845	-0.67047	-11.29615	-3.29488
12846.610	-12.44484	-1.43182	-11.34323	-3.77166
12850.614	-12.37664	-1.05589	-11.36894	-3.99146
12854.607	-12.58124	-1.71092	-11.21916	-3.79755
12858.611	-12.53135	-1.33049	-11.09346	-3.43993
12862.572	-12.69979	-1.20258	-11.21295	-3.62345
12866.572	-12.87558	-1.55095	-11.01768	-3.51151
12870.607	-12.96684	-1.47389	-10.42903	-3.30345
12874.607	-13.24997	-1.11668	-10.68986	-3.12552
12878.611	-13.14816	-1.07430	-10.36379	-2.65587
12882.609	-13.20710	-1.01153	-10.12618	-2.49751
12886.635	-13.43561	-0.93217	-11.00022	-2.17879
12890.610	-13.41763	-0.72934	-10.92909	-2.08390
12894.609	-13.51344	-0.95839	-10.74254	-1.24378
12898.609	-13.31756	-0.80933	-10.83967	-2.61120
12902.635	-13.53599	-0.90724	-10.97071	-2.91192
12906.609	-13.55470	-0.77745	-10.98750	-2.62879
12910.611	-13.58343	-1.02818	-10.70512	-2.27251
12914.601	-13.59398	-0.98793	-11.19120	-2.29094
12918.609	-13.58625	-0.99383	-11.22621	-2.45841
12922.609	-13.58306	-1.14574	-10.35327	-1.27653
12926.610	-13.64865	-1.21096	-10.29144	-1.85816
12930.575	-13.65071	-1.14752	-10.76101	-2.27222
12934.602	-13.69638	-1.23084	-10.57375	-1.58717
12938.610	-13.71453	-1.24165	-10.83805	-2.29335
12942.613	-13.59133	-1.25012	-10.59507	-1.05672
12946.612	-13.38816	0.13027	-10.11596	-0.15505
12950.640	-13.10678	-0.66741	-10.39110	-0.62761
12954.610	-13.11905	0.71127	-10.78642	-0.78408
12958.586	-13.04219	0.63278	-10.72534	-0.69291
12962.612	-12.85961	0.88648	-10.72311	-0.66145
12966.607	-12.99371	0.42740	-10.79239	-0.86582
12970.612	-13.00306	0.25265	-10.83510	-0.89583
12974.613	-13.52848	-1.21585	-10.80884	-1.54062
12978.611	-13.01037	-1.21116	-10.75145	-4.14901
12982.602	-12.74633	-2.05767	-10.57771	-4.50294
12986.612	-12.44517	-1.67683	-10.60843	-4.68557
12990.574	-12.36338	-1.86956	-10.69961	-4.85621
12994.614	-12.35424	-1.61450	-10.63744	-4.81716
12998.609	-12.16487	-1.64159	-10.64312	-4.70747
13002.608	-12.40174	-1.62898	-10.48327	-4.31675
13006.611	-12.08777	-1.43004	-10.28063	-3.92714
13010.612	-12.08229	-1.36637	-10.21765	-4.06362
13014.639	-12.20020	-1.35538	-10.17863	-3.40368
13018.612	-12.37165	-1.35348	-10.17582	-3.70150
13022.611	-12.07887	-1.41039	-10.36017	-3.49010
13026.611	-11.36637	-1.30717	-10.27640	-2.70074
13030.603	-11.60125	-1.23745	-10.50318	-3.85088
13034.612	-11.62301	-0.66909	-10.47768	-4.40202
13038.610	-12.13261	-1.06044	-10.47309	-4.08568
13042.609	-11.76775	-0.24249	-10.50378	-4.92753
13046.607	-11.87769	-1.19314	-10.62205	-4.59136
13050.578	-11.45860	-1.75926	-10.39460	-5.13325
13054.575	-11.62135	-2.24648	-10.66064	-5.31707
13058.615	-11.77287	-2.56140	-10.67694	-5.15459
13062.613	-11.58837	-2.24499	-10.59359	-5.09369
13066.612	-11.57693	-1.82267	-10.62164	-5.00332
13070.612	-11.71860	-2.75305	-10.64480	-5.18413
13074.612	-11.70530	-2.58111	-10.57678	-5.01813
13078.612	-11.77073	-2.25314	-10.49503	-4.89912
13082.594	-11.87111	-2.45114	-10.55334	-4.95138
13086.613	-11.96524	-2.46165	-10.57865	-5.12777
13090.612	-12.04778	-2.51244	-10.38627	-5.02652
13094.613	-12.16332	-2.51819	-10.45219	-4.63763
13098.615	-12.25268	-2.56220	-10.19053	-4.94119
13102.612	-12.43367	-2.42555	-9.40699	-4.86587
13106.612	-12.54195	-2.57256	-10.28503	-4.86442
13110.612	-12.85852	-2.65596	-10.26571	-4.84026
13114.571	-12.91039	-2.83740	-10.42994	-4.83292
13118.577	-13.03416	-2.75766	-10.41570	-4.88666
13122.602	-11.94660	-2.62212	-10.24050	-4.68510
13126.636	-12.26607	-2.35845	-10.26494	-3.97686
13130.613	-12.41282	-2.74507	-10.21779	-3.69670
13134.576	-12.56630	-2.64245	-10.24279	-4.23457
13138.615	-12.74888	-2.56806	-10.16721	-3.44638
13142.605	-12.80206	-2.40934	-10.18601	-3.22257
13146.614	-12.74119	-2.18945	-10.18832	-3.09224
13150.622	-12.80813	-2.14147	-10.25437	-3.08841
13154.614	-12.52669	-1.75960	-10.29820	-3.12669
13158.612	-11.95007	-1.26767	-10.22022	-3.11490
13162.625	-12.09387	-1.43953	-10.20873	-3.17728
13166.616	-11.95382	-0.77164	-10.28328	-3.20167
13170.613	-11.76119	-1.05029	-10.28714	-3.08553
13174.637	-11.72500	-0.68519	-10.30199	-3.25670
13178.616	-12.08926	-0.93656	-10.33396	-3.20203
13182.614	-12.40077	-1.18314	-10.52526	-3.67354
13186.613	-12.30163	-1.67756	-10.38171	-3.29666
13190.606	-12.27204	-2.14176	-10.34996	-3.22889
13194.613	-12.51920	-2.10787	-10.09085	-3.05998
13198.618	-12.38225	-2.44635	-10.15353	-3.05455
13202.617	-11.73457	-2.31654	-10.25545	-3.33181
13206.618	-12.09572	-0.65299	-10.31405	-3.32473
13210.616	-12.24922	-1.17867	-10.49570	-1.76153
13214.617	-14.21365	-2.03558	-10.93117	-0.11045
13218.611	-14.57174	-2.33364	-15.02904	0.87041
13222.608	-18.37706	-1.73420	-14.88454	3.16165
13226.616	-17.76548	1.93280	-14.85969	1.05740
13230.578	-19.91360	-12.08338	NaN	NaN
13234.614	-19.95306	-12.08045	NaN	NaN
13238.612	-19.96672	-12.07943	NaN	NaN
13242.618	-19.97371	-12.07891	NaN	NaN
13246.614	-19.97796	-12.07860	NaN	NaN
13250.583	-19.98086	-12.07838	NaN	NaN
13254.615	-19.98294	-12.07823	NaN	NaN
13258.618	-19.98454	-12.07811	NaN	NaN
13262.615	-19.98581	-12.07801	NaN	NaN
13266.616	-19.99352	-12.07744	NaN	NaN
13270.617	NaN	NaN	NaN	NaN
13274.615	NaN	NaN	NaN	NaN
13278.614	NaN	NaN	NaN	NaN
13282.617	NaN	NaN	NaN	NaN
13286.619	NaN	NaN	NaN	NaN
13290.613	NaN	NaN	NaN	NaN
13294.614	NaN	NaN	NaN	NaN
13298.617	NaN	NaN	NaN	NaN
13302.579	NaN	NaN	NaN	NaN
13306.609	NaN	NaN	NaN	NaN
13310.621	NaN	NaN	NaN	NaN
13314.613	NaN	NaN	NaN	NaN
13318.579	NaN	NaN	NaN	NaN
13322.618	NaN	NaN	NaN	NaN
13326.620	NaN	NaN	NaN	NaN
13330.615	NaN	NaN	NaN	NaN
13334.579	NaN	NaN	NaN	NaN
13338.619	NaN	NaN	NaN	NaN
13342.616	NaN	NaN	NaN	NaN
13346.616	NaN	NaN	-18.90816	4.56638
13350.625	-18.68439	-0.54052	-16.19421	2.42313
13354.617	-13.50255	-2.51344	-15.97312	2.70146
13358.619	-19.55993	-1.04734	-15.59222	1.82825
13362.617	-19.92270	-2.82668	-15.64827	1.08829
13366.621	-19.87287	-2.49411	-15.52769	0.80330
13370.581	-19.51336	-3.21930	-15.26490	0.85132
13374.583	-19.00119	-3.38507	-15.31429	0.79752
13378.621	-18.55481	-3.36522	-15.47141	-0.51560
13382.612	-18.49146	-3.42055	-15.36034	-1.17350
13386.619	-18.15761	-3.37199	-15.25071	-1.91276
13390.616	-16.97474	-3.09849	-15.03959	-1.82968
13394.620	-15.22186	-2.66300	-12.11448	-1.69290
13398.616	-12.30978	-1.80660	-12.07946	-1.70890
13402.619	-14.21290	-2.93193	-11.78578	-1.59039
13406.618	-12.92441	-3.40775	-11.40565	0.18434
13410.620	-13.12178	-2.94908	-11.65882	-1.78993
13414.610	-12.91843	-1.22410	-12.32710	-2.26775
13418.615	-12.96090	-2.84627	-11.36236	-2.06601
13422.619	-12.81714	-2.55709	-12.21644	-6.18933
13426.620	-12.79338	-1.08376	-12.74919	-7.14894
13430.580	-12.97467	-1.43537	-12.87388	-7.61381
13434.625	-13.00205	-2.42018	-13.25072	-7.92469
13438.616	-13.09054	-2.38935	-10.94320	-3.75640
13442.620	-13.38160	-2.64764	-10.99245	-4.12420
13446.610	-13.38381	-2.84336	-11.14713	-3.56970
13450.623	-13.53779	-2.54376	-11.28517	-3.84271
13454.614	-13.15741	-2.49843	-11.75569	-4.55404
13458.611	-13.56324	-2.48954	-11.38698	-4.41195
13462.623	-13.45892	-1.98890	-11.70994	-4.80135
13466.619	-13.33309	-2.08151	-11.37624	-4.93856
13470.620	-13.47284	-2.41127	-11.39074	-4.73089
13474.619	-13.40147	-2.29615	-11.39380	-4.48826
13478.517	-13.20740	-2.35100	-11.44571	-4.50947
13482.620	-12.75934	-2.11364	-11.47200	-4.53746
13486.620	-13.03282	-1.94498	-11.43324	-4.19156
13490.619	-12.81228	-1.57911	-11.39630	-4.21161
13494.517	-12.88320	-1.15681	-11.33807	-3.49441
13498.604	-12.94509	-0.35088	-11.05672	-3.35440
13502.621	-13.30971	-0.83738	-10.76015	-3.15541
13506.618	-13.35520	-1.89762	-11.10668	-2.94858
13510.621	-13.16430	-2.34325	-11.15668	-3.45028
13514.610	-13.14129	-3.27090	-11.20851	-3.84637
13518.618	-13.13950	-3.10177	-11.16597	-3.55687
13522.617	-12.85242	-2.90997	-11.10163	-3.44221
13526.519	-12.74763	-2.43108	-11.00826	-3.21521
13530.583	-12.86336	-2.23094	-11.21883	-3.59730
13534.623	-12.65023	-1.32447	-11.02748	-3.38633
13538.610	-13.27163	-0.64761	-11.09745	-3.88616
13542.532	-13.32569	-0.53613	-11.01603	-3.94674
13546.621	-12.95664	-0.30379	-10.86957	-3.83124
13550.581	-13.12463	-1.51343	-10.82892	-3.79543
13554.621	-13.22119	-2.49952	-10.57210	-3.67454
13558.519	-13.19825	-1.97898	-10.54305	-3.67773
13562.579	-13.17786	-3.85277	-10.72989	-3.64648
13566.626	-13.28550	-3.20588	-10.47173	-3.37722
13570.622	-13.17049	-3.58412	-10.80572	-3.58989
13574.518	-13.02733	-2.95811	-11.09284	-3.70535
13578.619	-13.15021	-2.86509	-11.00424	-3.54277
13582.620	-13.14178	-2.83538	-11.32567	-4.18449
13586.620	-12.75042	-2.19373	-11.31526	-3.58646
13590.626	-12.81342	-1.92663	-11.56017	-3.53511
13594.622	-12.87560	-1.65210	-11.63654	-3.34169
13598.620	-13.01260	-0.90503	-11.34509	-2.71752
13602.620	-12.93903	-0.67728	-11.43412	-3.11617
13606.521	-12.87683	-0.61280	-11.37851	-2.81530
13610.620	-12.84331	-0.50484	-11.53332	-3.18394
13614.624	-13.23081	-0.78319	-11.59010	-3.02488
13618.626	-13.31422	-1.70551	-11.62530	-2.98171
13622.524	-13.10349	-2.10553	-11.72263	-3.16286
13626.625	-13.37047	-2.03328	-11.53744	-2.64452
13630.585	-13.23991	-2.27713	-11.72922	-3.76157
13634.623	-13.24184	-2.47700	-11.46344	-2.85770
13638.523	-13.35727	-2.52449	-11.59730	-2.74512
13642.622	-13.55731	-2.30100	-11.50003	-2.77527
13646.621	-13.84034	-2.28884	-11.43877	-2.48437
13650.621	-13.69054	-2.28666	-11.56993	-3.00444
13654.521	-13.21710	-2.40771	-11.49848	-4.27800
13658.624	-13.46648	-2.48985	-11.51313	-2.84495
13662.620	-13.96105	-2.11177	-11.66444	-1.88067
13666.615	-14.25191	0.31093	-12.35659	-1.52664
13670.493	-14.35011	1.17656	-11.21162	0.85523
13674.621	-14.52333	4.95409	-11.97185	-0.89784
13678.622	-14.94372	4.60943	-13.91558	-1.16338
13682.623	-14.82061	4.55272	-12.13365	-0.45388
13686.523	-11.53203	4.42734	-11.64170	-0.27290
13690.623	-13.88128	1.37210	-12.01950	-0.79264
13694.622	-13.50061	1.44773	-12.27273	-0.19869
13698.622	-14.39685	1.34736	-12.96479	-0.09781
13702.625	-14.66334	1.41607	-10.76712	2.25199
13706.624	-14.79874	1.21492	-12.45662	1.99849
13710.623	-14.90183	1.23909	-12.12454	2.16119
13714.625	-14.38223	0.98484	-10.98729	2.24431
13718.622	-14.50902	0.91764	-11.19987	2.07363
13722.622	-13.98786	0.95992	-11.59594	0.42250
13726.621	-14.06868	0.82063	-12.46973	0.04804
13730.586	-14.26641	0.29612	-12.45331	2.10097
13734.523	-14.50998	1.00349	-12.12860	2.08119
13738.587	-14.77041	1.02680	-12.33868	2.13455
13742.626	-14.63992	2.34926	-12.42321	2.10681
13746.588	-14.22251	2.09901	-12.35083	2.04042
13750.631	-14.53465	1.69797	-11.51480	1.59092
13754.629	-14.78825	0.70657	-11.27386	0.87239
13758.623	-14.95186	0.62557	-10.95739	1.03553
13762.621	-15.67365	1.12427	-12.34995	1.37729
13766.523	-15.72225	1.48394	-11.16411	0.99943
13770.623	-14.29210	2.11621	-10.89140	1.52632
13774.624	-14.51558	2.16086	-12.30782	1.77040
13778.622	-14.66910	1.19436	-12.49261	1.17874
13782.631	-14.96110	0.43984	-11.81757	1.02997
13786.627	-14.61390	2.17236	-10.65144	0.72768
13790.589	-14.76071	2.34086	-10.66179	0.83528
13794.624	-14.07679	1.80269	-11.71530	0.71001
13798.588	-14.39029	1.54785	-11.00714	3.08089
13802.622	-14.19529	0.86023	-10.90236	1.91520
13806.624	-14.55979	0.76293	-12.53760	1.06050
13810.624	-14.55586	1.56318	-11.26109	0.96799
13814.590	-14.56792	2.26925	-11.35458	0.23079
13818.498	-14.61597	1.56497	-10.65877	0.52969
13822.500	-14.07805	1.72741	-11.24951	0.00024
13826.498	-14.07501	1.54758	-10.98975	-0.80149
13830.497	-14.57741	1.29120	-11.21584	-0.70566
13834.499	-14.82154	1.11577	-10.91064	-0.53242
13838.502	-14.92581	1.05119	-11.44809	-0.29316
13842.498	-14.57453	1.21836	-11.43317	-0.31677
13846.499	-15.11405	0.94175	-10.28724	-0.21034
13850.500	-14.25394	1.45627	-10.31475	-0.02264
13854.504	-13.83227	1.50494	-10.63291	-0.15286
13858.514	-13.93104	1.34762	-10.97363	0.07038
13862.487	-14.96594	1.30696	-11.46201	0.14846
13866.468	-14.85725	1.61380	-11.49886	0.40173
13870.499	-15.18555	1.23128	-12.12649	0.73346
13874.499	-14.41059	1.58080	-12.05746	0.63382
13878.523	-14.90014	2.20902	-12.07424	1.98796
13882.462	-14.89743	1.74407	-11.91602	2.48721
13886.500	-15.14904	1.50221	-12.06040	0.84176
13890.498	-14.81041	1.41826	-12.41795	0.77519
13894.523	-13.78635	0.38393	-12.55221	0.34541
13898.503	-14.43901	-0.07535	-11.58980	0.56779
13902.502	-14.87448	0.09933	-10.98305	0.41489
13906.498	-14.30456	0.75519	-11.00785	0.36978
13910.523	-14.00669	0.51561	-10.87398	0.23188
13914.502	-14.35410	0.45510	-10.75404	0.31036
13918.485	-14.37329	0.77864	-10.61598	-0.10944
13922.463	-14.36425	0.63787	-10.40118	0.04683
13926.494	-14.22946	0.72765	-10.44621	-0.11530
13930.503	-14.02162	1.00728	-10.30980	-0.05618
13934.502	-14.15346	1.18515	-10.32950	-0.11311
13938.502	-14.02386	0.91614	-10.40171	-0.02549
13942.524	-13.96196	0.99387	-10.42718	-0.02564
13946.499	-13.93508	1.31503	-10.54946	0.04041
13950.464	-13.75013	1.39096	-10.49651	0.15400
13954.503	-13.42733	1.60169	-10.53991	0.31390
13958.530	-13.61748	1.60644	-10.63595	0.66662
13962.503	-14.08412	1.19999	-10.75390	0.32928
13966.502	-14.69281	0.11139	-13.47979	-2.37607
13970.500	-15.33423	-3.21121	-12.22872	-3.45266
13974.495	-15.34935	-1.14345	-14.66125	-1.86180
13978.499	-16.02103	-2.61968	-14.51065	-3.22154
13982.504	-16.02458	-2.07610	-14.83548	-3.83894
13986.503	-16.33404	-3.03098	-14.67386	-5.88137
13990.496	-16.66018	-4.01253	-15.14821	-6.38293
13994.504	-16.40525	-4.25099	-15.17764	-6.81912
13998.506	-16.58471	-3.72538	-15.21395	-7.19791
14002.502	-16.21865	-3.62344	-15.01452	-6.74065
14006.470	-15.98393	-2.97204	-15.45207	-6.69680
14010.502	-15.94158	-0.23714	-15.08160	-6.56215
14014.477	-13.47646	0.47258	-15.02425	-6.31446
14018.504	-13.69040	0.63074	-14.75799	-6.06654
14022.503	-13.73865	0.69177	-15.06477	-6.22500
14026.502	-13.83636	0.59281	-14.96216	-6.50852
14030.464	-16.61459	-3.21924	-14.91057	-6.35389
14034.503	-16.54091	-2.91484	-14.88419	-6.05268
14038.530	-16.35429	-4.09808	-14.98150	-5.77919
14042.497	-16.38369	-4.35299	-14.94187	-5.90376
14046.465	-16.66143	-4.33838	-14.89543	-5.72317
14050.465	-16.77232	-4.44207	-14.80600	-4.74271
14054.506	-16.99846	-6.79427	-14.86105	-5.79952
14058.505	-17.48092	-6.04673	-14.81224	-5.71124
14062.467	-16.70531	-4.05144	-14.89019	-6.07571
14066.503	-16.04508	-4.53585	-14.83712	-5.70476
14070.475	-16.04235	-4.65612	-14.78909	-5.75221
14074.505	-16.12305	-4.84805	-14.76196	-5.81738
14078.506	-15.85106	-4.56934	-14.61506	-4.47868
14082.502	-15.92916	-4.86602	-14.61336	-4.75638
14086.496	-16.16761	-4.94886	-14.41950	-4.50726
14090.504	-16.24519	-3.30114	-14.37934	-4.70963
14094.505	-16.53860	-3.44780	-14.70686	-5.03958
14098.503	-16.23116	-2.82456	-14.46284	-4.55801
14102.503	-16.27446	-3.28930	-14.44273	-4.69113
14106.502	-16.60495	-2.91523	-14.74404	-4.57010
14110.502	-16.73948	-2.94230	-14.54432	-4.53440
14114.504	-16.34940	-2.95722	-14.58594	-4.55664
14118.496	-14.22389	0.93244	-14.23974	-4.54160
14122.467	-16.65412	-3.02417	-13.96080	-4.38608
14126.486	-16.41137	-2.89648	-14.23135	-4.38117
14130.501	-16.62885	-3.05620	-14.53433	-4.32496
14134.527	-16.60602	-2.95761	-14.58385	-5.26091
14138.505	-16.80876	-2.83491	-14.53946	-4.90182
14142.505	-16.78274	-2.90139	-14.57394	-4.56580
14146.504	-16.77657	-4.15375	-14.74145	-4.44689
14150.526	-16.25706	-5.23227	-14.35209	-5.28675
14154.467	-16.30641	-5.76152	-14.45418	-6.41023
14158.509	-16.60422	-5.69998	-14.31619	-6.43049
14162.504	-16.46731	-5.94642	-14.02608	-6.35475
14166.505	-16.65136	-6.40375	-14.09733	-6.29762
14170.470	-16.71483	-6.63999	-14.16819	-5.85003
14174.478	-16.64824	-6.23595	-14.30978	-6.23416
14178.504	-16.88984	-6.33362	-14.54200	-6.24913
14182.497	-16.47119	-6.07774	-14.56100	-5.91207
14186.503	-16.23663	-6.03604	-14.29089	-6.54917
14190.508	-16.17663	-5.70117	-14.27382	-6.35606
14194.507	-16.49367	-6.22514	-13.80538	-6.49931
14198.498	-16.45364	-5.98264	-13.79061	-6.49083
14202.504	-16.51721	-6.10186	-14.01253	-6.32183
14206.471	-17.05648	-6.13916	-13.96561	-6.31977
14210.482	-16.73183	-5.72549	-13.75868	-6.22873
14214.496	-16.99331	-6.02596	-13.83271	-6.20068
14218.501	-16.50916	-5.79737	-13.89919	-6.18931
14222.468	-16.43245	-5.82895	-13.83617	-6.29379
14226.503	-16.40011	-5.42486	-13.88193	-6.37494
14230.500	-16.68557	-5.69783	-13.96774	-6.51603
14234.503	-16.69614	-5.71531	-14.11713	-6.49792
14238.466	-16.63578	-5.78345	-14.45937	-6.47834
14242.505	-16.60800	-5.40113	-13.80362	-6.07511
14246.508	-16.39034	-5.27112	-13.86081	-6.47202
14250.504	-16.48497	-5.43213	-13.42402	-5.99222
14254.497	-16.26346	-5.60293	-13.83758	-6.47574
14258.509	-16.46861	-5.69056	-14.16410	-6.56737
14262.505	-16.45352	-6.32164	-14.35111	-6.23704
14266.508	-16.29477	-5.34412	-14.27688	-6.60134
14270.510	-16.37465	-5.24272	-14.36949	-6.71906
14274.506	-16.34273	-4.92850	-14.06576	-6.76422
14278.499	-16.40286	-4.54200	-14.01293	-6.72144
14282.505	-16.53956	-5.33187	-14.10728	-6.70890
14286.510	-16.69004	-5.96738	-13.78445	-5.19787
14290.508	-16.74137	-4.56555	-13.80807	-5.63324
14294.504	-17.00911	-5.01790	-13.88053	-5.61088
14298.506	-16.96929	-5.35226	-13.88937	-5.69194
14302.468	-16.55277	-4.56165	-13.89063	-5.52196
14306.507	-16.80014	-5.19949	-13.85784	-5.06952
14310.501	-16.42720	-4.88494	-13.91619	-5.14422
14314.505	-16.47970	-5.23147	-13.93723	-5.50160
14318.506	-16.69489	-5.59660	-13.97225	-5.32236
14322.509	-16.62760	-5.39095	-13.91437	-5.22455
14326.500	-16.57931	-5.41531	-14.10373	-5.22082
14330.511	-16.25301	-4.82384	-14.10534	-5.62866
14334.509	-16.25953	-4.96110	-14.11444	-5.65678
14338.504	-16.52426	-5.06379	-13.93880	-5.76976
14342.507	-16.36516	-5.14297	-13.91678	-5.78499
14346.510	-16.71663	-5.40098	-13.72786	-5.37281
14350.509	-16.67362	-5.21601	-13.60205	-5.87732
14354.506	-16.79622	-5.21078	-13.67967	-5.81497
14358.501	-16.42240	-4.88450	-13.93324	-6.14030
14362.508	-16.43177	-4.79029	-14.01132	-6.10503
14366.504	-16.43880	-5.05270	-14.30077	-6.40347
14370.507	-16.31098	-4.76880	-14.13029	-6.17363
14374.509	-16.52627	-5.28469	-14.12137	-6.48736
14378.475	-16.51666	-5.06462	-14.64787	-6.71086
14382.509	-16.46434	-5.04506	-14.31230	-6.40478
14386.508	-16.50733	-5.11855	-14.13038	-6.13690
14390.501	-16.56262	-5.69203	-14.12452	-6.11835
14394.507	-16.47160	-5.42223	-13.45125	-4.79854
14398.507	-16.40096	-5.94285	-13.83683	-5.55591
14402.508	-16.43811	-4.93530	-13.62547	-6.07520
14406.506	-16.02511	-4.77487	-13.65800	-5.84943
14410.508	-16.26465	-5.63980	-13.58676	-5.60177
14414.510	-16.07086	-4.98478	-13.62312	-5.57424
14418.486	-16.25278	-4.83344	-13.63620	-5.38954
14422.506	-16.22794	-4.46896	-13.56833	-5.60043
14426.509	-16.22476	-4.77212	-13.83294	-5.78134
14430.475	-16.19013	-4.77615	-13.54640	-5.09502
14434.508	-15.96317	-3.99287	-13.36640	-5.41652
14438.502	-14.86648	-4.48893	-13.48336	-5.29313
14442.508	-14.75567	-4.33653	-12.05972	-4.02803
14446.508	-13.16139	-3.52918	-10.64458	-2.38334
14450.509	-11.39978	-0.99041	-10.96569	-0.30650
14454.503	-11.29598	-0.49370	-10.27237	-0.47311
14458.502	-11.04396	-0.40829	-8.39380	0.41481
14462.508	-9.24332	-1.53997	-10.00240	-0.53388
14466.509	-8.93517	-0.13756	-6.73639	0.92491
14470.502	-9.21072	-0.53925	-6.88834	1.30994
14474.509	-9.51597	-0.61670	-6.23643	1.31158
14478.511	-9.68110	-0.60974	-6.21845	1.22441
14482.510	-9.95659	-0.33423	-6.24313	1.23105
14486.509	-9.31907	-0.16513	-6.47973	1.52042
14490.513	-9.26672	0.08309	-6.30816	1.63330
14494.510	-9.33838	0.08964	-6.39109	1.84539
14498.512	-9.74817	0.09252	-6.36783	1.73921
14502.511	-9.75526	0.26824	-6.35260	2.37411
14506.510	-9.90029	0.21583	-6.51175	1.83494
14510.509	-9.65109	0.31984	-6.38935	1.99234
14514.473	-9.68725	0.46963	-6.26073	1.81649
14518.407	-9.69962	0.46579	-6.25769	1.78008
14522.510	-9.61942	0.55282	-6.41503	1.59753
14526.509	-9.59310	0.61776	-6.29080	1.57368
14530.473	-9.65483	0.70321	-6.39293	1.59612
14534.515	-9.70022	0.78909	-6.26103	1.40041
14538.515	-9.75680	0.87948	-6.26780	1.32340
14542.495	-9.65966	0.82590	-6.26456	1.22369
14546.468	-9.72433	0.87146	-6.35096	1.17757
14550.474	-9.65505	1.03781	-6.43883	1.13422
14554.508	-9.65042	1.04855	-8.52826	1.17486
14558.514	-9.66443	1.07368	-6.37672	1.33215
14562.471	-9.70444	1.10555	-6.31355	0.94996
14566.516	-9.80248	1.10794	-6.56064	0.68277
14570.511	-9.79889	1.12649	-6.45240	0.92904
14574.510	-9.89923	1.00332	-6.44721	0.76607
14578.510	-9.84821	1.04034	-6.35074	0.83291
14582.416	-9.88451	0.76758	-6.28734	-0.25873
14586.477	-9.84778	0.98946	-6.62598	-0.74097
14590.511	-9.81566	1.00319	-6.73015	0.61451
14594.513	-9.75536	0.91638	-7.11591	0.23718
14598.415	-9.85411	0.86116	-7.00485	0.09663
14602.512	-9.79356	0.91691	-6.39719	0.34409
14606.511	-9.76134	0.91849	-7.13646	-0.05979
14610.512	-9.84409	0.77803	-7.37751	-0.17810
14614.513	-9.78023	0.77661	-7.67438	-0.28857
14618.512	-9.62229	0.95500	-7.62467	-0.32363
14622.513	-9.56805	1.03102	-7.58695	-0.05197
14626.491	-9.52538	1.04989	-6.82672	-0.45859
14630.406	-9.67844	1.02647	-6.53372	-0.37330
14634.513	-9.67041	1.11592	-7.54381	-0.51868
14638.512	-9.74343	1.17326	-6.36741	-0.28148
14642.511	-9.78055	1.06976	-6.12293	-0.66008
14646.517	-9.99424	0.73150	-6.13687	-0.71036
14650.512	-9.89735	0.89744	-6.11027	-0.69505
14654.511	-9.82701	-0.46194	-6.08146	-0.26817
14658.516	-9.73745	-0.34192	-6.10568	-0.62203
14662.518	-9.81137	0.05328	-5.99797	-0.45758
14666.501	-9.79460	0.01217	-6.33206	0.05717
14670.472	-9.74357	0.23430	-6.25213	0.82252
14674.474	-9.76534	0.45022	-7.70631	1.56843
14678.514	-9.78684	0.68324	-6.77974	1.74049
14682.513	-9.81780	0.63140	-6.85845	2.34732
14686.513	-9.63392	1.16737	-10.29961	0.03758
14690.515	-9.50098	1.42572	-10.11983	-2.01156
14694.515	-9.47367	0.86591	-10.06605	-1.80485
14698.476	-9.73291	-0.04379	-7.70056	-0.57141
14702.514	-9.74099	-0.84424	-7.64795	0.04938
14706.514	-9.75717	-1.18305	-6.41971	-0.43558
14710.514	-9.72556	0.18411	-6.59442	0.13848
14714.514	-9.74239	-0.20462	-6.45103	-0.04215
14718.516	-9.68626	0.94402	-6.14955	0.03054
14722.513	-9.69185	0.58442	-6.14734	0.26324
14726.412	-9.77071	0.22596	-6.01824	0.27257
14730.514	-9.74376	0.39584	-6.04146	0.50681
14734.515	-9.60376	0.24258	-6.12116	0.58372
14738.511	-9.82812	0.55722	-6.43893	0.58860
14742.416	-9.82238	0.54707	-6.03660	1.07549
14746.514	-9.79636	0.97575	-6.25931	1.40121
14750.497	-9.99176	0.82833	-7.42034	1.19295
14754.511	-10.34542	0.48205	-7.21049	1.68521
14758.358	-10.25377	0.54532	-7.03462	1.84037
14762.513	-10.08462	0.64889	-7.50903	1.86912
14766.475	-10.06499	0.87479	-7.57078	2.03571
14770.515	-10.09046	1.04923	-7.53054	2.15242
14774.519	-9.64748	0.85008	-7.52483	2.04228
14778.514	-9.77589	-0.18146	-7.25878	1.37843
14782.513	-8.80939	1.09561	-7.62316	0.31932
14786.513	-7.42127	1.58497	-3.62511	-1.60891
14790.516	-6.23785	2.55812	-1.19118	2.06598
14794.480	-5.14707	2.63635	-2.59458	0.39961
14798.476	-5.52377	1.79503	-0.78253	3.22625
14802.513	-4.55389	7.44827	-3.10787	3.32107
14806.416	-4.04791	2.30030	-2.69993	2.34983
14810.515	-4.38317	2.47116	-0.56024	3.45851
14814.514	-3.93144	2.76336	-0.44065	3.67622
14818.514	-5.55966	2.62717	-1.35521	3.35146
14822.414	-5.27934	3.06347	-0.14183	3.23767
14826.514	-4.74262	3.40506	-0.24239	3.36891
14830.480	-4.49080	3.93842	-0.50632	2.83143
14834.494	-3.70749	3.61064	-0.32603	2.86248
14838.520	-4.18437	2.65703	-3.53303	-5.28105
14842.516	-4.02537	3.20962	-1.80685	2.96282
14846.514	-3.88367	2.72287	-2.11200	2.79843
14850.514	-5.62001	2.55615	-3.07102	1.82335
14854.381	-5.04533	3.07948	-1.87036	2.56927
14858.390	-4.42035	3.70845	-1.29692	2.64028
14862.427	-5.18082	3.89966	-0.56898	0.79488
14866.393	-4.21079	3.64895	-0.35241	0.91778
14870.417	2.11546	10.13171	0.05395	1.12982
14874.393	-4.07201	10.82678	0.24522	2.45251
14878.390	-3.90936	11.04399	-2.24921	2.11962
14882.362	-3.81429	4.03422	-1.99962	2.46784
14886.387	-4.43177	2.96975	-1.00526	1.09316
14890.390	-4.43293	2.09657	-0.72231	1.05117
14894.390	-4.37359	2.65002	-0.71327	1.10556
14898.392	-4.04816	3.20444	1.23724	0.91448
14902.414	-3.88043	3.32953	0.45535	0.72327
14906.391	-5.39721	3.47677	1.16225	1.85706
14910.389	-4.74062	2.96472	-3.14009	1.99243
14914.392	-4.31711	2.71818	-3.20093	1.10641
14918.428	-4.45505	2.65195	-1.71310	1.03705
14922.371	-2.86586	5.49150	-0.90778	0.83367
14926.391	-4.65466	3.90222	-0.43534	0.89261
14930.393	-4.14618	4.05195	-0.05616	1.43767
14934.383	-3.29839	3.60626	1.65493	2.10933
14938.390	-3.75783	2.71031	-0.00519	1.26588
14942.393	-2.51034	2.60335	0.39648	0.45653
14946.392	-0.10773	1.45868	-0.46818	1.65213
14950.383	-1.65753	-0.07273	1.37292	-1.55540
14954.392	-0.81965	-1.17399	2.86631	-4.22342
14958.390	-0.97065	-2.90444	-3.62783	-4.11605
14962.387	-1.06639	-1.73208	-1.36657	-4.81306
14966.387	-0.63744	-2.59148	-0.47242	-5.41790
14970.394	-2.61043	-2.78435	1.27899	-5.84042
14974.389	-2.23875	-2.31341	2.02155	-4.28914
14978.392	-1.12861	-2.11061	3.65210	-4.49563
14982.384	-0.93063	-1.71445	3.87949	-4.48345
14986.392	-0.84912	-2.42865	1.42394	-2.08311
14990.394	-0.62558	-2.79362	-3.41456	-5.43340
14994.391	-0.71722	-2.18487	-1.23719	-5.34967
14998.418	-0.72799	-2.21124	1.10102	-5.08987
15002.393	-0.64121	-2.02344	2.08104	-4.51331
15006.392	-1.02776	-1.79110	3.27927	-5.36180
15010.392	-0.83707	-1.27079	3.98699	-4.25456
15014.426	-0.64280	-1.73537	0.78640	-4.04808
15018.396	-1.66068	-1.24440	1.24022	-7.53033
15022.395	-0.69853	-0.89441	2.74143	-6.67167
15026.394	-0.69136	-0.71482	2.31810	-5.38365
15030.385	-0.79940	-1.72702	3.77085	-5.49743
15034.395	-0.63665	-1.89074	2.74668	-4.45906
15038.393	-0.54106	-1.71979	2.68524	-4.80674
15042.397	-0.85270	-1.22216	3.13514	-5.71136
15046.407	-0.66474	-0.63565	2.05291	-7.27971
15050.354	-0.62622	-0.74109	1.82529	-4.95970
15054.394	-0.59918	-0.74842	2.65188	-5.55750
15058.393	-0.73059	-1.70605	4.10955	-3.13498
15062.393	-0.84736	-0.68267	1.95420	-4.04147
15066.395	-0.58726	-1.52574	1.76078	-5.37679
15070.392	-1.00824	-1.31597	1.93328	-4.51421
15074.392	-0.97966	-2.14086	2.61813	-6.06391
15078.384	-0.49403	-2.66548	2.86279	-5.60667
15082.394	-0.67459	-3.91776	3.54776	-4.84939
15086.394	-0.70407	-4.05997	2.45569	-3.40697
15090.365	-0.89820	-4.06640	1.46747	-2.36838
15094.390	-1.32870	-2.41408	2.23643	-3.62380
15098.395	-0.94393	-1.46444	2.51024	-3.96805
15102.394	-0.45929	-1.15979	3.34635	-5.42345
15106.394	-0.25398	-1.65867	3.66728	-5.72654
15110.354	-0.50619	-1.86182	3.13370	-5.26261
15114.359	-0.69881	-2.69395	3.38971	-5.87892
15118.387	-0.58461	-1.46153	0.70017	-5.56554
15122.393	-0.56401	-1.62450	1.25867	-5.85167
15126.418	-0.33558	-1.83050	2.43811	-6.16621
15130.377	0.02807	-2.23807	3.91027	-4.76441
15134.392	-0.53093	-1.89249	4.20035	-5.31716
15138.394	-0.32424	-1.81901	3.13843	-3.35596
15142.393	-0.24731	-1.21145	2.26710	-2.87550
15146.393	-0.43480	-1.72277	1.85182	-2.10092
15150.393	-0.53957	-1.68997	0.99305	-5.67076
15154.394	-0.61384	-1.41298	2.76453	-6.62727
15158.385	-0.44058	-1.77853	3.20308	-4.80674
15162.402	0.04087	-1.63960	4.34638	-5.09268
15166.398	-0.35412	-0.91085	3.38249	-4.82255
15170.401	-0.32144	-1.46583	3.31974	-7.47732
15174.353	-0.34119	-4.65207	0.81168	-6.10721
15178.398	-0.46269	-4.23940	1.17714	-5.68029
15182.398	-0.24152	-4.17593	3.58927	-7.30183
15186.358	-0.47232	-4.01976	3.11848	-7.40937
15190.421	-0.28649	-4.10050	3.91020	-5.35313
15194.398	-0.42117	-3.77226	3.68463	-6.01704
15198.396	-0.19859	-3.68140	3.74636	-5.84345
15202.398	-0.50431	-2.17945	-0.06001	-6.69013
15206.418	-0.59955	-2.10863	0.13359	-5.99985
15210.399	-0.37968	-1.99605	2.24103	-7.15216
15214.374	-0.38971	-3.28144	3.46748	-6.93768
15218.396	-0.23371	-2.63697	3.72005	-7.29190
15222.418	-0.43678	-2.25078	3.49693	-6.78855
15226.394	-0.28647	-1.91898	1.58817	-6.89824
15230.361	-0.37583	-1.84599	3.65092	-3.81675
15234.394	0.12719	-1.22279	3.64175	-4.38079
15238.395	2.06515	2.41700	3.74095	-2.58820
15242.393	2.46275	2.16900	3.60494	-1.45126
15246.398	2.74529	4.26816	5.50515	-0.37804
15250.400	2.79028	3.96592	6.56451	4.05556
15254.356	1.88539	4.45855	1.50373	4.23640
15258.387	2.16768	6.08357	6.19783	-0.52168
15262.402	2.53184	5.98453	8.03752	0.24233
15266.397	2.94183	5.61218	2.62100	-0.34474
15270.390	2.90500	5.61561	3.70351	-1.31992
15274.396	3.22022	5.49612	3.68431	-1.15274
15278.397	3.02556	5.81111	4.16875	-0.99572
15282.396	2.88027	5.96942	3.71839	-0.92150
15286.390	3.05377	6.05369	4.12567	-1.14292
15290.397	2.87383	5.52942	1.48568	5.20912
15294.399	3.25817	5.39059	1.64615	5.06998
15298.357	3.61599	5.68495	2.27330	6.12973
15302.395	3.75842	5.32593	3.45593	5.89775
15306.397	3.20652	5.21481	3.24182	6.63760
15310.396	3.36762	5.13652	5.09015	5.74455
15314.397	2.94463	5.65262	4.62648	1.49504
15318.398	3.08649	5.79226	5.06412	1.20577
15322.397	3.03863	5.84834	5.78079	-4.95717
15326.398	3.12046	5.94580	5.93043	-4.33987
15330.361	3.30950	5.61236	-1.26927	-4.39269
15334.402	3.34529	5.07124	1.97240	-3.77881
15338.396	3.52959	5.65080	2.75893	5.49379
15342.394	3.62511	5.08010	2.25494	5.59852
15346.398	3.12860	5.26229	2.19100	4.81930
15350.391	3.29797	5.36433	2.58274	5.83042
15354.396	2.87648	5.54615	5.80509	4.22292
15358.397	2.89413	5.95979	5.17294	4.76487
15362.402	3.03670	6.11020	5.70836	4.93954
15366.392	2.79647	6.04327	5.63065	4.98401
15370.398	3.08832	6.07624	5.49736	5.45868
15374.399	3.33908	6.04687	5.63874	5.00466
15378.394	3.28526	5.83591	5.85092	5.09147
15382.403	3.19813	5.87032	2.21155	6.62082
15386.397	3.27272	5.97290	4.57517	5.26421
15390.399	3.21020	6.15474	5.73537	5.05718
15394.397	3.08231	6.48636	5.90327	4.85031
15398.400	3.36203	6.15185	4.76951	5.18037
15402.398	2.96379	6.62659	5.53237	4.92904
15406.401	3.19741	6.73580	5.93522	4.90453
15410.398	3.32493	6.66079	5.72205	4.52881
15414.401	3.42482	6.72622	5.84409	4.37699
15418.402	3.36376	6.32760	5.99367	4.47373
15422.373	3.38810	6.28174	5.53294	4.21607
15426.397	3.41812	5.94768	5.94894	3.91122
15430.397	3.28001	6.12148	6.04264	2.83509
15434.399	3.60348	6.00271	6.45478	3.29320
15438.398	3.61686	6.14093	4.10389	4.19762
15442.401	3.82420	5.84475	6.35689	4.10370
15446.402	3.35659	5.86490	6.23337	3.82589
15450.412	3.41103	5.86296	7.14555	3.68812
15454.397	4.05705	5.23711	5.87818	4.05230
15458.403	3.50998	5.68695	4.98297	4.32111
15462.395	2.89856	5.73517	3.16866	6.32826
15466.391	0.70312	7.29795	4.34682	3.98862
15470.397	1.02379	9.84772	2.64985	9.68307
15474.398	1.22313	8.35467	3.51471	12.07062
15478.401	1.70703	10.06550	3.42351	9.54444
15482.402	1.55283	9.85269	3.75815	10.93136
15486.399	1.06478	9.97660	4.00094	9.90477
15490.403	0.75186	10.47439	2.86539	10.08834
15494.404	0.56148	10.41612	4.05982	9.61744
15498.406	0.94013	10.23979	3.42337	9.52700
15502.400	0.81858	10.81983	3.40922	10.09898
15506.402	1.06714	10.87992	3.56240	10.18494
15510.403	1.35328	11.17961	3.62321	10.45050
15514.363	1.96070	10.84946	3.46778	11.24790
15518.400	2.08706	10.44091	3.62469	10.95240
15522.398	0.20901	10.95102	3.41859	11.71889
15526.408	0.30203	10.04505	2.55631	10.74279
15530.362	0.40477	10.08476	3.57466	10.24913
15534.402	0.92296	9.84941	3.43660	11.03708
15538.402	0.86342	9.59750	3.33020	11.28818
15542.408	1.09495	9.69192	2.20198	11.57255
15546.386	1.25049	9.65107	2.50672	11.99111
15550.365	1.73695	9.45589	2.51143	11.64001
15554.364	0.96492	9.50844	2.91970	11.48783
15558.402	1.50564	9.64607	2.28058	11.22457
15562.404	1.36940	9.41510	3.06508	11.01169
15566.403	1.31260	9.35172	2.20332	11.52418
15570.404	1.59797	9.51966	3.12969	10.52078
15574.402	1.77566	9.37735	3.54944	10.82490
15578.400	2.36596	9.09549	3.80520	10.39997
15582.400	2.07541	9.69779	2.85249	9.89837
15586.400	2.47856	9.92880	3.11349	9.32832
15590.305	1.34090	10.95190	3.31311	10.15645
15594.403	1.24587	10.67729	3.13261	11.14871
15598.400	1.53580	10.76514	3.80209	12.02171
15602.404	1.33716	10.86804	3.92858	12.30823
15606.400	1.55809	10.69358	3.48731	12.64514
15610.400	1.32694	10.94294	3.69664	12.79160
15614.362	1.36829	10.84648	3.89224	12.61617
15618.364	1.37044	10.84238	3.78963	12.73951
15622.300	1.02422	10.86439	3.48464	11.39944
15626.405	1.12355	10.87902	3.80802	11.32814
15630.376	0.92629	10.87251	3.45346	12.51832
15634.403	0.93951	10.52847	3.17455	11.14247
15638.404	0.67397	10.71876	3.51256	11.90114
15642.405	0.71432	10.53338	2.62130	11.11442
15646.404	0.92495	10.42602	2.56731	11.22020
15650.366	0.88498	9.86159	3.16738	10.94537
15654.405	0.66374	9.75066	2.51670	11.58518
15658.414	0.94378	9.90009	2.03558	11.63893
15662.402	1.11861	9.66659	2.41819	11.44654
15666.408	1.18153	9.76814	2.73484	11.48816
15670.392	1.83209	9.42085	2.11859	11.82585
15674.401	1.85465	9.65423	2.76141	11.78559
15678.405	1.40591	9.62985	2.19105	13.24775
15682.404	0.89108	9.73759	2.24255	12.91919
15686.300	0.88490	9.90295	2.71860	12.17768
15690.405	0.94902	9.66849	2.88066	12.88795
15694.406	0.98750	10.42103	2.17576	13.03814
15698.404	0.86669	9.96830	2.47281	13.01516
15702.303	1.11708	9.93558	2.60208	13.01432
15706.405	1.25996	10.31828	2.89257	13.20230
15710.401	0.51619	10.23438	3.54225	12.27046
15714.374	0.90071	8.66851	4.12604	11.41444
15718.284	0.91517	9.71366	4.04236	11.23808
15722.407	1.08956	7.21473	2.76188	7.27555
15726.400	1.42007	5.31024	3.19442	5.21106
15730.365	1.22018	5.35099	3.35278	6.00950
15734.407	3.78111	5.16368	5.16457	3.29583
15738.406	1.10926	4.93125	4.22449	3.59898
15742.405	1.81820	3.70958	4.03278	1.74946
15746.405	1.78136	2.53876	1.38632	1.46543
15750.267	1.74288	1.41025	2.74888	0.74959
15754.386	2.25736	0.94350	0.32486	1.43703
15758.401	1.84994	1.67095	-0.29131	1.23087
15762.406	1.81089	1.43792	3.34479	3.10176
15766.311	-0.18608	2.08059	3.66933	2.35233
15770.406	-0.04581	1.54999	3.77505	1.86531
15774.402	-0.48110	1.89806	4.41171	0.92672
15778.403	1.77610	2.66750	4.08703	0.80333
15782.306	2.08865	2.69697	4.10068	0.54817
15786.403	2.60572	2.54890	3.84226	1.02869
15790.405	2.94931	2.45617	3.59861	0.54031
15794.401	3.51624	2.41256	4.07204	0.53002
15798.303	2.19100	2.38996	4.21284	0.34870
15802.404	1.90976	2.27179	4.25425	0.07474
15806.408	-1.20184	2.88133	7.00409	1.36759
15810.403	-0.28967	3.06942	6.77271	1.11964
15814.307	0.34809	2.95546	1.39177	1.41359
15818.406	1.94193	2.48194	1.27202	1.71793
15822.403	2.83214	2.49420	1.54906	1.75455
15826.406	3.28407	2.46178	1.70789	1.15804
15830.410	2.83014	2.50241	2.48232	0.07219
15834.406	2.27612	2.48393	3.99993	-0.18983
15838.379	2.04840	2.44690	4.47854	1.70600
15842.404	1.83970	2.73885	2.41388	1.80414
15846.407	1.87046	2.97190	5.14729	1.68183
15850.408	2.40164	2.96088	2.01784	1.79700
15854.407	2.95624	2.59964	1.85884	1.65496
15858.405	2.89604	2.50910	2.65978	1.66105
15862.306	2.82798	2.52740	2.22188	1.64603
15866.398	2.17276	2.45892	2.37233	1.70931
15870.407	2.10885	2.52515	-0.49272	3.31958
15874.409	2.15903	2.57109	2.95468	1.99910
15878.273	2.34694	2.64388	4.07448	1.78033
15882.397	2.81085	2.55635	3.87942	1.74379
15886.247	2.70728	2.41352	2.87302	1.85690
15890.281	2.55423	2.32500	3.46372	1.76943
15894.307	2.11135	2.25539	4.71994	1.49014
15898.282	1.92674	2.27182	2.27867	0.81788
15902.282	2.11529	2.12367	1.94878	-0.40483
15906.280	2.40592	2.30855	2.20701	0.44980
15910.273	2.35690	1.56344	2.19237	0.98120
15914.282	2.61112	2.14793	-1.72741	-0.97891
15918.284	0.81965	2.15458	3.12346	3.89356
15922.282	1.88038	1.26597	3.65285	1.77073
15926.293	2.27139	1.95710	3.63426	1.77941
15930.280	2.31056	1.93099	3.30374	3.05596
15934.286	1.75334	1.95467	3.26079	0.24293
15938.281	5.51836	1.03938	4.85945	1.48345
15942.277	5.70595	1.50885	2.79285	1.42485
15946.278	6.63923	1.45386	7.83739	1.75066
15950.282	7.60188	1.41694	4.90893	1.68640
15954.280	7.67669	1.38347	9.30585	1.54660
15958.280	8.38148	1.37220	7.60144	2.03345
15962.283	8.38777	1.54538	8.34077	1.89855
15966.275	8.81077	1.64038	13.34049	2.48726
15970.274	8.83769	1.61165	12.09951	3.39734
15974.306	8.28361	1.64646	4.29927	4.08225
15978.283	8.56081	1.70995	7.04100	2.52799
15982.295	8.95138	1.73447	7.55737	3.36566
15986.282	8.92173	1.86706	10.47367	2.64174
15990.276	9.03498	2.00113	11.95755	3.29644
15994.282	9.13722	2.11908	11.76090	2.63225
15998.285	8.54680	3.05764	5.40594	3.87983
16002.282	9.04565	3.09075	7.52810	2.50009
16006.306	8.77519	2.89779	10.75804	3.29543
16010.281	8.90180	1.87030	10.13191	2.60650
16014.286	9.15297	0.67670	11.15766	3.46810
16018.282	9.05195	1.02847	11.84366	3.42031
16025.031	NaN	NaN	NaN	NaN
16034.245	9.03880	1.58421	9.25932	2.30794
16038.247	9.04991	1.43643	10.51216	2.21108
16042.283	9.08815	1.43439	11.12082	3.17735
16046.286	8.71261	1.27659	11.90954	3.19750
16050.274	9.16622	1.19951	4.91986	4.07086
16054.279	8.91035	1.32940	6.18900	3.35526
16058.251	9.02699	1.51672	7.69210	1.97716
16062.284	9.24585	1.51133	8.05565	1.69843
16066.288	8.57427	1.69120	10.51434	1.86352
16070.286	8.92498	1.69486	10.42288	2.18417
16074.287	8.63386	1.66799	11.04367	5.99006
16078.283	8.90657	1.69779	10.41193	6.27008
16082.311	8.58796	1.79002	9.80896	5.93359
16086.283	8.82424	1.93810	10.56097	5.60511
16090.290	8.89986	1.88643	10.90633	4.06878
16094.248	8.35639	2.00795	10.48387	4.62527
16098.275	8.67192	2.04204	10.73612	4.04405
16102.286	8.76547	1.98077	12.27633	3.47872
16106.285	8.80946	2.08148	9.48241	4.12452
16110.285	8.67100	2.13488	10.42879	3.95521
16114.306	8.90529	2.12537	10.76963	3.78235
16118.286	8.98165	1.96752	10.61955	3.71187
16122.284	8.70980	2.15609	11.43326	3.27988
16126.285	8.60710	2.18607	11.26846	1.90051
16130.276	8.87164	2.05909	10.66929	3.92549
16134.284	8.77822	2.24552	12.14283	3.60491
16138.248	8.79758	2.01349	7.60658	3.69550
16142.285	8.60946	2.06287	10.90535	1.46558
16146.275	8.81600	2.07073	10.76669	1.66558
16150.287	8.83374	2.25055	10.21611	2.11644
16154.284	9.01169	2.53850	11.49617	1.83485
16158.285	9.07588	2.51359	11.03796	4.34076
16162.306	8.67000	3.03124	11.72955	3.37833
16166.284	8.80994	2.75845	11.83220	4.78467
16170.290	8.97874	2.99728	11.29185	6.85990
16174.247	9.66188	2.46062	11.76276	6.82912
16178.311	9.49427	2.85179	11.79753	6.77094
16182.254	8.49146	2.59343	11.71539	7.26527
16186.287	8.87084	2.83978	10.59618	2.63477
16190.289	9.07365	3.10558	11.54501	2.44280
16194.283	9.19382	3.16257	11.80029	2.71862
16198.284	9.24523	3.05732	12.02454	4.98944
16202.282	9.15188	3.01872	12.14881	5.07054
16206.285	9.08128	3.45796	12.31073	5.38196
16210.284	8.87326	3.58542	14.14429	5.48601
16214.286	8.79516	3.87074	12.17447	3.55764
16218.260	8.91217	3.80844	12.36286	2.71866
16222.285	8.85967	4.20887	12.15761	2.41013
16226.288	8.96157	4.17542	12.30720	2.07174
16230.286	9.13826	4.20979	12.24896	1.73263
16234.289	9.15727	4.22640	12.39793	1.64692
16238.253	9.27213	4.22037	12.40950	1.31602
16242.308	8.98692	4.38150	12.11840	1.44015
16246.289	8.83917	4.47208	12.10571	1.25872
16250.286	9.05325	4.36637	10.08950	3.15969
16254.287	9.17950	4.26515	10.95012	2.17704
16258.303	8.82739	4.27710	9.65143	1.76480
16262.249	8.92246	4.15040	9.47739	2.88337
16266.287	9.01096	3.92926	9.49245	2.84508
16270.293	9.00307	3.91477	9.51602	2.22071
16274.313	8.76200	3.76700	9.66236	4.93960
16278.287	8.96576	3.40172	12.08352	5.51576
16282.287	8.87520	3.01569	12.35123	5.78957
16286.289	9.00961	2.87931	12.41925	5.51290
16290.314	7.83838	3.69939	12.36966	4.70287
16294.287	8.82676	3.02992	10.04117	4.79238
16298.290	6.72477	3.62411	9.82631	3.36818
16302.255	6.27290	3.72942	6.45410	3.50561
16306.296	3.50657	3.01599	7.18127	4.32428
16310.286	1.29935	2.45807	2.54328	2.96588
16314.287	1.01935	2.54858	3.38271	3.75918
16318.289	-0.05946	3.26915	2.34666	3.81226
16322.314	-2.14885	1.64286	-0.15811	3.31962
16326.287	-2.77715	2.70656	NaN	NaN
16330.287	-4.01969	2.47936	-1.79200	-0.49998
16334.289	-4.23083	2.52139	-4.69408	-3.05375
16338.280	-4.51041	2.82639	-4.73525	-1.43125
16342.266	-4.82826	2.65940	-5.53269	-1.41805
16346.288	-4.75859	2.74677	-4.85788	-0.73639
16350.287	-4.54528	2.76574	-4.07369	-0.76248
16354.280	-4.81628	2.80526	-4.06273	-0.74202
16358.249	-6.41986	1.80747	-4.29100	-0.60125
16362.287	-6.39734	1.85156	-4.24438	-1.62238
16366.287	-7.04530	1.74099	-4.32096	-1.64266
16370.280	-7.06664	1.85579	-4.32770	-1.24642
16374.291	-7.35285	1.15337	-3.97321	-1.43095
16378.287	-7.18560	1.33007	-4.34438	-1.63613
16382.282	-7.19676	1.25195	-3.60783	-1.38577
16386.282	-7.15349	1.22860	-2.91364	-1.08232
16390.289	-7.11225	1.43396	-3.86580	-1.87450
16394.289	-7.04484	1.36942	-3.79794	-2.04416
16398.291	-7.17656	1.53268	-3.72002	-2.00135
16402.283	-7.02237	1.44491	-3.06815	-1.72352
16406.292	-7.19911	1.45753	-3.43652	-1.51451
16410.288	-7.37563	1.24073	-3.46553	-1.88059
16414.290	-7.34135	1.19957	-3.19397	-2.05175
16418.282	-7.22820	1.99487	-3.38864	0.06779
16422.252	-7.24688	2.02372	-3.38353	-1.62509
16426.261	-7.25023	1.88663	-3.69600	-1.37399
16430.290	-7.29978	2.04832	-3.79413	-0.80057
16434.289	-7.30341	1.87654	-3.70833	1.41154
16438.287	-7.24686	1.61064	-3.68611	1.36424
16442.290	-7.20592	1.77158	-3.31126	1.24822
16446.286	-7.25074	1.27530	-3.66968	1.30652
16450.288	-7.19112	1.93645	-3.72996	1.06947
16454.254	-7.19082	2.06248	-3.75237	0.89461
16458.290	-7.14980	2.02944	-3.83690	0.47464
16462.290	-7.15147	2.01998	-3.82704	0.26006
16466.277	-7.09455	1.70604	-3.88673	0.39386
16470.290	-7.10980	2.02457	-3.81874	0.32358
16474.290	-7.09934	1.81691	-3.84980	0.20553
16478.289	-6.95372	1.72854	-3.95162	0.14220
16482.292	-6.81620	1.88492	-4.02994	-0.22755
16486.289	-6.90723	1.86231	-3.91489	-0.46966
16490.291	-6.26758	1.72378	-4.00623	-0.47226
16494.292	-6.43746	1.59033	-3.90565	-0.33716
16498.285	-6.61278	1.58445	-4.30179	-0.38241
16502.293	-6.37214	1.02254	-3.47895	-0.65292
16506.293	-6.00764	0.99841	-3.10750	-0.81692
16510.292	-6.06671	0.75514	-3.99171	-0.84088
16514.296	-5.90170	1.10113	-3.14014	-0.67560
16518.291	-5.98928	1.02978	-3.93912	-0.92686
16522.292	-5.99959	1.23657	-3.58170	-0.26038
16526.296	-6.12710	1.34313	-4.15761	-0.14055
16530.290	-6.22451	1.48161	-4.18761	0.18877
16534.292	-6.22799	1.60986	-4.12616	0.53650
16538.253	-6.53458	1.88517	-4.36770	-0.10255
16542.291	-6.30688	1.71985	-3.79561	-2.65190
16546.293	-6.24269	2.05429	-4.42323	-2.39322
16550.271	-6.26056	1.49224	-4.20995	-1.34985
16554.294	-6.63632	1.99018	-4.32572	-2.27947
16558.294	-6.73250	2.19764	-4.53662	-2.46879
16562.189	-6.68171	2.01408	-4.41238	-1.88295
16566.294	-6.86259	2.02397	-4.63701	-1.71894
16570.295	-6.98756	0.86036	-4.52794	-1.40667
16574.294	-7.49571	1.88441	-4.51919	-0.92443
16578.296	-7.04247	1.04246	-2.01122	-1.47957
16582.292	-7.06635	0.95316	-4.32247	-1.23700
16586.291	-6.02327	1.51177	-4.39903	-1.03537
16590.286	-5.96036	0.72018	-9.71295	-5.82272
16594.257	-4.72630	1.26519	-8.16997	-4.36030
16598.290	-4.80975	1.44857	-2.24636	1.33941
16602.292	-4.24445	3.38103	-2.65622	2.51932
16606.295	-4.17699	3.44398	-2.00896	2.90186
16610.293	-4.01670	3.44741	-1.84582	2.96008
16614.294	-3.55305	3.43057	0.49743	2.67161
16618.295	-2.89141	3.11391	0.63965	2.67843
16622.294	-3.90654	3.27480	-0.43859	2.13627
16626.294	-3.81269	3.51487	-0.94381	0.97326
16630.292	-4.06478	3.52225	0.23264	0.48810
16634.295	-3.72380	5.43276	-0.16203	-0.69427
16638.255	-2.42158	3.81675	0.59047	-0.20502
16642.192	-3.22156	3.82229	0.75677	0.08597
16646.291	-3.03541	3.79569	0.88178	-0.39107
16650.293	-2.38742	3.73147	0.22244	-0.86952
16654.293	-1.07639	3.60855	0.15700	-0.52823
16658.192	-1.61716	3.54493	1.17488	-0.62634
16662.293	-1.91732	3.67210	0.95916	-0.68389
16666.294	-2.18230	3.80038	1.19939	-0.46675
16670.298	-2.93688	4.09217	0.86878	-0.34643
16674.279	-2.65015	3.97226	1.21707	-0.01990
16678.288	-2.72555	3.99430	-0.08105	1.32718
16682.297	-3.17082	3.52688	0.31848	1.72624
16686.292	-2.60168	3.11479	0.80141	1.91939
16690.296	-2.29882	3.35168	1.28561	2.20637
16694.293	-2.89500	3.46876	1.31203	3.03445
16698.297	-2.85749	2.55181	1.12814	3.41176
16702.292	-3.04232	3.05584	1.26458	0.21012
16706.299	-2.10912	3.11361	1.16007	-0.10226
16710.296	-2.55472	3.24644	0.60131	0.82009
16714.292	-2.66097	3.59815	1.14231	0.03831
16718.261	-2.66996	4.14479	1.22156	0.66496
16722.173	-2.76685	4.39814	1.26996	1.59925
16726.295	-2.73548	4.36911	-0.25408	1.01100
16730.304	-2.40422	4.95419	1.05662	1.99275
16734.293	-7.92963	14.45543	10.34184	1.39663
16738.192	NaN	NaN	9.09732	2.37552
16742.293	NaN	NaN	NaN	NaN
16746.294	NaN	NaN	NaN	NaN
16750.293	NaN	NaN	NaN	NaN
16754.289	NaN	NaN	NaN	NaN
16758.274	NaN	NaN	NaN	NaN
16762.294	NaN	NaN	NaN	NaN
16766.290	NaN	NaN	NaN	NaN
16770.300	NaN	NaN	NaN	NaN
16774.291	NaN	NaN	NaN	NaN
16778.293	NaN	NaN	NaN	NaN
16782.294	NaN	NaN	NaN	NaN
16786.294	NaN	NaN	NaN	NaN
16790.293	NaN	NaN	NaN	NaN
16794.296	NaN	NaN	NaN	NaN
16798.287	NaN	NaN	NaN	NaN
16802.285	NaN	NaN	NaN	NaN
16806.295	NaN	NaN	NaN	NaN
16810.262	NaN	NaN	NaN	NaN
16814.297	NaN	NaN	NaN	NaN
16818.294	NaN	NaN	NaN	NaN
16822.296	NaN	NaN	NaN	NaN
16826.294	NaN	NaN	NaN	NaN
16830.298	NaN	NaN	NaN	NaN
16834.197	NaN	NaN	NaN	NaN
16838.287	NaN	NaN	NaN	NaN
16842.269	NaN	NaN	NaN	NaN
16846.299	NaN	NaN	NaN	NaN
16850.299	NaN	NaN	NaN	NaN
16854.297	NaN	NaN	NaN	NaN
16858.296	NaN	NaN	NaN	NaN
16862.298	NaN	NaN	NaN	NaN
16866.194	NaN	NaN	20.73140	7.27615
16870.296	NaN	NaN	20.87995	7.94648
16874.299	NaN	NaN	9.82838	1.97325
16878.300	6.66344	12.33365	18.89454	8.14963
16882.206	4.13599	12.45270	19.42715	8.11952
16886.292	4.81392	9.90540	15.03332	7.79893
16890.295	6.75881	12.10925	18.99918	8.50564
16894.296	9.76242	12.23026	22.33887	5.71900
16898.195	10.44309	9.81077	21.39178	7.79860
16902.297	-6.22910	1.07100	22.27372	6.79361
16906.296	-1.23806	6.07010	21.45748	7.03783
16910.299	14.31787	11.52497	18.76793	6.83806
16914.163	14.52565	9.48159	16.72769	5.20085
16918.296	6.74246	8.16427	6.99411	4.61981
16922.297	10.14384	7.20562	12.12431	5.05423
16926.183	9.70097	7.16970	15.55667	3.40538
16930.173	11.27388	9.18849	8.67029	4.07687
16934.174	11.62044	8.42112	12.62436	4.10532
16938.174	10.37806	8.77970	12.23023	4.96570
16942.134	9.48065	8.70328	6.94567	5.53746
16946.163	7.01944	8.83038	15.54513	4.61117
16950.171	6.85270	9.86200	5.64282	4.37878
16954.171	6.55555	9.13959	7.01035	3.73407
16958.173	6.22748	9.28128	NaN	NaN
16962.173	6.28629	9.42853	8.03051	6.94232
16966.172	6.70328	8.97447	8.07321	7.28189
16970.159	9.17108	5.11451	8.46611	7.12433
16974.175	9.17186	4.97551	7.04533	6.09950
16978.198	7.96271	5.13055	7.56903	6.65355
16982.173	7.11276	5.07519	7.76635	6.60619
16986.175	7.15345	5.09681	6.90884	7.32553
16990.173	9.39619	4.91764	7.23450	7.08999
16994.301	9.01910	4.61880	7.41670	7.22596
16998.173	8.19078	4.74441	7.34267	6.99037
17002.172	8.96026	4.89430	12.51806	6.52336
17006.175	8.20583	4.82368	11.65751	6.01669
17010.145	7.86508	4.85564	11.50782	8.08423
17014.144	5.30687	4.96182	7.85443	7.15610
17018.138	5.82282	7.97719	7.73073	7.48044
17022.173	5.76006	8.25738	9.48659	5.99836
17026.172	5.65668	5.10581	9.75820	5.01198
17030.172	5.67784	5.37014	9.23732	5.18669
17034.175	5.62535	5.40239	8.85686	6.20498
17038.175	5.86995	4.68242	8.68203	6.49182
17042.173	5.65290	4.96245	7.83639	7.58501
17046.175	5.70807	5.16665	8.87159	5.88770
17050.140	5.74989	5.06265	8.85402	6.64315
17054.159	5.79509	5.12467	8.90659	6.79625
17058.165	5.81916	5.50189	8.13120	7.41793
17062.171	5.70848	5.63245	9.12263	7.58192
17066.176	5.68187	5.70267	9.02898	7.31766
17070.174	5.64449	5.85546	8.98358	8.37220
17074.176	5.60765	6.24217	8.29428	7.86380
17078.174	5.58658	6.25171	7.97449	8.97427
17082.174	5.79514	6.06107	8.87098	9.11710
17086.173	5.79995	6.31819	8.24570	9.74489
17090.207	5.85814	6.38576	7.07385	8.19719
17094.171	5.80911	6.30429	7.00922	9.36436
17098.170	5.64683	6.46215	8.09426	8.45586
17102.172	5.71866	6.23886	8.74830	5.90199
17106.166	5.30978	5.88917	7.75928	7.60918
17110.173	3.51955	5.85738	5.16061	6.05417
17114.177	2.01280	6.46731	6.69992	3.94189
17118.174	6.09763	6.43418	4.15492	3.79879
17122.170	5.09128	5.84935	-0.93242	3.68846
17126.176	1.65409	3.06974	-0.61364	3.83025
17130.177	0.79255	3.71349	1.17785	4.17596
17134.177	0.59627	5.48939	1.75089	3.83954
17138.172	0.90140	5.35917	2.02919	3.65649
17142.175	0.86039	5.16060	-5.07084	-0.83569
17146.178	0.86180	5.28264	1.97277	3.67507
17150.175	0.73191	5.44970	1.96070	3.77048
17154.174	0.73690	5.52119	1.90869	3.21925
17158.138	0.38239	4.20690	2.18391	3.75546
17162.175	0.52662	3.51363	2.43414	3.75643
17166.171	0.73183	2.16348	2.88203	3.82105
17170.201	0.58312	3.00218	1.99649	3.85555
17174.143	0.58754	2.69507	2.46986	3.51317
17178.177	0.61940	2.91361	2.64839	-0.00382
17182.166	0.57848	2.72272	3.17849	0.15422
17186.166	0.80555	2.64791	3.11388	0.47411
17190.176	0.78426	3.11471	2.47586	0.78242
17194.179	0.90297	3.04267	3.42806	0.42197
17198.185	0.74238	3.43390	2.65780	1.02729
17202.135	0.88106	3.23417	2.73944	1.05791
17206.178	0.90316	3.57715	2.64104	1.06812
17210.177	0.78603	4.28762	2.07715	1.43687
17214.175	0.84233	4.30046	2.40471	1.42740
17218.201	0.82813	4.45123	2.10178	1.94229
17222.143	0.82173	4.58556	2.56845	1.77136
17226.177	0.79374	4.50646	3.19477	1.97842
17230.179	0.71345	4.87910	2.43308	1.83459
17234.171	0.59826	4.75104	2.72632	1.98538
17238.142	0.52257	4.62001	2.51026	1.99180
17242.175	0.49480	4.61808	2.48857	1.87286
17246.178	0.50205	4.60748	1.93432	1.81543
17250.199	0.33985	4.67621	1.86055	1.68717
17254.177	0.09505	4.38546	2.41368	1.41300
17258.178	0.25783	4.20087	1.95537	0.80139
17262.160	0.00906	3.89023	1.19296	1.79626
17266.200	0.04959	3.76194	-1.04826	1.54650
17270.178	0.18241	3.48146	1.58616	2.09536
17274.184	0.31153	3.08909	4.94975	2.00334
17278.179	0.11883	3.06423	4.81599	1.79150
17282.167	0.10356	3.28934	4.79393	1.88640
17286.180	0.11989	3.87034	2.56949	2.87607
17290.178	0.27530	4.59746	4.46546	2.74142
17294.178	0.31858	4.62551	2.64396	2.55254
17298.203	0.11806	3.87180	4.38571	4.02446
17302.179	0.56672	4.25102	4.30398	4.12379
17306.143	0.57044	4.93131	3.69111	3.92736
17310.182	0.75136	4.78923	3.02571	4.04155
17314.169	0.59253	4.54991	2.82459	4.58702
17318.179	0.65042	4.84685	3.20778	2.76308
17322.176	0.50813	4.90978	3.02927	3.44374
17326.177	0.60652	4.69691	2.93530	3.15251
17330.180	0.69379	4.83977	2.76968	2.75658
17334.178	0.80568	4.72551	2.96500	2.38858
17338.177	0.75307	4.70913	2.80934	4.14579
17342.179	0.66615	4.80738	2.93438	2.22748
17346.138	0.72010	4.82137	2.54990	1.93369
17350.180	0.73516	4.79263	2.62165	1.99850
17354.177	0.62412	4.85854	2.87175	2.04649
17358.140	0.49788	4.89382	2.83284	2.17440
17362.171	0.57776	4.85483	2.32548	1.91698
17366.180	0.72893	4.88172	2.60968	0.95673
17370.181	0.61838	4.92162	2.74544	1.62975
17374.185	0.47287	5.03846	2.78864	1.67949
17378.174	0.40867	5.00440	3.11960	1.40246
17382.180	0.24207	5.24362	2.71582	1.34211
17386.170	0.81987	5.15365	2.64933	1.40222
17390.168	0.62613	5.08554	2.63393	1.31950
17394.172	0.63054	5.13040	2.49421	1.34679
17398.178	0.56992	5.15373	2.12734	1.27454
17402.179	0.58932	4.82583	2.08183	1.22372
17406.181	0.70757	5.19007	1.48364	1.29520
17410.194	0.82486	4.90579	1.42444	1.31917
17414.177	0.90582	5.18454	1.20413	1.30153
17418.181	1.11894	4.98780	-0.94038	2.27815
17422.140	1.04977	4.92619	-1.19140	2.37264
17426.173	1.09425	4.83510	-1.21566	2.22988
17430.181	1.17964	4.71111	0.25959	4.36274
17434.181	1.33299	4.38801	-0.59900	4.49326
17438.143	1.22729	4.53109	-1.13640	3.96091
17442.171	1.40244	4.51685	-1.20529	4.09137
17446.181	1.32356	4.40989	0.52679	5.89625
17450.178	1.39309	4.31415	0.63637	5.33888
17454.182	1.42655	4.16045	1.26522	5.85481
17458.173	1.35122	4.08837	0.75419	5.03437
17462.179	1.39619	3.84704	1.42692	5.23712
17466.181	1.50509	3.89832	1.33239	4.86734
17470.163	0.92726	3.55513	1.53994	4.57656
17474.179	0.56384	3.33240	1.64260	4.52080
17478.179	1.07798	3.05524	1.75062	3.47773
17482.179	0.93487	2.34302	1.95242	3.22377
17486.142	0.91545	3.08312	1.56528	2.48268
17490.182	1.01449	3.00137	1.64050	2.58468
17494.142	0.90731	3.51168	1.59985	2.05791
17498.182	0.90252	3.94374	2.16121	1.97337
17502.181	0.84148	3.66299	1.70224	1.75792
17506.183	0.79848	3.93326	2.57263	1.21528
17510.178	1.01906	3.09784	2.01176	1.42959
17514.144	0.84721	3.87106	2.42688	1.32733
17518.181	0.97018	4.03666	2.47997	1.10702
17522.179	1.05108	3.88899	2.40526	1.03566
17526.180	1.15384	3.80246	2.31141	0.91867
17530.179	1.23950	3.98255	2.67823	0.84111
17534.181	1.16535	3.98354	2.87099	0.76559
17538.205	1.04367	4.00438	2.74638	0.77021
17542.179	1.12913	4.07192	2.79969	0.72196
17546.180	1.03625	4.16780	2.79468	0.74380
17550.143	1.11189	4.21690	2.57803	0.71484
17554.174	1.20733	4.36568	2.74150	0.75793
17558.183	1.09242	4.30079	2.49466	0.87320
17562.181	1.00672	3.67479	2.31748	0.99020
17566.183	1.07277	3.62570	2.12820	1.26891
17570.183	0.91679	3.56249	2.24572	1.92076
17574.183	0.91326	3.14770	1.97547	2.27056
17578.181	0.89870	3.00575	2.00765	1.68348
17582.145	0.92433	3.35124	1.64791	2.06302
17586.182	0.94956	3.16672	1.76465	1.73580
17590.184	1.00258	3.04697	1.66202	1.97930
17594.170	0.95316	2.98705	1.41226	1.92688
17598.173	0.99752	2.86906	1.77462	2.16999
17602.081	0.89597	3.29528	1.61838	2.10966
17606.184	0.97472	3.22173	-0.56788	3.45504
17610.186	0.78094	3.77715	-0.72692	3.64374
17614.144	0.71298	3.82327	1.73832	4.13853
17618.194	0.63275	3.96802	2.70775	2.37083
17622.185	0.23597	3.99521	2.86970	3.03582
17626.181	-0.39452	4.12797	2.33452	2.73861
17630.184	-0.01380	4.34278	2.89485	2.74497
17634.085	-0.09215	4.27655	2.78797	2.71417
17638.149	1.26644	4.93099	3.02727	2.73337
17642.182	1.00690	5.08164	2.30529	2.66259
17646.185	0.89867	4.87913	2.56924	2.66962
17650.184	0.52183	5.26282	3.08684	2.07823
17654.182	0.12027	5.01852	3.25107	1.66943
17658.181	0.29242	4.89533	2.95646	1.61411
17662.184	0.64069	4.91156	2.65973	1.48819
17666.185	1.68161	4.78019	1.94446	1.37387
17670.182	1.42461	4.97358	2.37330	1.66650
17674.185	1.00481	4.99447	2.29471	1.46863
17678.165	1.30270	4.84046	-0.48165	2.97234
17682.179	1.15627	4.92577	-0.43691	2.46181
17686.186	1.08755	4.88114	-0.62952	3.60221
17690.186	1.10604	4.79426	-0.45053	3.76843
17694.185	1.21871	4.75092	1.99099	4.45499
17698.187	0.91731	4.78057	2.69794	3.51170
17702.185	0.69672	4.87821	3.01131	3.88777
17706.187	0.76801	5.03322	3.82185	3.93862
17710.188	0.37784	5.18544	3.10366	3.83974
17714.083	0.28029	5.68390	2.49203	4.22483
17718.183	0.80022	4.73635	2.36767	3.81305
17722.179	0.34635	4.57864	2.61154	3.89315
17726.186	0.05100	4.90197	2.98473	4.00380
17730.189	0.55317	4.50552	2.48037	3.95337
17734.184	0.42182	5.32113	2.55787	4.11016
17738.182	0.18283	5.19098	2.65716	4.03426
17742.184	0.29540	4.86017	4.77288	3.38191
17746.083	2.24151	4.06103	4.67047	2.90301
17750.182	1.98839	3.27086	4.85539	0.43819
17754.187	1.39006	1.47600	4.89442	4.01485
17758.186	1.15310	1.63544	2.39190	2.99286
17762.186	0.86932	1.25394	2.85096	1.56091
17766.183	1.16002	1.32135	2.05943	-0.42084
17770.187	2.32085	1.41696	3.86944	-2.03929
17774.183	2.57328	1.84188	2.20860	-0.55984
17778.083	2.47777	1.88331	4.91511	-0.44424
17782.184	3.03071	1.89280	5.08658	1.54166
17786.186	2.58395	2.06535	5.27498	-0.37437
17790.185	2.71000	1.78616	5.03629	0.17728
17794.082	2.78216	1.81665	5.19869	-0.42294
17798.187	2.30680	1.81871	5.23069	-2.15962
17802.188	2.65751	1.89708	5.14064	-1.86308
17806.187	2.45475	1.99724	4.63896	-0.69294
17810.188	2.62702	2.01351	5.69246	-2.37919
17814.189	2.71379	2.01510	5.10049	-2.51719
17818.186	2.77458	2.04301	5.39618	-2.49822
17822.186	2.67848	1.99354	5.29691	-2.58585
17826.189	2.66407	1.90798	5.27095	-2.43696
17830.190	2.62192	2.09032	5.20046	-2.53653
17834.187	2.69413	2.12924	4.91186	-1.31615
17838.185	2.56218	2.17852	5.05422	-2.20130
17842.087	2.70178	2.14053	4.96672	-2.33101
17846.153	2.73417	2.19042	4.88429	-2.30505
17850.185	2.72528	2.25517	4.47649	-2.34713
17854.187	2.66652	2.29835	3.98047	-1.82657
17858.085	2.60324	2.34595	2.00143	-2.36866
17862.185	2.48792	2.53764	2.35142	-2.48491
17866.188	2.79951	2.40670	2.15430	-2.31342
17870.190	2.51405	2.44673	1.31893	-2.09900
17874.189	2.28125	2.41971	1.24327	-1.74642
17878.192	2.52513	2.46943	1.25138	-1.98887
17882.187	2.30984	2.68867	1.01092	-1.79441
17886.169	2.15886	2.64741	1.23474	-1.73984
17890.086	2.76916	2.54078	1.72456	-1.60168
17894.150	2.47338	2.70123	2.19730	-1.40567
