time (ms)	lx (deg)	ly (deg)	rx (deg)	ry (deg)
0.000	0.21420	3.34502	0.79558	0.03374
3.991	0.21266	3.12432	0.70831	0.08540
7.995	0.22954	3.31723	0.52932	0.12978
11.977	0.30580	3.25933	3.71100	2.16690
16.002	0.36566	2.79651	2.99616	2.19262
20.002	0.36159	2.92257	3.14489	1.21081
24.001	0.35382	3.00299	3.54368	2.54785
27.996	0.41552	2.31986	2.17745	2.19787
32.003	0.39494	2.71278	3.34301	2.68222
36.000	0.45602	2.42931	3.39465	2.58509
39.965	0.50086	2.43820	3.44997	2.75409
44.008	0.52485	2.23825	3.39446	2.49827
48.000	0.47376	1.95825	3.25642	2.61353
52.001	0.50428	1.87827	3.27217	2.69748
56.000	0.44326	1.98462	3.18710	2.82286
59.969	0.25033	2.20949	2.98148	2.78219
64.003	-0.01367	1.95959	1.39800	2.78346
68.001	-1.87887	1.83499	1.19324	2.07439
72.000	-1.75451	1.97087	0.77831	2.99306
75.974	-1.64709	2.19111	0.53557	3.07869
79.966	-1.29050	2.10032	0.48567	2.16306
84.002	-0.91827	2.14963	0.54873	0.25859
87.966	-0.78191	1.98722	0.38601	-0.06515
91.975	-1.73172	1.98668	0.34767	-0.15307
96.004	-1.45648	2.15725	0.68159	-1.33645
100.003	-1.49825	2.06332	0.68541	-1.28454
104.003	-1.74667	2.09784	0.49773	-1.38775
107.993	-1.81719	2.11726	0.80900	-1.35119
112.003	-1.70841	2.01240	0.49066	-1.51877
116.001	-1.70722	2.13241	0.43304	-1.54296
120.005	-1.81753	2.17256	0.50972	-1.56455
123.996	-1.82809	2.14361	0.50676	-1.60284
128.001	-1.88489	2.09681	0.57756	-1.48336
131.969	-1.94771	2.10103	0.63335	-1.35116
136.005	-1.94307	2.14322	0.57054	2.71541
140.007	-1.70102	2.06718	0.49905	3.04100
143.972	-1.91791	2.11021	0.48612	2.80484
148.021	-1.97133	2.08927	0.54466	2.77705
152.004	-1.85447	1.99282	0.36117	2.79814
155.997	-1.89922	2.11106	0.32677	2.59618
159.966	-1.90502	1.96942	0.39306	2.59101
164.002	-1.98194	1.97501	0.48143	2.55750
168.004	-1.85172	1.90805	0.33394	2.52493
171.995	-1.89731	1.91207	0.49284	2.54976
175.973	-1.87455	1.92532	0.57384	2.55766
180.005	-1.80144	1.94753	0.52912	2.48973
184.005	-1.82837	1.90634	0.45641	2.53975
188.004	-1.81396	1.95873	0.64196	2.46577
192.002	-1.88427	1.96647	0.53937	2.60660
196.005	-1.77338	2.05497	0.52049	2.51733
200.005	-1.82614	2.08639	0.59429	2.68907
203.995	-1.95983	2.16948	0.27808	2.69307
208.009	-1.91415	2.17185	0.39474	-0.44620
212.001	-1.90036	2.28157	0.28232	2.67591
215.997	-1.69939	2.30618	0.18209	-0.40585
219.995	-1.72309	2.29129	0.06463	2.56820
224.003	-1.76165	2.31996	0.20055	2.78482
228.004	-1.59596	2.35341	-0.08815	2.49315
232.005	-1.33172	2.40190	-0.39737	2.49793
235.996	-1.48062	2.44777	-0.44552	2.30618
240.007	-1.53004	2.40271	-0.02005	1.82676
243.969	-1.54515	2.42481	-0.27622	1.87606
248.007	-1.88747	2.48306	-0.07954	1.77118
252.000	-1.86176	2.47094	-0.15662	1.90505
255.976	-1.84716	2.34857	0.15002	1.77289
259.967	-1.97002	2.31222	0.53280	2.10135
264.003	-1.71047	2.27338	1.13531	1.71799
267.973	-1.86097	2.34272	0.78506	1.57266
272.002	-1.99089	2.31599	0.89200	0.54871
276.006	-1.98871	2.22584	1.17523	0.52802
280.008	-2.10622	2.17065	1.41926	0.76199
284.007	-2.03799	2.15626	1.29965	0.56754
288.006	-2.16895	2.18150	1.22662	0.62722
292.010	-2.09901	2.13270	1.34849	0.62029
295.991	-2.16392	2.18081	1.35817	0.58111
299.973	-2.05935	2.24086	1.51159	0.56105
304.008	-2.03387	2.36571	1.44917	0.61095
308.008	-1.96581	2.33834	1.44619	0.44684
311.970	-1.85963	2.31998	-0.42611	0.40077
316.007	-1.75384	2.22886	-0.61168	0.36965
320.005	-1.32833	2.21480	-0.91465	0.45336
324.002	-1.32694	2.26934	-0.94363	0.38438
328.008	-1.70021	2.23738	-0.88696	0.22816
332.010	-1.44450	2.16609	-0.95703	0.16850
336.000	-1.30992	2.18115	-0.95839	0.19544
339.972	-1.38644	2.06280	1.53902	0.11553
344.006	-1.29953	2.02221	1.18108	0.74873
347.997	-1.28802	1.99023	1.10591	1.09005
352.006	-1.20028	1.90938	1.32949	2.58705
356.007	-1.23258	1.79512	0.87396	2.71788
360.008	-1.40418	1.70649	1.40368	2.52819
364.011	-1.39795	1.67919	1.13176	2.27127
368.005	-1.51606	1.41301	1.55427	1.73115
372.007	-1.44056	1.41892	1.95458	1.71452
376.007	-1.72855	1.37225	2.00301	1.72412
380.000	-1.56982	0.96220	1.68987	1.98667
384.006	-1.81131	1.19703	2.04413	1.67704
388.006	-1.50375	1.28221	1.75962	1.61053
392.006	-1.42444	0.91550	1.84468	1.59251
396.005	-1.25962	0.82322	1.77122	1.55744
400.007	-1.45415	1.11379	1.85777	1.58387
404.008	-1.37870	1.05405	1.53877	1.58410
408.007	-1.31282	0.81116	1.40589	1.56767
411.907	-1.14990	0.79531	1.20192	1.48068
416.012	-1.16037	0.57236	1.45631	1.44262
420.006	-1.18837	0.70553	0.81200	1.46889
423.999	-0.93688	0.57201	0.77382	1.56690
427.907	-1.02816	0.52275	0.76595	1.60713
432.006	-1.07294	0.54766	1.27517	1.03224
436.009	-1.23858	0.57843	1.40502	1.10475
440.009	-1.02126	0.40547	1.26185	0.88196
443.907	-1.16443	0.39357	1.01526	0.64004
447.970	-0.94237	0.41994	1.50631	0.39213
452.008	-0.81865	0.41366	0.99581	0.27797
456.010	-0.91076	0.41582	1.16989	0.45841
459.978	-0.82709	0.45679	1.10668	2.00436
463.976	-0.77699	0.39836	1.47660	2.20630
468.010	-0.78436	0.42289	0.84466	1.92381
472.008	-0.82717	0.24993	0.95403	1.63475
475.999	-0.76863	0.34271	1.17570	1.14540
480.012	-0.79399	0.24866	1.24707	1.09429
484.008	-0.77290	0.13380	0.93639	1.75508
488.008	-0.73079	0.11914	0.97216	0.74823
491.910	-0.72114	-0.11286	0.92969	0.55405
496.009	-0.68037	0.33397	0.96308	1.25274
500.013	-0.56458	-0.36767	1.28499	0.70453
503.993	-0.50957	-0.24475	1.30335	0.73039
507.906	-0.60684	1.62796	1.20050	0.30729
512.011	-0.56657	0.66214	0.91733	0.48155
515.975	-0.51525	1.19376	1.03645	0.17918
520.008	-0.48408	1.23817	0.85414	0.00174
524.013	-0.27582	1.39693	0.70967	0.31836
528.010	-0.40187	2.39470	0.71628	0.19550
532.009	-0.22237	2.89017	0.54332	0.08247
536.010	-0.20189	3.01964	0.50024	0.05747
540.014	-0.09192	2.93651	0.51505	0.27221
544.010	0.02914	2.09283	0.39325	0.80049
548.004	0.04182	1.60042	0.55240	0.63777
552.011	-0.06912	1.75301	0.40733	1.26352
556.014	-0.07105	1.54152	0.28225	1.07471
560.013	-0.05825	1.31133	0.03117	0.61773
564.013	-0.06837	0.86647	-0.22539	1.24369
568.011	-0.28694	0.95026	0.20509	1.46716
571.915	-0.29821	1.17692	0.10404	1.77575
576.012	-0.33915	0.92079	0.15337	1.49811
580.015	-0.45180	0.99162	0.14104	1.78902
583.973	-0.62598	0.86488	0.07634	1.89120
587.992	-0.59302	0.96942	-0.05254	2.03372
592.011	-0.66039	0.68586	-0.05495	1.99371
596.012	-0.61287	0.66855	0.02224	1.91560
600.010	-0.57587	0.71141	-0.25130	1.87321
604.014	-0.76580	0.65136	-0.19747	2.13605
608.009	-0.76389	0.67824	0.07942	2.11174
612.008	-0.70623	0.51760	-0.14891	1.89058
616.011	-0.56808	0.82358	-0.16906	1.82693
620.014	-0.72595	0.79208	0.09939	1.83734
624.013	-0.53801	0.99546	-0.32709	1.56486
628.000	-0.12195	0.99883	-0.34873	1.71527
632.003	-0.19298	1.08195	-0.31305	1.47112
635.911	-0.32694	2.07918	0.05090	1.43519
640.014	-0.10170	0.95583	-0.33377	1.37315
644.013	-0.18134	0.70406	-0.27441	1.44428
648.013	0.04368	0.73892	-0.20174	1.49736
651.910	-0.04750	0.23259	0.08503	1.64660
656.013	0.02569	0.38945	-0.04291	1.56513
660.013	-0.17325	-0.84766	-0.03730	1.58917
664.013	-0.08361	-0.48288	0.09495	1.48587
668.016	-0.08247	-0.13799	0.07066	1.64550
671.979	-0.04445	-0.34567	0.28324	1.54234
676.011	-0.22075	-0.55133	0.28577	1.67540
680.013	-0.07145	-0.40906	0.09885	1.58619
684.014	-0.15253	-0.33337	0.43244	1.68759
688.011	-0.39196	-0.49234	0.22668	1.61279
692.010	-0.19584	-0.34726	0.44510	1.63605
696.012	-0.24810	1.98163	0.37097	1.38211
699.910	-0.27049	2.07412	0.31550	1.12161
703.971	-0.20527	1.86476	0.27870	1.22846
708.012	-0.31704	2.04364	0.36854	0.93192
712.013	-0.39814	2.19482	-0.01554	-0.05673
715.908	-0.75933	2.27657	0.36104	-0.67921
719.975	-0.73898	2.31278	0.34218	-0.59722
724.011	-0.83372	2.21047	0.51260	-1.15019
728.009	-0.83104	2.21394	0.27431	-1.04701
731.910	-0.82287	2.19197	0.33134	-1.55296
736.013	-0.81650	2.06818	0.21837	-1.60098
740.012	-0.90805	1.94547	0.14878	-1.84421
744.010	-0.97393	2.00769	0.31392	-1.84868
748.016	-0.94090	2.02402	0.25895	-1.63573
752.013	-0.78873	1.93143	0.13841	-2.07975
756.008	-0.87242	1.81928	0.43936	-1.93458
760.013	-0.79967	1.70880	0.49143	-2.04362
763.858	-0.29478	1.46171	0.38864	-1.93524
767.890	-0.68067	1.65309	0.48428	-1.54308
771.888	-0.57808	1.60749	0.69298	-1.68963
775.888	-0.55520	1.62286	0.52476	-1.63305
779.914	-0.56081	1.65422	0.57558	-1.76273
783.892	-0.46252	1.66492	0.66709	-0.93108
787.850	-0.44649	1.86330	0.60057	-1.18286
791.887	-0.37271	1.86634	0.59883	-1.33036
795.913	-0.28888	1.69077	0.81535	-1.17915
799.888	-0.26138	1.86668	0.83831	-0.85771
803.886	-0.20460	1.91539	0.84260	-0.56887
807.890	-0.09964	1.83734	0.86376	-0.79985
811.915	-0.20628	1.83613	0.97023	-1.02033
815.890	-0.26453	1.71014	0.97065	-1.09188
819.890	-0.30828	1.56672	0.75054	-1.09969
823.891	-0.26455	1.20214	0.80853	-1.63986
827.886	-0.27840	1.38684	0.94415	-1.81892
831.889	-0.29709	0.99594	0.80960	-0.40099
835.891	-0.34789	0.61133	1.00940	1.93298
839.890	-0.23202	0.52557	0.86230	3.89877
843.889	-0.30079	0.57876	0.81632	3.22791
847.888	-0.33389	0.24227	0.92368	3.08534
851.890	-0.44805	0.19161	0.96363	2.45724
855.852	-0.15580	-0.52226	0.70079	2.32116
859.911	-0.20487	-1.42057	0.92440	2.09405
863.893	-0.48644	-0.93285	1.00246	2.07817
867.890	-0.40832	-0.64586	1.09711	2.02399
871.889	-0.16288	-1.03671	0.64121	2.03235
875.891	-0.35439	-0.82907	1.24503	2.35429
879.894	-0.13598	-0.69974	1.51472	2.11421
883.878	-0.53751	-0.76649	1.15362	2.14208
887.853	-0.60555	-0.57660	1.39192	2.19517
891.900	-0.56414	-0.29114	1.07716	2.36906
895.892	-0.72632	-0.06699	0.84300	2.28131
899.888	-0.72089	0.11094	0.91061	2.34324
903.888	-0.57838	0.35753	0.77605	2.32749
907.890	-0.49823	0.14467	1.06346	2.39087
911.889	-0.66541	0.50827	1.61285	1.20763
915.887	-0.26115	-0.16318	1.32788	1.25737
919.890	1.00156	-0.02353	1.27103	-0.59882
923.886	0.58714	0.04699	2.07539	-1.80969
927.884	0.00645	0.79537	3.00992	-1.81497
931.854	0.04827	1.20871	2.46674	-1.92695
935.890	-0.27212	1.07744	2.07777	1.91633
939.884	0.06780	1.40717	2.00272	1.73005
943.892	0.08607	1.53692	2.27756	1.06268
947.890	0.18330	1.40165	1.87215	0.90368
951.854	0.28255	1.63585	1.92280	0.63245
955.890	0.38189	1.49008	1.76443	0.37005
959.893	0.24832	1.50081	2.26591	0.68946
963.889	0.38301	1.13474	2.27761	0.45740
967.861	0.30168	1.08892	1.95458	1.14110
971.889	0.39378	0.63374	1.81007	0.81255
975.892	0.33216	0.65168	1.72518	0.97882
979.892	0.52610	0.29872	1.80216	0.70503
983.893	0.52436	0.70419	1.83690	0.76946
987.894	0.60511	0.20412	1.51216	0.78029
991.854	0.61488	0.24845	1.91095	0.57998
995.893	0.63464	0.12985	2.26373	0.68951
999.891	0.67747	0.38592	2.09470	0.70670
1003.885	0.70489	0.30398	1.92852	0.32367
1007.884	0.69759	0.22941	2.19078	0.66626
1011.882	0.66580	0.67984	2.28923	0.68618
1015.891	0.29875	0.74006	2.48857	-0.94957
1019.917	-0.54558	0.56975	2.60084	-0.81150
1023.893	0.27815	1.25382	2.96077	-3.89442
1027.893	0.29922	1.33553	3.03969	-3.35273
1031.891	0.23805	1.80915	2.87207	-3.62562
1035.917	0.04509	1.35519	2.51809	-3.56975
1039.890	0.10793	1.32191	2.67618	-3.67613
1043.889	-0.35352	1.13621	3.16609	-3.55460
1047.893	-0.20020	0.39544	3.11475	-2.95225
1051.916	-0.31856	0.33108	2.39061	-2.56191
1055.891	-0.28284	-0.08804	2.75403	-3.25520
1059.893	-0.29937	0.71596	2.25142	-2.37437
1063.892	-0.10714	-0.32137	2.32798	-2.62506
1067.883	-0.40561	-0.67053	2.23043	-2.55404
1071.856	-0.33285	-0.46782	2.31904	-2.55228
1075.894	-0.47599	-0.30968	2.68229	-2.18786
1079.893	-0.43125	-0.40415	2.69685	-2.22097
1083.894	-0.18980	-0.53315	2.97829	-1.96527
1087.893	-0.33203	-0.63819	2.58276	-2.02196
1091.876	0.01082	-0.73082	2.82118	-1.73033
1095.894	0.14503	-0.72871	2.93537	-1.65897
1099.888	0.15990	-0.84220	3.04702	-1.80809
1103.893	-0.05864	-0.71820	3.22092	-1.70612
1107.895	-0.42112	-0.69796	3.53310	-1.57542
1111.893	-0.42420	-0.01782	3.06647	-1.65064
1115.884	-0.56672	-0.27328	3.03333	-1.64876
1119.894	-0.30302	0.02535	3.34707	-1.54343
1123.893	-0.27423	-0.09020	3.40378	-1.50593
1127.893	-0.17350	0.70262	3.22480	-1.18934
1131.892	-0.05879	0.78461	3.28452	-0.68584
1135.886	-0.36821	1.22955	3.11314	-0.04886
1139.893	-0.30342	1.65534	3.44048	-0.95322
1143.893	-0.55937	1.59167	3.16414	-0.46877
1147.894	-0.65858	1.66027	3.29409	-0.30521
1151.894	-0.68193	1.25961	1.11179	-1.45416
1155.895	-0.68637	0.43224	0.88810	-1.00438
1159.896	-0.73528	0.76050	2.98200	-1.88473
1163.892	-0.77084	0.88927	2.63239	-1.14791
1167.894	-0.96534	-0.05796	2.40201	-1.93795
1171.896	-0.85567	0.07598	2.33316	-1.85618
1175.866	-0.83692	-0.17614	2.37580	-2.02394
1179.866	-0.94562	-0.44438	2.52753	-2.12923
1183.898	-0.99492	0.20858	2.64183	-2.19561
1187.896	-0.99559	0.07093	2.54467	-2.24258
1191.895	-0.95490	-0.05618	2.40751	-2.04361
1195.886	-0.95202	-0.27447	2.56302	-2.07981
1199.895	-0.84597	-0.14953	2.81194	-2.15045
1203.856	-0.81808	-0.12831	2.77975	-2.21574
1207.894	-0.88872	-0.15690	2.84390	-2.27179
1211.887	-0.80062	0.13064	3.33928	-2.23296
1215.858	-0.79215	-0.30917	3.07179	-2.20879
1219.890	-0.78987	0.02027	3.05833	-2.20577
1223.893	-0.79674	-0.13760	3.10406	-2.16527
1227.892	-0.78670	-0.08284	2.97762	-2.12285
1231.895	-0.67461	0.01647	3.13786	-1.71573
1235.896	-0.81017	0.29448	3.30015	-1.82465
1239.892	-0.93713	0.49251	3.58077	-1.82734
1243.888	-0.90964	0.57084	3.87507	-1.60228
1247.896	-0.99581	0.84019	4.21284	-1.32877
1251.895	-1.14159	1.39076	4.42493	-1.12004
1255.897	-1.06577	1.23403	4.39183	-0.78389
1259.895	-1.07924	1.93939	4.45042	-0.63566
1263.896	-0.95919	2.01073	4.08500	-0.45967
1267.895	-1.12568	2.28120	4.27745	-0.41637
1271.896	-1.04439	2.31288	3.23744	0.64539
1275.896	-1.35231	2.41158	3.77589	0.18953
1279.895	-6.05194	13.03155	5.00893	4.07925
1283.899	NaN	NaN	12.06067	4.33439
1287.895	NaN	NaN	12.15275	8.50304
1291.895	NaN	NaN	NaN	NaN
1295.900	NaN	NaN	NaN	NaN
1299.874	NaN	NaN	NaN	NaN
1303.895	NaN	NaN	NaN	NaN
1307.897	NaN	NaN	NaN	NaN
1311.894	NaN	NaN	NaN	NaN
1315.896	NaN	NaN	NaN	NaN
1319.894	NaN	NaN	NaN	NaN
1323.894	NaN	NaN	NaN	NaN
1327.896	NaN	NaN	NaN	NaN
1331.857	NaN	NaN	NaN	NaN
1335.897	NaN	NaN	NaN	NaN
1339.893	NaN	NaN	NaN	NaN
1343.898	NaN	NaN	NaN	NaN
1347.909	NaN	NaN	NaN	NaN
1351.893	NaN	NaN	NaN	NaN
1355.858	NaN	NaN	NaN	NaN
1359.874	NaN	NaN	NaN	NaN
1363.897	NaN	NaN	NaN	NaN
1367.859	NaN	NaN	NaN	NaN
1371.897	NaN	NaN	NaN	NaN
1375.896	NaN	NaN	NaN	NaN
1379.895	NaN	NaN	NaN	NaN
1383.864	NaN	NaN	NaN	NaN
1387.928	NaN	NaN	0.04202	5.71772
1391.898	NaN	NaN	-3.79178	5.00441
1395.897	NaN	NaN	4.14174	9.34350
1399.862	NaN	NaN	4.18104	7.49004
1403.897	NaN	NaN	8.24271	8.85876
1407.895	11.69010	0.02197	4.10705	6.59793
1411.899	NaN	NaN	-1.99902	6.58882
1415.897	8.96455	0.00523	4.05187	5.24145
1419.900	-3.94320	-0.63798	7.11726	4.13458
1423.868	-7.31049	0.70751	7.82070	2.68828
1427.899	-3.22999	5.47819	0.27059	1.76235
1431.899	-4.14038	6.57115	0.79608	1.16076
1435.898	-0.93182	5.78402	-3.98353	1.04579
1439.899	-1.53230	6.62706	-0.11446	1.32735
1443.900	-1.37183	5.88469	0.83049	4.53417
1447.901	-1.70869	5.63905	0.62625	4.27186
1451.898	-0.58627	6.16063	0.85883	4.12711
1455.899	-0.10009	5.56708	1.07098	3.19149
1459.865	-0.49900	6.25608	1.08425	3.26818
1463.903	-0.15188	5.93373	3.65804	3.50620
1467.897	-0.16561	5.83025	2.77904	3.92098
1471.904	-0.68474	5.85578	3.70297	3.43454
1475.900	-0.33652	5.32067	4.00228	3.50607
1479.899	-0.47344	5.52200	3.97143	3.38799
1483.904	-0.36581	5.43447	3.31101	3.35500
1487.900	-0.52433	5.32347	4.05557	2.76086
1491.904	-0.38427	5.38207	3.73529	2.95744
1495.862	-0.42966	5.17558	4.04717	1.81310
1499.896	-0.35794	5.12541	3.80903	1.88341
1503.901	-0.40636	4.72129	4.00909	1.65805
1507.895	-0.28855	4.44433	4.14330	1.05638
1511.900	-0.34710	4.24752	3.99304	2.65279
1515.900	-0.37817	4.00302	4.15969	2.65053
1519.899	-0.32622	3.83308	4.10750	4.84759
1523.805	-0.36258	3.66596	3.84599	6.39967
1527.901	-0.20149	2.93342	4.02035	5.57339
1531.901	-0.24835	3.17906	4.08550	5.40442
1535.862	-0.17829	3.49361	3.60334	5.48839
1539.798	-0.25820	3.40377	3.43674	5.22484
1543.901	-0.35995	3.61691	3.15790	4.48540
1547.902	-0.33029	3.72645	3.93354	4.60902
1551.893	-0.57059	4.18931	3.23838	4.30368
1555.799	-0.48547	4.17728	3.28828	4.13970
1559.901	-0.44527	4.48977	2.78451	4.18836
1563.900	-0.45110	4.74584	2.91686	4.51008
1567.901	-0.50691	4.83809	2.78844	5.06136
1571.803	-0.29384	4.80530	2.24775	4.41086
1575.899	-0.39400	4.98103	2.58400	4.22826
1579.903	-0.41614	5.08451	2.58799	4.01596
1583.905	-0.18415	5.24221	2.54717	3.85131
1587.800	-0.07088	5.03976	2.70114	3.56622
1591.875	0.01891	4.90770	2.84821	2.80893
1595.900	-0.17640	4.95831	3.44758	3.47650
1599.903	-0.31186	4.68809	3.75126	2.86897
1603.794	-0.14938	4.54246	2.82276	1.77697
1607.899	-0.57193	4.43801	3.72541	1.44573
1611.900	-0.44783	3.87468	3.84728	0.57196
1615.900	-0.48024	3.52408	3.94960	3.10764
1619.799	-0.38248	3.73813	3.85288	3.32897
1623.902	-0.28299	3.44932	3.67583	6.14524
1627.903	-0.16084	3.08991	3.90410	5.09054
1631.886	-0.18174	2.90118	3.13187	5.49383
1635.799	-0.36963	4.71043	4.00588	4.80251
1639.858	-0.25708	3.94053	3.96175	3.41540
1643.898	-0.30424	4.98540	4.13989	3.35725
1647.901	-0.19929	5.06027	3.83094	3.83939
1651.799	-0.24755	4.81250	3.88562	3.21965
1655.900	-0.07793	5.18050	4.01798	3.10375
1659.864	-0.04063	5.16948	3.24924	3.48615
1663.904	0.02673	5.14089	2.23087	3.33355
1667.801	0.20522	4.61743	2.79486	2.77185
1671.865	0.22887	4.76950	2.91544	2.89009
1675.916	0.23805	4.53992	3.42458	2.60727
1679.901	-0.02904	4.95848	2.78357	2.71970
1683.800	-0.16955	4.76527	2.68011	2.84749
1687.904	0.44609	4.09153	3.03009	2.68873
1691.900	0.50714	2.38256	2.72927	1.86813
1695.902	0.46368	2.02261	2.90121	2.85161
1699.801	-0.11366	3.68070	2.42143	2.37039
1703.881	0.16983	1.62340	2.52996	-0.38409
1707.902	0.08627	-0.08329	2.82420	-1.95473
1711.903	-0.22626	-0.24357	2.88782	-3.25905
1715.806	-0.14950	-0.57695	3.17131	-0.89692
1719.904	-0.34605	-0.12896	3.14407	-1.37609
1723.903	-0.25284	-0.59285	3.73356	-1.09401
1727.900	-0.28136	-0.76065	3.43494	-1.34220
1731.801	-0.43105	-0.76869	3.01272	-0.98302
1735.905	-0.26319	-0.90959	3.17839	-1.29317
1739.866	-0.05028	-1.07522	3.71985	-1.32022
1743.902	-0.09542	-0.65673	4.29315	-0.66743
1747.801	-0.13687	-0.71430	3.73522	-1.04307
1751.900	-0.29434	-0.26876	3.30920	1.65374
1755.895	-0.29210	0.26009	2.87886	0.62692
1759.895	-0.13250	0.68878	2.90121	-0.42936
1763.773	-0.04274	0.85857	3.04482	-0.15310
1767.903	-0.20554	1.54635	3.51068	-0.60508
1771.907	-0.00663	1.43139	3.58771	-1.11281
1775.906	-0.09875	1.30654	3.61288	-0.97000
1779.802	0.02864	0.84128	2.99143	-2.52796
1783.903	-0.14685	1.22850	3.36285	-2.82497
1787.907	-0.10825	1.14629	2.75467	-1.70355
1791.904	-0.08776	1.00194	2.72439	-2.64875
1795.801	-0.03018	1.23337	2.45711	-2.57977
1799.781	-0.35015	1.07463	3.04915	-2.34569
1803.762	-0.37362	1.30758	3.30888	-2.59458
1807.776	-0.38090	1.00445	3.36228	-1.21077
1811.738	-0.25326	1.06709	3.33327	-1.08079
1815.780	-0.24239	1.07263	3.74249	0.38972
1819.778	-0.49349	0.90082	3.58586	1.46239
1823.777	-0.44165	0.98489	2.46085	-0.09230
1827.778	-0.23286	0.90567	3.64333	-0.18356
1831.781	-0.40179	0.93445	4.02685	1.59763
1835.782	-0.44743	0.97200	3.29562	1.79951
1839.781	-0.67481	0.83054	3.29097	0.75812
1843.770	-0.45979	0.76618	3.02192	0.62974
1847.745	-0.44398	0.77038	3.56124	0.67344
1851.780	-0.37253	0.78750	3.53169	0.27339
1855.780	-0.02963	0.45669	3.91027	0.19186
1859.782	-0.03854	0.28457	3.84510	-1.14068
1863.781	0.38713	0.13701	3.22762	-1.84917
1867.780	-0.13151	-0.19623	3.59683	-1.35808
1871.782	-0.23465	0.04262	1.95016	-1.84508
1875.774	-0.11818	-0.18967	3.47989	-1.89778
1879.782	0.42991	0.22751	3.24365	-1.81281
1883.783	0.18871	0.02087	3.22195	-1.79575
1887.770	0.48249	-0.14188	3.50076	-1.98935
1891.745	-0.16350	2.56140	3.45658	-1.89708
1895.782	-0.30511	1.68898	3.73945	-1.57488
1899.780	-0.15878	2.00547	3.59429	-0.79934
1903.781	-0.18082	2.03376	3.32654	0.19548
1907.781	-0.53878	2.20209	2.80367	0.90829
1911.779	-0.01035	1.78446	3.85864	1.17355
1915.779	0.23405	1.72472	3.29614	1.46038
1919.782	0.27495	1.72317	3.24612	1.55090
1923.773	-0.27915	2.24936	3.38192	1.12959
1927.769	-0.44763	2.37363	3.12987	1.78773
1931.770	-0.26058	1.86601	3.10859	1.23094
1935.779	-0.31871	1.10720	3.51869	0.66668
1939.775	0.05639	1.59155	3.42764	0.81118
1943.781	0.49168	0.05168	3.30989	1.31108
1947.781	0.14891	0.00273	2.72013	0.90004
1951.780	0.20869	0.27167	3.02210	-1.76869
1955.775	0.12746	0.09947	2.75616	-2.25043
1959.785	0.26108	0.26847	2.64906	-3.42372
1963.785	-0.26366	0.46442	3.06486	-2.75088
1967.784	-0.06209	0.76012	2.78518	-2.27976
1971.775	-0.43532	0.90170	2.42748	-2.83663
1975.781	0.07195	1.97820	2.90200	-2.03865
1979.780	-0.17072	1.78296	3.21117	-1.74803
1983.780	-0.39544	1.57962	2.81427	-1.80815
1987.784	-0.32349	1.61655	2.44499	-2.54458
1991.782	-0.10548	1.82080	2.97772	-2.74102
1995.782	-0.37668	1.84400	3.39794	-2.34425
1999.793	-0.08289	1.42222	2.75737	-2.48264
2003.806	-0.20800	1.89452	2.58578	-1.56865
2007.784	-0.04936	1.85047	2.37877	-1.92425
2011.766	-0.22199	2.10550	1.99830	-1.94627
2015.783	0.04048	2.49137	1.95944	-1.44338
2019.773	-0.48192	2.13653	2.10597	-1.37771
2023.780	-0.31985	1.96263	1.94419	-1.72947
2027.785	-0.13761	1.71345	2.11430	-0.95158
2031.781	0.07393	1.43757	2.33222	-0.60562
2035.776	-0.00248	0.89507	2.44051	-0.58189
2039.782	0.01449	0.37661	2.65904	-1.10024
2043.781	-0.03368	0.11525	3.15082	-1.10926
2047.785	0.15494	0.25353	3.44676	-1.47565
2051.772	-0.10443	0.15292	3.03529	-1.14530
2055.778	0.18216	0.20804	3.01440	-0.78459
2059.785	0.19829	0.28198	2.47402	-0.96060
2063.784	-0.10813	0.58113	2.51386	-1.09158
2067.743	-0.07520	0.68436	3.11220	-0.98240
2071.785	-0.11845	0.59333	3.25619	0.20748
2075.822	-0.25172	0.45500	3.19298	-0.40351
2079.784	-0.09322	0.86990	2.97141	-0.08358
2083.777	-0.22289	1.11632	2.95047	0.09582
2087.745	0.00295	1.12276	3.00094	0.18477
2091.790	0.00251	1.89021	3.21310	0.44022
2095.763	-0.19268	2.27100	3.33646	0.69573
2099.759	0.05239	1.97036	3.39930	0.65327
2103.783	-0.11848	2.16253	3.26829	0.75724
2107.784	-0.12307	1.98100	3.38560	0.78414
2111.782	-0.13595	2.34978	3.21010	0.90195
2115.807	-0.12910	2.31981	3.14951	1.09577
2119.782	-0.05435	2.30920	3.10421	1.06873
2123.784	0.41683	2.09948	3.21750	1.18758
2127.782	0.21115	2.02671	2.65394	1.21031
2131.811	0.19792	2.04115	2.94349	1.36628
2135.772	0.26029	2.23867	3.04447	1.49310
2139.774	0.39603	2.13671	3.15132	1.45756
2143.785	0.39780	2.11666	2.59002	1.55220
2147.755	0.40065	1.94884	2.63700	1.45555
2151.784	0.33677	2.03540	2.89750	1.55150
2155.784	0.50768	1.86906	3.23991	1.62781
2159.786	0.52093	1.92625	2.89156	0.93524
2163.787	0.46852	1.90385	2.79741	1.17889
2167.786	0.49366	1.95629	2.51623	1.83854
2171.786	0.48897	2.23414	2.70186	1.78134
2175.786	0.56880	2.25483	3.27890	-0.78514
2179.776	0.57486	2.34500	2.63824	-1.56355
2183.785	0.64151	2.11831	2.72526	-2.30862
2187.789	0.53935	1.80950	2.74848	-1.60036
2191.784	0.16184	2.51465	2.83576	1.60523
2195.778	0.44098	3.42547	2.39926	1.70015
2199.784	0.22452	2.65564	2.09534	2.37791
2203.747	0.19047	5.11806	1.67422	5.75117
2207.785	-0.09098	7.42910	1.51975	4.96686
2211.808	-0.15454	7.05444	1.41072	6.14888
2215.787	-0.12354	7.45792	1.40591	8.20327
2219.786	-0.03283	7.45474	1.12437	9.12465
2223.782	-0.08046	7.41434	1.19058	8.72599
2227.788	0.15355	7.42576	0.76221	8.50709
2231.784	-0.03199	7.44802	-0.53917	8.52868
2235.787	-0.13679	7.43869	-0.27562	8.50526
2239.785	-0.08438	7.47266	0.75533	8.42443
2243.776	-0.22738	7.56215	0.42835	8.37833
2247.784	-0.29304	7.55112	-0.04604	8.46291
2251.784	-0.24413	7.64566	-0.23356	8.89901
2255.786	-0.35427	7.66772	0.36457	8.66575
2259.753	-0.37417	7.76492	0.51091	8.60333
2263.751	-0.47229	7.80463	-0.14573	8.37243
2267.750	-0.39003	7.69961	0.10892	8.45811
2271.786	-0.54493	7.84985	0.28098	8.34329
2275.787	-0.34985	7.80192	0.26168	8.19230
2279.788	-0.56863	7.81912	0.44108	8.46320
2283.785	-0.43003	7.72319	0.37554	8.40368
2287.785	-0.42428	7.77512	0.35131	8.28553
2291.778	-0.17913	7.75148	0.43663	8.39245
2295.789	-0.18291	7.79741	0.44443	8.31740
2299.785	-0.09513	7.71427	0.24155	8.32689
2303.788	-0.07197	7.68136	0.33394	8.25352
2307.757	-0.11572	7.58065	0.37005	8.32383
2311.789	0.13930	7.64207	0.41430	8.35867
2315.797	-0.00213	7.61206	0.42993	8.43180
2319.788	-0.19956	7.63069	0.60871	8.36581
2323.787	-0.31511	7.59393	0.34518	8.36795
2327.786	-0.07356	7.63483	0.57965	8.43035
2331.789	-0.07959	7.65141	0.76399	8.69612
2335.788	-0.17536	7.75280	0.62282	9.01817
2339.793	-0.72459	7.88055	0.85270	9.43974
2343.776	-0.67955	7.82022	0.73419	9.95912
2347.777	-0.99717	8.08854	0.72784	10.20471
2351.786	-0.91091	8.08993	0.92989	8.60887
2355.789	-0.45058	8.23364	0.99881	8.05298
2359.750	-0.33955	8.46410	0.92138	8.21349
2363.787	-0.10374	8.55249	0.82049	7.91684
2367.786	-0.14729	8.73092	0.84471	5.28272
2371.791	0.19219	8.31668	0.93361	5.98598
2375.786	1.04240	6.81247	0.78193	5.93531
2379.787	-0.18980	6.08331	0.71799	5.81197
2383.785	0.40953	6.57520	0.73538	6.23837
2387.792	0.18305	8.67416	0.62895	7.99158
2391.790	0.25713	8.79499	0.63024	8.24859
2395.790	0.19742	8.79697	0.65240	9.48151
2399.789	0.25316	8.78016	0.54677	9.30334
2403.787	0.26495	8.70354	0.62206	9.52011
2407.790	0.16367	8.60337	0.61781	9.70326
2411.788	0.25823	8.31757	0.70771	9.28406
2415.788	0.28118	8.26127	1.11782	8.86024
2419.790	0.13540	8.20529	0.65233	8.72971
2423.791	-0.19043	8.54473	1.01722	8.43442
2427.773	-0.08463	8.29793	0.49254	8.28367
2431.787	-0.07989	7.80513	0.79208	8.02970
2435.791	-0.19958	7.49798	0.76407	7.52489
2439.787	-0.08478	7.08486	0.65836	6.77845
2443.789	0.09964	7.00267	0.54545	6.49816
2447.786	0.06105	6.97817	0.81215	7.04704
2451.782	0.26793	6.98448	0.35275	7.14737
2455.791	0.01382	7.04666	0.50582	6.91194
2459.788	-0.14330	7.10464	0.56362	7.15636
2463.792	-0.15268	7.60374	0.79148	7.14534
2467.789	-0.16615	7.78439	0.50619	6.92590
2471.782	0.06418	7.73629	0.64367	6.92145
2475.792	0.02822	7.95357	0.57319	6.97518
2479.792	0.19780	8.18650	0.94033	7.21036
2483.688	0.16759	8.38261	0.94748	7.50104
2487.789	0.10421	8.51295	0.79938	7.80351
2491.788	-0.08041	8.19937	0.96609	8.21310
2495.791	-0.00643	8.12183	1.08497	7.89053
2499.792	-0.01350	8.26468	0.97236	8.92309
2503.792	0.25423	7.77806	1.08616	9.67565
2507.792	0.17511	7.50937	1.14355	9.47363
2511.765	0.19482	7.57645	1.14717	9.06792
2515.787	0.25532	7.09290	1.12196	9.62594
2519.790	0.19720	7.35267	0.76794	9.95799
2523.789	0.25761	7.14484	0.69635	9.93705
2527.793	0.37010	7.12357	0.47125	10.10755
2531.792	0.38936	7.08350	1.02647	10.45431
2535.790	0.58789	6.70665	0.97477	10.28621
2539.788	0.60101	6.74457	0.97162	10.60972
2543.789	0.50381	6.86531	0.89441	10.48779
2547.689	0.69146	7.07924	1.05587	8.73905
2551.788	0.20618	7.09515	0.67771	7.65374
2555.780	-0.24212	6.44454	0.08088	2.91462
2559.753	0.35583	5.07941	0.47592	7.00146
2563.688	0.13506	5.64888	0.42090	3.37744
2567.789	-1.04183	3.80169	0.61885	1.95026
2571.789	-0.44113	3.44678	0.23093	3.27735
2575.789	-2.18560	3.07151	-1.37374	1.04973
2579.728	-2.59146	2.35769	-2.35511	1.16019
2583.792	-4.10572	1.25240	-2.37265	-2.64301
2587.794	-5.18107	0.89997	-4.01393	0.70221
2591.794	-5.09788	-0.84763	-4.46862	0.35488
2595.690	-5.35810	-1.17138	-6.25975	-1.12143
2599.790	-6.82824	-1.36327	-5.94565	-0.32651
2603.790	-7.54818	-0.57062	-6.92640	-0.31017
2607.793	-7.15606	-0.79593	-6.96169	-2.09047
2611.688	-6.96445	-0.95685	-7.17218	-1.81524
2615.792	-7.40469	-1.25627	-7.28996	-1.70952
2619.791	-7.13949	-1.30664	-7.52313	-0.69012
2623.790	-7.41682	-1.50644	-7.70682	-1.13571
2627.692	-7.44943	-0.73114	-6.84734	-0.23744
2631.793	-7.27282	-1.26455	-6.71268	-0.15360
2635.792	-7.40321	-0.46789	-7.00560	-0.08896
2639.787	-7.44520	-1.40233	-6.98776	-0.04346
2643.690	-7.33598	-1.03745	-7.00771	-0.12768
2647.793	-7.32036	-1.15156	-6.79838	0.21884
2651.792	-7.32290	-0.81882	-6.75201	-1.38452
2655.792	-7.41228	-0.98633	-6.70881	0.42334
2659.691	-7.49934	-0.95268	-6.69459	0.68481
2663.793	-7.61407	-0.61226	-6.57781	0.35431
2667.790	-7.74423	-0.98552	-6.46593	-1.78997
2671.793	-7.89342	-0.89358	-6.40207	-1.20707
2675.691	-7.41109	-1.24319	-6.55751	-2.41102
2679.786	-7.46870	-1.23385	-6.80844	-3.00918
2683.793	-7.31408	-1.36560	-6.23986	-3.30210
2687.793	-7.43393	-1.29295	-6.48061	-3.51866
2691.693	-7.42336	-1.90433	-6.40922	-2.65713
2695.794	-7.29821	-1.67735	-6.46689	-2.19897
2699.793	-7.32461	-1.59478	-6.40724	-2.19915
2703.793	-7.31489	-1.74665	-6.40636	-2.66589
2707.690	-7.24493	-1.39141	-6.63112	-2.11819
2711.795	-7.36244	-1.96693	-6.37082	-2.42409
2715.795	-7.32014	-1.90003	-6.57627	-2.35662
2719.770	-7.35578	-1.87801	-6.36341	-2.26717
2723.684	-7.45987	-1.85564	-6.23685	-2.13384
2727.792	-7.59988	-1.74734	-6.55097	-2.02284
2731.795	-7.70565	-1.91748	-6.63348	-1.93484
2735.793	-7.60334	-1.78178	-6.61462	-2.11495
2739.690	-7.50325	-1.96506	-6.49815	-1.79747
2743.791	-7.26185	-1.82783	-6.47309	-1.97687
2747.795	-7.28950	0.52130	-6.31816	-1.98788
2751.792	-7.27409	-0.14341	-6.45424	-2.16307
2755.693	-7.62297	0.11009	-6.09466	-1.74209
2759.756	-7.32854	0.17371	-6.13213	-2.09565
2763.753	-7.49080	0.36014	-6.06983	-2.45115
2767.755	-7.34838	0.46581	-6.87550	-2.35372
2771.693	-7.59229	0.46481	-6.23940	-2.89384
2775.795	-7.33344	0.32939	-6.26022	-2.18673
2779.797	-7.07341	0.11699	-6.24872	-2.36242
2783.794	-7.09986	0.05353	-5.96954	-0.79622
2787.694	-7.28122	0.06953	-6.17766	-2.01027
2791.800	-7.32243	-0.17149	-5.94691	-2.46478
2795.796	-8.28775	-0.31885	-6.13422	-2.29508
2799.796	-7.59910	-0.51913	-6.01255	-2.84010
2803.693	-7.24280	-0.30855	-6.65005	-2.62181
2807.794	-7.68223	-0.30864	-6.60078	-2.33637
2811.794	-7.76226	-0.27066	-6.01316	-1.68663
2815.796	-6.92046	0.28020	-6.13503	-1.63774
2819.691	-7.36108	-0.01683	-6.19407	-0.97478
2823.793	-7.83614	0.35414	-6.08350	-0.83850
2827.797	-8.04939	0.03696	-5.85831	-0.47482
2831.672	-7.52488	-0.44377	-6.17825	-0.28618
2835.665	-7.49232	-0.38980	-6.31946	-0.07229
2839.671	-7.41682	-0.56104	-6.45309	-0.12395
2843.683	-7.69612	-1.31919	-6.63318	-0.75066
2847.665	-7.62767	-1.56364	-6.40016	-1.87725
2851.662	-7.55018	-1.71488	-6.09084	-1.46694
2855.669	-7.35019	-1.50553	-6.15129	-2.01548
2859.634	-7.30695	-1.14033	-6.74136	-2.23865
2863.668	-7.19598	-1.48762	-6.27645	-2.10376
2867.670	-7.29008	-1.34653	-6.26559	-1.27282
2871.669	-7.41729	-1.23214	-6.41778	-0.97823
2875.669	-7.46387	-0.99471	-6.59704	-0.33541
2879.670	-7.45526	1.59184	-6.13635	0.10120
2883.662	-7.40804	2.06308	-6.61494	3.03046
2887.677	-7.30739	1.28192	-6.47919	-0.39381
2891.637	-7.50195	1.09579	-6.84394	1.65245
2895.670	-8.35085	1.24138	-6.64317	2.61993
2899.638	-8.02730	1.45347	-6.63240	2.86859
2903.672	-8.05898	1.41617	-6.72031	2.94029
2907.670	-8.02501	1.39716	-6.42640	1.24196
2911.670	-8.04450	1.91717	-6.43780	2.58584
2915.692	-8.45123	2.63543	-6.64751	2.54663
2919.672	-7.31631	3.07219	-6.80193	2.65192
2923.672	-7.48366	2.26840	-6.92080	2.84360
2927.676	-7.99316	1.50299	-7.23877	2.54636
2931.664	-8.21855	2.43508	-6.95240	2.77832
2935.666	-8.29154	2.26888	-6.99470	3.00261
2939.668	-8.49076	2.49003	-7.09011	2.99936
2943.672	-8.92832	2.14928	-7.23934	2.97947
2947.666	-8.46405	2.08103	-6.84492	2.99918
2951.672	-8.91619	2.47382	-6.85187	3.31653
2955.671	-7.56427	1.90141	-6.98096	3.18119
2959.671	-8.38342	1.58239	-6.73143	3.41399
2963.693	-8.77361	1.37503	-7.09453	3.65766
2967.672	-8.56534	1.68447	-6.81965	3.39940
2971.670	-8.53571	1.53081	-6.82163	3.76273
2975.637	-7.83980	1.59567	-7.00783	3.88711
2979.669	-7.72671	1.62809	-6.85393	4.08330
2983.669	-7.94596	1.64713	-6.79011	4.38368
2987.673	-8.07192	1.67717	-7.01646	4.54750
2991.674	-7.92809	1.57512	-7.19666	4.11371
2995.666	-8.03037	1.59447	-7.14118	4.68010
2999.670	-8.11865	1.67774	-6.87188	4.65292
3003.674	-8.29973	1.72699	-6.95311	4.85890
3007.671	-8.38891	1.66473	-6.82180	4.52609
3011.698	-8.32667	1.58284	-6.65914	4.95981
3015.652	-8.14580	1.66379	-6.71490	4.80539
3019.670	-8.26096	1.70033	-6.81121	4.17095
3023.673	-8.37441	1.74919	-6.69549	4.52173
3027.672	-8.23024	1.66700	-6.88531	4.72005
3031.671	-8.17417	1.70992	-6.85295	4.39711
3035.671	-8.15509	1.49799	-6.85845	4.51562
3039.672	-8.04857	1.62311	-7.13192	4.27375
3043.698	-7.98683	1.67740	-7.05645	3.84328
3047.673	-7.96896	1.96966	-7.44074	3.91664
3051.672	-8.10888	1.89359	-6.84409	2.91889
3055.672	-7.95862	1.74592	-6.46267	2.44783
3059.699	-8.04137	2.11343	-7.43313	2.68612
3063.672	-8.05253	1.83248	-7.07417	0.19316
3067.672	-8.07404	1.68338	-6.30156	0.67643
3071.675	-8.30884	1.82978	-7.23662	2.04979
3075.693	-8.24281	1.98060	-7.07737	0.98040
3079.673	-8.61610	1.89643	-7.39154	3.14376
3083.672	-8.25508	2.34781	-6.92980	2.24843
3087.631	-8.10335	1.89642	-7.54166	3.40177
3091.700	-7.99330	2.01022	-7.34753	2.28081
3095.678	-7.85127	1.90956	-7.11037	1.29063
3099.672	-8.02370	1.92208	-7.04711	2.10689
3103.674	-8.01662	2.03168	-7.21857	2.11243
3107.696	-8.17631	1.94182	-6.90123	1.39397
3111.676	-8.54603	2.02350	-6.70195	0.96329
3115.673	-8.61829	2.04160	-6.72232	0.60507
3119.674	-8.39042	1.91564	-7.19459	1.33507
3123.675	-8.18091	1.89175	-7.20309	0.87223
3127.673	-7.98977	1.90543	-7.00614	2.47190
3131.677	-8.26206	1.81209	-7.31452	2.10858
3135.636	-7.87022	1.83765	-7.22339	1.86532
3139.634	-7.99462	2.02616	-7.08341	1.82943
3143.667	-8.06141	1.79120	-7.14658	1.83990
3147.676	-8.10506	1.79349	-6.91960	1.98576
3151.674	-8.38299	1.62481	-6.72558	1.80673
3155.699	-8.28160	1.74508	-7.15288	2.21309
3159.675	-8.60128	1.80768	-6.93995	2.22553
3163.676	-8.01584	1.99509	-7.04672	2.12450
3167.638	-8.19440	1.94596	-7.08593	2.54458
3171.667	-8.14409	2.09312	-6.89353	3.15940
3175.673	-7.89035	2.44455	-6.96678	3.21938
3179.675	-8.31236	2.10478	-7.10497	3.30567
3183.637	-7.49827	2.58150	-6.96436	4.09997
3187.674	-7.80574	3.01493	-7.02790	3.35209
3191.676	-7.96115	3.37951	-7.00536	3.48938
3195.673	-8.01623	2.75742	-7.21503	3.59232
3199.673	-8.33579	2.89092	-6.99291	4.49708
3203.701	-8.16989	2.71134	-7.26708	6.12858
3207.679	-8.01659	2.76508	-7.38229	4.65077
3211.674	-8.04156	2.72409	-7.21384	4.38469
3215.678	-8.32774	2.59792	-7.25172	3.68866
3219.677	-8.11790	2.76819	-7.32175	3.89274
3223.655	-8.01801	2.61142	-7.16280	4.01621
3227.671	-7.92437	2.86769	-7.37004	4.18214
3231.674	-7.98700	2.58527	-7.39398	3.57399
3235.671	-8.12512	2.36886	-7.30178	2.32248
3239.674	-8.43353	2.33383	-6.93814	4.51759
3243.675	-8.18473	2.40482	-7.25719	4.67384
3247.677	-8.87006	1.56531	-7.23382	3.51896
3251.680	-8.43797	1.75109	-6.96120	4.07585
3255.677	-8.56032	1.72797	-7.71535	4.36308
3259.677	-9.66270	2.21919	-7.94613	3.18214
3263.640	-9.80566	2.24098	-8.17799	2.10987
3267.646	-10.06049	1.83655	-8.34125	2.83141
3271.676	-10.84777	2.03597	-8.65366	2.69850
3275.677	-11.12388	1.89871	-9.65930	2.50561
3279.675	-11.61394	2.10348	-10.10783	3.77516
3283.681	-11.59892	1.80463	-10.03161	2.93140
3287.675	-11.26383	1.90872	-10.22012	2.78278
3291.676	-11.52000	1.82587	-10.39290	2.88137
3295.682	-10.87352	1.77792	-10.43433	2.83153
3299.671	-11.39341	1.79266	-10.47864	2.63363
3303.678	-10.82785	1.95215	-9.48381	2.97178
3307.678	-11.48926	1.78174	-10.12508	3.12731
3311.676	-11.45317	1.67712	-10.06337	3.24389
3315.680	-11.63361	1.65751	-10.45214	3.19183
3319.675	-11.51881	1.65452	-10.37203	3.64061
3323.677	-11.57298	1.72955	-10.09325	3.27990
3327.641	-11.54740	2.02021	-9.99503	3.48843
3331.644	-11.52919	1.77531	-10.02095	3.72028
3335.677	-11.57298	1.83381	-10.01007	3.97032
3339.677	-11.56681	2.34531	-9.91298	3.88411
3343.679	-11.62342	2.38099	-9.96841	4.08982
3347.637	-11.64613	2.01751	-9.99142	4.33237
3351.674	-11.63351	2.07317	-10.10011	5.00153
3355.678	-11.68550	2.10952	-10.15747	5.12636
3359.678	-11.68412	2.09714	-9.98008	5.07007
3363.680	-11.43665	2.26272	-9.87032	5.08167
3367.677	-11.30574	2.25059	-9.88071	4.96546
3371.678	-11.20323	2.31550	-9.82294	4.92054
3375.677	-11.10481	2.30464	-9.91440	5.05340
3379.669	-11.25385	2.24530	-9.98502	5.08815
3383.679	-11.52405	2.12961	-9.88665	5.15886
3387.676	-11.37999	2.17419	-9.85317	4.87979
3391.644	-11.41190	2.01736	-9.88338	5.30877
3395.681	-11.55292	1.96741	-9.92013	5.22767
3399.676	-11.55978	2.11580	-10.08849	5.68668
3403.677	-11.53127	2.03572	-9.96860	4.90945
3407.677	-11.53184	2.17487	-9.80253	5.18783
3411.683	-11.66406	2.18147	-9.87608	4.93188
3415.679	-11.70545	2.16778	-9.98283	5.04552
3419.681	-11.64670	2.34942	-10.08945	6.06944
3423.678	-11.74818	2.24781	-9.94144	5.48176
3427.681	-11.72427	2.73797	-9.95755	5.12655
3431.680	-11.66858	2.14319	-10.04439	4.96332
3435.676	-11.53980	2.43555	-10.01226	3.68704
3439.680	-11.66772	2.54982	-10.12303	4.49099
3443.676	-11.45407	2.53261	-14.14541	-4.47684
3447.679	-11.51778	2.58447	-14.28676	-4.43360
3451.677	-11.30424	2.54544	-14.33746	-4.41470
3455.679	-11.29796	2.84927	-15.11898	1.84467
3459.674	-11.19898	2.63081	-11.01727	-3.54018
3463.680	-11.34268	2.51016	-11.59658	-3.73067
3467.679	-11.39468	2.50992	-11.81891	-3.73170
3471.676	-11.43917	2.46083	-10.17324	3.35575
3475.673	-11.36670	2.76576	-10.27417	3.23250
3479.679	-11.35909	2.64928	-9.65199	3.40150
3483.689	-11.49812	2.53573	-9.88596	3.53044
3487.678	-11.29531	2.96990	-13.63496	2.58309
3491.670	-11.28312	3.14756	-13.08251	-3.73888
3495.684	-11.34452	3.42694	-12.90987	-3.71026
3499.678	-11.33986	3.69285	-12.75786	-3.37421
3503.681	-12.07296	5.18681	-7.78728	-0.75756
3507.645	-11.33791	11.63185	-13.62978	2.29644
3511.679	-5.60883	0.85251	-12.02518	5.75969
3515.642	NaN	NaN	-11.97370	14.32515
3519.679	NaN	NaN	NaN	NaN
3523.651	NaN	NaN	NaN	NaN
3527.683	NaN	NaN	NaN	NaN
3531.683	NaN	NaN	NaN	NaN
3535.682	NaN	NaN	NaN	NaN
3539.647	NaN	NaN	NaN	NaN
3543.678	NaN	NaN	NaN	NaN
3547.683	NaN	NaN	NaN	NaN
3551.681	NaN	NaN	NaN	NaN
3555.644	NaN	NaN	NaN	NaN
3559.645	NaN	NaN	NaN	NaN
3563.683	NaN	NaN	NaN	NaN
3567.680	NaN	NaN	NaN	NaN
3571.644	NaN	NaN	NaN	NaN
3575.670	NaN	NaN	NaN	NaN
3579.580	NaN	NaN	NaN	NaN
3583.683	NaN	NaN	NaN	NaN
3587.646	NaN	NaN	NaN	NaN
3591.683	NaN	NaN	NaN	NaN
3595.697	NaN	NaN	NaN	NaN
3599.648	NaN	NaN	NaN	NaN
3603.682	NaN	NaN	NaN	NaN
3607.644	-9.94479	13.45592	NaN	NaN
3611.578	NaN	NaN	NaN	NaN
3615.682	-8.03175	11.71143	NaN	NaN
3619.681	-8.68601	13.57294	NaN	NaN
3623.682	-8.26512	8.51791	NaN	NaN
3627.684	-8.24893	13.67463	NaN	NaN
3631.683	-10.26792	13.66376	NaN	NaN
3635.688	-7.36381	13.25685	NaN	NaN
3639.645	-0.19013	13.86881	NaN	NaN
3643.686	-7.41948	14.22154	NaN	NaN
3647.682	-9.47188	12.49209	NaN	NaN
3651.684	-7.83831	14.16589	NaN	NaN
3655.682	-7.11318	14.39195	-5.04634	6.67213
3659.560	NaN	NaN	-4.88665	15.00173
3663.682	NaN	NaN	-5.30645	13.73328
3667.681	-7.54244	13.55465	-5.53488	13.73944
3671.684	-7.10330	12.46677	-6.10377	13.55762
3675.687	-7.93442	10.54723	-6.76806	13.29672
3679.680	-7.56183	10.41995	-6.89561	13.65773
3683.683	-7.53283	10.27991	-7.13390	13.67342
3687.684	-7.69203	10.32040	-7.92067	14.57950
3691.685	-7.63959	10.40231	-7.55396	14.58657
3695.685	-7.62433	10.38781	NaN	NaN
3699.688	-7.52547	10.46763	NaN	NaN
3703.686	-7.45909	10.42756	NaN	NaN
3707.685	-7.41031	10.53000	NaN	NaN
3711.649	-7.39723	10.63155	NaN	NaN
3715.683	-7.54574	10.70991	-8.11819	14.20049
3719.682	-7.47751	10.82768	NaN	NaN
3723.686	-7.50451	11.01918	-7.47443	13.42483
3727.682	-7.53298	11.52019	-7.45787	13.43392
3731.685	-7.39735	11.16717	-7.24998	13.11511
3735.684	-7.26881	11.30781	-11.16772	4.79546
3739.583	-7.21291	11.59270	-11.18917	4.78058
3743.685	-7.27077	11.77916	-11.25022	4.90613
3747.685	-7.17502	11.72631	-11.29276	4.85608
3751.683	-7.08273	11.68541	-11.34654	4.88942
3755.686	-5.28372	11.66692	-11.51437	4.96869
3759.647	-6.97213	11.83102	-11.46168	5.05838
3763.672	-7.07620	11.90716	-11.61923	5.17303
3767.648	-6.97511	12.21472	-7.12383	13.00941
3771.583	-7.04200	12.13617	-7.07163	12.76469
3775.682	-7.02064	12.14122	-7.06816	12.62157
3779.648	-7.00181	12.22401	-7.03550	12.65613
3783.684	-7.10066	12.32015	-7.09685	12.84318
3787.687	-7.03115	12.36968	-6.96438	12.51687
3791.686	-7.03201	12.27564	-6.86415	12.50345
3795.683	-7.11882	12.41583	-6.93256	12.71635
3799.690	-7.02797	9.75092	-6.84974	12.17624
3803.689	-7.08087	10.72121	-6.71958	12.38326
3807.660	-7.07019	10.14482	-6.85035	12.52033
3811.685	-7.07989	10.48418	-6.72626	12.05107
3815.683	-6.96546	10.35557	-6.82650	12.33599
3819.689	-6.87609	10.15006	-6.86591	12.27822
3823.683	-6.84568	10.26966	-6.79508	12.38299
3827.684	-6.83558	10.26151	-6.79856	12.18306
3831.648	-6.73042	10.20446	-6.91305	12.47772
3835.680	-6.84274	10.33473	-6.97184	12.45839
3839.687	-6.71473	10.24926	-7.00996	12.24085
3843.687	-6.72714	10.47875	-7.23743	12.50337
3847.665	-6.61082	10.47177	-7.78248	12.83844
3851.581	-6.54516	11.10854	-7.62531	12.95732
3855.683	-6.30855	10.49855	-7.79839	12.88245
3859.685	-6.35106	10.43793	-7.71971	13.19740
3863.685	-6.14921	10.88004	-8.11192	14.05954
3867.690	-6.41878	10.86302	-8.20024	13.07569
3871.559	-6.08895	10.61947	-8.33627	13.87914
3875.562	-6.42442	10.59282	-7.54154	13.29787
3879.560	-6.41712	10.69407	-6.57404	11.66390
3883.553	-6.25813	9.55323	-2.42381	1.67710
3887.562	-6.18581	7.95142	-5.42122	8.73462
3891.562	-6.42518	8.13995	-5.66447	7.08184
3895.528	-9.19580	10.40260	-4.80433	4.78263
3899.688	-6.56392	6.74987	-1.47380	-1.20786
3903.563	-6.77215	5.47927	-1.28331	4.64116
3907.561	-6.65652	5.34603	-1.08845	4.29004
3911.560	-6.76760	5.27773	-4.46366	7.47554
3915.560	-6.62549	5.36141	-1.05153	4.13484
3919.560	-6.75294	5.74071	-1.29878	4.41329
3923.562	-6.79579	5.40301	-1.19644	3.83154
3927.561	-6.60913	5.93889	-1.30600	4.47607
3931.619	-6.14744	5.52287	-1.22759	4.13829
3935.547	-6.02880	5.12842	-1.31932	3.68065
3939.561	-5.97877	5.08851	-1.38044	3.84373
3943.563	-5.61033	5.22462	-1.35765	2.94178
3947.525	-5.77625	4.97078	-3.04311	6.10251
3951.560	-6.04080	4.94306	-4.58461	5.94153
3955.565	-5.95776	4.84491	-4.22278	5.29001
3959.562	-6.08514	4.91992	-4.67480	5.97804
3963.554	-5.99981	4.81362	-4.65565	5.62918
3967.560	-6.06865	4.50900	-4.68770	5.81407
3971.563	-5.98783	4.47037	-4.55904	5.00920
3975.561	-6.24242	4.41548	-4.54390	5.70696
3979.556	-6.12440	4.49235	-4.53455	5.31343
3983.564	-6.26500	4.22269	-4.64147	5.00725
3987.563	-6.09754	4.38301	-4.65617	5.41425
3991.563	-6.12430	4.62964	-4.62416	4.98107
3995.557	-6.52032	4.32159	-4.60912	4.87917
3999.567	-6.20521	4.59318	-4.53186	4.85497
4003.563	-6.30053	4.40466	-4.47878	4.80170
4007.564	-6.45576	4.04953	-4.49995	4.53759
4011.529	-6.26760	4.54308	-4.44146	4.61276
4015.564	-6.21961	4.48835	-4.35649	4.57702
4019.555	-6.24161	4.79504	-4.53963	4.79439
4023.526	-6.17121	4.73817	-5.36056	4.99883
4027.563	-6.63090	4.84221	-5.00100	4.98901
4031.565	-6.92215	4.76940	-5.08673	5.11587
4035.563	-6.61114	4.90759	-6.13034	5.61445
4039.563	-6.57568	5.01675	-6.12656	5.73834
4043.587	-6.60245	4.94571	-5.91622	4.75281
4047.564	-6.48683	5.20546	-6.03805	5.14084
4051.562	-4.66822	5.27372	-4.95108	4.74348
4055.563	-1.66490	9.12162	-4.01356	3.38787
4059.555	-4.09481	4.52159	-3.67007	4.34576
4063.565	-2.19660	3.04584	-1.11472	3.24598
4067.562	-3.88147	2.18353	0.01715	-0.22836
4071.562	-1.05562	6.06756	1.73700	-0.44513
4075.565	-1.05771	2.51019	1.81761	2.75690
4079.521	-0.51210	1.95266	1.92845	2.32374
4083.564	-0.65091	1.11581	2.26311	-0.02416
4087.520	0.02971	1.15679	3.00846	-0.36577
4091.563	-0.05830	1.20016	3.54885	-0.25280
4095.566	0.01449	1.42692	3.34596	-0.32499
4099.572	-0.01293	1.62229	3.32117	-0.14698
4103.535	0.14742	1.31066	3.31432	-0.89020
4107.556	0.31277	1.24739	3.33839	-0.84504
4111.567	-0.00233	1.36716	3.48289	-1.12699
4115.566	-0.04239	1.63423	3.62054	-1.54268
4119.566	0.08902	1.56858	3.54119	-1.46105
4123.524	0.17268	1.34972	3.47979	-1.70086
4127.563	0.18214	1.58300	3.48652	-1.78111
4131.564	0.19422	1.37741	3.33119	-1.98678
4135.561	0.15106	1.46496	3.01430	-2.56552
4139.565	0.14327	1.27368	3.01789	-2.28393
4143.547	0.17015	1.49587	3.37497	-2.81973
4147.562	0.14625	1.51435	3.09433	-2.38661
4151.568	-0.16653	1.71683	3.50170	-2.50871
4155.556	-0.05989	1.67917	3.40531	-2.55471
4159.565	-0.05274	1.65484	3.68142	-2.47035
4163.564	0.36402	1.18906	3.76127	-1.95304
4167.565	0.33042	1.44763	3.83359	-0.61510
4171.557	0.59052	1.16597	3.64770	0.20362
4175.567	0.05100	1.06757	3.74834	0.42869
4179.570	0.54384	1.07604	3.22500	0.00102
4183.565	0.49455	1.08328	3.90368	0.50707
4187.556	0.00062	1.49002	3.23059	0.87884
4191.566	-0.07962	1.16842	3.05578	1.29308
4195.566	-0.10421	1.10157	3.74805	1.19294
4199.572	0.04849	0.97747	3.18522	0.81605
4203.560	0.20983	0.90515	3.62573	0.76145
4207.569	-0.03532	0.89149	3.53859	0.65089
4211.568	-0.14012	0.97538	3.27287	-0.82500
4215.566	-0.09972	1.14427	3.57958	-1.04191
4219.567	0.09101	1.07095	3.44226	-1.59993
4223.566	-0.06252	1.56804	3.32553	-1.41864
4227.548	-0.28019	1.50304	2.84039	-0.93923
4231.575	-0.19157	1.50791	3.19365	0.25981
4235.559	-0.14603	1.44968	2.77859	0.68609
4239.567	-0.13558	1.58338	2.92933	0.50188
4243.568	-0.02688	1.59016	2.58843	0.01328
4247.566	-0.12999	1.82192	3.32558	0.01211
4251.560	0.13940	1.78225	3.73781	-0.58902
4255.568	0.31878	1.82331	3.15555	-1.31116
4259.528	0.50413	1.85884	3.46572	-1.55149
4263.570	0.29783	1.79697	2.95035	-1.45846
4267.558	-0.00648	1.97942	3.04264	-1.53667
4271.557	-0.05653	1.89475	2.43246	-1.50336
4275.564	-0.08835	1.97775	2.93747	-1.21553
4279.566	0.24247	1.93380	2.71954	-1.06637
4283.561	0.07909	1.97043	2.70181	-0.39091
4287.567	0.25061	2.14540	2.93658	-0.41703
4291.568	0.28781	2.22338	2.93624	-1.49634
4295.567	-0.10272	2.33668	3.09629	-1.85310
4299.567	0.58796	2.35135	3.05724	-1.80084
4303.566	0.47790	2.35283	3.10431	-2.06253
4307.530	0.60627	2.04212	3.28360	-2.17182
4311.538	0.21862	2.10550	3.39977	-2.00264
4315.564	-0.06991	1.69551	3.19430	-2.22402
4319.569	-0.09083	1.58261	3.05167	-2.21969
4323.568	0.09336	1.23620	0.44542	-1.96226
4327.532	0.12121	0.89320	3.00420	-1.58032
4331.536	0.02995	0.96833	3.01984	-0.59191
4335.571	0.22631	1.16483	3.09265	-0.16642
4339.566	0.27577	1.39506	2.78807	0.42515
4343.567	0.01472	1.16027	2.04275	1.03392
4347.569	-0.13347	1.16909	2.00353	1.62837
4351.554	-0.06244	1.01585	2.11938	1.18641
4355.566	0.13265	1.06282	2.79988	1.11736
4359.571	-1.42538	1.07534	2.59970	0.28741
4363.560	-1.48386	1.14009	3.27930	0.75547
4367.567	-0.35303	1.16226	2.75547	0.40320
4371.568	-1.50693	1.39241	3.06550	0.28942
4375.570	-0.39328	1.43016	2.86225	0.21957
4379.570	-0.62305	1.74593	2.98755	-0.92382
4383.568	-0.56334	1.89774	3.19076	-0.46149
4387.566	-0.20313	1.95002	3.10153	-0.33906
4391.567	-0.44495	1.86469	3.08614	-0.39152
4395.561	-0.73044	2.36485	3.29397	-0.11275
4399.569	-0.51054	2.02657	2.95044	0.46765
4403.568	-0.52905	2.17006	2.83994	0.52835
4407.571	-0.54076	2.00224	2.29250	0.84111
4411.564	-0.32925	2.11114	1.85145	0.92579
4415.570	-0.42135	1.42504	2.83194	1.18195
4419.569	-2.42760	2.26566	2.32335	1.09466
4423.568	-0.35323	2.03033	2.55388	0.04925
4427.563	-0.19591	1.72926	2.85710	0.81979
4431.570	-0.24636	2.04430	2.70545	0.72567
4435.572	-0.29101	1.99451	2.71723	0.32597
4439.569	-0.29868	2.44553	3.04863	0.76837
4443.584	-0.21465	2.25976	3.06815	0.39542
4447.569	-0.27741	2.34901	2.84110	0.18185
4451.570	-0.44822	2.41924	3.23880	0.43823
4455.570	-0.02936	4.96088	2.97176	0.68143
4459.536	-0.32928	2.44272	3.23435	0.46385
4463.570	-0.46130	2.38183	2.75413	-0.30509
4467.572	-0.36003	2.43249	2.52203	0.22156
4471.571	-0.56205	2.76177	2.30432	-1.13650
4475.530	-0.88800	2.63950	2.63631	-0.01839
4479.571	-1.01692	2.67555	2.17110	0.46399
4483.570	-0.83463	2.57718	3.38108	0.40855
4487.568	-0.86461	2.46458	2.77666	0.36539
4491.570	-0.90545	2.35105	3.04793	-0.00129
4495.568	-0.82873	2.25069	3.02848	0.97313
4499.569	-1.03863	1.45074	3.13952	0.36041
4503.572	-0.98735	1.30029	3.27024	0.46505
4507.573	-0.97891	1.94488	3.34967	0.26235
4511.571	-0.98668	2.63544	3.38894	0.25820
4515.571	-1.00891	2.34945	3.58717	0.36345
4519.544	-0.93805	2.33360	3.38442	0.66586
4523.568	-0.86731	2.21400	3.00759	0.94531
4527.572	-0.89761	2.03096	2.73578	1.26104
4531.571	-0.88096	2.85118	2.96213	1.00713
4535.574	-0.79382	2.86575	2.48641	0.56509
4539.576	-0.67012	2.83779	2.13217	0.07921
4543.574	-0.70762	2.52233	2.54338	0.38445
4547.571	-0.43505	2.56694	3.43224	-0.03341
4551.572	-0.56108	2.73302	3.53641	0.02145
4555.563	-0.80292	2.69031	3.43575	-0.78620
4559.570	-0.69722	2.70406	3.41728	-1.18226
4563.569	-0.77637	2.54245	3.81123	-0.99673
4567.569	-0.65188	2.71192	3.95009	-1.21414
4571.536	-0.69431	2.82236	3.37967	-0.52366
4575.571	-0.61196	2.62055	3.80928	-0.34025
4579.571	-0.58349	2.77626	2.59255	0.32951
4583.570	-0.42177	2.88002	2.59101	0.40492
4587.539	-1.16317	3.04460	1.67303	0.88709
4591.572	-1.11720	2.89279	2.17150	1.32372
4595.570	-1.12102	2.68488	2.18453	1.08675
4599.570	-0.98938	2.77944	2.24706	0.95279
4603.472	-0.96184	2.51108	3.01893	0.84034
4607.574	-1.00945	2.69839	2.55933	0.57988
4611.571	-1.25967	2.03040	3.02418	0.52198
4615.573	-0.94884	1.55024	4.01487	-1.15891
4619.470	-0.77278	1.86840	3.96639	-1.19565
4623.570	-0.88247	2.56475	2.98646	-1.44440
4627.575	-0.85947	2.21948	3.80540	-1.42154
4631.573	-0.82357	2.44112	3.16866	-0.79505
4635.473	-0.49649	2.37289	3.00393	-1.48080
4639.572	-0.40003	2.64501	2.63237	-0.69347
4643.554	-0.43820	2.92329	2.48814	-0.74021
4647.575	-0.55878	3.25290	1.77050	-0.21380
4651.482	-0.39226	3.35244	1.27864	-1.06204
4655.571	-0.38606	2.89543	2.56996	-1.12231
4659.572	-0.40539	3.07030	2.56166	-1.36471
4663.572	-0.38953	3.21261	2.50727	-1.36712
4667.473	-0.44663	3.00779	2.61741	-1.24365
4671.571	-0.56868	2.79181	2.40062	-1.51990
4675.569	-0.69776	3.15119	2.63187	-1.68884
4679.571	-0.56972	2.78044	3.08065	-1.61489
4683.472	-0.65094	3.05811	3.24551	-2.06634
4687.564	-0.63573	2.76035	2.99198	-1.85821
4691.573	-0.65940	3.20610	3.99267	-1.65789
4695.570	-0.69010	2.89726	3.90405	-1.88494
4699.446	-0.53384	2.81930	2.85076	-2.13364
4703.576	-0.47081	2.95423	2.89728	-1.78598
4707.570	-0.62335	2.96432	2.91512	-2.00920
4711.574	-0.48842	2.94183	2.31282	-1.94812
4715.472	-0.36740	2.89134	2.77847	-2.04298
4719.574	-0.42693	2.88634	2.76024	-1.96696
4723.572	-0.41760	2.93413	2.38365	-2.28812
4727.544	-0.15724	2.90901	2.52765	-2.52411
4731.578	-0.01184	1.50941	2.63990	-2.43784
4735.575	0.02956	1.63555	3.62133	-2.65183
4739.573	-0.14317	1.97805	2.65372	-2.29134
4743.576	-0.25589	2.82031	2.67870	1.13863
4747.578	-0.19149	1.99951	2.78174	0.97446
4751.574	-0.16432	1.65307	3.12168	0.87469
4755.575	-0.15288	1.43531	3.16354	0.67374
4759.575	-0.15379	1.44690	3.14360	0.95928
4763.536	-0.02407	1.45245	3.37319	1.21323
4767.559	0.06547	1.45557	3.24494	0.79630
4771.571	-0.02596	1.37556	3.48662	0.96530
4775.536	-0.12823	1.32661	3.35320	0.89788
4779.476	-0.04274	1.30026	3.36411	0.96855
4783.573	-0.06413	1.33562	3.43486	0.77914
4787.572	-0.32081	1.49799	3.46308	0.88061
4791.574	-0.26810	1.33305	3.46852	0.46335
4795.474	-0.34409	1.32812	3.48454	0.52219
4799.537	-0.22157	1.44836	3.48828	0.65465
4803.577	-0.19651	1.42641	3.37309	0.56874
4807.575	-0.23544	1.49256	3.58000	0.31288
4811.471	-0.10595	1.41147	3.57681	0.80783
4815.574	-0.01638	1.53424	3.40603	0.47228
4819.576	0.17829	1.53284	3.66303	0.93722
4823.576	-0.07339	1.52503	3.43064	1.16186
4827.477	-0.14781	1.55716	4.05878	1.12176
4831.578	-0.20755	1.50180	3.38246	1.16009
4835.575	-0.30652	1.46901	3.69432	1.45857
4839.573	-0.04698	1.05170	3.34148	1.07523
4843.475	0.01628	-1.00455	3.14674	0.61449
4847.576	0.29553	0.94362	3.18299	-0.36114
4851.557	0.13307	1.30959	2.86202	-0.92809
4855.574	-0.08237	1.47544	2.96720	-1.97612
4859.473	0.22701	1.31137	2.65270	-2.19745
4863.578	-0.25659	2.39669	2.71659	-2.13736
4867.580	-0.32794	2.34558	2.81112	-2.15278
4871.577	-0.44001	2.07056	3.01039	-1.82935
4875.472	-0.40398	2.63995	2.85212	-2.14023
4879.576	-0.18229	2.64174	3.01049	-2.29551
4883.574	-0.10820	2.51699	2.83858	-2.21307
4887.575	0.09252	2.32153	3.11396	-2.14414
4891.480	-0.20087	2.32489	2.79050	-2.62188
4895.569	-0.11391	2.49362	2.81583	-2.49624
4899.578	-0.30369	2.50947	2.97878	-2.70683
4903.457	-0.17608	2.93080	3.82111	-2.14768
4907.447	0.64305	1.48170	4.50212	1.10823
4911.447	3.65146	3.26028	7.81278	3.31482
4915.451	4.13426	5.58012	7.82557	3.11484
4919.454	6.29710	3.54517	10.33649	5.96242
4923.453	6.55731	6.10524	11.92883	3.97218
4927.454	8.20787	8.27358	12.28609	4.46109
4931.450	8.40278	6.28565	12.63069	10.65294
4935.452	10.05481	7.87453	11.68879	5.75509
4939.450	9.73800	8.42933	11.12529	9.00549
4943.456	10.20579	8.50147	9.11840	10.27445
4947.452	10.14879	8.45073	9.26307	8.90463
4951.452	10.35349	8.53946	9.93289	9.02098
4955.450	9.94931	8.72625	9.65729	9.00262
4959.452	9.18342	9.04332	9.71331	9.95246
4963.451	9.23401	9.10780	9.18862	10.29769
4967.455	9.50926	9.04141	9.59858	9.16711
4971.444	9.53743	9.23791	9.26725	10.19054
4975.453	9.48519	9.29161	9.02750	10.16462
4979.450	9.60917	9.25523	8.94869	10.39215
4983.446	9.52780	9.24390	8.87549	10.48903
4987.453	9.46041	9.31847	8.86677	10.64930
4991.453	9.65339	9.38569	11.16953	8.88405
4995.451	9.60861	9.43468	11.67232	9.02307
4999.454	9.48637	9.45663	8.54219	11.00848
5003.475	9.71394	9.47182	8.48056	10.75424
5007.453	9.86281	9.36253	9.00929	10.66533
5011.452	9.87921	9.36114	11.94999	8.00271
5015.454	10.04143	9.34675	12.07666	7.94950
5019.453	9.93195	9.36319	11.89975	8.37018
5023.424	9.69294	9.35714	9.11416	9.65707
5027.455	9.88179	9.33683	8.27491	10.07842
5031.452	9.72930	9.34722	7.82365	10.58329
5035.447	9.62854	9.31899	8.09961	10.61559
5039.454	9.55143	9.25043	8.67301	9.87531
5043.455	9.29147	9.32193	8.03905	10.05817
5047.452	9.03362	9.38002	7.90343	10.23475
5051.447	8.98128	9.39280	8.32152	10.19650
5055.454	9.31714	9.32966	9.17931	9.02120
5059.456	9.32313	9.33934	9.14619	9.47470
5063.441	9.37025	9.33600	8.54561	10.36522
5067.453	9.52372	9.27196	8.99346	10.21561
5071.417	9.76881	9.17553	9.16673	10.50070
5075.455	9.75247	9.18614	8.89538	10.38487
5079.418	9.73590	8.95404	8.79349	10.26378
5083.447	9.96082	9.04505	15.63099	9.25928
5087.411	9.86686	9.02164	11.35451	13.31651
5091.453	9.74034	9.02639	11.81011	13.51411
5095.453	9.81559	8.92209	11.59361	13.48414
5099.445	9.82496	8.80340	11.81815	12.80340
5103.453	9.58333	8.88017	11.55302	13.01856
5107.422	9.54689	8.92179	11.77948	11.90659
5111.454	9.50081	9.09205	11.88622	11.52471
5115.476	7.68735	9.04749	10.89978	8.31994
5119.455	8.52899	7.48202	8.91369	9.38020
5123.454	5.59754	7.88801	8.83595	6.84294
5127.454	5.26187	6.59444	6.34876	4.60563
5131.447	4.58705	5.38372	6.17766	4.90286
5135.415	2.17745	4.87075	6.24634	1.17329
5139.454	2.15311	2.29537	4.92018	2.69001
5143.459	0.58801	4.29027	3.24439	1.70563
5147.454	0.54250	2.36345	2.95431	-0.00288
5151.419	0.46438	2.43189	2.59720	-1.74178
5155.457	-0.47299	1.40479	2.33935	-2.49396
5159.458	-0.83734	1.60419	1.74828	-2.68814
5163.415	-0.97365	0.16945	0.70436	-2.51931
5167.456	-1.51345	1.01133	0.72317	-2.67556
5171.456	-1.42717	1.15765	0.31131	-2.61868
5175.457	-1.42060	1.38028	0.66198	0.97405
5179.481	-1.27376	1.16957	0.85161	0.56839
5183.455	-1.09515	0.92474	0.55761	-0.39396
5187.452	-1.58584	0.82052	0.51235	0.09986
5191.448	-2.14208	0.68299	0.60027	-0.52050
5195.480	-1.91189	0.54418	0.01216	0.65167
5199.419	-2.70270	0.35080	-0.10858	0.33606
5203.453	-2.82192	0.62204	0.30039	0.19857
5207.421	-2.96673	0.76838	0.17452	-0.10635
5211.457	-2.65394	1.02392	0.30198	-0.25095
5215.454	-2.82202	0.54538	0.40961	-0.53289
5219.457	-2.68276	0.48220	-0.05527	-0.33871
5223.459	-2.45146	0.52549	0.06351	-0.52154
5227.481	-2.41477	2.30239	0.24314	-0.40424
5231.435	-2.62583	1.34826	0.38909	-0.78693
5235.459	-2.49292	0.93170	-0.01117	-0.67254
5239.455	-2.46905	1.17443	0.39154	-1.02460
5243.447	-2.32486	1.91889	0.25480	-0.68202
5247.457	-2.23615	1.79055	0.22348	-0.86234
5251.456	-2.16751	1.64292	0.33471	-1.17138
5255.458	-2.24807	1.84039	0.23740	-0.93126
5259.449	-2.18538	1.51673	0.27453	-1.47053
5263.459	-2.11879	1.59597	0.23239	-1.33152
5267.449	-2.10146	1.79120	0.26331	-1.79162
5271.445	-2.10097	1.63118	0.14253	-1.99867
5275.450	-2.11172	1.73043	-0.25800	-1.95649
5279.460	-2.13740	0.99402	0.28113	-1.93516
5283.458	-2.64549	0.28461	-1.57161	-4.56936
5287.459	-4.82008	-2.19377	-3.28833	-2.80360
5291.450	-5.53045	-3.09246	-4.67034	-4.51776
5295.460	-6.10605	-2.62785	-5.47016	-4.70003
5299.456	-6.96335	-2.18293	-6.77991	-6.63644
5303.458	-7.75782	-3.06749	-7.55637	-5.04240
5307.461	-10.23887	-3.22469	-7.74047	-6.45595
5311.457	-10.19346	-4.01054	-10.28071	-7.34582
5315.424	-10.54102	-3.26108	-10.23541	-7.86849
5319.457	-10.45149	-3.68863	-8.68072	-7.18427
5323.482	-10.52132	-3.80114	-9.92673	-7.38254
5327.458	-10.25752	-4.02392	-9.76553	-7.27079
5331.459	-10.30670	-4.13365	-10.13544	-7.64121
5335.461	-10.40637	-4.99246	-9.96650	-7.58344
5339.451	-10.33202	-4.98665	-10.06051	-7.77010
5343.456	-10.37534	-4.33017	-10.07598	-7.76010
5347.457	-10.45615	-5.13462	-10.18625	-7.81460
5351.460	-10.36783	-5.42096	-10.26797	-8.03274
5355.457	-10.38555	-5.55788	-10.14533	-8.07489
5359.459	-10.51340	-5.74593	-10.28993	-7.65297
5363.458	-10.66680	-5.60057	-9.87926	-7.58163
5367.458	-10.69311	-5.59191	-9.47181	-6.86429
5371.452	-10.70962	-5.53736	-9.23865	-6.76724
5375.458	-10.86727	-5.18509	-9.32340	-6.41155
5379.458	-10.43385	-5.48824	-9.37262	-6.72480
5383.421	-10.79701	-5.22015	-9.39825	-6.36750
5387.463	-10.79358	-5.48204	-10.15615	-6.35152
5391.460	-10.61876	-5.40701	-9.70946	-6.57975
5395.462	-10.68820	-5.61242	-9.34978	-6.39872
5399.455	-10.74149	-5.65394	-9.74391	-6.36132
5403.455	-10.75452	-5.88105	-9.23565	-6.33565
5407.462	-10.78740	-5.17117	-9.18378	-6.08374
5411.460	-10.66718	-3.19041	-9.12091	-6.36849
5415.459	-10.68818	-4.30448	-9.27699	-6.47567
5419.450	-10.65297	-3.78045	-9.35290	-6.26170
5423.457	-10.66474	-3.59100	-9.49062	-6.50760
5427.461	-10.67756	-3.94733	-9.38356	-6.76516
5431.422	-10.69932	-3.76006	-9.29817	-6.51428
5435.451	-10.77794	-3.87649	-9.18083	-6.18838
5439.461	-10.80738	-3.68230	-9.11861	-6.37505
5443.459	-10.75267	-3.85876	-9.12331	-6.08908
5447.461	-10.73988	-3.90247	-9.20753	-6.28165
5451.418	-10.78980	-3.87699	-9.25814	-6.58021
5455.463	-10.75085	-3.78672	-9.19447	-5.86802
5459.488	-10.78245	-4.00816	-9.13785	-6.41638
5463.460	-10.75466	-4.00469	-9.14114	-6.44202
5467.453	-11.06977	-4.21976	-9.13173	-6.15474
5471.459	-10.69803	-4.22574	-9.18303	-5.06866
5475.462	-10.72395	-4.35459	-9.23038	-5.67368
5479.459	-10.65462	-4.34281	-9.09001	-5.21903
5483.453	-10.65256	-4.30051	-8.99293	-5.51634
5487.461	-11.31512	-4.48702	-9.12991	-6.08138
5491.461	-10.65894	-4.58081	-9.09790	-5.33971
5495.459	-10.84717	-4.73257	-8.95915	-4.84743
5499.460	-10.54015	-4.96517	-9.00457	-5.93418
5503.460	-10.74506	-4.84249	-8.74467	-6.38207
5507.464	-10.68990	-4.88444	-8.92617	-5.61180
5511.462	-10.68355	-5.28558	-9.06354	-6.25978
5515.459	-10.78027	-5.42087	-9.04055	-6.34746
5519.461	-10.92483	-5.52764	-8.80035	-6.55476
5523.427	-10.83115	-5.03753	-8.59774	-6.57081
5527.463	-10.87211	-5.78313	-9.01898	-6.66082
5531.452	-10.70742	-5.40232	-8.75856	-6.48558
5535.462	-10.74027	-5.94367	-8.89991	-5.79691
5539.459	-11.06741	-4.68292	-9.16632	-4.00108
5543.460	-11.38550	-2.55546	-9.25777	-4.02980
5547.462	-11.67936	-0.74336	-9.51684	-3.96809
5551.459	-11.98479	-2.41966	-10.24255	-2.11004
5555.461	-12.47711	-3.56950	-9.24523	-0.14591
5559.465	-12.69542	-2.12093	-10.14463	-0.88125
5563.393	-12.39430	-2.21203	-9.79296	-0.76684
5567.458	-12.60349	-3.38379	-9.83920	-0.60453
5571.461	-12.76413	-3.38098	-10.07969	-1.00399
5575.463	-12.83942	-1.75880	-13.20362	-3.25977
5579.463	-12.75837	-1.07048	-13.88731	-2.61543
5583.461	-12.99027	-1.37768	-9.81616	-0.35944
5587.460	-12.99962	-1.18200	-10.76918	-0.47650
5591.465	-12.99665	-0.97780	-10.33228	-1.11255
5595.486	-13.02455	-0.60314	-10.38322	-1.33990
5599.461	-12.94671	-0.30020	-10.65860	-1.14800
5603.472	-13.00874	-0.16282	-10.35162	-1.22063
5607.461	-13.15066	-0.21572	-10.01395	-1.53281
5611.455	-13.21004	-0.86950	-9.92654	-1.88797
5615.460	-13.02236	-0.73980	-10.48017	-1.51708
5619.463	-12.90935	-0.04687	-10.56857	-1.08726
5623.464	-13.27438	-0.84582	-9.93939	-1.12180
5627.454	-13.08051	-0.70981	-10.01681	-0.91259
5631.462	-13.10424	-1.34599	-10.40997	-0.82553
5635.463	-12.44013	-1.07237	-10.63418	-1.08964
5639.425	-12.99877	-1.22883	-10.63619	-0.77717
5643.371	-13.26215	-1.41486	-10.07451	-0.79522
5647.438	-12.99418	-1.75273	-10.33822	0.11719
5651.461	-12.54202	-1.65473	-10.41275	-0.29790
5655.460	-12.84557	-2.44876	-10.60450	-0.01839
5659.430	-12.93663	-1.87004	-10.24187	-0.07016
5663.463	-13.36267	-2.67501	-10.52247	0.22645
5667.462	-12.52778	-2.32369	-10.44612	0.69777
5671.461	-12.56122	-1.98242	-10.52540	0.35481
5675.367	-12.77065	-2.48398	-10.34602	0.35445
5679.464	-12.93658	-2.52585	-10.30656	0.59106
5683.466	-13.07264	-0.81302	-10.63645	0.70147
5687.451	-12.85562	0.10325	-10.21671	0.86758
5691.363	-12.99595	-0.37355	-10.39446	0.25038
5695.465	-13.49767	-0.73137	-10.24000	0.62847
5699.466	-13.16727	-1.00942	-10.35375	0.76096
5703.464	-13.34991	-0.52573	-10.32323	-0.00269
5707.362	-12.63735	-0.74401	-9.92283	0.46063
5711.463	-12.98176	-0.74466	-10.17757	0.11419
5715.463	-13.40114	-1.17709	-10.14326	0.50958
5719.462	-12.89176	-1.23091	-10.17697	0.23516
5723.362	-12.45598	-1.00592	-10.30956	-0.05379
5727.461	-12.26104	-1.46781	-10.09758	1.01729
5731.431	-12.98346	-1.84949	-10.37273	1.18339
5735.462	-13.06426	-1.15309	-9.97122	1.32233
5739.364	-12.82203	-1.11485	-10.13342	1.41823
5743.466	-17.15594	2.98570	-10.31540	1.95309
5747.462	-18.39031	3.01504	-14.27257	6.02704
5751.463	-21.91338	-1.32077	-13.60765	6.74837
5755.362	-19.89833	-12.08451	-14.50574	12.21930
5759.421	-19.94424	-12.08110	NaN	NaN
5763.463	-19.96067	-12.07988	NaN	NaN
5767.465	-19.96913	-12.07925	NaN	NaN
5771.444	-19.97435	-12.07887	NaN	NaN
5775.427	-19.97788	-12.07860	NaN	NaN
5779.464	-19.98046	-12.07841	NaN	NaN
5786.828	-19.98243	-12.07826	NaN	NaN
5795.466	-19.98401	-12.07815	NaN	NaN
5799.465	-19.99580	-12.07727	NaN	NaN
5803.463	NaN	NaN	NaN	NaN
5807.433	NaN	NaN	NaN	NaN
5811.461	NaN	NaN	NaN	NaN
5815.458	NaN	NaN	NaN	NaN
5819.442	NaN	NaN	NaN	NaN
5823.426	NaN	NaN	NaN	NaN
5827.468	NaN	NaN	NaN	NaN
5831.331	NaN	NaN	NaN	NaN
5835.466	NaN	NaN	NaN	NaN
5839.429	NaN	NaN	NaN	NaN
5843.469	NaN	NaN	NaN	NaN
5847.366	NaN	NaN	NaN	NaN
5851.468	NaN	NaN	-17.83369	13.94582
5855.448	NaN	NaN	-15.88539	9.30291
5859.466	NaN	NaN	-14.22265	8.44547
5863.470	-16.14584	-3.09302	-15.32766	7.66612
5867.466	-16.26310	-1.95939	-14.44259	4.04505
5871.467	-17.94315	-2.25282	-13.94707	2.33702
5875.466	-19.89137	0.70080	-13.79498	1.76111
5879.365	-17.93947	-0.22357	-14.40025	1.83012
5883.467	-19.22708	0.10995	-14.24923	1.75467
5887.465	-18.13614	-0.41053	-12.65704	1.58320
5891.430	-17.69741	-1.22128	-11.76150	-0.01725
5895.337	-7.19258	-0.53423	-10.81401	1.21252
5899.466	-11.44721	2.84146	-10.38478	0.73445
5903.466	-11.47405	3.87292	-10.17223	1.29997
5907.465	-11.60397	1.70969	-10.05801	1.59671
5911.367	-11.55107	0.75076	-10.03614	2.10561
5915.463	-11.71211	-0.50200	-9.89123	1.38619
5919.468	-11.51640	-1.01583	-9.65389	0.68790
5923.466	-12.03536	1.41128	-9.56962	0.15998
5927.365	-12.74445	0.20044	-9.65674	-0.49032
5931.467	-12.20591	-0.52600	-9.47423	-0.75166
5935.341	-12.93222	-1.80785	-9.48789	-0.35881
5939.343	-11.93648	-0.35111	-9.44952	-0.99575
5943.338	-12.60800	1.11310	-9.25693	-1.02501
5947.354	-12.48045	0.50233	-9.45039	-0.21958
5951.342	-12.48558	0.05704	-9.50061	-0.32552
5955.340	-12.84529	-0.63480	-9.32550	-0.15279
5959.337	-12.57919	-0.40300	-9.41970	0.04873
5963.342	-12.80997	-0.25650	-9.40996	-0.02081
5967.306	-12.92689	0.27714	-9.29580	-0.50798
5971.344	-12.74770	0.17765	-9.32018	-1.19011
5975.370	-12.63485	-0.58027	-9.41612	-0.34712
5979.345	-12.49384	-1.06099	-9.39977	0.41077
5983.333	-12.49900	0.83343	-9.41600	0.61943
5987.332	-12.66256	-0.60804	-9.31482	-0.69991
5991.344	-12.50160	-0.80807	-9.29751	-1.73083
5995.344	-12.31165	-0.97815	-9.24767	0.00226
5999.307	-12.33465	0.54504	-9.31752	0.90479
6003.346	-12.19425	-0.34397	-9.42776	0.04611
6007.343	-12.12319	-0.65263	-9.32255	-1.36294
6011.347	-12.48464	-1.26331	-9.45730	-0.52750
6015.345	-12.48726	0.25952	-9.22828	1.27797
6019.344	-12.32589	0.07431	-9.43663	0.33487
6023.337	-12.38950	-0.85025	-9.08534	-0.74842
6027.342	-12.45655	-1.24805	-9.68975	-0.50357
6031.343	-12.16607	0.30857	-9.39868	0.36949
6035.343	-12.18972	0.38427	-9.19921	-0.05632
6039.343	-12.49294	-0.28783	-9.47884	-0.91799
6043.343	-12.21760	-1.95471	-9.57655	-0.12322
6047.343	-12.35749	0.59912	-9.29345	0.40813
6051.346	-12.52397	0.18007	-9.48787	0.14451
6055.338	-12.54315	-0.98632	-9.15113	-0.74289
6059.345	-12.36772	-1.70202	-9.75099	-0.72347
6063.344	-12.24569	0.74467	-9.24438	0.16420
6067.308	-12.17909	-0.43910	-9.26203	-0.50972
6071.343	-12.33745	-1.65941	-9.39900	-0.89175
6075.343	-12.41601	0.95590	-9.52174	0.71546
6079.341	-12.40110	0.23165	-9.27566	-0.82288
6083.345	-12.58434	-1.74310	-9.53842	0.82073
6090.486	NaN	NaN	NaN	NaN
6099.345	-12.55685	0.95613	-9.37494	-0.87650
6103.344	-12.70003	0.38199	-9.25831	-1.05193
6107.345	-12.52237	-0.84645	-9.39963	0.36535
6111.350	-12.30722	-1.17269	-9.90132	0.21686
6115.336	-12.75703	-0.83283	-9.40465	-0.87154
6119.344	-12.63584	0.60890	-9.54834	-0.99061
6123.345	-11.87921	-0.32441	-9.37540	-0.09165
6127.344	-12.71136	-0.39060	-9.55661	0.17239
6131.341	-12.63721	-1.22117	-9.76539	-0.65221
6135.343	-11.76928	-1.59890	-9.30996	-0.83763
6139.345	-12.32099	-0.50254	-9.72508	0.14521
6143.350	-12.35609	-0.52485	-9.57925	-0.84910
6147.348	-12.43947	0.64666	-9.44935	1.14157
6151.325	-12.41606	0.08186	-9.73742	0.27885
6155.348	-12.07699	0.26228	-9.58697	0.12795
6159.309	-12.58141	-0.04598	-9.60719	0.04743
6163.344	-11.98056	0.04871	-9.49002	0.34700
6167.346	-11.53027	0.30539	-9.21520	2.81602
6171.346	-12.31651	0.69415	-9.65744	4.06377
6175.308	-12.39807	3.19598	-9.02254	2.36134
6179.340	-12.64985	3.40872	-8.77538	4.19742
6183.347	-12.40463	4.25608	-9.52150	7.09736
6187.347	-11.76369	4.37529	-9.80289	7.07895
6191.339	-11.70173	5.12205	-9.77488	6.84122
6195.368	-11.56707	5.83433	-10.56354	7.76730
6199.346	-11.37190	6.12437	-10.78096	10.59134
6203.347	-11.53608	5.73440	-10.39297	9.44904
6207.345	-12.55507	5.41605	-10.17423	6.88760
6211.311	-12.61164	5.60354	-10.60788	8.18328
6215.349	-11.79541	5.99733	-11.12871	10.67994
6219.344	-11.94862	6.09930	-11.02603	9.58815
6223.345	-11.36765	5.94012	-10.83505	7.37193
6227.340	-11.97942	5.10952	-10.21466	7.75724
6231.347	-12.21727	5.54272	-9.77312	8.53829
6235.319	-12.39947	6.06993	-10.72357	9.97035
6239.345	-12.19375	6.38620	-11.10018	10.27443
6243.368	-11.77689	6.32420	-11.84860	10.19587
6247.349	-12.54294	6.28645	-11.16715	8.73043
6251.346	-12.39911	6.40765	-11.04498	10.05665
6255.349	-11.87850	6.39049	-11.16863	9.47534
6259.372	-12.37555	4.85655	-11.21345	9.81334
6263.311	-12.11278	6.22177	-10.97090	10.20933
6267.311	-12.19657	6.20681	-10.95854	10.33654
6271.349	-12.30109	6.35996	-10.58973	9.93240
6275.314	-11.87391	6.31916	-11.29548	6.70823
6279.348	-11.99476	6.22650	-10.32839	7.47019
6283.349	-11.95603	6.02995	-10.95607	8.41736
6287.347	-11.96978	5.13678	-10.84702	9.64818
6291.371	-11.88021	5.72296	-10.32407	7.80050
6295.347	-11.74323	5.50663	-10.66934	5.33244
6299.348	-12.08587	5.98797	-10.96947	8.38968
6303.349	-13.94913	4.72408	-10.92387	9.73232
6307.370	-11.75986	4.79005	-10.19789	7.56350
6311.352	-12.05692	5.12676	-9.99236	7.84726
6315.347	-11.53958	6.11877	-11.10445	9.18013
6319.347	-11.90638	5.22195	-10.66229	11.80240
6323.345	-11.87793	4.82762	-10.08228	5.77667
6327.348	-11.81589	4.85296	-10.96239	7.84001
6331.348	-12.20563	6.07277	-10.88113	9.12967
6335.350	-11.95178	6.54847	-11.22494	10.31718
6339.352	-13.28677	5.40123	-10.02444	7.95635
6343.347	-11.61623	4.71781	-9.80113	6.21092
6347.351	-11.81936	5.08696	-11.10116	8.21218
6351.350	-11.88763	5.19252	-11.16007	9.34222
6355.340	-11.75424	5.73444	-11.30395	10.27443
6359.327	-11.61311	6.54083	-9.72522	6.35480
6363.312	-11.86690	5.16571	-9.94501	5.97464
6367.349	-11.75267	5.50456	-10.19916	7.65059
6371.341	-11.55702	5.19724	-10.84702	9.03227
6375.347	-11.37040	5.05145	-11.23368	9.97642
6379.348	-12.00870	5.24700	-11.59558	10.88986
6383.347	-11.43560	6.12536	-10.42099	6.85827
6387.374	-11.70328	5.13566	-10.60277	7.03406
6391.312	-11.60639	5.19406	-11.11654	7.89356
6395.352	-11.35976	5.30163	-11.51950	9.20788
6399.342	-11.39108	5.60022	-10.98389	10.25406
6403.342	-11.84979	5.67977	-10.75610	7.93808
6407.348	-11.78980	5.29414	-10.59112	7.24809
6411.350	-11.57574	6.18654	-10.73488	7.71109
6415.348	-11.23182	5.17850	-10.98808	9.39753
6419.352	-11.88508	4.68680	-11.29343	11.28366
6423.349	-11.65870	5.49265	-10.31513	6.28744
6427.347	-11.82540	5.41041	-10.97406	9.07539
6431.312	-11.62366	5.39049	-10.96337	10.30025
6435.348	-11.51785	5.88376	-10.86184	11.29322
6439.350	-11.80571	6.26012	-10.70023	7.12751
6443.316	-11.42143	4.25727	-10.77004	9.48400
6447.348	-11.58799	5.17631	-11.07630	11.20811
6451.352	-11.99153	5.97084	-10.79459	6.78255
6455.350	-11.80433	5.54469	-10.96308	9.28035
6459.351	-11.94769	6.18776	-10.79574	9.68669
6463.349	-11.67463	5.02896	-10.70536	6.71733
6467.344	-11.90497	4.62363	-10.80137	9.22198
6471.353	-11.54323	5.57622	-10.63370	10.82482
6475.353	-11.72079	6.03287	-10.48430	7.27628
6479.355	-11.62928	6.75823	-10.67303	9.07367
6483.345	-10.88582	6.58360	-10.77299	10.76798
6487.353	-12.43454	6.06699	-9.36143	8.75474
6491.354	-12.97540	6.31776	-12.12480	9.01215
6495.351	-13.15014	8.36470	-14.01344	12.74509
6499.348	-15.03994	10.78754	-13.96281	13.60239
6503.351	-11.56748	8.83226	-13.75294	14.05678
6507.349	-16.44126	14.06495	NaN	NaN
6511.352	-13.52627	11.10611	-14.01557	14.48577
6515.314	-15.47821	14.41713	NaN	NaN
6519.314	NaN	NaN	NaN	NaN
6523.345	NaN	NaN	NaN	NaN
6527.356	NaN	NaN	NaN	NaN
6531.351	NaN	NaN	NaN	NaN
6535.317	NaN	NaN	NaN	NaN
6539.349	NaN	NaN	NaN	NaN
6543.352	NaN	NaN	NaN	NaN
6547.353	NaN	NaN	NaN	NaN
6551.336	NaN	NaN	NaN	NaN
6555.352	NaN	NaN	NaN	NaN
6559.315	NaN	NaN	NaN	NaN
6563.354	NaN	NaN	NaN	NaN
6567.366	NaN	NaN	NaN	NaN
6571.355	-19.92213	4.77921	NaN	NaN
6575.352	-16.67517	0.37936	-19.97294	13.49465
6579.347	-16.24931	1.10561	-16.75361	8.33121
6583.357	-14.89810	1.10186	-17.23312	5.51728
6587.353	-16.35191	1.86049	-19.64261	8.29392
6591.352	-14.60648	0.78957	-19.03997	8.28979
6595.356	-13.95287	1.56368	-18.91598	5.82537
6599.345	-14.34338	1.21840	-19.45822	5.51791
6603.314	-19.89087	-12.08506	-19.77395	-12.09370
6611.341	-19.89875	-12.08448	-17.42671	4.06231
6615.358	-19.90693	-12.08387	-18.84045	4.50009
6619.350	NaN	NaN	-17.75132	5.01543
6623.347	NaN	NaN	-15.05420	3.04378
6627.349	NaN	NaN	-15.10059	2.62157
6631.348	-16.60721	2.22626	-13.62078	4.00274
6635.350	-16.71601	1.03370	-14.64375	4.50226
6639.355	-16.24654	0.81552	-14.84422	4.45251
6643.351	-14.88343	0.70600	-14.77565	3.74788
6647.353	-16.29344	1.63045	-14.00174	4.01067
6651.320	-15.69629	1.56742	-13.60622	5.33868
6655.250	-15.50875	1.95760	-14.52765	3.03094
6659.353	-15.76980	2.43027	-14.13132	2.59263
6663.354	-15.25700	2.04217	-13.99662	3.98818
6667.352	-15.80257	1.90430	-14.04605	1.36121
6671.252	-15.64367	1.45606	-13.84364	3.85078
6675.355	-15.48914	2.13304	-13.28853	3.67009
6679.357	-15.45774	1.78307	-13.97891	0.96034
6683.352	-15.95461	1.72818	-13.62627	3.02879
6687.358	-15.27374	1.84763	-13.64141	5.42794
6691.314	-15.60880	1.75241	-14.08010	3.68896
6695.349	-15.43685	0.97684	-13.62758	2.14447
6699.357	-15.44656	1.79906	-13.53542	5.38409
6703.325	-15.34937	1.51405	-13.93193	6.58661
6707.353	-15.68332	0.40316	-12.85510	1.50878
6711.352	-15.53948	0.93988	-12.98579	4.30985
6715.359	-16.55379	1.24712	-13.28301	5.66856
6719.252	-15.39430	1.49871	-13.40868	3.32416
6723.355	-15.39926	1.44653	-13.07563	4.35960
6727.354	-15.31457	1.73107	-13.31840	5.11457
6731.353	-15.55395	2.19295	-16.89743	6.16226
6735.255	-15.45345	1.63183	-18.90814	4.13894
6739.354	-15.39026	1.66450	-17.27769	4.78070
6743.355	-15.36006	1.44539	-19.29927	3.18068
6747.353	-15.42373	1.58441	-18.86566	3.55209
6751.256	-15.61117	1.42976	-21.52783	9.39366
6755.354	-15.46872	1.61711	-18.90143	3.04925
6759.354	-15.58421	1.66985	-20.57009	2.48571
6763.314	-15.61552	1.61735	-18.89938	2.28955
6767.252	-15.79453	1.68051	-18.14461	1.65518
6771.318	-15.77334	1.54178	-19.63039	0.23800
6775.334	-15.83149	1.54423	-21.22447	-1.87669
6779.356	-15.73858	1.61644	-19.60340	-0.24638
6783.252	-15.59119	1.52111	-21.33147	-3.42619
6787.357	-15.97695	1.47586	-18.62424	-1.89618
6791.357	-15.59462	1.43019	-20.10178	-3.03527
6795.358	-15.90488	1.19138	-21.27257	0.88655
6799.252	-16.03974	0.83545	-21.04380	-6.48186
6803.357	-15.72842	0.27069	-23.01612	-1.68742
6807.358	-15.90812	0.42637	-21.74398	-2.30147
6811.366	-15.95050	0.61203	-22.68630	-4.13064
6815.256	-16.04489	1.09766	-22.52112	-5.12860
6819.347	-15.98844	0.70416	-22.20238	-5.99971
6823.355	-15.87338	0.43966	-23.08273	-9.34143
6827.355	-15.75513	0.13510	-22.07079	-3.08225
6831.258	-16.07961	0.42517	-21.93976	-5.14786
6835.354	-15.85627	0.33668	-20.30325	-12.05209
6839.357	-16.04691	-0.16306	-20.12960	-12.06623
6843.359	-15.92354	0.91964	-20.01940	-12.07482
6847.260	-15.23498	-0.23741	-21.81995	-5.68583
6851.358	-14.59684	-0.27034	-20.03478	-12.07387
6855.357	-14.10256	-1.00249	-21.91947	-11.63275
6859.357	-13.70048	-1.92425	-22.15527	-11.50308
6863.236	-13.01362	-1.92397	-20.03038	-11.93766
6867.356	-12.26375	-3.19829	-20.02390	-11.95792
6871.353	-11.86174	-4.26782	-20.01658	-11.97343
6875.353	-11.89476	-5.05815	-18.73395	-13.60110
6879.363	-11.83184	-5.01155	-19.99922	-11.98570
6883.360	-11.79774	-5.14652	-19.99863	-11.98903
6887.320	-11.45434	-5.33677	-19.99806	-11.99274
6891.320	-11.77080	-4.99217	-19.98704	-12.00481
6895.253	-11.85492	-5.16480	-19.98717	-12.00822
6899.354	-11.78015	-5.33460	-19.98559	-12.04846
6903.353	-11.61780	-5.09352	-19.98638	-12.08364
6907.321	-11.72612	-5.11115	-19.98664	-12.08340
6911.255	-11.76447	-5.18626	-19.98693	-12.08318
6915.362	-11.74720	-5.31881	-19.98723	-12.08291
6919.357	-11.81631	-5.28529	-10.37784	-5.51426
6923.355	-11.60237	-5.35034	-9.71030	-6.30241
6927.256	-11.82126	-5.24902	-8.28583	-6.55567
6931.355	-11.83063	-4.99140	-9.92509	-6.05664
6935.357	-11.77372	-5.52894	-9.98292	-6.12175
6939.357	-11.69638	-6.17498	-8.32458	-3.65939
6943.254	-11.65654	-5.43870	-9.69561	-6.48668
6947.358	-11.72139	-5.44201	-9.91637	-6.06890
6951.360	-11.82069	-5.30785	-10.52585	-8.46622
6955.356	-12.02031	-5.33912	-9.06811	-5.55269
6959.225	-11.92272	-5.29064	-10.07971	-5.50023
6963.231	-11.85435	-5.89372	-10.10596	-5.98871
6967.233	-11.97890	-5.35071	-8.89855	-5.72072
6971.231	-12.00604	-5.77395	-9.65365	-6.22100
6975.358	-11.71032	-5.22301	-9.23495	-3.70445
6979.197	-11.96178	-5.38483	-9.72935	-5.40273
6983.238	-11.56062	-5.31927	-9.90106	-5.59946
6987.221	-11.76704	-5.07993	-9.83190	-5.22339
6991.360	-11.73255	-4.93864	-9.53871	-5.18544
6995.231	-11.58694	-5.08986	-10.12902	-6.05646
6999.234	-12.00718	-5.20066	-9.96720	-5.82587
7003.234	-11.74389	-5.00579	-9.96270	-5.50892
7007.228	-11.52798	-4.93638	-10.37268	-5.31548
7011.195	-11.65273	-5.07347	-10.33418	-6.64803
7015.233	-11.62256	-4.57697	-10.20772	-6.76004
7019.235	-11.57946	-4.78281	-10.13826	-6.86479
7023.247	-11.56934	-5.02302	-10.26295	-6.89192
7027.236	-11.55047	-5.01824	-10.53768	-7.15277
7031.201	-11.70383	-5.04241	-10.29317	-6.69069
7035.233	-11.59915	-5.14882	-10.66924	-6.89988
7039.228	-11.80811	-5.83702	-10.61202	-7.32174
7043.197	-11.66641	-5.37345	-10.66373	-7.19712
7047.232	-11.58849	-5.51993	-10.64254	-7.32724
7051.232	-11.62571	-4.81694	-10.54094	-7.21606
7055.234	-11.60932	-5.10119	-10.66294	-7.42174
7059.234	-11.59985	-4.84842	-10.87340	-7.47336
7063.235	-11.60037	-4.84235	-11.18797	-7.64244
7067.234	-11.52667	-4.70260	-10.52029	-7.34094
7071.227	-11.54840	-4.77214	-10.44785	-7.46095
7075.229	-11.62351	-4.90344	-10.90049	-7.54088
7079.235	-11.57412	-4.78420	-10.39402	-5.88064
7083.196	-11.55669	-5.31568	-11.03688	-7.13428
7087.221	-11.50103	-4.78496	-10.11370	-6.53656
7091.237	-11.50997	-4.98747	-10.68425	-6.97668
7095.237	-11.55307	-4.75734	-10.54622	-7.45356
7099.234	-11.43016	-4.30177	-10.65755	-7.53615
7103.228	-11.40002	-4.26408	-10.07610	-5.42761
7107.235	-11.31949	-4.78046	-10.01096	-6.31257
7111.198	-11.47531	-4.77862	-10.14319	-6.19062
7115.226	-11.27166	-4.56706	-10.27025	-6.59026
7119.238	-11.29197	-3.96018	-10.39933	-7.15850
7123.246	-11.34790	-4.18082	-9.82691	-5.59979
7127.234	-11.28345	-3.93971	-10.05844	-6.43502
7131.236	-11.33552	-4.40361	-10.02151	-5.65719
7135.235	-11.03655	-4.71999	-10.25307	-6.94454
7139.200	-11.30204	-4.60788	-9.98198	-6.14180
7143.235	-11.20075	-4.53201	-10.17601	-6.06460
7147.236	-11.40365	-4.97938	-10.19373	-5.96313
7151.237	-11.34378	-4.69251	-10.16257	-6.48038
7155.211	-11.17116	-4.32710	-10.23074	-6.27772
7159.237	-11.35115	-4.30490	-10.12892	-6.25812
7163.235	-11.43233	-4.84585	-10.08447	-6.15680
7167.235	-11.39394	-4.81939	-10.26811	-6.73634
7171.237	-11.36069	-5.02650	-10.05928	-6.46307
7175.238	-11.33297	-5.36370	-10.30617	-6.65216
7179.199	-11.38018	-5.06682	-9.91161	-5.84403
7183.237	-11.39406	-5.03785	-10.39520	-6.77647
7187.235	-11.32419	-4.29244	-9.95139	-6.40396
7191.237	-11.35048	-4.59936	-10.38982	-6.66309
7195.223	-11.33621	-3.12990	-9.69745	-6.35678
7199.230	-11.11889	-4.63492	-10.33649	-6.55248
7203.237	-11.33049	-4.92510	-9.47391	-6.59461
7207.239	-11.24953	-5.21552	-10.09657	-6.52880
7211.236	-11.19595	-4.69459	-9.60779	-6.28178
7215.197	-11.16662	-4.62079	-10.18990	-6.56466
7219.240	-11.18969	-4.39258	-9.59836	-6.47707
7223.238	-11.23506	-4.23201	-9.91556	-6.46694
7227.236	-10.95229	-2.84922	-10.10297	-6.39925
7231.272	-11.12116	-3.85910	-10.31684	-6.41971
7235.237	-10.91899	-3.81577	-9.96845	-6.24921
7239.237	-11.08627	-3.97344	-10.07617	-5.71301
7243.239	-11.07487	-3.73152	-10.10646	-6.31352
7247.228	-11.09506	-3.55951	-10.18663	-6.15718
7251.237	-11.04283	-3.51869	-10.24973	-5.71128
7255.236	-11.16409	-4.01346	-10.24598	-5.53545
7259.237	-11.17837	-3.93398	-10.12606	-5.68778
7263.228	-11.10832	-5.03313	-10.30072	-6.62587
7267.239	-11.12828	-4.50680	-9.82809	-5.42967
7271.238	-11.05438	-3.68379	-9.07615	-5.85458
7275.238	-9.99703	-3.85076	-8.75148	-5.33197
7279.230	-7.11921	-3.77842	-7.93698	-6.00491
7283.234	-5.95555	-4.11166	-6.35655	-4.92403
7287.239	-5.64818	-4.29010	-5.49409	-4.97301
7291.236	-4.39688	-4.50823	-3.21765	-5.62246
7295.232	-2.78342	-5.77085	-0.54396	-6.29229
7299.239	-3.24563	-7.56660	-0.84461	-8.26316
7303.237	-1.09668	-7.91979	-0.62508	-8.02472
7307.240	-0.51786	-9.16101	-0.17236	-7.94033
7311.229	0.29128	-8.25097	1.31672	-8.16574
7315.201	2.14748	-9.09540	1.35509	-7.85323
7319.239	2.22453	-7.85116	2.03828	-7.58859
7323.232	1.95715	-8.98750	1.08351	-7.72653
7327.230	0.06026	-9.27347	1.74888	-8.17339
7331.238	-0.14752	-9.27986	1.46060	-7.94335
7335.238	0.69092	-9.47921	1.49986	-8.39698
7339.241	0.54029	-8.22423	2.08129	-8.03161
7343.232	0.39911	-8.44440	1.81738	-8.10735
7347.237	-0.21532	-7.99134	2.10550	-8.12262
7351.238	0.24443	-9.81316	1.71741	-7.89583
7355.240	1.30843	-9.44398	1.58788	-7.78959
7359.234	0.13126	-8.05285	1.83754	-7.92831
7363.219	0.34930	-7.65123	1.95544	-8.17479
7367.240	-0.43326	-8.29136	1.85608	-8.25133
7371.241	-0.08483	-9.67635	1.00767	-8.15109
7375.238	-0.12386	-9.55675	1.83804	-8.57823
7379.240	0.05152	-9.54910	1.70670	-8.83914
7383.203	-0.22577	-8.77474	1.42900	-9.93527
7387.242	-0.11424	-7.94434	1.73685	-11.23701
7391.198	0.17454	-8.59527	1.61324	-10.68207
7395.238	0.56453	-8.20098	1.53319	-9.24911
7399.245	-0.34404	-7.77597	1.08917	-8.07474
7403.229	-0.27887	-7.54610	1.85051	-8.61957
7407.237	-0.03130	-7.47350	1.02851	-9.41084
7411.239	0.03353	-9.06656	1.17800	-10.52919
7415.240	-0.19087	-7.57494	1.53356	-10.91039
7419.244	-0.02450	-8.04471	0.83761	-10.70733
7423.231	-0.43929	-8.40770	2.05040	-9.07867
7427.241	-0.04609	-8.74277	1.97106	-8.78309
7431.237	-0.16804	-8.36583	1.61523	-9.23799
7435.241	-0.04068	-10.25531	0.91855	-10.07138
7439.233	-0.67563	-9.88733	1.00789	-10.75212
7443.251	-0.01199	-9.43066	1.84052	-10.62292
7447.205	-19.99372	-12.05831	-19.99372	-11.87557
7455.238	-0.12674	-9.51994	1.96345	-10.27346
7459.241	-0.35869	-8.63375	0.35891	-10.73847
7463.239	-1.11894	-8.95578	2.28784	-10.31166
7467.239	-0.11237	-8.43574	1.52794	-9.79321
7471.242	-0.40226	-8.17483	1.96010	-10.01402
7475.240	-0.23785	-7.90380	1.04707	-10.19774
7479.243	-0.42487	-8.43458	1.89367	-9.82880
7483.244	-0.27019	-8.59675	1.42461	-10.37912
7487.223	-0.19152	-9.24118	1.12358	-10.59032
7491.240	-0.47592	-9.38112	1.63521	-10.66219
7495.238	-0.40353	-7.94207	1.55846	-11.09610
7499.239	-0.63975	-7.52006	0.98648	-11.65589
7503.241	-1.48347	-8.54110	0.21006	-10.69571
7507.241	-3.26102	-9.48224	-2.52364	-11.97001
7511.265	-3.43610	-8.91276	-2.81808	-11.65181
7515.241	-3.95663	-9.63824	-3.09275	-11.43398
7519.209	-4.10752	-9.68587	-3.50022	-11.62328
7523.249	-4.91533	-9.32744	-3.51715	-11.63895
7527.241	-4.43226	-8.81924	-3.41577	-11.65632
7531.236	-4.43589	-7.85786	-3.32009	-11.53755
7535.243	-4.43515	-7.39500	-3.61804	-11.60463
7539.242	-4.60483	-8.92628	-3.62351	-11.76837
7543.233	-4.71900	-9.15419	-3.79495	-11.54469
7547.241	-4.55364	-9.12705	-3.74456	-11.65658
7551.241	-4.64983	-9.20647	-3.80070	-11.33882
7555.241	-4.69682	-9.08448	-3.97600	-11.24393
7559.241	-4.93642	-9.26181	-4.06184	-11.13940
7563.240	-4.64233	-9.95111	-4.12034	-11.31521
7567.243	-4.74890	-9.68213	-4.18934	-11.35041
7571.203	-4.80620	-10.52389	-4.22360	-12.76478
7575.246	-4.67384	-10.46367	-4.28224	-13.29518
7579.241	-4.70000	-9.35327	-4.23974	-13.63350
7583.242	-4.62508	-9.67715	-4.31973	-12.80737
7587.206	-4.64214	-9.22474	-4.30532	-11.68482
7591.235	-4.62074	-8.13588	-4.29436	-11.16760
7595.243	-4.54868	-9.29025	-4.31482	-11.77763
7599.243	-4.53046	-9.25719	-4.38050	-13.42375
7603.242	-4.62313	-9.62231	-4.36792	-13.60253
7607.246	-4.65252	-9.39187	-4.12700	-12.02070
7611.231	-4.54444	-9.21956	-4.22584	-11.92069
7615.235	-4.57877	-8.42401	-4.04806	-12.47825
7619.252	-4.61373	-8.84034	-4.43631	-12.31047
7623.239	-4.57226	-9.50810	-4.62895	-12.76343
7627.244	-4.70163	-10.47512	-3.97459	-11.91149
7631.245	-4.86911	-9.01071	-4.19143	-11.55580
7635.243	-4.77941	-8.92159	-3.88293	-11.22481
7639.243	-4.82584	-9.18160	-4.12199	-11.30739
7643.243	-4.87616	-9.13962	-4.11401	-11.31782
7647.242	-5.05435	-9.32500	-4.02231	-12.04638
7651.245	-4.83945	-9.32636	-4.18181	-12.48737
7655.209	-5.12782	-10.48843	-3.90721	-12.26162
7659.246	-4.65432	-9.52576	-4.26652	-12.67595
7663.242	-4.88904	-9.07289	-3.82250	-11.72971
7667.242	-4.95435	-9.21024	-3.98168	-13.15775
7671.141	-4.89057	-9.18672	-4.01601	-12.08615
7675.244	-4.63795	-9.53831	-3.87376	-11.57937
7679.244	-4.63669	-9.50438	-4.00504	-12.31557
7683.243	-5.00502	-9.01921	-4.05841	-12.34279
7687.144	-4.78720	-9.40162	-3.84224	-11.80879
7691.246	-4.72073	-9.76049	-3.78123	-11.81253
7695.228	-4.69416	-9.27236	-3.76505	-11.80972
7699.240	-4.74257	-9.72230	-3.95550	-12.59459
7703.235	-4.89732	-8.53806	-3.94626	-12.38024
7707.244	-4.81990	-10.08378	-3.95355	-12.77627
7711.245	-4.71945	-9.53016	-3.92786	-11.03952
7715.241	-4.72186	-9.86286	-4.16855	-12.60555
7719.235	-4.81434	-9.21532	-4.58604	-12.73475
7723.209	-4.74089	-9.83647	-4.41748	-12.81131
7727.242	-4.60848	-9.87209	-3.90849	-10.64952
7731.244	-4.90348	-9.65738	-4.15463	-11.09578
7735.232	-4.43110	-9.57898	-4.17988	-11.06634
7739.238	-4.15290	-6.40978	-4.02796	-9.71493
7743.244	-10.69831	-6.21403	8.09124	-10.90326
7747.243	-19.99372	-12.05623	-6.64775	-9.43543
7751.244	-19.99372	-12.07577	-19.99372	-12.09037
7755.245	-19.99372	-12.07637	-19.99372	-12.08792
7759.118	-19.99372	-12.07691	-19.99372	-12.08631
7763.243	-19.99372	-12.07702	-19.99372	-12.05710
7767.242	-19.99372	-12.07724	-19.99372	-12.02938
7771.243	-19.99372	-12.07740	-19.99372	-12.03899
7775.244	NaN	NaN	-19.99372	-12.05411
7779.218	NaN	NaN	-19.99372	-12.06677
7783.245	NaN	NaN	-19.99372	-12.06825
7787.246	NaN	NaN	NaN	NaN
7791.208	NaN	NaN	NaN	NaN
7795.243	NaN	NaN	NaN	NaN
7799.242	NaN	NaN	NaN	NaN
7803.243	NaN	NaN	NaN	NaN
7807.243	NaN	NaN	NaN	NaN
7811.208	NaN	NaN	NaN	NaN
7815.252	NaN	NaN	NaN	NaN
7819.234	NaN	NaN	NaN	NaN
7823.217	NaN	NaN	NaN	NaN
7827.208	NaN	NaN	NaN	NaN
7831.144	NaN	NaN	NaN	NaN
7835.246	NaN	NaN	NaN	NaN
7839.248	NaN	NaN	NaN	NaN
7843.245	NaN	NaN	NaN	NaN
7847.242	NaN	NaN	15.09943	-9.61392
7851.247	NaN	NaN	-2.67261	-6.41914
7855.252	-8.80931	12.01308	-4.65548	-7.86028
7859.247	NaN	NaN	13.64399	-7.48576
7863.213	-6.45780	-8.52961	14.05131	-8.24508
7867.248	7.59956	-7.69656	6.12072	-6.06603
7871.148	4.11243	-7.26037	9.62372	-8.29398
7875.249	-5.39332	-8.06195	2.01441	-6.72351
7879.247	-5.52573	-7.53070	1.80809	-6.37220
7883.249	-5.58525	-7.97621	3.39616	-6.82637
7887.148	-3.70635	-6.99592	2.92156	-6.43208
7891.249	-0.75295	-6.82592	2.96406	-7.08963
7895.260	-0.76362	-7.29739	2.81882	-7.44284
7899.247	0.99209	-7.00222	3.16926	-8.20489
7903.151	0.84992	-6.61456	3.37831	-7.01382
7907.244	-0.30158	-4.81724	2.50348	-8.22575
7911.246	-0.26130	-5.97909	1.80236	-8.70347
7915.248	-0.24403	-5.98460	2.46518	-8.54575
7919.144	-0.13426	-6.30800	1.53381	-7.89810
7923.252	-1.03925	-7.10353	1.47823	-7.30284
7927.210	-0.16337	-7.43152	2.82736	-7.31737
7931.246	-0.34325	-5.43798	1.45663	-7.35569
7935.148	-0.37966	-5.96447	0.93316	-8.66603
7939.247	-1.34078	-5.98684	1.53381	-7.62775
7943.242	-0.11292	-5.92825	1.40494	-8.64410
7947.208	-0.20276	-6.03824	1.85388	-7.29648
7951.146	-0.32158	-6.06096	1.89845	-7.10838
7955.250	-0.17164	-7.06939	1.40876	-8.67983
7959.247	-0.26882	-7.11841	2.44606	-7.01248
7963.211	-0.25567	-6.20969	1.90116	-6.88611
7967.149	-0.58307	-6.13207	2.75851	-7.84763
7971.248	-0.41757	-6.19368	1.65850	-7.79193
7975.247	-0.14350	-6.28367	1.77147	-6.78500
7979.248	-0.26892	-6.12310	1.40780	-7.08219
7983.124	-0.11275	-6.16777	1.80196	-7.58785
7987.227	0.02608	-6.65091	1.74333	-7.83482
7991.249	0.00246	-6.47634	1.79314	-7.49173
7995.212	-0.10873	-6.34628	1.69093	-7.88848
7999.145	-0.43993	-6.22318	2.00343	-8.25899
8003.122	-0.21599	-6.15727	2.09782	-7.24183
8007.121	0.00231	-6.23419	2.24351	-6.74478
8011.122	-0.26406	-5.95104	2.34153	-7.65003
8015.114	-0.08470	-6.13508	2.13157	-7.64477
8019.124	-0.09287	-6.08132	1.90341	-8.19114
8023.127	-0.45984	-6.19367	0.63454	-8.31605
8027.123	-2.26876	-6.42326	-0.87957	-8.26868
8031.254	-3.73337	-7.01884	-2.07836	-7.50513
8035.119	-4.37066	-6.23491	-4.34117	-8.24984
8039.123	-6.73192	-6.42478	-4.90863	-8.45538
8043.123	-7.73850	-7.16138	-7.19603	-10.14613
8047.255	-8.32157	-8.57237	-8.67905	-10.39964
8051.124	-9.53890	-7.56151	-11.05617	-12.27600
8055.123	-10.18882	-8.32145	-11.51585	-11.73723
8059.123	-11.73747	-8.51187	-14.17817	-12.73154
8063.116	-13.14960	-8.49994	-14.03531	-13.28054
8067.126	-14.15344	-8.69814	-14.19730	-13.31344
8071.131	-14.00625	-8.87379	-14.42081	-13.56710
8075.087	-14.47820	-9.61190	-19.99372	-12.22139
8079.097	-14.22431	-8.67098	-19.99372	-12.19166
8083.126	-14.63846	-8.70225	-16.02316	-13.87828
8087.083	-14.46379	-8.92409	-14.89661	-13.85375
8091.128	-14.66215	-8.97906	-15.61212	-13.60444
8095.126	-14.72211	-9.60296	-15.45237	-13.69707
8099.128	-14.42637	-8.88141	-14.91453	-13.57131
8103.129	-14.65693	-9.41276	-15.52359	-14.01044
8107.122	-14.65558	-9.04363	-15.21229	-13.88947
8111.128	-14.43985	-9.75317	-14.98106	-13.31132
8115.115	-14.52823	-8.76279	-15.39082	-13.69116
8119.114	-14.79143	-10.03226	-15.23872	-13.81493
8123.130	-14.44176	-9.54805	-14.29767	-13.56760
8127.119	-14.47871	-8.17614	-14.88658	-13.01505
8131.088	-14.67723	-8.34085	-14.87735	-12.96467
8135.124	-14.58487	-8.75419	-14.84276	-13.38465
8139.089	-14.53600	-8.55745	-14.36530	-12.65734
8143.149	-14.36213	-8.90791	-14.56441	-11.99894
8147.125	-14.19254	-9.18449	-14.30314	-12.66386
8151.128	-14.54277	-8.64020	-14.06161	-12.02536
8155.126	-14.44541	-8.55880	-14.26678	-12.08140
8159.120	-14.10032	-8.64621	-13.77179	-11.95909
8163.124	-14.26760	-8.76659	-13.67546	-11.69659
8167.126	-14.41715	-8.25567	-13.80325	-11.31749
8171.124	-14.41906	-7.99734	-13.44759	-11.36248
8175.117	-14.51891	-8.07946	-13.45738	-11.50637
8179.127	-14.55137	-9.28754	-14.32835	-11.89854
8183.090	-14.46419	-8.81539	-13.47345	-11.46881
8187.126	-14.53665	-8.19295	-13.38811	-11.46902
8191.126	-14.27657	-8.01146	-13.22286	-10.91109
8195.132	-14.18102	-7.81468	-13.58458	-11.39419
8199.090	-14.47676	-7.84017	-13.45775	-11.30595
8203.123	-14.20313	-8.83973	-13.34019	-11.09862
8207.118	-14.59340	-8.35085	-13.17863	-10.33107
8211.130	-14.65307	-8.19386	-13.36476	-10.53541
8215.127	-14.43003	-8.55578	-13.42568	-10.74108
8219.126	-14.41767	-8.34292	-13.27746	-10.20124
8223.129	-14.47250	-8.67686	-13.36636	-10.91206
8227.127	-14.28956	-8.27421	-13.10332	-10.58649
8231.126	-14.61531	-8.81873	-13.25950	-10.30938
8235.128	-14.44427	-8.22671	-13.53219	-10.34077
8239.118	-14.64701	-8.52708	-13.24224	-10.31373
8243.093	-14.55607	-8.83657	-13.27257	-10.75995
8247.126	-14.57178	-8.70729	-13.14414	-10.51875
8251.127	-14.48583	-8.52727	-12.90192	-10.26754
8255.121	-14.48629	-9.20805	-12.86324	-10.31175
8259.129	-14.47026	-9.49084	-12.76527	-10.06476
8263.129	-14.46128	-9.21643	-12.91880	-10.10212
8267.131	-14.40200	-8.76424	-12.71023	-10.01289
8271.131	-14.49502	-8.87803	-12.63653	-10.35059
8275.129	-14.45937	-8.63484	-12.85426	-10.35581
8279.130	-14.49199	-8.87406	-12.94365	-10.52988
8283.092	-14.43866	-8.73468	-12.80980	-10.15921
8287.097	-14.44467	-8.52826	-12.90402	-10.64717
8291.130	-14.47485	-8.71772	-12.97255	-10.44526
8295.131	-14.36378	-8.61978	-12.56897	-10.02563
8299.129	-14.55628	-8.54499	-12.65810	-9.52852
8303.123	-14.73028	-8.51690	-12.82814	-9.93647
8307.127	-14.64752	-8.59237	-12.78531	-10.60984
8311.127	-14.64880	-8.66303	-12.96677	-10.02331
8315.132	-14.15955	-8.70719	-13.06968	-9.37087
8319.127	-14.48206	-8.52461	-12.95331	-9.85470
8323.129	-14.69109	-8.47959	-12.91734	-10.26966
8327.123	-14.51353	-8.56301	-12.49464	-9.54931
8331.129	-14.33280	-8.60933	-12.78566	-9.44244
8335.090	-14.32803	-8.61956	-12.38005	-9.52770
8339.127	-14.40642	-8.73628	-12.47028	-9.69873
8343.130	-14.35948	-8.45555	-12.77370	-9.37053
8347.129	-14.43249	-8.76837	-12.84038	-9.49758
8351.128	-14.50497	-9.11343	-12.98951	-10.13351
8355.128	-14.52872	-8.31181	-12.73590	-9.25144
8359.130	-14.49727	-9.11327	-12.73153	-9.50215
8363.130	-14.48539	-8.86157	-12.30611	-9.09196
8367.120	-14.41767	-8.86248	-12.16726	-9.30983
8371.130	-14.68563	-8.71412	-12.41947	-9.46965
8375.130	-14.51760	-8.09478	-12.40792	-9.21562
8379.131	-14.54135	-8.75638	-12.51747	-9.37087
8383.121	-14.57910	-8.64350	-12.35322	-9.36795
8387.091	-14.66951	-9.40984	-12.66032	-9.40868
8391.130	-14.76289	-9.06785	-12.60323	-9.31357
8395.132	-14.62384	-8.85274	-12.47730	-8.98441
8399.153	-14.67507	-8.86659	-12.35886	-9.09343
8403.095	-14.60548	-8.68403	-12.37657	-9.14253
8407.115	-14.64591	-8.34754	-12.17639	-9.36800
8411.127	-14.73546	-8.81730	-12.17440	-8.99266
8415.122	-14.49509	-8.01901	-12.23853	-8.22654
8419.140	-14.58831	-8.71922	-12.21369	-9.09379
8423.129	-14.66740	-8.99951	-12.46183	-9.16454
8427.134	-14.55074	-8.75477	-12.47288	-9.12128
8431.124	-14.51249	-7.90042	-12.51740	-8.91768
8435.128	-14.52905	-8.64785	-12.31985	-8.56560
8439.130	-14.63230	-8.40789	-12.16268	-9.04460
8443.129	-14.58447	-8.49518	-12.20411	-8.91630
8447.122	-14.54191	-8.55697	-12.20653	-9.01232
8451.127	-15.00843	-8.94067	-12.37432	-8.97810
8455.131	-14.71624	-9.03394	-12.47262	-9.17606
8459.133	-14.72264	-9.11913	-12.46580	-9.01931
8463.122	-14.72715	-8.79179	-12.35976	-9.11815
8467.129	-14.78667	-8.53571	-12.41606	-9.31961
8471.093	-14.91112	-9.28352	-12.23166	-8.76112
8475.129	-14.91518	-9.04921	-12.31059	-8.94335
8479.128	-14.69666	-8.77755	-12.16726	-8.56665
8483.132	-14.80797	-8.65891	-12.21912	-8.84276
8487.130	-14.79356	-8.99045	-11.98738	-8.60412
8491.113	-14.71965	-9.01794	-11.91267	-8.09996
8495.100	-14.74423	-9.09219	-11.66382	-9.06267
8499.130	-13.89356	-8.16352	-11.25221	-7.23068
8503.130	-13.56671	-6.95747	-11.14600	-6.63059
8507.131	-13.08025	-5.98255	-10.84382	-5.14139
8511.119	-12.93910	-5.41449	-10.47902	-3.19027
8515.133	-12.94254	-4.84524	-10.15151	-3.60448
8519.134	-13.07189	-4.42753	-10.03443	-3.90266
8523.135	-13.10925	-4.25288	-10.04555	-4.06448
8527.135	-13.06417	-4.89079	-9.87283	-4.11583
8531.122	-12.88678	-5.19090	-9.65551	-3.84631
8535.123	-12.91798	-5.29917	-9.71724	-3.79045
8539.093	-12.99505	-5.35331	-9.76883	-3.97632
8543.157	-12.85362	-5.01415	-9.65703	-3.99437
8547.131	-12.80289	-4.60906	-9.68151	-3.98126
8551.132	-12.78309	-4.23334	-9.61870	-3.72506
8555.131	-12.79258	-4.47700	-9.50404	-3.56931
8559.137	-12.93498	-4.24264	-9.52734	-2.54973
8563.134	-12.96559	-4.15828	-9.37361	-2.98129
8567.132	-12.96823	-4.09806	-9.37863	-3.03638
8571.129	-12.97632	-4.06287	-9.39424	-3.30839
8575.125	-13.08373	-4.60623	-9.43322	-3.82800
8579.096	-12.82141	-4.15438	-9.41023	-3.85134
8583.132	-12.78743	-4.55637	-9.46288	-4.06752
8587.133	-12.58117	-5.18168	-9.53412	-4.39934
8591.124	-12.77362	-4.67036	-9.55640	-3.59428
8595.134	-12.59559	-4.90798	-9.50902	-3.60010
8599.135	-12.32705	-4.75996	-9.32021	-3.74106
8603.130	-12.39643	-4.73019	-9.34850	-3.25362
8607.134	-12.35836	-4.86320	-9.48432	-2.23284
8611.136	-12.45897	-4.53881	-9.66359	-2.99191
8615.115	-12.74440	-4.51779	-9.48736	-3.58648
8619.129	-12.58108	-5.02647	-9.56752	-3.71215
8623.144	-12.22469	-5.08021	-9.61609	-4.60415
8627.136	-12.21402	-4.76387	-9.50098	-2.76217
8631.132	-12.31743	-4.45959	-9.35210	-2.97128
8635.131	-12.48634	-4.47683	-9.42680	-2.78021
8639.138	-12.89378	-4.44612	-9.26880	-2.72191
8643.133	-12.75724	-5.15781	-9.51314	-2.94697
8647.135	-12.54975	-4.25964	-9.48244	-3.07384
8651.135	-12.46540	-4.50567	-9.44303	-2.87004
8655.125	-12.84888	-4.64921	-9.49364	-2.76949
8659.133	-13.04507	-4.57313	-9.54628	-2.66753
8663.133	-12.55394	-4.45413	-9.42296	-3.18318
8667.097	-12.56072	-4.46156	-9.29976	-3.04543
8671.136	-12.72043	-4.36683	-9.31317	-4.26370
8675.097	-12.74440	-4.72442	-9.43656	-4.54462
8679.133	-12.47021	-4.64949	-9.46058	-4.54377
8683.138	-12.59524	-4.39011	-9.43660	-4.40799
8687.033	-12.73625	-5.09846	-9.45865	-4.63481
8691.133	-12.55630	-4.37093	-9.45571	-4.31582
8695.132	-12.68791	-4.79805	-9.46628	-3.13872
8699.115	-12.76104	-4.91426	-9.56624	-3.35548
8705.659	NaN	NaN	NaN	NaN
8715.135	-13.02516	-4.97250	-9.95488	-4.71701
8719.134	-13.40997	-5.59768	-10.84942	-4.95326
8723.132	-14.07814	-5.72837	-11.60580	-5.67563
8727.134	-14.14887	-6.26616	-11.99277	-5.47053
8731.133	-14.50609	-8.05185	-11.68400	-6.03744
8735.136	-14.92338	-7.71595	-12.35104	-8.44319
8739.127	-14.94497	-8.03858	-12.31691	-9.70011
8743.136	-15.15633	-7.83287	-12.62164	-8.11953
8747.034	-14.78071	-7.47320	-12.29348	-8.18760
8751.136	-14.87724	-7.74402	-12.08055	-7.42605
8755.135	-14.73372	-7.87879	-11.83051	-7.92899
8759.136	-15.26563	-8.54417	-12.71727	-8.57551
8763.035	-14.99991	-8.56067	-12.60285	-8.46899
8767.136	-14.97442	-8.29086	-12.56176	-7.80763
8771.134	-15.02848	-8.07711	-12.67884	-7.37607
8775.133	-15.10362	-8.11394	-12.56583	-7.32829
8779.038	-15.06568	-8.05186	-12.50139	-6.81253
8783.111	-15.15850	-7.89137	-12.27960	-7.25902
8787.138	-14.91430	-7.84389	-12.24299	-7.86194
8791.135	-14.88234	-7.99417	-12.55190	-8.12453
8795.036	-15.02964	-8.35085	-12.78819	-7.91314
8799.135	-14.94646	-8.57878	-12.71212	-6.72819
8803.131	-15.04114	-8.25599	-12.59207	-6.64875
8807.137	-15.13649	-8.22232	-12.41043	-7.21306
8811.032	-15.07278	-8.65638	-12.53790	-7.32256
8815.138	-15.26443	-8.14698	-12.46677	-7.77481
8819.141	-15.21770	-8.45647	-12.65789	-6.79135
8823.128	-15.33188	-8.06080	-12.38576	-6.95679
8827.008	-15.36973	-8.13021	-12.62176	-7.24130
8831.137	-15.22412	-8.22837	-12.47349	-8.05184
8835.139	-15.40415	-9.25719	-12.37759	-7.88430
8839.138	-15.35591	-8.31225	-12.48648	-7.84702
8843.041	-15.43279	-8.51679	-12.89218	-8.64931
8847.136	-15.57553	-8.45201	-12.49649	-7.63231
8851.134	-15.28905	-8.28307	-12.22127	-7.08634
8855.135	-15.38177	-8.30192	-12.40650	-7.45892
8859.035	-15.17806	-8.93726	-12.54843	-7.40610
8863.135	-15.30995	-8.35913	-12.30123	-6.82355
8867.100	-15.54064	-8.31574	-12.54469	-7.43409
8871.136	-15.38662	-8.35322	-12.45641	-8.64162
8875.035	-15.27596	-8.36729	-12.49547	-7.80666
8879.100	-15.28501	-8.29762	-12.24403	-7.87597
8883.134	-15.47065	-8.46053	-12.44233	-7.44036
8887.136	-15.43224	-8.50072	-12.24355	-7.18706
8891.034	-15.59315	-8.45518	-12.46663	-7.55957
8895.140	-15.36419	-8.10412	-12.59817	-7.71196
8899.137	-15.43342	-8.26316	-12.54675	-7.91794
8903.137	-15.57419	-8.30931	-12.69304	-7.93995
8907.038	-15.42392	-8.18880	-12.50557	-7.98532
8911.137	-15.57875	-8.62398	-12.88004	-8.52915
8915.137	-15.75488	-8.41952	-12.97540	-8.68095
8919.138	-15.64740	-9.33706	-12.65467	-7.98455
8923.035	-15.65069	-8.89187	-12.76692	-7.67409
8927.144	-15.67526	-8.33640	-13.00726	-7.52671
8931.137	-15.69376	-8.67144	-12.77983	-8.15468
8935.138	-15.78501	-8.51502	-12.80348	-7.96305
8939.037	-15.79705	-8.61950	-13.04916	-8.53184
8943.137	-15.69383	-8.29614	-13.01197	-8.16997
8947.101	-15.88996	-9.36005	-12.77551	-7.72072
8951.141	-15.89861	-8.83130	-12.51037	-7.37240
8954.978	-15.95858	-9.29419	-12.98937	-7.61130
8959.140	-15.84810	-9.47111	-12.92691	-7.77893
8963.140	-15.85993	-9.07453	-12.28353	-7.50852
8967.138	-15.94644	-9.52930	-12.69601	-7.75051
8971.039	-15.97957	-9.28467	-12.83621	-7.79633
8975.139	-15.89652	-9.24887	-13.04229	-7.50017
8979.136	-15.66459	-8.96940	-13.02603	-7.29700
8983.139	-15.04945	-8.68144	-12.26465	-7.17948
8987.041	-14.67667	-8.10899	-11.83612	-7.04447
8991.112	-14.35722	-8.38230	-11.59294	-5.39187
8995.138	-14.37780	-7.37542	-11.11150	-3.46063
8999.140	-14.61274	-8.34970	-11.01177	-3.69447
9003.041	-14.39692	-7.11941	-10.81537	-3.47399
9007.138	-14.30692	-7.20739	-11.01689	-3.42981
9011.138	-14.40777	-6.94172	-10.73363	-4.39379
9015.138	-14.25529	-7.55558	-10.68410	-5.61375
9019.039	-14.30375	-7.40561	-10.53341	-3.77929
9023.139	-14.21045	-7.40757	-10.53418	-4.40717
9027.145	-14.12737	-7.26888	-10.63072	-4.94800
9031.013	-14.09275	-7.16050	-10.51028	-5.24951
9035.004	-14.11755	-7.08285	-10.47048	-5.27123
9039.009	-14.09530	-7.02305	-10.43928	-5.90982
9043.013	-14.14807	-6.94502	-10.18608	-4.86253
9047.015	-14.10037	-7.18214	-10.38653	-6.24902
9051.143	-14.13748	-7.20916	-10.38757	-5.91336
9055.012	-14.04559	-7.40901	-10.36442	-4.81994
9059.015	-13.89248	-6.97439	-10.75531	-4.99975
9063.014	-13.71317	-7.27555	-10.48428	-4.85723
9067.145	-14.01837	-7.52977	-10.62811	-5.10083
9071.013	-13.95346	-7.98368	-10.58841	-5.03796
9075.017	-14.02783	-7.55652	-10.47952	-4.94970
9078.986	-14.04811	-7.39336	-10.53245	-5.14414
9083.007	-13.94436	-7.01311	-10.44936	-5.25124
9086.973	-13.80489	-7.46244	-10.49843	-5.24508
9090.978	-13.86570	-7.35651	-11.11578	-5.41003
9095.015	-13.87178	-7.43712	-11.12194	-5.35024
9099.015	-13.98220	-7.24874	-11.03229	-5.40223
9103.015	-13.89557	-7.21701	-10.65172	-5.74161
9107.017	-13.87821	-6.96248	-11.33628	-5.78934
9111.016	-13.92117	-6.90349	-10.91097	-5.35735
9115.009	-13.76537	-6.96244	-10.66637	-5.60203
9119.016	-13.83620	-7.11628	-10.49203	-5.68529
9123.015	-13.76788	-6.83406	-11.19086	-5.71082
9127.016	-13.98134	-6.76271	-11.02428	-5.56278
9131.011	-13.90038	-6.69786	-10.82579	-5.30382
9135.015	-14.01842	-6.65888	-10.69240	-5.45205
9139.013	-13.88977	-6.53192	-11.08665	-5.87407
9143.017	-13.67164	-6.22577	-11.13614	-5.40163
9147.017	-13.80374	-6.42323	-10.85286	-5.30250
9150.982	-13.62957	-6.41410	-11.01467	-5.36880
9155.020	-13.66039	-5.92053	-10.66047	-5.35726
9159.015	-13.91724	-6.39196	-10.58131	-5.38726
9163.007	-13.90726	-6.53212	-10.94265	-5.43711
9167.017	-13.63095	-6.43088	-11.03571	-5.55611
9171.016	-13.58571	-6.43498	-10.97829	-5.11236
9175.015	-13.54352	-6.41448	-10.79964	-4.96728
9179.011	-13.43101	-6.33249	-10.95318	-5.22609
9183.018	-13.42465	-6.56177	-10.82260	-5.31160
9187.016	-13.19261	-5.77896	-10.79885	-5.42206
9191.018	-13.31234	-5.69766	-10.67155	-5.39732
9195.007	-13.10012	-5.93213	-10.76123	-5.49765
9199.018	-13.31020	-5.39127	-10.85212	-5.63926
9202.997	-13.27059	-4.90974	-11.01075	-5.21557
9207.013	-13.31544	-5.52850	-10.84647	-4.61740
9211.007	-13.81661	-3.80294	-10.83309	-4.23349
9215.016	-16.49903	-3.81625	-10.71684	-4.19121
9218.982	-18.92968	-4.31608	-11.17242	-1.21532
9223.017	-19.58073	-2.49963	-14.33756	-0.48956
9227.011	-19.79605	-12.09207	-14.50453	-1.52001
9230.984	-19.85786	-12.08750	-11.82399	-0.35760
9235.018	-19.89085	-12.08506	-11.37817	-0.32877
9239.017	-19.91149	-12.08353	-12.73899	3.54519
9243.011	-19.92573	-12.08248	NaN	NaN
9247.011	-19.93619	-12.08170	NaN	NaN
9251.018	-19.94426	-12.08110	NaN	NaN
9255.018	-19.95069	-12.08062	NaN	NaN
9259.013	-19.95597	-12.08023	NaN	NaN
9263.029	-19.98162	-12.07832	NaN	NaN
9267.018	NaN	NaN	-12.41301	-2.53666
9271.020	-20.07821	1.50707	-12.81153	-0.25151
9275.044	-20.03371	-12.07444	-14.14999	-4.19879
9279.015	-20.03345	-12.07446	-13.03157	-4.04032
9283.017	-16.91197	-5.51471	-13.06829	-2.59159
9286.981	-3.49320	-5.94307	-2.50992	9.92493
9291.051	-3.73658	-7.43210	-4.50994	-3.73419
9295.021	-16.60584	-3.31905	-13.09534	-2.06004
9298.978	-17.57922	-4.14453	-13.12404	-3.27159
9303.021	-16.86046	-4.07560	-13.04042	-2.36879
9307.021	-10.84159	-3.94415	-13.05576	-3.23784
9311.020	-10.12803	-2.64236	-13.31370	7.69025
9315.042	-10.65402	-2.29701	-13.21056	8.97412
9319.018	-10.47696	-4.24066	-10.99755	-2.66207
9323.020	-11.49321	-5.35950	-10.31629	-2.38779
9327.006	-11.86431	-4.34279	-10.55603	-3.42985
9331.014	-10.82703	-3.28808	-10.30692	-3.40392
9335.021	-11.86705	-4.10662	-9.92280	-3.63591
9339.021	-11.83869	-4.05585	-9.91731	-4.68397
9343.021	-11.78773	-3.18731	-9.65893	-3.63726
9347.021	-11.59996	-4.85613	-12.54883	-4.13061
9351.018	-11.80692	-4.78682	-10.01397	-5.11079
9354.982	-11.98695	-4.08399	-9.83050	-3.81427
9359.019	-12.02589	-3.95861	-9.79968	-3.41435
9363.012	-11.96372	-4.10367	-9.79351	-3.88922
9367.022	-11.89561	-4.82728	-9.62022	-3.57398
9370.988	-11.49643	-4.89270	-8.99900	-3.76506
9375.024	-12.01525	-4.70805	-9.17911	-4.13928
9379.014	-11.72855	-4.16850	-9.26498	-4.51836
9383.018	-11.89794	-4.17940	-9.20644	-3.89133
9387.020	-11.74347	-4.46696	-11.53822	-4.07598
9391.019	-11.76459	-6.46844	-9.77315	-5.05016
9394.995	-11.80495	-5.80001	-9.70164	-4.94078
9399.018	-11.84969	-5.85455	-9.35073	-4.42656
9403.021	-11.75845	-5.12619	-9.26582	-4.47894
9407.022	-11.69362	-4.58103	-9.32485	-4.67167
9411.019	-11.51116	-4.37054	-9.24813	-4.21480
9415.015	-11.79689	-5.18476	-9.38303	-3.98481
9419.020	-11.73933	-5.64058	-9.47394	-4.31374
9422.983	-11.88846	-5.04249	-9.38798	-4.66466
9427.012	-11.80600	-4.53257	-9.48299	-5.14410
9431.022	-11.80074	-5.64484	-9.59240	-5.03869
9435.021	-12.04393	-4.96865	-9.63071	-3.97272
9439.019	-12.01103	-4.25463	-9.18905	-5.04302
9443.013	-11.89012	-5.51287	-9.38204	-5.20437
9447.023	-12.07607	-5.17506	-9.43938	-4.97486
9451.020	-12.12817	-4.12432	-9.26967	-4.07788
9455.015	-12.01326	-5.98486	-9.48842	-4.59725
9459.015	-11.75127	-5.32469	-9.68054	-5.19023
9463.020	-12.16776	-5.42381	-10.02066	-5.09150
9467.021	-12.00125	-5.32280	-9.46995	-3.88984
9471.023	-12.04873	-6.33113	-9.43646	-5.33970
9475.026	-12.24249	-5.73305	-9.76165	-5.31406
9479.021	-12.03327	-5.02227	-9.56735	-5.02004
9483.024	-11.80545	-4.43199	-9.61332	-4.07675
9487.023	-12.21127	-6.73392	-9.54829	-5.77533
9491.044	-12.09107	-6.34588	-9.48842	-5.18350
9495.024	-11.80300	-4.90759	-10.06963	-4.89702
9499.020	-11.73995	-5.71380	-10.52828	-5.51587
9503.020	-12.00146	-6.02921	-9.83677	-5.52376
9507.015	-11.77370	-5.71186	-10.61624	-4.61763
9510.985	-11.76528	-6.27524	-9.73928	-6.19306
9515.017	-11.98374	-6.19898	-9.82137	-5.34297
9519.019	-11.98828	-4.61282	-10.90782	-5.99434
9523.021	-11.86557	-6.24581	-9.61081	-4.83715
9526.984	-12.04614	-5.98404	-10.00726	-6.32744
9531.033	-11.82081	-6.25461	-10.13109	-5.48249
9535.011	-12.04740	-4.84553	-10.34705	-6.37284
9539.013	-12.16809	-6.13818	-9.83660	-6.72794
9543.022	-12.11939	-6.57854	-10.01164	-6.23949
9547.021	-12.16809	-5.44694	-10.21553	-6.24537
9551.022	-12.10139	-6.06528	-10.10333	-6.61251
9555.016	-11.96926	-6.19004	-10.22565	-6.75612
9558.985	-11.85980	-5.30613	-10.37774	-5.33978
9563.023	-11.84689	-5.66716	-9.99568	-6.46986
9567.021	-10.27972	-6.13068	-9.31598	-6.81202
9571.019	-8.02531	-6.13238	-7.49005	-4.98429
9574.986	-7.03599	-4.96473	-6.81072	-6.28424
9578.990	-4.93598	-5.72551	-4.91917	-6.30234
9583.024	-4.19489	-6.29821	-3.10272	-4.80574
9587.017	-2.20386	-5.65431	-2.08922	-6.39010
9591.024	-1.37034	-5.90947	0.22415	-3.67635
9595.026	0.28587	-6.83511	0.90530	-4.83166
9599.024	1.18708	-5.87803	4.22528	-3.72850
9603.023	2.12347	-6.73479	4.50288	-4.51116
9607.022	1.89870	-6.80070	5.03580	-3.47288
9611.026	1.83930	-6.14226	4.40505	-6.21440
9615.025	1.92066	-7.82191	4.23564	-5.05528
9619.014	2.21494	-6.56055	4.37739	-3.99731
9623.022	2.14245	-7.71759	3.15134	-5.02879
9626.986	3.36611	-7.18258	4.49800	-6.61570
9631.030	2.06743	-6.30672	4.42550	-7.32318
9635.024	2.03300	-7.42480	4.21256	-6.34020
9639.023	2.36153	-6.52400	3.98205	-4.33142
9643.024	2.13784	-7.68927	4.65772	-5.21738
9647.026	2.06446	-7.08560	4.60173	-4.60126
9651.024	2.10317	-6.62572	4.18832	-6.97603
9655.026	2.15720	-7.82865	4.26687	-4.93699
9659.021	2.14342	-6.84743	3.98217	-5.37626
9663.019	2.34282	-7.03790	4.18437	-7.21913
9667.023	1.81823	-7.03554	4.14591	-6.98033
9671.023	2.13475	-6.14304	4.07387	-7.48580
9675.024	2.23766	-5.72494	3.94898	-7.54514
9679.025	2.27808	-8.58372	3.39564	-7.33272
9683.024	1.60365	-6.09795	4.56212	-7.33228
9687.025	2.21640	-6.66102	3.82786	-7.25214
9691.027	1.59963	-7.38570	4.19701	-7.54550
9694.988	1.96486	-7.04978	4.65732	-7.21438
9699.027	2.15264	-5.57711	4.17006	-7.02817
9702.981	1.70787	-7.57700	4.07411	-7.05962
9707.024	1.92785	-6.46560	4.53179	-6.87891
9711.022	2.41735	-5.86014	3.83725	-6.93300
9715.017	1.95054	-5.69203	4.04757	-7.89863
9719.023	1.94317	-7.30864	4.22858	-7.25204
9723.024	1.63363	-6.13116	4.23073	-7.35481
9727.027	1.70303	-5.38931	5.39367	-8.98542
9731.016	1.72029	-5.42331	4.01193	-8.70782
9735.030	1.78967	-5.17752	4.14164	-8.17330
9739.029	2.00735	-7.63546	4.45461	-6.35928
9743.024	1.82557	-6.87265	3.76806	-7.94282
9747.027	1.61245	-5.39987	6.33064	-6.46001
9751.024	2.82226	-5.64224	5.04637	-6.41912
9755.026	1.78667	-5.12555	6.28793	-7.87480
9759.026	2.46142	-6.53696	4.57993	-6.19982
9762.991	2.69309	-6.07810	7.12217	-7.95662
9767.025	4.99081	-6.39426	7.66582	-6.70012
9770.988	8.02494	-7.61290	7.96758	-7.57972
9775.027	8.47046	-8.01444	11.88273	-8.66484
9779.028	9.21159	-6.97027	12.32705	-8.34048
9783.030	9.52268	-8.67179	12.32025	-7.88268
9787.028	9.97211	-9.36625	14.63081	-8.79621
9791.029	10.27458	-8.93369	12.31518	-8.30782
9795.037	10.33632	-8.55922	12.17018	-8.81742
9799.027	10.46100	-8.31859	12.00068	-9.77591
9803.024	9.86738	-8.40166	12.47723	-9.79289
9807.025	10.72110	-8.42295	12.87867	-9.66005
9811.019	9.98764	-8.18392	14.50542	-9.10640
9815.027	10.26314	-8.35073	12.59420	-8.56635
9819.026	10.52003	-8.19344	12.20563	-8.46214
9823.030	10.21630	-8.40285	13.82064	-10.03282
9826.929	10.19584	-7.86727	14.28378	-11.90370
9831.027	10.37143	-8.36691	13.10476	-9.80114
9835.028	10.15408	-8.48069	13.81464	-9.98224
9839.029	10.19250	-8.71093	12.71561	-9.91390
9843.027	10.02256	-8.32012	14.24214	-9.86495
9847.028	9.97238	-8.01204	13.67977	-9.22760
9851.029	10.02312	-8.17870	12.57271	-9.85204
9855.028	9.53291	-7.92956	14.09152	-10.61428
9858.924	9.88793	-8.15772	13.93454	-9.46904
9863.028	9.44059	-7.95759	14.51053	-9.57904
9867.024	9.55613	-7.63207	12.65349	-10.01994
9871.028	9.92483	-8.00635	13.27553	-9.09904
9875.029	9.55188	-7.90290	12.28339	-8.76832
9879.027	9.89675	-8.09722	13.54450	-9.90854
9883.027	9.25245	-7.59105	13.41624	-9.33041
9887.030	9.67362	-7.98291	13.24447	-8.50928
9890.926	9.58079	-7.35740	12.12895	-10.68381
9895.027	9.63269	-7.79807	12.71628	-10.07576
9899.030	9.67459	-7.31490	14.67934	-11.26759
9903.028	9.99291	-7.69493	13.56240	-10.04235
9906.925	9.90118	-7.33445	13.39790	-9.86392
9911.026	9.61836	-7.33259	15.20369	-9.15803
9915.028	9.57232	-7.16688	14.00837	-10.17370
9919.029	9.60123	-7.28542	13.25726	-9.55313
9922.926	10.11257	-7.21404	13.74779	-10.53012
9927.029	9.83770	-7.37178	14.41720	-10.12736
9931.030	10.36012	-7.53931	14.13083	-10.47347
9935.033	9.78881	-7.78717	14.15393	-10.09325
9938.929	10.34881	-9.03832	13.98515	-10.16854
9943.029	9.99301	-7.35622	12.67494	-10.21854
9947.031	9.83419	-7.35122	13.82248	-9.22515
9951.015	9.79450	-7.45051	14.32365	-10.28848
9954.932	10.38874	-7.75838	14.05600	-10.85053
9959.028	9.80807	-7.74583	11.96921	-10.27699
9963.028	9.74024	-7.64421	13.99494	-10.43327
9967.031	10.01633	-8.08513	13.58941	-10.41485
9970.927	9.64181	-8.16778	13.55029	-10.00821
9975.028	9.49542	-8.31391	11.92106	-10.30989
9979.030	6.74171	-7.66100	7.94599	-9.89115
9983.030	6.62052	-7.56012	6.76743	-10.38044
9986.927	5.37879	-7.25129	6.33625	-10.84845
9991.029	3.02866	-7.40626	2.07425	-10.75501
9994.997	2.48876	-7.25724	1.34036	-10.38659
9999.030	1.28393	-7.45228	1.16481	-10.38480
10002.939	1.61133	-7.66758	1.61024	-10.52519
10007.030	2.21786	-8.13668	2.29163	-11.02398
10010.989	1.94538	-7.29272	1.50782	-11.87960
10015.030	1.58775	-7.04212	1.87151	-11.49580
10018.929	1.19016	-7.02536	2.64062	-10.65784
10023.029	1.01251	-7.06008	3.05712	-9.39630
10027.032	0.94348	-6.27791	3.11683	-10.20333
10031.029	1.37129	-6.94596	2.75940	-9.98409
10034.934	1.07118	-6.71414	4.70384	-11.06764
10039.027	1.00645	-7.37992	2.70287	-11.53984
10043.032	1.25036	-7.89238	1.92185	-10.71110
10047.030	1.26140	-6.78107	2.54306	-9.15689
10050.929	0.89582	-6.73486	2.61367	-9.30522
10055.028	1.14804	-5.82221	3.48212	-10.13476
10059.032	1.07316	-6.00202	2.94609	-10.13889
10063.028	0.86816	-6.77788	2.56924	-10.95270
10066.930	1.10800	-7.03479	2.48579	-10.89963
10070.906	1.20475	-7.15394	2.65632	-10.05651
10074.991	1.24240	-7.85645	4.52291	-9.53155
10078.906	1.36494	-7.90009	2.91686	-9.10839
10082.867	1.17929	-7.48293	2.45114	-9.24550
10086.863	1.29224	-7.44466	3.44804	-9.51537
10090.907	1.23518	-7.04646	2.55235	-10.15910
10094.904	1.39678	-6.04068	2.41355	-9.76334
10098.905	1.11244	-6.22529	2.49991	-10.47954
10102.917	1.17222	-6.04990	3.06209	-10.77536
10106.909	1.29137	-6.00145	3.30903	-10.48657
10110.904	1.40822	-6.35638	3.64738	-11.37324
10114.905	1.23903	-5.82307	3.08671	-9.72841
10118.906	1.08827	-6.36795	2.47559	-9.71835
10122.869	NaN	NaN	-19.99372	-11.74335
10130.905	1.15739	-6.61106	3.97197	-9.70460
10134.909	1.09199	-6.52185	4.27131	-10.62667
10138.903	1.11380	-6.35334	9.62842	-11.93019
10142.906	0.17680	-5.57575	14.63005	-8.43579
10146.909	-3.28988	-5.96446	16.71126	-5.76887
10150.897	-5.70922	-5.49148	17.79043	-1.04357
10154.908	NaN	NaN	-19.99372	-11.83914
10158.902	NaN	NaN	23.23996	-8.86082
10162.906	NaN	NaN	-19.99372	-11.96727
10166.909	NaN	NaN	-19.99372	-11.99281
10170.902	NaN	NaN	-19.99372	-11.99833
10174.907	NaN	NaN	-19.99372	-12.01415
10178.904	NaN	NaN	-19.99372	-12.02983
10182.904	NaN	NaN	-19.99372	-12.07740
10186.905	NaN	NaN	-19.99372	-12.07740
10190.905	NaN	NaN	-19.99372	-12.07740
10194.870	NaN	NaN	-19.99372	-12.07740
10198.901	NaN	NaN	-19.99372	-12.07740
10202.906	NaN	NaN	NaN	NaN
10206.907	NaN	NaN	NaN	NaN
10210.876	NaN	NaN	NaN	NaN
10214.908	NaN	NaN	NaN	NaN
10218.910	NaN	NaN	NaN	NaN
10222.870	NaN	NaN	NaN	NaN
10226.908	NaN	NaN	NaN	NaN
10230.908	NaN	NaN	NaN	NaN
10234.915	NaN	NaN	NaN	NaN
10238.872	NaN	NaN	NaN	NaN
10242.937	21.06476	10.20791	NaN	NaN
10246.907	NaN	NaN	NaN	NaN
10250.900	NaN	NaN	NaN	NaN
10254.905	-0.35347	-12.27535	-8.14276	-11.23701
10258.870	2.77515	-10.37906	-8.08107	-12.75126
10262.908	3.68918	-8.73666	-19.99372	-12.10667
10266.907	4.88959	-10.80185	1.45693	-14.06242
10270.909	4.78351	-10.89599	-4.84856	-13.13957
10274.910	4.59011	-10.71061	-8.36244	-12.89816
10278.907	3.45025	-10.47738	-8.92922	-13.35536
10282.909	-0.21276	-8.91430	-3.71458	-12.25614
10286.910	-2.64864	-8.64237	-7.99014	-12.72687
10290.880	-2.26891	-8.18187	-5.85053	-13.02839
10294.909	-3.55313	-7.81629	-7.71233	-12.32060
10298.908	-4.16882	-7.57358	-5.19101	-11.50524
10302.911	-3.33327	-8.23415	-5.14557	-12.73598
10306.871	-3.26332	-7.39368	-4.30687	-12.00375
10310.911	-4.22491	-8.48059	-4.08937	-11.82203
10314.910	-4.12164	-8.76980	-4.34921	-11.95611
10318.903	-4.32548	-8.88278	-4.62732	-11.92119
10322.911	-4.52752	-9.03330	-4.17085	-12.19941
10326.914	-3.80676	-8.12334	-4.20355	-11.64953
10330.894	-3.99316	-9.10599	-4.45414	-10.56583
10334.894	-3.97662	-8.99683	-4.26062	-10.59102
10338.912	-4.14019	-9.20749	-4.55934	-11.17760
10342.910	-4.05352	-9.47761	-4.36649	-10.83699
10346.912	-4.14028	-8.68456	-4.58072	-11.03959
10350.904	-4.38822	-9.15026	-5.45447	-11.39898
10354.911	-4.29897	-8.93348	-5.15209	-11.91027
10358.910	-4.46073	-9.49119	-5.44965	-12.39596
10362.911	-4.37776	-9.54730	-5.20137	-13.17135
10366.902	-4.52096	-9.35745	-5.15509	-13.44090
10370.909	-4.84132	-9.74775	-5.18333	-12.99245
10374.874	-4.85645	-9.84712	-5.14461	-13.03877
10378.909	-5.11866	-9.97766	-5.36376	-13.08336
10382.903	-4.64968	-9.96134	-5.42333	-13.16811
10386.909	-5.04014	-9.98994	-4.94654	-12.76298
10390.908	-5.10219	-10.12945	-4.84967	-12.12139
10394.910	-4.63398	-9.96728	-5.14451	-11.32662
10398.875	-4.96201	-9.97320	-4.91602	-11.64861
10402.912	-4.89079	-9.88089	-5.09298	-12.38900
10406.910	-5.01630	-10.00980	-4.76243	-12.35906
10410.914	-4.79373	-9.79509	-4.69706	-12.50379
10414.870	-5.06693	-9.89312	-4.43480	-12.00006
10418.912	-5.04518	-9.39321	-4.32168	-12.19082
10422.910	-5.11930	-9.27003	-4.36441	-11.98814
10426.913	-5.04472	-9.30192	-4.40655	-11.98362
10430.912	-5.00480	-9.31328	-4.54974	-12.43475
10434.911	-5.05858	-9.59374	-4.65101	-12.65468
10438.916	-5.06557	-9.26694	-5.03110	-12.45521
10442.874	-4.50777	-9.79334	-5.05769	-12.35222
10446.903	-4.78974	-9.30168	-4.24900	-12.33494
10450.904	-4.69098	-8.93407	-4.09379	-11.97791
10454.912	-4.83028	-8.91929	-4.82806	-12.61545
10458.904	-4.93568	-9.42359	-5.09392	-12.63853
10462.905	-5.08249	-9.78228	-4.92383	-12.89676
10466.912	-4.93728	-9.28683	-4.85226	-12.62649
10470.925	-4.93359	-9.17866	-4.55694	-12.78808
10474.910	-4.54279	-9.39522	-4.64184	-13.27304
10478.902	-4.59827	-9.25599	-4.74087	-12.45090
10482.911	-4.40468	-8.95894	-4.64317	-12.02752
10486.911	-4.58476	-10.01307	-4.72036	-12.43439
10490.912	-4.55689	-9.56655	-4.30583	-11.97992
10494.880	-4.75346	-8.98250	-19.99372	-11.97337
10498.912	-4.44960	-9.23901	-4.79221	-12.81237
10502.911	-4.41852	-9.02164	-4.51356	-11.93652
10506.911	-4.35884	-9.02462	-4.31511	-12.05129
10510.906	-4.17813	-9.53760	-4.36466	-12.55797
10514.912	-4.09816	-9.04700	-19.99372	-11.86909
10518.876	-4.25151	-8.62044	-19.99372	-11.86359
10522.912	-4.17894	-9.35453	-4.68846	-13.27986
10526.912	-3.95053	-8.90828	-4.47442	-12.53294
10530.913	-4.11940	-9.69011	-4.32676	-12.36061
10534.915	-4.52589	-9.50145	-4.67431	-11.57054
10538.900	-4.33715	-9.31544	-4.37241	-12.54621
10542.912	-4.21550	-9.10618	-4.25151	-11.70226
10546.916	-4.50584	-9.40603	-19.99372	-11.91204
10550.911	-4.80970	-9.80766	-19.99372	-11.96627
10554.913	-4.45819	-10.03175	-4.51610	-13.13183
10558.912	-4.49721	-9.92624	-4.58629	-12.48045
10562.912	2.35365	-5.07712	-4.78434	-12.76913
10566.912	-2.79768	-9.02390	-4.68752	-12.29280
10570.914	-4.47282	-10.13822	-4.38790	-11.65024
10574.879	-4.50012	-10.35710	-4.57943	-12.67037
10578.915	-4.67047	-10.45227	-4.27299	-12.48935
10582.879	-4.66043	-10.49323	-4.41985	-12.69421
10586.914	-4.69761	-10.07576	-10.17500	-12.68034
10590.912	-4.56380	-9.87885	-11.55988	-12.71967
10594.876	-4.46342	-9.34503	-19.99372	-12.07834
10598.911	-4.53443	-9.71417	-4.47252	-12.79670
10602.914	-4.56294	-9.30966	-4.89947	-13.02294
10606.914	-4.79805	-8.97458	-4.51324	-12.95847
10610.914	-4.61075	-9.17952	-5.00883	-12.89941
10614.917	-4.45927	-9.28421	-4.53985	-12.49337
10618.913	-4.71932	-9.52342	-4.97381	-12.84851
10622.905	-4.62441	-9.64382	-4.86519	-12.64672
10626.914	-4.53887	-9.54400	-5.13808	-12.93933
10630.914	-4.59850	-9.63429	-4.98475	-12.86701
10634.913	-4.54449	-11.35518	-5.02733	-13.02962
10638.917	-4.86648	-11.04638	-4.60234	-12.99838
10642.914	-4.73411	-10.75749	-4.55199	-12.91286
10646.878	-4.90218	-9.83276	-5.09854	-13.11614
10650.914	-4.43808	-9.48885	-4.92462	-12.92224
10654.906	-5.23711	-9.81335	-4.96322	-13.00704
10658.916	-4.42175	-10.33788	-4.88880	-12.86577
10662.904	-4.39802	-10.57047	-4.73917	-13.06767
10666.907	-4.67991	-10.46543	-5.01942	-12.93446
10670.909	-4.57810	-9.76934	-5.02021	-12.72476
10674.915	-4.75028	-10.11747	-4.78600	-12.57604
10678.917	-4.57593	-10.24963	-4.57463	-12.61685
10682.913	-4.76209	-10.74875	-4.31847	-13.27359
10686.913	-4.44173	-10.80064	-5.24843	-12.86541
10690.913	-4.34408	-10.52282	-4.76246	-12.54963
10694.878	-4.64840	-9.68073	-4.87742	-12.28198
10698.918	-4.24455	-10.26101	-4.63972	-12.44688
10702.876	-4.14757	-11.02020	-6.59177	-12.14906
10706.886	-4.34475	-10.52297	-4.92152	-12.24907
10710.913	-4.24495	-9.41012	-5.13754	-12.97544
10714.878	-4.34875	-10.50213	-5.11600	-12.46667
10718.908	-4.53083	-9.97900	-4.91841	-12.86616
10722.917	-4.46788	-10.48982	-4.19543	-11.46470
10726.915	-4.14416	-10.28054	-5.41495	-12.81971
10730.914	-4.55719	-10.95102	-6.23366	-13.10933
10734.906	-4.49647	-9.59826	-4.76409	-12.12961
10738.922	-4.76209	-10.32958	-4.77205	-12.29451
10742.920	-4.82082	-10.48285	-4.84307	-13.26741
10746.900	-4.80298	-9.75913	-4.75839	-12.87736
10750.824	-4.88362	-10.37370	-4.99507	-11.89396
10754.915	-4.51174	-10.25359	-4.66346	-12.39945
10758.914	-4.38482	-10.20071	-4.25721	-11.38791
10762.885	-4.98884	-10.25755	-5.69993	-12.36663
10766.920	-4.94280	-9.28053	-4.66401	-12.19570
10770.917	-4.47277	-10.21742	-4.42814	-12.58809
10774.920	-4.82111	-10.21766	-4.37315	-11.27247
10778.917	-4.75497	-8.97255	-4.63193	-12.68154
10782.893	-4.68570	-9.85639	-3.72019	-11.71413
10786.914	-4.67648	-10.23352	-4.27449	-11.52940
10790.883	-4.64682	-10.15830	-4.18405	-11.67717
10794.919	-4.52964	-8.81371	-4.97930	-12.68984
10798.815	-4.77399	-8.99642	-4.64214	-12.72699
10802.917	-4.62887	-10.13924	-4.62934	-12.35546
10806.914	-4.69366	-10.62373	-4.30494	-12.08062
10810.917	-4.72080	-10.96955	-4.16302	-11.57949
10814.918	-4.74328	-9.53252	-4.38778	-12.02085
10818.918	-4.89853	-9.80726	-4.73342	-12.63579
10822.918	-4.71205	-9.15942	-4.25707	-12.81837
10826.924	-4.66169	-8.90860	-4.36148	-12.74343
10830.883	-4.66731	-8.81668	-4.44837	-11.95869
10834.917	-4.32654	-8.77916	-3.60929	-12.30854
10838.921	-4.44751	-9.22564	-4.35250	-12.38485
10842.917	-4.80682	-10.12167	-4.48764	-12.84897
10846.817	-4.52506	-9.97679	-4.66992	-11.86671
10850.880	-4.12011	-9.94660	-4.35166	-11.73969
10854.916	-4.32303	-10.15133	-4.49820	-12.22204
10858.918	-4.17477	-10.54003	-4.41141	-12.08578
10862.817	-4.54922	-10.19480	-4.38704	-12.31446
10866.921	-4.57500	-10.07920	-5.29738	-12.52998
10870.907	-4.57867	-9.81217	-5.22382	-13.54420
10874.917	-4.62826	-9.90444	-4.75361	-12.58852
10878.817	-4.75097	-10.15883	-5.36233	-12.26027
10882.919	-4.48525	-9.60736	-4.12552	-12.47021
10886.919	-4.89439	-9.61830	-4.86492	-12.45052
10890.918	-4.68804	-9.18191	-4.51965	-11.83991
10894.821	-4.87202	-9.05482	-4.45261	-11.86144
10898.917	-4.97243	-9.09683	-4.37604	-12.00958
10902.915	-4.92585	-9.28267	-5.57741	-12.40986
10906.918	-4.91846	-9.64489	-5.60244	-12.00593
10910.818	-4.77466	-9.37451	-5.10847	-12.54570
10914.890	-4.81185	-9.42802	-5.65231	-12.85152
10918.881	-4.36059	-9.33339	-4.39577	-12.71821
10922.921	-4.70663	-9.27953	-4.16142	-12.28502
10926.818	-4.77229	-9.26716	-4.02312	-12.23441
10930.920	-4.73019	-9.14849	-4.19674	-12.94842
10934.919	-4.58829	-9.24036	-4.52017	-12.02673
10938.923	-4.58885	-9.30817	-3.89738	-12.33704
10942.815	-4.79881	-9.32076	-5.94057	-12.85206
10946.917	-4.84563	-9.03123	-5.11093	-12.71658
10950.923	-4.77271	-8.93026	-4.09809	-12.65164
10954.904	-4.83573	-9.71160	-4.06594	-12.03710
10958.815	-4.94423	-9.34139	-4.20415	-11.52364
10962.917	-4.13749	-7.36228	-4.79945	-12.42999
10966.918	-3.04751	-8.06411	-3.77696	-8.77475
10970.917	-1.62869	-5.03702	-0.41452	-9.73449
10974.821	-0.56342	-3.63903	0.81141	-6.22993
10978.917	0.70620	-1.64156	1.52293	-3.00420
10982.921	1.38776	-1.22727	1.53200	-3.73995
10986.920	2.39190	-0.35265	2.52869	-1.91815
10990.820	1.75776	3.64536	2.37776	0.36576
10994.884	0.48877	3.74233	0.90773	0.84172
10998.918	1.47459	4.94531	2.53439	5.07536
11002.922	0.08009	4.10114	2.84620	4.97910
11006.924	0.57803	5.06370	-2.40040	4.34031
11010.919	-0.04264	3.75635	2.26517	2.70106
11014.923	0.34166	4.08503	2.80008	3.53657
11018.920	0.85739	5.57085	2.27734	4.99007
11022.921	0.05877	5.34574	1.96965	0.78998
11026.917	0.51649	4.71122	3.28719	4.66634
11030.923	0.02060	5.09507	2.62004	2.50207
11034.920	0.36308	5.26175	2.91475	4.21615
11038.824	-0.77476	5.07030	2.26685	5.01418
11042.920	0.30148	5.01521	2.80852	-0.29361
11046.919	0.63285	5.31467	2.95473	2.10953
11050.921	0.22822	9.80178	2.96193	3.48465
11054.819	0.38777	5.01541	1.91633	4.80829
11058.921	0.51805	5.54235	0.11299	2.45930
11062.920	1.39145	8.77666	2.49979	1.20046
11066.918	0.45242	4.76827	2.73662	2.67540
11070.819	-0.13816	5.00136	2.21625	3.50310
11074.910	0.71129	5.28801	2.47266	5.00561
11078.884	0.58498	4.82187	1.77179	2.00608
11082.920	5.49281	9.26645	2.36078	1.89917
11086.784	0.34563	4.44949	3.22460	4.21938
11090.922	0.67821	4.66932	2.07648	2.29308
11094.885	0.46979	4.90038	2.01384	3.56033
11098.932	0.10783	4.45887	2.42733	3.51301
11102.821	0.51969	4.34593	2.57734	3.83162
11106.922	-0.01938	4.71324	1.65597	4.75329
11110.798	0.12908	5.56858	1.33488	1.77916
11114.798	0.18224	4.98127	2.38841	5.30526
11118.790	1.14052	4.90204	3.18856	1.96144
11122.797	-0.41961	4.60470	2.61060	1.30310
11126.779	-0.24870	4.90785	2.98034	1.70663
11130.792	0.99008	4.62258	2.46882	2.00659
11134.795	0.54945	4.81037	2.45029	2.73982
11138.800	-0.16938	5.57903	2.52589	2.65155
11142.799	1.80224	4.84716	2.67127	3.40536
11146.797	-0.55215	5.03374	2.20210	4.74709
11150.791	0.37276	4.74587	2.57283	3.41166
11154.797	-0.39790	5.01536	1.21462	4.83979
11158.800	0.29697	4.74911	2.02815	4.75184
11162.800	0.44252	4.47841	2.27897	3.49216
11166.816	1.28122	3.59353	1.60712	0.86112
11170.795	-0.38037	2.63830	1.63831	-0.92515
11174.798	0.27138	1.66716	2.55215	-3.79539
11178.796	0.27572	1.78315	1.41157	-3.34301
11182.792	-0.45314	1.95173	2.85749	-2.68000
11186.797	0.43735	1.89313	3.08070	-2.98555
11190.799	0.11064	2.47703	1.27847	-2.60661
11194.762	0.22939	3.40667	1.19403	-1.26794
11198.765	-0.75846	1.75941	2.26485	-0.52883
11202.760	-0.35509	1.95970	2.11366	-0.76054
11206.800	0.82275	1.87664	2.99086	-1.06373
11210.777	-0.61908	1.48136	1.74890	-0.65886
11214.763	-0.31724	1.95544	1.34822	-0.60789
11218.792	-0.19447	2.07945	2.49176	1.50960
11222.795	0.31461	2.48439	2.27179	-0.44615
11226.797	0.93904	1.91619	2.91121	-0.42881
11230.794	0.06301	2.16507	2.00968	-0.27342
11234.801	-0.25659	2.10393	2.28799	0.26061
11238.799	-0.32786	2.19620	2.10840	0.51186
11242.798	0.84257	2.19967	3.47609	-0.48978
11246.791	1.18212	2.30722	2.20362	-0.27947
11250.801	-0.36864	2.47661	2.13477	-0.10025
11254.789	-0.22040	2.29030	2.93312	-0.75637
11258.799	0.73275	2.20089	2.35011	-2.18509
11262.764	-0.01243	2.39444	2.46181	-1.85318
11266.798	-0.07192	2.39741	2.44650	-0.63002
11270.800	-0.21844	2.50289	3.06845	-1.11920
11274.797	0.12104	2.33127	3.19034	-2.39291
11278.821	0.67531	2.58615	2.64401	-2.43285
11282.799	-0.18216	2.60083	1.46412	-2.10505
11286.799	-0.00181	2.55387	2.26777	-2.43029
11290.800	-0.01531	2.61465	3.77893	-2.09324
11294.767	0.35427	2.34647	4.01514	-2.63023
11298.799	0.87614	2.40867	3.97163	-2.59114
11302.799	0.48699	2.69388	2.81976	-2.42972
11306.801	0.23688	2.66425	2.67041	-2.57877
11310.792	-0.43877	2.79564	1.20405	-3.30620
11314.799	-0.06157	2.60404	2.30392	-2.86487
11318.800	0.26401	2.68162	2.05055	-2.69299
11322.798	0.08458	2.44471	1.84039	-2.37865
11326.799	0.13545	2.87256	2.34257	-2.24996
11330.803	0.29533	2.49382	2.51234	-2.26680
11334.781	0.47706	2.40311	2.91124	-2.66480
11338.799	1.06349	2.31237	3.49456	-2.40883
11342.804	0.39971	2.48216	2.56040	-2.90142
11346.799	0.21492	2.39640	2.44489	-3.09467
11350.799	0.10389	2.81897	2.45312	-2.39700
11354.799	0.22075	3.12712	2.60951	-2.12180
11358.792	0.76422	2.62776	2.39096	-2.14529
11362.800	0.97871	2.57735	3.23692	-2.11613
11366.799	0.63759	2.67132	2.94393	-3.37984
11370.801	0.62923	2.34208	3.39144	-2.86509
11374.788	-0.03934	3.13182	2.60711	-3.32951
11378.794	0.27528	2.88463	2.72221	-3.19098
11382.799	0.77136	2.78067	2.57929	-3.36452
11386.797	0.51428	2.64018	3.15627	-3.34485
11390.805	0.60464	2.33757	4.05169	-3.72566
11394.767	0.56898	2.24401	3.49092	-3.62869
11398.799	0.52433	2.44320	3.46938	-1.86698
11402.800	-0.16449	2.79375	3.64990	-0.97199
11406.792	0.18194	2.72535	3.64279	-0.22371
11410.803	-0.12632	2.24077	3.82408	0.00669
11414.805	-0.19018	2.64767	3.85595	-0.19795
11418.803	0.50170	1.66282	3.12692	-0.17974
11422.771	0.77186	1.15972	3.27212	-0.16944
11426.800	0.62526	1.85527	2.33888	-0.20918
11430.802	0.66913	3.36294	3.24278	-0.31671
11434.802	-0.27312	2.70475	3.02677	-0.44541
11438.799	0.59756	3.27718	3.66644	-0.63446
11442.808	0.89329	3.38071	3.88730	-2.15212
11446.763	1.13045	3.03158	3.54922	-3.16351
11450.802	1.44153	1.87998	3.92141	-4.08524
11454.794	1.21489	2.64257	4.15258	-3.86710
11458.790	0.73491	2.74730	4.35425	-3.45888
11462.765	0.51607	3.20567	4.46455	-3.04055
11466.801	0.43269	3.10698	3.12561	-3.20551
11470.792	0.06882	3.11420	2.43104	-2.83130
11474.802	-0.36534	2.95214	1.53964	-2.82985
11478.764	-0.10272	2.56842	1.97780	-2.18196
11482.803	-0.30913	3.04828	3.07374	-2.58133
11486.797	-0.26123	3.40778	2.52163	-2.35728
11490.799	0.10952	3.04190	3.97600	-2.36099
11494.805	0.11724	3.67359	3.38822	-2.16728
11498.800	0.17948	3.79943	3.31492	-2.28971
11502.796	0.26341	3.62219	4.26533	-2.03519
11506.801	-1.35330	2.41817	3.71871	-1.40069
11510.805	-1.02923	2.42116	2.99250	-1.95974
11514.803	-1.33497	2.77625	3.07068	-1.75815
11518.795	-0.17050	3.07140	3.41162	-1.74356
11522.801	-0.23244	2.27839	3.95654	-1.82984
11526.803	-0.20283	3.10874	2.47165	-1.51545
11530.766	0.20345	3.24466	2.07821	-1.91995
11534.797	-1.69587	3.69636	2.19804	-3.99409
11538.801	0.21087	2.69440	3.71562	-3.19704
11542.791	0.88106	2.96444	3.22923	-2.24903
11546.799	0.87227	3.11731	3.58289	-2.68337
11550.802	0.24205	3.32225	4.32123	-3.13032
11554.801	0.46371	3.16573	4.49605	-3.18462
11558.802	-0.67990	2.93744	4.21871	-2.88971
11562.803	-0.56841	2.56029	2.77730	-3.14144
11566.802	-0.42812	2.99306	2.92322	-3.13852
11570.801	0.26356	3.99743	2.66365	-3.03056
11574.802	-0.35238	3.41570	1.59680	-2.59477
11578.765	0.00395	4.03466	2.29386	-2.47998
11582.791	-0.01020	3.23146	1.47179	-1.79941
11586.796	0.29074	4.25404	1.68042	-1.68379
11590.804	0.30501	4.18382	2.07323	-1.14919
11594.804	0.50959	4.07955	2.60909	-1.09805
11598.798	0.80796	3.97487	2.50878	-0.74618
11602.806	-1.07150	2.80671	2.65820	-0.88606
11606.806	-1.18557	2.46222	2.02366	-1.29014
11610.804	-1.22543	2.66383	1.34408	-1.15591
11614.798	-1.27147	3.34682	1.77107	-1.02011
11618.804	-1.16533	3.17541	2.67642	-0.55694
11622.766	-0.91128	2.95133	2.35960	-0.99625
11626.803	-1.24863	3.00150	1.75287	-1.07661
11630.801	-0.98688	3.15224	2.65070	-1.14548
11634.802	-0.93301	3.28438	3.61997	-1.00961
11638.803	-0.96713	3.53484	2.94346	-0.62334
11642.770	-1.19172	4.12196	3.23076	-2.27531
11646.805	-0.76655	3.34073	3.13835	-4.12720
11650.806	-0.27461	3.48324	4.11772	-2.86123
11654.804	0.37839	3.52564	4.36866	-2.46549
11658.803	-0.90892	3.12060	4.38099	-2.49513
11662.797	-0.88118	3.21305	3.16188	-1.76871
11666.792	-0.99003	3.66244	2.20161	-1.36410
11670.796	-1.17639	3.76207	3.29248	-1.64401
11674.803	-1.05262	3.48292	3.41711	-0.07250
11678.798	-1.28980	3.73878	3.50383	-0.07260
11682.804	-1.28861	3.18867	3.41315	-0.08769
11686.807	-1.27899	3.65245	3.20986	-1.02661
11690.806	0.59161	3.92008	3.27141	-0.22804
11694.772	1.11293	3.85337	3.34907	-0.18972
11698.807	1.29819	3.39508	2.22381	-1.56969
11702.764	1.98246	3.28181	3.24261	-1.63477
11706.805	1.64466	3.14324	2.33923	-1.80562
11710.805	1.24384	3.01971	3.73673	-3.43819
11714.810	-0.44668	3.49335	3.81029	-3.00975
11718.805	-1.31853	3.52154	3.55513	-4.17549
11722.809	-1.22223	3.32814	2.92631	-3.27136
11726.796	-1.23345	3.34338	4.02366	-4.02946
11730.804	-1.16230	3.24493	3.56114	-3.87144
11734.804	-0.81238	3.18137	3.70000	-3.41938
11738.803	-1.10048	3.03753	3.57370	-3.52120
11742.800	-1.09261	3.23077	3.77923	-4.17679
11746.808	-1.14295	3.21895	2.28653	-3.98780
11750.786	-0.98283	3.17174	2.58536	-4.34943
11754.802	-0.56563	3.04359	2.52275	-4.13981
11758.807	-1.11988	3.00401	2.12714	-3.80964
11762.804	-1.10896	3.05028	2.38531	-3.68682
11766.808	-1.12444	3.15193	1.63323	-3.86460
11770.809	2.11606	3.08035	3.05462	-3.88324
11774.797	1.20184	3.22121	2.19477	-2.51138
11778.806	0.06654	3.24010	3.18623	-2.96291
11782.806	-0.82116	3.70393	3.00329	-2.00815
11786.804	-0.99990	3.79420	2.39151	-1.32672
11790.706	-1.07073	4.11276	2.51178	-1.23023
11794.810	-0.49230	4.02462	2.07965	-0.84033
11798.808	-0.99129	4.39983	2.13807	1.35753
11802.807	0.29682	4.18229	2.40114	1.48973
11806.707	-0.40484	4.91505	2.87094	-0.03437
11810.808	-0.46847	4.02520	2.90059	-1.79502
11814.807	-0.77086	5.18896	3.50244	-2.17138
11818.809	-1.16525	5.44082	3.90644	-2.32847
11822.809	-0.96641	4.35244	3.41750	-1.82059
11826.809	-0.94748	4.35676	2.05732	-1.21411
11830.810	-1.11856	4.91015	2.15024	0.12806
11834.786	-1.38617	5.41549	1.62606	0.41724
11838.804	-2.62826	5.39480	3.53881	0.22994
11842.808	0.43242	6.12047	3.14716	0.49833
11846.810	0.77672	5.61851	4.14098	0.25451
11850.809	1.13124	5.51757	4.25773	-2.52408
11854.705	-0.31471	5.43955	2.55733	-3.02480
11858.808	0.59786	4.31727	3.70574	-2.61550
11862.809	0.31719	4.23836	3.17255	-2.47285
11866.809	-0.76538	5.30425	2.58090	-0.47254
11870.704	-0.54059	5.38528	1.83642	0.17554
11874.809	0.88738	3.55806	1.64357	0.02427
11878.806	-0.06495	3.70364	3.12796	-0.17011
11882.806	-0.70876	3.65362	1.82626	-0.05804
11886.706	-0.99665	4.59364	1.89000	-0.26107
11890.811	-0.85778	3.44120	2.16622	-0.50195
11894.810	-0.11925	3.24200	2.34817	0.03536
11898.806	-0.87476	3.42334	2.07546	0.48664
11902.707	-0.79139	4.00609	2.33774	-2.33323
11906.809	-1.13139	4.80500	1.74261	-2.04637
11910.809	3.14447	3.15386	1.12377	-1.46888
11914.810	0.96814	3.15763	0.97901	-0.46875
11918.708	0.61104	3.35003	2.60520	-1.98459
11922.808	-0.67106	4.16046	2.53835	-2.23607
11926.807	-0.63173	4.43394	2.85987	-2.37525
11930.810	-1.02012	4.86068	2.89131	-1.62008
11934.712	-0.46185	4.20992	2.11794	-1.03976
11938.810	1.04230	4.57321	1.14771	0.93138
11942.807	0.99762	4.87711	1.77065	-1.93372
11946.808	-0.64608	4.70892	1.44431	-1.19799
11950.813	-0.86793	4.45284	2.06736	-2.95687
11954.811	1.01779	4.62436	2.66072	-0.12054
11958.772	-0.05145	4.94511	3.12749	-0.92874
11962.809	2.23318	7.56980	3.41011	3.41277
11966.710	2.62848	7.72425	2.92193	2.99586
11970.807	4.03549	10.41401	4.82247	3.81651
11974.812	1.04270	10.84006	4.13821	7.10285
11978.808	4.36244	9.90298	8.24028	7.98298
11982.810	3.01504	10.83901	5.65570	9.15795
11986.809	3.95491	10.89142	5.33970	7.28842
11990.813	4.11641	9.83042	4.34670	7.99660
11994.810	4.33522	10.36271	3.47987	9.32823
11998.804	4.29613	10.65656	5.30107	12.48312
12002.807	4.58437	9.70539	4.94351	8.17736
12006.775	4.33944	10.77596	4.96206	9.34061
12010.811	4.50175	11.06310	4.96600	11.89056
12014.673	4.45542	10.91596	5.15061	8.93020
12018.817	3.91173	10.44460	5.06306	8.92048
12022.808	3.65556	10.73792	5.19268	9.72849
12026.811	4.42698	10.65130	5.07308	12.16602
12030.708	4.25322	10.55513	5.04262	10.70709
12034.809	4.59105	10.55469	2.49899	9.06176
12038.812	4.23569	10.38123	6.69865	9.63973
12042.774	4.54587	10.51658	5.01558	8.73542
12046.821	4.56382	10.71859	5.25978	8.87124
12050.812	4.55675	10.90461	5.07678	10.08779
12054.808	4.31958	10.70981	5.14306	9.73900
12058.812	4.37754	10.66350	4.91772	10.04144
12062.812	4.58409	10.59093	4.98625	9.96823
12066.811	4.73584	10.53540	3.24207	10.48898
12070.809	4.72001	10.35493	4.66497	10.77952
12074.772	4.55593	10.17388	5.09170	11.18925
12078.708	4.27363	9.91333	5.17166	11.53514
12082.775	4.33912	9.88039	4.73160	10.88134
12086.769	4.41494	10.17947	4.84120	9.10037
12090.812	4.46897	10.09767	4.04322	10.69091
12094.778	4.54217	10.38578	4.70212	8.80524
12098.811	4.63602	10.79465	4.71163	8.86533
12102.813	4.56050	10.05385	4.96876	9.25934
12106.814	4.40641	10.17865	3.58885	11.56218
12110.711	4.63324	9.54350	4.59795	11.06442
12114.815	4.37428	9.76204	3.08003	8.67765
12118.813	4.52584	10.41400	4.03841	6.94594
12122.817	4.59041	11.09073	4.29154	8.62705
12126.714	4.71134	9.81721	4.66238	10.55621
12130.811	4.70291	9.44746	4.22086	11.00590
12134.810	4.43887	10.10967	4.78654	8.90313
12138.807	4.58654	10.58656	4.83025	9.35864
12142.709	4.36069	9.56045	4.57221	12.10266
12146.815	4.50720	9.49699	3.95179	8.40995
12150.689	4.60412	9.69363	4.64946	8.09934
12154.688	4.74664	10.12031	4.78550	9.97043
12158.714	4.74649	10.32087	4.60673	11.14357
12162.687	4.59132	10.22684	4.73416	10.94481
12166.686	4.66354	9.63595	5.09288	8.88833
12170.682	4.43243	9.63557	4.95031	8.46087
12174.712	4.60742	9.71117	5.36078	8.24967
12178.687	4.53001	9.45878	4.90193	8.14007
12182.651	4.47267	9.24208	4.60784	8.17253
12186.687	4.40811	9.28832	4.77202	8.22243
12190.680	4.65528	9.41252	4.82636	8.06897
12194.690	4.56471	9.41596	5.20846	6.84901
12198.689	4.57273	9.87566	2.05633	9.27114
12202.651	4.48330	9.69931	5.19158	11.42412
12206.682	4.39289	10.09732	4.71585	10.23257
12210.689	4.53517	10.26607	5.13134	11.69604
12214.688	4.54234	10.57612	5.41972	11.04543
12218.689	4.49297	10.31501	5.87965	8.83037
12222.713	4.50505	9.99431	5.30227	9.19210
12226.687	4.71804	9.94441	5.71745	9.46808
12230.694	4.78442	10.00945	5.83780	7.84243
12234.689	4.81986	10.19979	5.18303	8.91130
12238.685	4.69721	10.27193	3.25698	9.12593
12242.688	4.61302	11.17366	4.75753	12.24573
12246.693	5.09692	10.59596	6.31774	11.17953
12250.690	7.95334	10.16281	7.00463	9.36704
12254.703	8.88302	9.51936	10.96892	7.03015
12258.684	11.57458	9.30416	7.91424	6.79332
12262.687	12.09633	9.73063	14.11388	8.97710
12266.689	13.30754	9.55246	13.79695	8.68340
12270.685	13.65919	9.81555	18.55773	7.35098
12274.690	15.25268	9.86451	18.25536	9.26675
12278.691	15.08261	10.78885	17.64408	11.26607
12282.688	14.79006	9.96589	17.92605	10.99524
12286.684	14.68459	9.21529	17.82825	10.12674
12290.688	14.64059	8.72213	14.17787	6.51587
12294.693	14.08510	8.95380	16.86116	3.59042
12298.655	14.55997	8.41208	15.96450	6.47255
12302.715	13.36897	8.73610	14.86398	8.92421
12306.689	13.58620	8.67662	11.02136	5.14419
12310.692	13.22109	8.11101	13.51558	5.10397
12314.691	13.47244	7.84722	13.16788	6.00198
12318.690	12.99237	6.07293	15.43314	5.27403
12322.692	12.62514	6.85451	14.27697	5.81235
12326.689	12.42325	7.34394	11.05134	8.63548
12330.692	12.40600	7.31248	14.08372	6.04437
12334.692	12.35666	7.51874	14.91050	6.74901
12338.669	12.15583	7.46637	15.12257	7.88356
12342.690	12.28870	7.80624	14.62387	7.44790
12346.696	12.20940	7.58963	12.98643	-3.08814
12350.716	12.57389	7.35195	14.83321	10.20754
12354.689	12.84182	7.24002	17.41711	9.60970
12358.691	11.41600	7.38491	14.46591	7.84390
12362.689	11.95840	7.52839	13.73753	-2.70207
12366.682	12.74275	7.44291	14.57181	8.55199
12370.692	13.18579	7.12263	14.45109	8.07121
12374.690	11.79372	7.55548	14.81866	6.95369
12378.680	12.39291	7.34648	14.23608	6.72069
12382.683	13.19503	7.25234	14.14635	4.23349
12386.690	10.96435	7.44688	14.45093	4.46392
12390.694	12.10129	7.48740	16.19515	4.43989
12394.689	12.51000	8.30038	12.52556	5.40385
12398.712	12.32407	8.38024	14.53635	5.87355
12402.693	12.09731	8.27364	14.29333	8.10048
12406.691	12.38277	8.16164	14.83181	7.40594
12410.693	12.23087	8.23094	14.14301	6.84892
12414.687	11.60813	8.24279	12.88982	5.66344
12418.700	12.21810	8.19421	13.92295	6.67408
12422.666	12.07106	8.29290	14.69436	4.77478
12426.693	11.75786	8.05596	13.76102	6.41565
12430.653	12.27382	8.39242	14.43145	6.43400
12434.693	11.26858	8.33575	13.37838	4.92328
12438.690	12.05167	8.48125	13.12863	6.20656
12442.695	12.17577	7.97610	14.44501	5.71876
12446.656	11.96624	7.46072	13.62113	5.62782
12450.693	12.12305	6.63589	13.51459	5.42754
12454.693	11.98650	7.42597	13.59380	4.97130
12458.694	11.71937	8.01281	13.30068	6.38375
12462.685	12.31597	7.01869	14.45491	5.64753
12466.688	12.25306	7.74674	13.60700	5.13101
12470.691	12.12661	8.16815	14.74121	5.29894
12474.691	12.06026	7.99803	13.55832	4.91823
12478.683	11.83783	7.49211	13.90501	5.25141
12482.693	12.39078	7.05545	12.86029	4.91486
12486.688	12.45012	6.95483	13.73976	4.84258
12490.689	11.88872	7.26896	15.62204	4.96962
12494.660	12.26308	7.32966	13.18901	5.91418
12498.694	11.60673	7.16637	14.99843	4.46018
12502.690	12.07661	7.11483	12.72235	5.30827
12506.694	11.94560	7.58529	13.80269	5.12784
12510.696	11.51294	7.56083	13.89150	4.44245
12514.653	12.51059	6.86414	14.47645	4.26477
12518.692	11.68905	7.50910	13.35900	4.02569
12522.691	12.36994	7.68586	13.67831	3.71943
12526.694	12.95249	7.50980	13.75142	3.82253
12530.694	11.61897	7.94965	13.98389	2.80332
12534.692	12.00063	7.81425	14.41096	2.72318
12538.694	12.81693	7.66626	13.62737	8.73634
12542.695	11.78302	7.83471	14.62707	7.53033
12546.673	11.81463	7.91334	13.56050	5.91311
12550.696	12.87294	7.63830	12.77835	7.59943
12554.694	11.64768	7.77990	12.41523	7.53243
12558.716	12.51674	7.76285	14.35936	4.51728
12562.694	12.47551	7.60721	12.88553	4.34990
12566.694	12.93627	7.36015	12.73373	3.24526
12570.657	11.68112	7.19772	12.63546	4.15773
12574.685	11.90597	7.40087	13.50415	8.71786
12578.696	12.36710	7.24599	13.12237	8.32908
12582.693	12.85232	7.05494	12.52911	8.03971
12586.687	11.99080	6.88121	13.64256	7.93301
12590.688	11.95356	6.92508	14.55474	5.10437
12594.657	12.60264	6.37201	14.15643	3.48951
12598.696	12.88952	5.50264	14.66717	3.44971
12602.696	12.94398	5.54550	14.46026	3.37612
12606.717	13.93094	6.73839	14.37086	9.08001
12610.694	13.11272	6.94863	14.78811	8.75569
12614.696	12.35886	7.21261	13.18729	8.06474
12618.694	12.74154	7.11171	14.22636	8.91474
12622.689	12.89416	6.67082	14.84378	8.22671
12626.694	12.83748	7.03333	19.31021	9.18892
12630.667	13.30851	7.75440	22.09114	9.23569
12634.660	15.54439	9.50575	19.26539	10.99734
12638.694	16.28905	11.13992	13.97325	12.99386
12642.694	14.65967	10.82418	14.60049	14.12536
12646.696	15.98376	11.35610	21.13890	-1.46039
12650.698	NaN	NaN	NaN	NaN
12654.686	NaN	NaN	13.23128	9.44759
12658.694	NaN	NaN	NaN	NaN
12662.695	NaN	NaN	NaN	NaN
12666.695	NaN	NaN	NaN	NaN
12670.657	NaN	NaN	NaN	NaN
12674.700	NaN	NaN	NaN	NaN
12678.658	NaN	NaN	13.02219	1.86983
12682.698	17.55957	6.05971	20.47154	-6.37034
12686.694	16.17912	7.47345	12.95501	6.71111
12690.696	16.06062	5.42079	15.69864	2.13190
12694.658	17.79111	4.67225	15.80889	5.25875
12698.695	NaN	NaN	13.44317	-4.71753
12702.697	14.55258	10.21710	15.05052	-5.53254
12706.690	16.37588	7.96264	16.37739	-5.28569
12710.692	12.56292	9.55219	17.26171	-5.24977
12714.661	11.56471	9.41836	22.59571	-4.58840
12718.697	12.36902	-4.23930	17.78242	-2.01916
12722.687	9.74825	-3.66890	18.24997	-4.08536
12726.697	7.92546	-3.19261	15.40885	-5.11044
12730.695	7.64303	-3.10990	15.28868	-5.22351
12734.697	6.90740	-2.04248	12.08734	-4.48444
12738.690	6.95614	-2.41123	8.94414	-3.02464
12742.696	6.79589	-2.55735	8.81091	0.37801
12746.661	7.31599	0.03354	6.43577	-9.82365
12750.698	7.08742	0.33147	8.89652	0.90212
12754.695	5.95741	0.40515	9.36708	-1.76906
12758.697	7.08901	0.13358	10.80086	-2.23894
12762.661	7.20700	-1.49924	10.63192	-4.41541
12766.697	7.09001	-1.93981	9.86009	-4.29964
12770.699	5.33505	-0.10159	10.35889	-6.12379
12774.696	7.21916	-2.13825	10.08587	-6.32758
12778.696	5.19165	-0.60062	8.96242	-5.38672
12782.696	5.18815	-0.98722	9.56875	-4.51168
12786.698	5.29792	-1.10051	9.65575	-4.98529
12790.698	5.26558	-1.12204	9.56581	-5.31048
12794.660	5.28170	-1.09838	9.58579	-5.87798
12798.687	5.39325	-1.47534	9.52647	-5.06845
12802.688	5.28399	-1.54303	9.39670	-5.49870
12806.697	5.25773	-1.46053	9.29331	-4.82879
12810.696	5.23017	-1.51258	9.09072	-6.13378
12814.696	5.18079	-1.38555	9.10789	-5.14589
12818.693	5.93100	-1.26781	10.42262	-4.51243
12822.696	7.44633	-1.38472	10.06042	-5.35980
12826.699	8.31309	-4.55620	9.71264	-8.58745
12830.698	8.47425	-5.63421	10.69803	-10.23765
12834.598	9.47128	-5.89308	14.40393	-8.88929
12838.669	9.50805	-5.95765	14.98551	-9.90524
12842.699	10.34088	-6.03185	14.86898	-11.22384
12846.700	10.56459	-6.24060	17.53545	-13.83984
12850.598	11.23196	-7.06952	16.06066	-13.53029
12854.698	10.22863	-7.29933	-19.99372	-12.10955
12858.697	10.50772	-7.12988	16.04895	-12.70989
12862.697	10.06277	-7.59910	15.39003	-12.74260
12866.698	10.33255	-7.59747	14.90813	-12.71959
12870.696	10.51815	-7.73799	13.42655	-12.70196
12874.699	11.02586	-8.05385	14.21750	-12.35528
12878.682	10.66023	-7.56752	16.73395	-11.05589
12882.696	10.65395	-7.80986	15.94571	-9.91001
12886.700	10.38226	-7.98159	17.19789	-12.92501
12890.697	10.68360	-7.70432	17.15043	-13.65054
12894.662	10.68051	-7.49761	17.50789	-12.28090
12898.598	11.25679	-7.73174	15.83273	-12.36936
12902.700	10.57131	-7.55779	16.33196	-12.41693
12906.698	10.67643	-7.53530	16.01337	-14.04011
12910.697	10.52526	-7.13641	16.65756	-13.62064
12914.600	10.51184	-7.24821	15.70406	-12.39709
12918.698	10.53778	-7.73892	16.47169	-12.39795
12922.665	11.01880	-7.55506	15.95881	-12.49366
12926.698	10.60430	-7.16436	16.19004	-13.57979
12930.599	10.65894	-7.22225	17.30841	-13.53123
12934.697	10.66340	-7.60425	17.60688	-13.55420
12938.697	10.52821	-7.91539	16.14187	-12.80609
12942.698	10.65021	-7.86762	13.80563	-13.11355
12946.665	10.62075	-7.68174	16.49189	-12.50593
12950.704	11.26307	-8.17564	17.69342	-13.11833
12954.698	10.84504	-8.16351	16.95451	-12.81053
12958.699	10.86103	-8.32277	15.89035	-11.66906
12962.601	10.91265	-8.35358	15.55690	-11.62412
12966.701	10.94296	-8.36128	16.77568	-13.31248
12970.699	10.87288	-8.52318	16.32380	-13.32300
12974.701	10.86428	-8.30333	16.17413	-12.80057
12978.596	11.18668	-8.89962	15.52013	-11.80629
12982.700	10.98791	-8.96778	15.99129	-12.41314
12986.702	11.03877	-8.72275	15.69657	-13.14672
12990.700	10.39126	-8.71198	-19.99372	-12.20279
12994.574	10.98301	-8.61075	16.36567	-13.35790
12998.697	10.95368	-8.27528	15.05843	-13.26607
13002.690	10.95528	-8.42765	14.71494	-13.34536
13006.691	10.83563	-8.20836	15.58532	-13.31635
13010.552	10.87603	-7.89336	15.78200	-13.31510
13014.702	10.88841	-8.79469	16.57438	-12.53573
13018.700	10.87862	-8.43975	-19.99372	-12.29999
13022.702	11.07343	-8.81780	-19.99372	-12.32895
13026.597	11.17362	-8.76939	17.48302	-13.89320
13030.700	10.79672	-8.34308	17.00486	-13.13865
13034.701	10.84133	-8.24211	14.77704	-13.60076
13038.701	10.60174	-6.74805	17.18262	-13.98334
13042.702	10.08515	-7.40049	14.28599	-11.36225
13046.675	8.65402	-7.24716	14.46091	-11.67683
13050.710	6.79342	-6.80851	10.89786	-12.49398
13054.698	4.42982	-6.55047	7.04416	-12.02687
13058.602	4.24500	-5.52429	5.38294	-10.68176
13062.704	3.65361	-5.68472	6.81737	-11.25081
13066.703	2.36420	-6.10182	2.27216	-10.02252
13070.701	1.72704	-5.17629	2.19306	-11.23003
13074.600	2.46927	-5.30411	2.56374	-12.83116
13078.699	2.10047	-5.04443	1.07475	-12.03370
13082.705	1.71335	-5.10731	3.91452	-12.12769
13086.658	1.86957	-5.36610	2.46310	-12.87756
13090.704	1.77717	-5.48551	3.20164	-12.35661
13094.701	1.51261	-5.53004	2.17879	-11.45459
13098.703	1.45988	-5.19664	4.30364	-13.21288
13102.700	1.28757	-5.44545	2.61952	-12.53689
13106.598	1.11507	-5.00677	0.68516	-12.81126
13110.704	1.36563	-5.36267	3.39604	-12.51621
13114.701	1.28420	-5.88697	3.02583	-12.71686
13118.703	1.31198	-5.99447	2.36879	-12.45171
13122.603	1.19398	-6.29147	2.20401	-12.17660
13126.700	1.12214	-6.21586	3.24231	-12.54763
13130.703	1.10313	-6.39918	3.33666	-12.59086
13134.695	1.03545	-6.91109	2.38705	-12.59150
13138.571	1.15684	-6.89903	2.42334	-12.59066
13142.704	1.16409	-6.88614	3.18945	-12.53315
13146.704	1.25897	-6.79063	2.78216	-12.48109
13150.703	1.27847	-6.83873	2.41254	-11.81600
13154.601	1.31798	-6.75044	2.38995	-12.15164
13158.705	1.10673	-6.73857	2.45592	-11.56831
13162.665	1.12551	-6.53742	2.74987	-10.11610
13166.704	1.13613	-6.58703	2.75826	-8.45862
13170.606	1.16399	-6.26625	3.61063	-12.11091
13174.703	1.23054	-6.33031	2.34327	-11.81694
13178.707	0.89255	-6.25089	1.87111	-11.42412
13182.580	1.29635	-6.15703	3.12489	-12.35665
13186.570	1.01561	-6.14368	2.64636	-11.85526
13190.577	1.18939	-5.92178	2.80224	-11.23969
13194.541	0.62751	-5.72319	3.41580	-11.07430
13198.580	1.17972	-5.55157	4.30156	-11.16105
13202.574	1.15521	-5.13946	2.19762	-10.98088
13206.578	0.97780	-5.83492	1.80876	-8.55727
13210.583	0.76613	-5.41760	3.75496	-10.32405
13214.582	0.79558	-5.57670	4.19785	-10.05187
13218.572	0.91272	-5.61942	2.69534	-9.82783
13222.577	1.11876	-5.56877	3.31991	-9.13461
13226.574	1.00338	-6.07210	2.03665	-10.67842
13230.541	0.99380	-5.84414	3.69785	-9.52156
13234.574	1.04582	-6.43129	4.16756	-10.23505
13238.580	0.87972	-6.11980	3.27630	-10.61044
13242.580	0.94403	-7.52549	3.31915	-10.53970
13246.580	1.17910	-6.50356	3.28471	-10.64936
13250.570	1.06597	-6.63097	3.69511	-10.91590
13254.583	1.01908	-6.16291	3.56012	-11.09688
13258.561	1.13399	-6.51237	2.72753	-11.42481
13262.541	1.16056	-5.63611	3.41340	-12.59906
13266.580	1.23533	-6.64024	3.05714	-11.28428
13270.581	1.05106	-6.94261	3.14595	-11.63815
13274.579	1.05483	-7.25540	3.44065	-12.95035
13278.581	1.15312	-6.76254	2.57134	-10.56200
13282.571	0.85858	-6.35925	2.21526	-11.20512
13286.582	0.94209	-6.45821	3.45069	-10.95565
13290.582	1.11693	-6.07159	3.94500	-11.64197
13294.543	1.14990	-6.13460	4.47869	-12.06998
13298.564	1.25007	-6.24315	4.31516	-11.85284
13302.573	1.19113	-5.93132	4.65488	-12.34692
13306.544	1.14873	-6.16940	3.44347	-12.37169
13310.578	1.08038	-6.33432	3.43370	-12.70155
13314.574	1.14848	-6.56682	3.40333	-12.61166
13318.579	1.20633	-6.69530	-19.99372	-11.88657
13322.580	1.13012	-6.50426	-19.99372	-11.91539
13326.544	1.03449	-6.64366	-19.99372	-11.94298
13330.541	1.06523	-6.25882	-2.50343	-9.13538
13334.582	0.92219	-6.15181	-2.44561	-9.59424
13338.582	0.98509	-6.18758	-2.54603	-9.38706
13342.555	0.59285	-6.95486	-2.50452	-9.29205
13346.550	0.77533	-6.43918	-19.99372	-12.08298
13350.579	0.66456	-6.55447	-19.99372	-12.09872
13354.583	0.91465	-6.69076	-19.99372	-12.06849
13358.579	0.83287	-6.90933	0.32833	-13.34201
13362.572	0.99362	-6.24539	3.05259	-8.94275
13366.582	1.15084	-6.45857	-2.50068	-14.17114
13370.582	0.65652	-6.18116	-2.53813	-13.98058
13374.580	0.76948	-6.23942	-4.32496	-13.83953
13378.583	0.25301	-5.76453	-3.96353	-14.06569
13382.578	1.38381	-5.74848	-2.05710	-12.89320
13386.542	0.89604	-5.63443	1.48714	-9.38129
13390.582	0.93775	-5.25095	2.43503	-9.23282
13394.576	0.74665	-4.80506	2.40897	-7.69367
13398.580	0.36643	-2.22128	2.53545	-6.46393
13402.587	0.56230	-1.08823	2.74749	-5.86590
13406.580	0.38345	-0.80348	2.74516	-5.63776
13410.573	0.35578	-1.00080	2.67316	-3.37265
13414.583	0.52215	-0.68746	2.67803	-3.63207
13418.583	0.60290	-1.10638	2.61337	-4.43166
13422.583	0.55607	-0.97290	2.63002	-3.98586
13426.576	0.54491	-1.66145	2.49114	-4.32116
13430.582	0.47914	-1.49739	2.55936	-4.25764
13434.581	0.26334	-2.76706	2.53880	-5.38779
13438.583	0.19986	-2.55809	2.62539	-4.72486
13442.608	0.23185	-2.04830	2.42220	-4.95876
13446.545	0.22902	-0.93695	2.65087	-5.81661
13450.609	0.28500	-1.02222	2.54947	-6.56301
13454.585	0.10255	-0.36190	2.23615	-6.80427
13458.575	0.05021	-1.08292	2.56592	-6.76776
13462.583	0.05443	-0.65778	2.68395	-5.60719
13466.582	-0.04475	-0.33924	2.20250	-4.21360
13470.582	-0.09406	-0.52920	2.51609	-6.10904
13474.578	0.15628	-0.51600	2.49283	-5.89985
13478.582	-0.02234	-0.48686	2.44529	-5.60587
13482.579	-0.11585	-0.34473	3.13454	-6.47612
13486.581	0.11868	-0.62381	2.48812	-6.73900
13490.579	-0.01184	-0.69758	2.19172	-7.03425
13494.585	0.11920	-0.17653	3.17309	-6.23262
13498.583	0.09014	-0.24794	3.05909	-4.80685
13502.583	-0.70111	-0.83625	2.63915	-5.03201
13506.573	0.12555	-0.80888	2.65867	-4.22499
13510.584	0.06532	-1.21472	2.36564	-4.54760
13514.582	0.20301	-1.70476	2.07462	-4.32683
13518.581	0.14498	-2.02403	1.89900	-3.49988
13522.574	0.16444	-1.75005	2.85497	-4.01559
13526.583	0.15908	-1.69429	2.17009	-3.91412
13530.583	0.06835	-1.43004	2.81976	-2.92105
13534.587	0.12044	-1.30713	2.56171	-2.38104
13538.582	0.12910	-1.33247	2.76861	-4.14921
13542.582	0.20909	-1.15761	2.76663	-4.29679
13546.583	0.21147	-1.22507	3.14506	-4.70558
13550.557	0.09458	-0.73239	2.94000	-4.65143
13554.554	0.13893	-0.66662	2.64936	-3.99509
13558.583	0.05068	-0.58838	2.38881	-4.53736
13562.585	0.20931	-0.71348	2.48237	-4.80896
13566.583	0.31498	-0.77384	2.90723	-5.25366
13570.574	0.19643	-0.78789	2.60025	-5.18071
13574.584	0.19797	-0.83427	2.84153	-5.33052
13578.547	0.23043	-0.80483	2.84227	-4.47806
13582.585	0.26522	-1.09061	3.15266	-5.08447
13586.552	0.32469	-1.48396	3.18212	-4.15761
13590.587	0.23778	-2.31183	3.19125	-4.10490
13594.575	0.47480	-1.38026	2.68881	-3.05606
13598.586	0.40569	0.36586	2.91084	-3.38659
13602.610	1.99161	0.33714	3.10054	-2.03474
13606.588	0.39122	1.61187	14.41953	-3.28190
13610.583	0.28582	1.05924	14.62610	-2.37327
13614.583	-1.38262	0.74827	1.37414	-3.60765
13618.583	9.30517	2.42962	1.12204	-3.76330
13622.585	4.25480	9.16250	3.47477	2.44988
13626.583	NaN	NaN	NaN	NaN
13630.583	NaN	NaN	NaN	NaN
13634.578	NaN	NaN	NaN	NaN
13638.583	NaN	NaN	NaN	NaN
13642.584	NaN	NaN	NaN	NaN
13646.581	NaN	NaN	NaN	NaN
13650.549	NaN	NaN	NaN	NaN
13654.592	NaN	NaN	NaN	NaN
13658.582	NaN	NaN	NaN	NaN
13662.583	NaN	NaN	NaN	NaN
13666.584	NaN	NaN	NaN	NaN
13670.583	NaN	NaN	NaN	NaN
13674.585	NaN	NaN	NaN	NaN
13678.582	NaN	NaN	NaN	NaN
13682.583	NaN	NaN	NaN	NaN
13686.586	NaN	NaN	NaN	NaN
13690.587	NaN	NaN	NaN	NaN
13694.554	NaN	NaN	NaN	NaN
13698.549	NaN	NaN	NaN	NaN
13702.589	NaN	NaN	NaN	NaN
13706.561	NaN	NaN	NaN	NaN
13710.619	NaN	NaN	NaN	NaN
13714.551	NaN	NaN	NaN	NaN
13718.581	NaN	NaN	NaN	NaN
13722.583	NaN	NaN	-1.04793	4.26334
13726.591	NaN	NaN	-1.69914	2.94956
13730.584	-2.79290	3.64787	-1.88903	13.47980
13734.587	-0.09262	2.16157	-1.84240	14.02544
13738.587	6.60840	4.07413	-2.51611	9.65754
13742.588	-0.18385	3.92843	-0.89567	4.85328
13746.588	4.69250	4.45702	-0.14675	1.61081
13750.585	8.12045	4.38432	-0.90458	2.03694
13754.592	4.87347	4.69396	-3.72921	1.89936
13758.558	3.46503	4.97615	9.71153	1.00695
13762.592	-0.06897	5.11414	5.49146	1.98583
13766.588	0.02375	4.66572	-2.61142	2.44012
13770.589	0.07487	4.95061	1.84490	-0.63851
13774.588	-3.04741	4.78145	-0.73776	1.43666
13778.583	-1.85695	4.55876	-2.54041	1.80612
13782.587	-0.54940	5.22990	-3.09676	1.25469
13786.586	-1.11135	5.47685	-3.19853	0.81219
13790.587	1.58416	3.99706	3.44204	0.80271
13794.592	0.10575	5.95502	3.31224	0.89345
13798.577	-0.10126	4.91354	-5.33219	1.63216
13802.578	-0.26088	4.03054	-5.27156	1.78688
13806.586	-0.30838	3.54896	1.95874	0.66109
13810.578	-0.39266	3.52103	3.03494	0.77009
13814.590	-0.62101	3.90401	1.88068	0.91373
13818.589	-0.28277	3.52186	1.68573	1.20555
13822.591	-0.47934	3.58673	1.39269	0.78987
13826.588	4.07108	-2.89287	2.23387	0.91348
13830.588	-0.34906	3.50911	2.05985	1.07554
13834.589	-0.45830	3.47396	1.58864	1.44536
13838.590	-0.33221	3.38290	1.53649	1.19854
13842.583	-0.37122	3.89302	1.61627	1.25567
13846.589	-0.26843	3.75980	1.78505	1.14213
13850.590	-0.44961	3.93310	2.32506	1.48331
13854.586	-0.62920	4.74566	1.87346	0.93082
13858.487	-0.16283	4.82891	1.12422	0.85056
13862.589	-0.26922	4.67572	0.49259	1.01499
13866.588	-0.40939	4.43841	1.02938	0.77539
13870.552	-0.51178	3.70377	0.48999	0.87613
13874.592	-0.57267	4.91108	1.42799	0.90455
13878.589	-0.49217	4.63361	1.58321	0.26059
13882.572	-0.12051	4.27264	1.75012	-0.28918
13886.589	-0.02315	4.67130	1.82690	0.04793
13890.592	-0.31064	4.69318	0.73255	-0.55758
13894.552	0.01315	4.86130	1.41707	-0.66627
13898.588	0.14794	4.23690	0.49396	-2.68988
13902.589	-0.29984	4.71406	0.83605	-1.56822
13906.583	-0.36591	4.43560	1.50413	-0.77836
13910.588	-0.42646	4.07688	1.01332	-1.32737
13914.588	-0.08165	2.95182	0.73364	3.18827
13918.590	0.12645	3.65026	1.53538	0.18327
13922.494	-0.22708	3.08433	0.40378	2.29582
13926.583	-0.45252	3.50422	0.34888	1.94707
13930.550	-0.11840	3.39449	0.62613	1.67570
13934.589	-0.04844	3.37495	1.15337	0.15547
13938.488	0.15057	3.52689	1.55579	-1.40847
13942.588	-0.40599	4.38034	0.41683	-0.68397
13946.552	0.90780	3.28690	0.60883	0.66656
13950.589	-0.14508	3.88913	1.85403	0.46212
13954.595	-0.44212	3.68337	0.76761	1.98482
13958.590	-0.09657	3.24376	2.16791	1.10081
13962.592	-0.24527	3.17983	0.78471	0.64609
13966.564	-0.19035	3.05373	0.83970	0.08025
13970.503	0.02884	2.73684	1.05051	0.22224
13974.591	-0.53813	3.17179	1.32473	-0.06181
13978.553	-0.72037	3.14210	1.84768	1.47098
13982.589	-0.61938	4.65995	0.66503	0.31223
13986.487	-0.31516	3.63472	1.18391	3.53088
13990.592	-0.02085	3.41873	0.83657	2.01650
13994.554	-0.62129	3.58716	1.27219	1.90446
13998.591	-0.63347	3.71601	0.85448	2.41580
14002.597	-0.52513	3.47098	1.69830	2.15127
14006.577	0.13781	3.73412	1.23335	1.74801
14010.553	-0.08656	3.69775	0.77828	1.98668
14014.593	-0.65771	3.97030	0.82116	2.04850
14018.490	-0.13861	3.97876	2.00901	1.86682
14022.593	-0.28044	3.81219	0.67414	1.82247
14026.591	-0.42701	3.96136	0.57419	1.62238
14030.593	-0.46592	4.16135	2.03058	0.51188
14034.490	-0.19291	3.86795	0.48818	-0.19660
14038.592	-0.78838	4.20546	1.19864	-0.23015
14042.592	-0.31091	4.21526	2.03149	-0.35462
14046.595	-0.01303	4.00212	0.82136	-1.31537
14050.511	-1.00958	4.17053	1.32875	1.28521
14054.591	-0.51523	3.72574	1.74695	2.23792
14058.596	-0.15159	3.77004	0.76250	2.52917
14062.591	-0.24686	3.48731	1.60412	2.01333
14066.491	-0.12826	3.20608	0.76297	0.60368
14070.590	-0.03623	3.22526	0.86414	-0.25820
14074.590	0.25522	3.57184	1.25158	-0.14901
14078.592	-0.30980	3.25450	1.78927	0.43146
14082.597	-0.52672	3.58564	0.40988	3.73243
14086.443	0.00102	3.46845	1.61585	2.57702
14090.572	-0.03159	3.64930	1.50842	1.55153
14094.590	-0.11850	3.71029	0.38700	0.71866
14098.494	-0.06800	3.06341	0.85982	0.12759
14102.590	-0.18070	3.37954	1.10877	-0.25264
14106.590	-0.57667	2.25220	1.42809	2.08082
14110.591	-0.08587	2.89113	0.25172	2.92942
14114.559	-0.47105	3.49094	1.00238	3.21444
14118.593	-0.28706	3.61814	1.47370	1.85187
14122.591	-0.54843	3.40875	1.34487	1.72592
14126.594	-0.62838	2.82426	0.96641	1.75703
14130.592	-0.56228	3.69523	1.11010	1.71604
14134.586	-0.28049	3.56114	1.27108	1.69192
14138.593	-0.35655	2.50653	1.52248	1.46442
14142.594	0.26212	2.42651	1.32438	1.66473
14146.596	-0.61419	3.07582	1.03568	2.30704
14150.591	-0.19100	3.02729	1.17150	1.74368
14154.594	-0.21457	3.79920	1.35970	2.79263
14158.600	-0.53746	3.76979	1.51043	2.96971
14162.491	-0.44137	4.06911	1.68726	3.09899
14166.591	-0.34159	4.13192	1.18304	2.98888
14170.592	-0.29180	4.09147	1.18867	3.06739
14174.567	-0.05383	4.15797	1.51258	3.10413
14178.483	-0.24800	4.26441	2.02988	2.77494
14182.592	-0.19246	4.07825	2.66389	2.99271
14186.592	-0.25661	3.99847	1.09800	2.79709
14190.591	-0.09014	4.05065	-1.00506	2.41892
14194.463	-0.06798	4.10848	0.57315	2.96893
14198.593	0.19812	4.04460	0.44008	3.20312
14202.593	0.81717	3.51102	0.23678	3.05251
14206.573	-0.04661	3.78492	0.84843	2.96602
14210.493	-0.16231	3.79345	1.48195	2.96660
14214.470	0.01464	3.74576	1.39011	2.90718
14218.472	-0.30793	3.79281	1.46695	2.92760
14222.437	-0.46676	4.65454	0.85600	2.19428
14226.466	-0.18596	3.83436	1.83464	1.75913
14230.470	-0.14528	3.90397	0.62605	1.44250
14234.468	-0.08555	4.02941	0.19052	1.91212
14238.470	-0.14124	3.80639	0.41395	1.53917
14242.469	0.34221	3.62919	0.20653	1.25050
14246.472	0.13158	3.83177	1.01918	1.05421
14250.469	0.51039	3.72856	1.98524	1.16260
14254.470	-0.04688	4.01058	1.28120	1.04520
14258.471	-0.11081	3.72088	1.47218	1.13635
14262.431	-0.05723	3.94650	2.31093	1.30173
14266.471	-0.01415	3.88895	0.15911	1.61245
14270.471	-0.10446	3.72497	-0.39797	0.69930
14274.498	-0.01060	3.59450	1.19110	0.76720
14278.471	0.32421	3.67943	0.65948	0.50906
14282.470	0.41107	3.61832	1.52109	0.43636
14286.471	-0.12178	3.73773	1.20440	0.37879
14290.468	-0.53729	3.79082	1.81694	0.52270
14294.471	-0.91128	3.67900	2.24688	1.69795
14298.472	-0.13161	3.49820	0.95777	0.60296
14302.465	-0.02871	3.47363	0.40221	1.81609
14306.469	0.42361	2.30318	0.63449	2.32823
14310.472	0.02710	2.91507	1.19847	2.24128
14314.470	-0.25324	3.29119	1.29985	3.13894
14318.469	0.11064	3.52519	0.67548	2.51344
14322.465	-0.24994	3.55529	2.12134	2.28694
14326.509	-0.60143	3.65454	2.04223	1.30871
14330.473	-0.14057	3.46762	2.23831	1.70327
14334.471	-0.06368	3.55066	-0.26034	0.06192
14338.464	-0.01174	3.36943	0.75230	-0.28233
14342.471	0.15868	3.53622	0.52054	0.33105
14346.446	0.21760	2.42198	1.07614	0.57561
14350.471	0.17325	2.98487	0.46562	1.60394
14354.463	0.54821	2.52972	0.68181	2.06633
14358.480	0.50453	3.20495	0.67111	2.05792
14362.471	0.42398	2.70870	0.77129	2.38906
14366.473	0.76667	2.68989	0.98574	2.42511
14370.463	1.29023	3.03076	1.03300	2.66118
14374.471	0.99067	3.06434	0.87016	3.06267
14378.472	1.56992	2.95756	0.72873	3.66831
14382.472	1.38200	2.96782	0.85250	3.67176
14386.472	1.34475	2.82006	0.78684	3.80933
14390.467	1.26453	3.07404	0.90778	2.74510
14394.435	1.43540	2.93864	0.67511	3.82739
14398.473	1.51868	3.02110	0.79091	4.03096
14402.466	1.47809	2.81130	0.57329	3.76316
14406.470	1.56451	2.89109	1.20279	3.79968
14410.472	1.37932	2.37805	0.93874	3.53296
14414.469	1.31893	2.35132	0.84545	2.05419
14418.463	-0.05785	1.53995	0.99196	0.69554
14422.472	1.11909	2.85231	1.58227	1.46532
14426.473	0.93532	3.63842	1.49247	0.54869
14430.438	0.60799	3.42156	1.49929	0.00206
14434.440	0.66690	2.80649	1.33440	2.08234
14438.474	0.75310	2.26737	2.11311	2.30302
14442.472	0.16325	3.51223	1.39011	2.34743
14446.472	0.25957	2.73451	1.48498	2.05455
14450.468	0.41214	2.83888	1.49884	1.99154
14454.473	0.23559	3.33082	1.34130	0.25342
14458.472	0.92999	2.49789	1.32657	-0.55062
14462.475	0.20343	2.75341	1.57429	2.41664
14466.466	0.47842	2.35491	1.44877	5.59458
14470.450	0.23569	2.94687	1.65520	2.77265
14474.475	0.78265	3.08776	1.42930	3.65223
14478.475	0.33429	3.49431	1.55313	1.93817
14482.434	0.56260	3.48153	1.51720	2.76607
14486.473	1.19259	3.14685	2.63388	2.48599
14490.476	0.64555	3.08748	1.46608	3.22498
14494.435	0.65402	2.53394	6.44736	2.02484
14498.473	-1.54229	6.44832	13.11975	0.90016
14502.471	8.48032	7.30054	15.59133	5.20842
14506.475	4.25159	6.40971	2.83692	2.88710
14510.462	1.18195	9.97110	2.54598	5.02922
14514.465	NaN	NaN	NaN	NaN
14518.475	NaN	NaN	NaN	NaN
14522.476	NaN	NaN	NaN	NaN
14526.477	NaN	NaN	NaN	NaN
14530.474	NaN	NaN	NaN	NaN
14534.475	NaN	NaN	NaN	NaN
14538.476	NaN	NaN	NaN	NaN
14542.475	NaN	NaN	NaN	NaN
14546.437	NaN	NaN	NaN	NaN
14550.504	NaN	NaN	NaN	NaN
14554.449	NaN	NaN	NaN	NaN
14558.472	NaN	NaN	NaN	NaN
14562.438	NaN	NaN	NaN	NaN
14566.476	NaN	NaN	NaN	NaN
14570.471	NaN	NaN	NaN	NaN
14574.472	NaN	NaN	-4.89020	3.17719
14578.503	-1.10418	-11.86539	-5.18719	1.19775
14582.478	-19.99372	-12.06516	NaN	NaN
14586.477	-4.41193	2.72546	-9.76642	1.42729
14590.479	-19.99372	-12.06394	NaN	NaN
14594.442	-19.99372	-12.06418	NaN	NaN
14598.470	-19.99372	-12.06449	NaN	NaN
14602.474	-19.99372	-12.06485	NaN	NaN
14606.473	-6.33687	4.25522	NaN	NaN
14610.470	-4.30450	4.24896	NaN	NaN
14614.477	-4.69470	4.01274	NaN	NaN
14618.476	-3.18992	3.93749	NaN	NaN
14622.475	-6.37266	3.84353	NaN	NaN
14626.474	-4.74449	3.75750	NaN	NaN
14630.477	-3.80367	3.62456	NaN	NaN
14634.476	-5.11258	3.71503	NaN	NaN
14638.443	-5.07456	3.95365	NaN	NaN
14642.466	-5.67922	3.61186	NaN	NaN
14646.476	-6.31595	3.84521	NaN	NaN
14650.473	-4.60444	3.64249	-3.85219	1.53608
14654.477	-4.84240	3.69559	-3.72286	-0.51313
14658.500	-4.74829	3.68374	NaN	NaN
14662.444	-4.89513	3.43967	-4.45429	1.57489
14666.475	-4.72117	3.46806	NaN	NaN
14670.477	-4.84955	3.59067	NaN	NaN
14674.501	-4.80788	3.50554	NaN	NaN
14678.455	-4.47851	2.33564	NaN	NaN
14682.476	-5.04775	3.51923	-0.78598	1.75751
14686.478	-6.01238	3.40064	-4.55428	-0.36073
14690.448	-4.82501	3.51589	-4.67379	-0.11977
