time (ms)	lx (deg)	ly (deg)	rx (deg)	ry (deg)
0.000	-0.97737	2.49079	1.71290	1.99151
4.041	-1.05642	2.51106	1.61711	1.62542
8.045	-1.10408	2.74298	1.36868	1.72898
12.044	-0.62089	2.54472	-0.75985	-1.27933
16.043	-1.04759	2.58144	-1.69850	-0.16483
20.042	-0.65096	2.89382	-1.34279	-0.57421
24.023	-0.37432	2.63099	-1.29432	0.97288
28.045	-0.64548	2.77581	-1.33931	0.11825
32.046	-0.98824	3.08830	-1.39619	1.31216
36.043	-0.71561	3.18764	-1.12407	0.99956
40.043	-0.76541	3.28858	-1.14206	0.99613
44.044	-0.76213	3.75473	-1.17041	0.96795
48.043	-1.05232	3.47317	-0.78149	1.05105
52.044	-0.87168	4.01533	-0.83836	0.95081
56.046	-0.99740	3.94202	-0.66662	1.18389
60.046	-0.93155	3.98283	-0.48828	0.11318
64.038	-1.23164	4.12973	3.35001	0.72355
68.002	-0.80367	3.84884	3.10836	0.86230
72.045	-1.40147	4.39434	2.46028	1.04083
76.044	-4.34021	4.60305	1.33959	0.97631
80.045	-4.69080	4.62561	1.04694	0.98940
84.045	-1.78062	4.21233	1.07937	0.77588
88.046	-1.78543	4.33282	1.68830	0.72586
92.038	-1.67970	4.20665	1.75163	0.62536
96.043	-1.68563	4.36404	2.01394	0.83925
100.043	-1.71087	4.42727	-1.54649	0.80271
104.003	-1.60890	4.49944	-1.50867	0.43341
108.039	-0.57779	6.68612	-1.39624	0.13864
112.045	-1.59184	3.98820	-1.22506	-0.22471
116.046	-0.49994	6.57933	-0.93239	-0.26227
120.046	0.93907	6.74828	0.26098	-1.19069
124.072	0.27168	7.14251	1.54187	-0.79106
128.044	-3.30740	4.24306	-0.07480	-0.79152
132.044	-2.88222	4.25967	0.95566	-0.84134
136.045	-3.20704	3.98234	1.51551	-0.54702
140.039	-3.28321	3.78342	0.49957	-0.41772
144.047	-2.99606	3.68389	0.79508	-0.44408
148.029	-2.78164	4.00006	0.13456	0.29617
152.042	-0.18107	3.85487	0.66248	0.72481
156.039	-5.00980	4.09403	0.77278	0.89680
160.044	-4.59539	4.25382	0.98464	0.97335
164.006	-4.14769	4.61049	1.03955	1.14759
168.047	-4.17613	4.87586	0.77642	0.77823
172.040	-2.35434	4.23600	0.98717	0.87578
176.002	-1.74065	4.35950	1.24320	1.15329
180.047	-1.41702	4.43609	1.15382	1.13990
184.047	-1.22519	4.59346	1.17934	1.30664
188.049	-1.86117	6.39078	1.32138	1.27848
192.012	-1.60801	4.47920	1.31516	1.90088
196.046	-1.61580	4.35269	-1.04518	2.03068
200.046	0.13923	6.34281	-0.77883	2.45558
204.039	-3.83994	3.69896	-0.82967	2.61192
208.044	-3.38954	3.36835	1.04089	2.58439
212.046	0.09910	6.90649	-0.32317	2.72467
216.045	-0.03886	6.64667	0.33764	2.63380
220.045	0.33136	6.80231	0.06539	2.57373
224.003	0.50515	6.83663	-0.15722	2.41462
228.045	0.60014	6.74511	0.30674	2.38488
232.024	0.72005	6.80767	0.57605	2.09541
236.049	0.81811	6.84994	1.15930	1.76997
240.046	0.83803	11.43826	0.34208	1.97861
244.046	0.93053	11.56570	0.27979	1.92501
248.047	-5.21183	6.40334	0.34576	1.61655
252.050	1.05163	11.36448	0.50217	1.43997
256.048	-5.07185	5.97297	0.75039	1.64313
260.047	-2.70782	5.63398	0.84493	1.41882
264.050	-2.41982	4.94489	1.62837	0.92058
268.049	-2.02944	4.61771	1.25857	0.40961
272.004	-2.13993	4.89554	0.49339	0.71698
276.036	-2.09787	4.69571	0.81392	0.50196
280.047	-1.85167	4.51484	0.69722	0.56151
284.072	-1.87448	4.85299	0.61913	0.60522
288.048	-1.80305	4.40963	0.44388	0.50411
292.005	-1.58730	4.34243	1.15399	0.39549
296.047	-1.69036	4.47383	0.46512	0.40746
300.048	-1.62321	4.59481	0.51202	0.37657
304.049	-1.80072	4.52329	0.59851	0.36814
308.047	-1.80742	4.38053	0.46465	0.31647
312.050	-1.85596	4.33295	0.96695	0.38041
316.069	-1.88430	4.22426	0.97688	0.41613
320.048	-2.18553	4.38844	0.66489	0.42856
324.049	-2.23206	4.31683	1.24101	0.27568
328.006	-2.49877	4.12618	1.15501	0.22921
332.041	-2.68898	3.94958	1.01251	-0.00261
336.050	-2.76203	4.05669	0.77263	0.15395
340.008	-2.46900	4.14662	0.90644	-0.10721
344.050	-2.68029	3.72842	0.90773	-0.28744
348.044	-2.63928	3.80591	1.18428	-0.47712
352.052	-2.60840	3.80650	1.25982	-0.50930
356.007	-2.30692	3.65837	1.31709	-0.37874
360.048	-2.36403	3.63243	1.11251	-0.55237
364.043	-2.32248	3.42942	1.24456	-0.66567
368.048	-1.79487	3.21287	1.35836	-0.66850
372.048	-2.01015	3.20341	1.95381	-0.88380
376.051	-1.70308	2.96668	1.60982	-1.17620
380.048	-1.43910	2.85099	2.85195	-0.58721
384.050	-1.63524	2.79845	2.04089	0.05868
388.049	-1.37263	2.80391	3.06652	-0.33620
392.050	-1.31389	2.67705	2.24225	0.87855
396.053	-1.23516	2.62138	3.02269	1.17282
400.016	-1.22005	2.40478	3.00099	0.45200
404.050	-1.15148	2.22611	1.47784	1.19919
408.007	-1.39599	2.26888	0.93160	0.52128
412.041	-1.59556	2.37089	0.51066	0.50458
416.051	-1.80385	2.27572	0.41110	0.63177
420.007	-1.91786	2.21122	-0.47443	0.42174
424.050	-2.13579	2.24219	0.37144	0.25984
428.050	-2.25377	2.10406	0.92398	1.20413
432.050	-2.16543	2.02200	1.26743	1.13178
436.050	-2.07222	2.00930	1.07552	1.48362
440.051	-2.16962	2.02750	1.41841	2.18750
444.023	-2.13229	2.04474	1.42280	2.38951
448.048	-2.41576	2.04754	1.69976	2.66421
452.057	-2.35199	2.05442	1.51568	1.89853
456.049	-2.16233	2.20610	1.78166	2.06821
460.050	-1.96821	2.08282	1.88333	2.53693
464.053	-1.86389	2.12782	2.01781	2.32807
468.051	-1.90544	2.12918	1.46479	2.42401
472.052	-1.89325	1.81076	1.44679	1.95435
476.056	-1.88757	2.65408	1.38924	2.29314
480.019	-2.18092	3.56947	2.44829	2.85610
484.040	-3.87033	4.42263	2.07948	3.73304
488.048	-9.87076	1.85834	3.36302	5.13187
492.050	3.56262	9.32509	12.45102	5.81857
496.048	NaN	NaN	5.56377	2.84736
500.051	NaN	NaN	NaN	NaN
504.051	NaN	NaN	NaN	NaN
508.055	NaN	NaN	NaN	NaN
512.051	NaN	NaN	NaN	NaN
516.051	NaN	NaN	NaN	NaN
520.051	NaN	NaN	NaN	NaN
524.022	NaN	NaN	NaN	NaN
528.049	NaN	NaN	NaN	NaN
532.050	NaN	NaN	NaN	NaN
536.047	NaN	NaN	NaN	NaN
540.049	NaN	NaN	NaN	NaN
544.048	NaN	NaN	NaN	NaN
548.050	NaN	NaN	NaN	NaN
552.037	NaN	NaN	NaN	NaN
556.052	NaN	NaN	NaN	NaN
559.948	NaN	NaN	NaN	NaN
564.008	NaN	NaN	NaN	NaN
568.048	NaN	NaN	NaN	NaN
572.052	NaN	NaN	NaN	NaN
576.075	NaN	NaN	-2.89752	6.81947
580.054	NaN	NaN	1.92547	5.39444
584.054	NaN	NaN	0.67876	5.18877
588.053	NaN	NaN	1.16912	4.13183
591.951	NaN	NaN	9.17299	3.75178
596.051	NaN	NaN	2.56451	0.73925
600.055	NaN	NaN	1.67544	0.68184
604.053	6.89671	-3.53888	1.66874	0.75051
608.019	6.72915	-0.73998	3.88023	1.39619
612.048	7.04430	2.79800	0.54381	1.12550
616.051	-6.42932	-0.46150	3.90437	4.12520
620.054	-6.55371	2.03819	1.42682	0.96870
624.052	-4.26923	2.80624	-0.29677	1.44622
628.054	-9.52973	2.70238	-0.97437	1.92267
632.054	7.00027	3.73405	1.49150	1.56071
636.053	6.34420	5.26632	1.52151	1.73137
640.053	0.42013	5.80516	1.49153	1.95786
644.051	0.60429	5.29531	3.52366	1.92727
648.054	-2.23201	5.63768	3.85871	1.81465
652.058	-2.83932	5.24546	3.63164	3.54568
656.053	-2.36676	5.52486	2.37364	2.52076
659.954	-1.30201	4.54812	3.35278	2.73937
664.012	1.49051	4.13787	2.22713	2.53873
668.055	-0.12704	4.56992	2.24366	2.37181
672.051	-3.15270	5.55618	1.83335	2.57869
675.952	1.04803	4.86577	1.80204	2.45067
680.056	-0.30233	4.33587	2.16020	2.82146
684.057	-0.76796	4.19984	1.64935	2.75169
688.044	-1.60067	4.69860	1.36134	2.71247
691.954	-1.45142	4.59849	1.41000	2.91023
696.056	-0.95162	4.08651	2.05078	2.76002
700.056	-0.52289	4.04102	1.27517	2.88709
704.055	-0.81285	3.89756	1.51005	2.87682
707.953	-1.48838	4.15472	1.30858	3.00938
712.067	-0.70637	4.02058	1.61664	-0.58922
716.056	-0.90617	3.89091	1.30069	-0.54248
720.052	-0.77930	3.92685	1.29814	-0.18453
723.952	-0.93889	3.85593	1.81605	-0.35787
728.055	-0.92212	3.80893	2.16659	-0.36661
732.011	-0.87530	3.74493	0.32645	-0.25845
736.014	-0.89736	3.66541	1.61000	-0.43354
739.920	-0.78382	3.68209	1.56072	-0.42304
744.054	-0.82528	3.64726	1.53480	1.38110
748.055	-0.79898	3.61705	1.35916	0.71244
752.053	-0.75605	3.59177	1.19182	1.46601
755.952	-0.67250	3.48012	2.04517	-0.07813
760.054	-0.65424	3.35941	1.21065	2.98155
764.057	-0.62273	3.15639	1.38483	3.05556
768.057	-0.52508	3.07193	1.99788	2.22007
771.953	-0.53304	3.12866	1.34477	1.85778
776.052	-0.48319	3.12279	1.49488	2.23272
780.054	-0.46755	2.91203	1.43984	1.81641
784.056	-0.50984	2.53532	1.23890	2.02736
787.955	-0.55818	2.76058	1.45745	1.77006
792.053	-0.57153	2.05950	1.63576	1.70040
796.056	-0.71273	2.62836	1.85829	1.62372
800.056	-0.73747	2.46746	1.53818	1.61657
803.954	-0.78759	2.52531	1.70412	1.69248
808.057	-1.53798	2.43717	1.82192	1.67703
812.056	-1.20834	1.98955	1.91714	0.81303
816.013	-1.09207	2.33629	2.08124	1.27006
819.934	-1.74050	2.29100	2.18959	1.11003
824.053	-1.26177	2.23338	2.29121	1.08233
828.053	-1.29620	2.47955	2.18471	0.83501
832.056	-1.45009	2.68493	2.41819	0.55943
836.063	-1.46732	2.94536	2.19150	0.74526
840.055	-1.44520	2.77741	2.47271	0.69271
844.056	-2.65837	2.99626	-0.25622	1.96249
848.055	-2.38318	3.32152	-0.44651	1.94950
851.923	-2.01035	3.21561	1.34651	1.61097
856.013	-2.35026	3.54652	1.58815	1.94777
860.056	-1.93155	3.45248	1.36154	1.85208
864.057	-2.12568	3.48294	0.89972	1.89943
867.954	-2.00180	3.59850	1.00739	1.77518
872.058	-1.87450	3.59936	0.78851	1.84965
876.054	-1.62857	3.57267	0.99320	1.96115
880.059	-1.31156	3.54212	0.87014	1.78957
883.956	-1.25979	3.48959	1.06334	1.88261
888.056	-1.50537	3.35335	1.04114	1.08962
892.056	-1.10802	3.39418	1.16510	0.62786
896.051	-1.01280	3.29175	1.04451	1.17617
899.953	-0.74975	3.32163	1.39659	0.74943
904.055	-1.16180	2.94951	1.24873	0.85867
908.057	-0.86942	2.99646	1.11477	0.59610
912.054	-1.17086	3.05153	1.98618	0.17928
915.923	-0.89125	2.95937	1.66457	0.25782
919.934	-0.83409	2.90601	2.12719	0.36604
923.931	-0.97643	2.81809	2.01942	0.16785
927.934	-0.88260	2.80877	2.20386	0.04534
931.925	-0.80287	2.88668	2.22148	0.21138
935.930	-0.60890	2.85669	2.47858	-0.18443
939.933	-1.04225	2.97044	2.53850	-0.01527
943.916	-0.86151	3.11799	2.63967	-0.30452
947.912	-1.23789	3.19883	2.66233	-0.29360
951.889	-1.27872	3.20299	2.63668	-0.46053
955.935	-1.82700	3.11107	2.82964	-0.33594
959.933	-1.53721	3.07730	2.28009	-0.18292
963.925	-1.75964	3.74190	2.76829	-0.47361
967.933	-1.85856	3.61097	0.31270	-0.34748
971.931	-1.96955	3.78126	0.83501	0.00311
975.933	-2.02185	3.80745	0.47994	-0.01464
979.956	-2.09266	3.64254	0.98422	0.05024
983.930	-2.30685	4.18994	0.71141	-0.01434
987.927	-2.43528	4.07083	0.94631	0.00427
991.934	-2.17638	3.84156	1.02089	0.10850
995.934	-2.51039	4.08843	0.76389	0.50500
999.933	-2.09437	4.05587	0.79801	0.82294
1003.933	-2.26249	4.10517	0.39375	1.15607
1007.936	-2.01910	4.12022	0.74429	1.17376
1011.933	-2.15571	4.20079	0.87835	1.29777
1015.934	-2.37126	4.38116	0.78451	1.54684
1019.897	-2.39661	4.29488	1.07537	1.47297
1023.934	-2.40365	4.59610	0.66059	1.70962
1027.927	-2.20295	4.34807	0.57940	1.85961
1031.935	-2.13549	4.31822	0.71027	1.80297
1035.932	-2.07653	4.06595	0.63667	1.77802
1039.891	-2.11519	4.39977	0.96167	1.92638
1043.926	-2.16939	4.43432	0.79935	2.08725
1047.935	-2.12575	4.44607	0.82707	2.07542
1051.935	-2.13797	4.12419	1.20422	2.11614
1055.937	-2.09363	4.30962	0.99457	2.16839
1059.928	-2.06332	4.31553	1.12926	2.19990
1063.933	-2.01917	4.39026	0.98725	2.37337
1067.933	-1.99305	4.43242	0.96127	2.58190
1071.927	-2.02646	4.13439	1.07073	2.54284
1075.956	-1.99426	3.98992	1.20507	2.73928
1079.934	-1.92783	4.24411	1.40991	2.60828
1083.934	-1.95408	3.98895	1.11110	2.79889
1087.936	-1.91980	4.10616	1.01228	2.85207
1091.937	-1.89882	3.98574	1.44768	2.99689
1095.934	-1.88360	4.10064	1.77529	3.20116
1099.932	-1.88864	3.96782	1.83895	3.10538
1103.936	-1.85666	3.99271	1.44131	3.23012
1107.936	-1.91858	3.98379	1.95815	3.21247
1111.906	-1.96990	3.98792	1.86278	3.25629
1115.935	-1.99451	4.03148	1.85465	3.25148
1119.934	-1.92461	4.07050	1.92813	3.33241
1123.930	-2.03191	4.03465	1.82656	3.32738
1127.936	-2.07147	3.98078	2.06042	3.39233
1131.935	-2.02168	4.04024	2.08815	3.35958
1135.934	-2.04076	4.07706	2.15802	3.40813
1139.957	-2.15348	4.10639	1.97699	3.22580
1143.935	-2.10496	4.01917	1.88412	3.07949
1147.937	-1.91360	3.75560	0.81282	3.20290
1151.920	-2.02522	3.82037	1.85430	3.03772
1155.934	-1.81347	3.83056	1.52484	2.87098
1159.933	-1.15161	3.71591	1.83387	3.03456
1163.937	1.04081	3.70294	1.19120	4.01678
1167.935	1.20524	3.95992	0.66109	4.23011
1171.937	7.23325	6.17163	-1.67053	3.91329
1175.936	2.89361	10.63879	1.06838	1.55987
1179.935	NaN	NaN	NaN	NaN
1183.937	NaN	NaN	NaN	NaN
1187.957	NaN	NaN	NaN	NaN
1191.934	NaN	NaN	NaN	NaN
1195.929	NaN	NaN	NaN	NaN
1199.933	NaN	NaN	NaN	NaN
1203.935	NaN	NaN	NaN	NaN
1207.938	NaN	NaN	NaN	NaN
1211.933	NaN	NaN	NaN	NaN
1215.937	NaN	NaN	NaN	NaN
1219.936	NaN	NaN	NaN	NaN
1223.895	NaN	NaN	NaN	NaN
1227.938	NaN	NaN	NaN	NaN
1231.898	NaN	NaN	NaN	NaN
1235.915	NaN	NaN	NaN	NaN
1239.894	NaN	NaN	NaN	NaN
1243.937	NaN	NaN	NaN	NaN
1247.935	NaN	NaN	NaN	NaN
1251.937	NaN	NaN	NaN	NaN
1255.944	NaN	NaN	NaN	NaN
1259.930	NaN	NaN	NaN	NaN
1263.936	NaN	NaN	NaN	NaN
1267.939	NaN	NaN	NaN	NaN
1271.938	NaN	NaN	NaN	NaN
1275.897	NaN	NaN	NaN	NaN
1279.927	NaN	NaN	NaN	NaN
1283.937	NaN	NaN	NaN	NaN
1287.931	NaN	NaN	NaN	NaN
1291.899	NaN	NaN	NaN	NaN
1295.937	NaN	NaN	NaN	NaN
1299.936	NaN	NaN	NaN	NaN
1303.940	NaN	NaN	-3.65801	5.14280
1307.939	NaN	NaN	-4.90008	3.64026
1311.959	NaN	NaN	-1.20499	2.27344
1315.941	NaN	NaN	-1.87183	1.76815
1319.905	NaN	NaN	1.08284	3.08383
1323.938	NaN	NaN	1.78243	3.17077
1327.932	NaN	NaN	1.79968	0.84179
1331.937	-5.79698	-3.69948	8.28264	3.06960
1335.939	NaN	NaN	0.63563	3.29471
1339.936	-1.05553	-3.70109	2.18937	1.22617
1343.938	-3.19108	-2.86327	3.14813	-0.96069
1347.928	-0.88031	3.96216	-0.46552	0.63773
1351.939	3.20432	2.74343	-0.74161	-0.04366
1355.942	-4.18521	0.37498	1.08098	-0.51469
1359.918	-0.87222	3.38999	2.66694	-0.17914
1363.918	-0.71020	4.03363	0.08972	-1.20036
1367.941	-5.79298	3.83836	-0.15412	-0.65792
1371.940	1.29740	4.36745	-0.06413	-1.02499
1375.939	1.62324	4.49302	0.60255	-0.95205
1379.940	1.72944	5.98234	1.33177	-1.05114
1383.940	1.64377	4.55303	0.92812	-1.05712
1387.940	0.94916	4.84114	3.29745	-1.07007
1391.942	0.89952	4.85266	0.70580	-0.81340
1395.961	0.99164	4.03794	0.75022	-0.63742
1399.936	0.59379	3.32867	0.34945	-0.27378
1403.936	1.00139	3.29251	0.05142	-0.15454
1407.939	-0.25455	3.92356	0.27173	-1.03710
1411.942	-0.40735	2.97854	0.60697	-0.31477
1415.939	-0.54960	2.67087	0.39757	0.23832
1419.942	-0.84692	2.59949	0.99067	0.32761
1423.941	-0.88810	3.15931	0.55096	-0.24888
1427.904	-1.19227	3.69500	0.40437	0.40142
1431.940	-1.07416	2.75066	0.55329	0.35788
1435.941	-1.24535	2.50269	0.10592	0.39611
1439.941	-1.43451	2.71831	0.40003	0.54081
1443.940	-1.46482	2.28154	-0.08711	0.39626
1447.898	-1.46306	2.52760	1.77613	0.58748
1451.941	-1.55951	2.44894	1.09413	0.68240
1455.941	-1.49562	2.36401	-0.11860	1.68764
1459.941	-1.51283	2.20440	2.40696	-0.07538
1463.943	-1.26244	1.67204	2.63792	0.69771
1467.942	-1.42588	1.97506	2.45408	0.68748
1471.940	-0.84915	2.06372	2.37394	0.36961
1475.944	-0.75233	2.16362	1.48032	0.38746
1479.897	-1.01571	1.90304	2.07184	-0.05220
1483.899	-1.20938	2.61171	2.07497	0.28337
1487.939	-1.00997	2.61082	1.69237	-0.10286
1491.942	-0.97254	2.05129	1.74020	-0.34313
1495.941	-0.95705	2.68522	1.39168	-0.16525
1499.941	-0.97085	3.14155	2.33016	-0.42732
1503.940	-1.00901	2.89145	1.68719	-0.37883
1507.942	-1.10462	3.61037	3.98348	-0.45552
1511.943	-1.02779	3.12659	1.87136	-0.45876
1515.944	-1.09301	4.06673	1.84562	-0.47394
1519.939	-1.24067	4.18342	1.89791	-0.20144
1523.949	-1.65607	3.17224	1.27978	0.19912
1527.908	-1.38019	7.86134	0.61049	-0.60182
1531.942	-2.40436	3.23985	0.47448	-0.57683
1535.939	-3.28244	3.14042	0.64573	-0.65170
1539.941	-3.07033	3.07785	0.62220	-0.60725
1543.943	-3.20508	3.15291	0.14754	-0.57807
1547.944	-3.28744	3.32538	0.04579	-0.53864
1551.899	-3.39038	3.16018	-0.26195	0.00616
1555.935	-3.27640	3.05456	0.44063	-0.26938
1559.942	-3.19726	3.68104	1.38257	-0.35593
1563.900	-3.20835	3.71782	1.35311	0.27065
1567.893	-3.21555	3.80450	1.05682	-0.09113
1571.916	-3.19254	3.49714	1.49215	0.66992
1575.943	-3.31435	3.91042	1.28080	0.81787
1579.940	-3.34259	3.74583	1.64826	0.49244
1583.942	-3.33297	3.42654	1.02469	0.92076
1587.942	-3.32620	3.69127	0.93448	0.72548
1591.944	-3.35568	3.48266	0.98906	0.68421
1595.943	-3.45853	4.13316	1.18857	0.54548
1599.943	-3.67830	4.28753	0.90173	0.64816
1603.940	0.29498	3.73128	0.80885	0.54974
1607.946	-0.99454	3.91940	0.90694	0.31902
1611.939	-0.92894	3.47354	0.81915	0.38040
1615.946	-0.97087	3.66875	0.71283	0.39300
1619.840	-0.98487	3.57848	0.79411	0.12043
1623.941	-1.07723	3.90780	0.78064	0.01642
1627.942	-3.57283	4.87223	0.79151	-0.17003
1631.902	-3.57162	5.02016	0.93400	0.00191
1635.840	-3.05152	5.27793	0.87413	-0.17067
1639.942	-1.47960	4.47705	1.28291	-0.18190
1643.943	-1.65294	4.67275	1.56057	-0.26285
1647.943	-1.70222	4.70747	1.15265	-0.32039
1651.844	-1.64774	4.87106	1.37565	-0.28382
1655.943	-1.80392	4.53113	2.19368	-0.33924
1659.943	-1.96660	4.59065	1.73110	-0.39447
1663.945	-1.99959	4.68942	1.77548	-0.42377
1667.904	-2.09147	4.71956	1.91246	-0.50958
1671.946	-2.08862	4.67559	2.04086	-0.57552
1675.944	-1.99810	4.59103	0.33417	-0.42371
1679.945	-1.99032	4.56410	2.31683	-0.68559
1683.947	-1.97989	4.60282	2.05454	-0.52707
1687.944	-2.02364	4.60522	1.94431	-0.59783
1691.933	-2.00103	4.54480	1.86099	-0.51941
1695.934	-1.96519	4.50008	2.15093	-0.75692
1699.837	-1.89930	4.49090	2.39819	-0.82458
1703.943	-1.95254	4.62395	2.20126	-0.68376
1707.946	-1.82160	4.50270	1.69971	-0.69171
1711.944	-1.66576	4.41925	1.93651	-0.77138
1715.844	-1.28985	4.28506	2.18416	-0.80286
1719.944	-1.45529	4.38374	2.06235	-0.92736
1723.944	-1.78200	4.66787	1.55621	-0.70097
1727.913	-2.29183	4.53804	2.00202	-0.61268
1731.811	-2.52280	4.54493	2.04488	-0.78987
1735.915	-2.68101	4.75955	2.03169	-0.90863
1739.944	-2.75784	4.60213	2.34864	-0.79048
1743.946	-2.80303	4.49420	2.09675	-0.67092
1747.841	-3.09696	4.35467	1.87240	-0.61784
1751.942	-1.19996	4.56807	1.97339	-0.58222
1755.945	-1.43401	4.49252	1.77558	-0.41172
1759.949	0.11952	2.78468	1.92773	-0.36999
1763.842	-0.42708	2.83590	2.15348	-0.28444
1767.904	-0.73379	2.44891	2.34176	-0.33607
1771.945	-0.51699	2.18684	3.23826	-0.78604
1775.927	-0.89458	2.30277	2.05159	-0.65703
1779.838	-1.09331	2.13349	2.33534	-0.59224
1783.946	-0.97968	2.07479	3.26238	-0.40006
1787.944	-1.10616	2.18697	3.03291	-0.20837
1791.945	-1.25924	2.12716	2.63051	-0.17977
1795.847	-1.51097	2.13014	2.74710	-0.12820
1799.945	-1.80355	2.11529	3.28001	-0.10303
1803.945	-1.70036	2.03429	2.95604	-0.15929
1807.947	-1.71491	2.06240	3.04640	0.00474
1811.950	-1.86580	2.34232	2.94163	0.10056
1815.944	-1.96444	2.15199	3.28880	-0.06200
1819.948	-1.91013	2.13031	2.93549	-0.20173
1823.948	-2.01655	2.06470	3.11203	-0.10315
1827.815	-2.00923	2.00861	2.71206	-0.12316
1831.945	-2.07985	1.95036	2.79236	-0.39478
1835.948	-2.11309	1.87360	3.31445	-0.57021
1839.946	-2.13876	1.82815	2.87861	-0.40192
1843.844	-2.17071	1.90376	2.30135	-0.29494
1847.945	-2.17906	1.68056	2.91599	-0.37575
1851.914	-2.18947	1.62669	2.64517	-0.35263
1855.907	-2.11775	1.40140	2.80105	-0.37360
1859.848	-2.26343	1.58838	2.61253	-0.44378
1863.906	-2.20228	1.61226	2.67610	-0.29543
1867.949	-2.14221	1.62798	2.67504	-0.33832
1871.946	-2.22391	1.68483	2.61327	-0.12121
1875.844	-2.24089	1.62832	2.59116	0.03006
1879.946	-1.96169	1.66936	2.42805	0.15057
1883.946	-1.76889	1.39260	2.56850	0.25884
1887.948	-1.45693	1.29343	2.36059	0.33316
1891.846	-1.62490	1.60069	2.53957	0.50093
1895.947	-1.62130	1.79861	2.47645	0.52533
1899.935	-1.29134	1.83007	2.01935	0.61185
1903.908	-1.09522	1.66889	2.25739	0.80376
1907.844	-0.95522	1.65096	2.23608	0.77764
1911.944	-0.98397	1.68409	2.47365	0.86495
1915.946	-1.02367	1.26270	2.36745	0.93370
1919.947	-0.98397	1.74098	2.26544	1.01362
1923.851	-0.99154	1.68632	2.29488	1.05626
1927.907	-0.99980	1.59896	2.47457	1.08908
1931.947	-1.00821	1.70803	2.45659	1.12541
1935.946	-0.96035	1.58902	2.29795	1.20793
1939.850	-0.98861	1.64802	2.53082	1.27842
1943.913	-1.07378	1.64512	2.70867	1.32289
1947.823	-1.10929	1.60843	2.23333	1.35987
1951.822	-1.19271	1.84642	2.20709	1.42057
1955.844	-1.25252	1.82945	2.41125	1.38737
1959.827	-1.29124	2.21026	2.79978	1.47517
1963.822	-1.36022	1.85576	2.64351	1.49699
1967.823	-1.35030	1.71152	2.39369	1.58128
1971.797	-1.30454	1.77847	2.28640	1.72857
1975.823	-1.39455	1.77694	1.93289	1.59186
1979.823	-1.50690	1.71741	1.52164	1.69417
1983.824	-1.32882	1.73082	1.61783	1.71310
1987.926	-1.25091	1.85802	2.18285	1.88318
1991.818	-1.18336	1.85382	2.04738	1.93494
1995.824	-1.15883	1.79961	2.00403	2.02042
1999.822	-1.23159	1.83346	2.09128	2.16341
2003.953	-1.16446	1.74952	2.04208	2.27270
2007.824	-1.23565	1.75402	1.76953	2.29503
2011.824	-1.26572	1.73220	1.62044	2.28204
2015.824	-1.18770	1.78621	1.78176	2.22374
2019.955	-1.28259	1.74917	1.65490	2.31679
2023.823	-1.35194	1.75063	1.69267	2.39409
2027.827	-1.54651	1.72140	1.72555	2.47514
2031.795	-1.60910	1.61103	0.75950	2.27652
2035.821	-1.87039	1.51501	0.86731	2.32409
2039.826	-1.70524	1.29382	1.51859	2.20261
2043.825	-1.95324	1.06362	1.34777	1.92681
2047.824	-1.97421	1.07942	1.26091	1.98517
2051.817	-1.99875	1.05793	1.33108	1.53763
2055.827	-2.11688	0.88808	1.22901	1.43307
2059.824	-2.16335	0.91295	1.32962	1.22611
2063.827	-2.19422	0.85375	1.32810	1.28821
2067.851	-2.27372	0.87324	1.26706	0.93590
2071.825	-2.25531	0.81243	1.33984	1.20890
2075.824	-2.39299	0.63126	1.45321	0.93228
2079.827	-2.37362	0.70721	1.50524	0.81611
2083.820	-2.24418	0.75382	1.77283	0.90557
2087.824	-2.38625	0.84621	1.97530	0.70799
2091.827	-2.37471	1.05087	1.96501	0.80789
2095.825	-2.45567	0.99588	2.59076	0.79193
2099.786	-2.51336	1.15921	2.60906	0.68249
2103.825	-2.11596	1.14826	2.80635	0.78288
2107.827	-2.29300	1.17240	2.26120	0.77988
2111.829	-2.30484	1.27657	2.34109	0.72721
2115.849	-2.40719	1.28055	2.35323	0.86170
2119.827	-2.44764	1.34163	2.45701	0.85364
2123.825	-2.12466	1.26144	3.02576	0.82175
2127.827	-2.23853	1.31949	2.50979	0.77269
2131.849	-2.04084	1.32892	3.13499	0.83541
2135.824	-2.04054	1.23234	3.45714	0.71149
2139.826	-2.30645	1.35963	3.41990	0.66561
2143.826	-2.34644	1.20961	2.90104	0.58942
2147.786	-1.95544	1.13569	2.94517	0.64845
2151.826	-2.12330	1.18092	2.46246	0.61095
2155.805	-1.95552	0.93236	3.09426	0.60127
2159.825	-2.47663	2.05592	2.31812	0.49947
2163.816	-2.37823	2.31881	2.09804	0.39116
2167.825	-2.41811	2.12836	2.90557	0.32830
2171.828	-2.65062	2.17004	1.73296	0.12064
2175.824	-2.67568	2.50204	2.72890	-0.14448
2179.827	-2.71097	2.57772	3.05927	-0.10057
2183.827	-2.35717	2.96506	2.45049	-0.03141
2187.825	-2.49419	2.96035	2.71659	-0.24546
2191.827	-2.55408	2.91067	2.46469	-0.13766
2195.819	-2.60015	2.93119	2.54893	-0.23186
2199.819	-2.53895	2.90503	2.49832	-0.33045
2203.828	-2.51024	3.06182	2.28849	-0.38723
2207.829	-2.51995	3.11717	2.37897	-0.43455
2211.819	-2.49592	3.37710	2.21957	-0.42072
2215.829	-2.25660	3.75829	2.40952	-0.64501
2219.828	-2.32033	3.78650	2.31557	-0.74721
2223.828	-2.29857	3.59352	2.11626	-0.65378
2227.809	-1.52890	3.37831	1.86370	-0.70866
2231.834	-2.29790	3.42811	2.06892	-0.55560
2235.828	-1.76071	3.48132	1.84314	-0.62746
2239.804	-1.82314	3.29783	1.92099	-0.57447
2243.821	-1.20943	3.76947	1.62978	-0.57607
2247.829	-1.35378	3.69032	1.24652	-0.45894
2251.830	-1.15952	3.14981	1.37196	-0.55326
2255.830	-1.29606	3.67586	1.17034	-0.36406
2259.828	-1.21509	3.47468	1.35246	-0.56840
2263.830	-1.32530	3.60673	1.06185	-0.39798
2267.829	-1.29593	3.71638	1.06272	-0.55763
2271.829	-1.26579	3.62402	1.22429	-0.36070
2275.791	-1.36742	3.66751	1.21236	-0.71943
2279.827	-1.39110	3.72484	1.08827	-0.54418
2283.824	-1.39587	3.76714	1.01469	-0.60203
2287.785	-1.63040	3.65018	0.41318	-0.56936
2291.789	-1.88631	3.68168	0.90731	-0.48382
2295.830	-1.78934	3.41967	0.95229	-0.52430
2299.826	-1.88234	3.43672	1.06818	-0.72747
2303.830	-1.99912	3.48646	1.17106	-0.43349
2307.822	-2.15128	3.31002	0.99638	-0.52214
2311.830	-2.08575	3.22152	1.32937	-0.35539
2315.830	-2.19601	3.11757	1.22082	-0.41595
2319.832	-2.21777	3.10661	1.85571	-0.45241
2323.822	-2.15395	2.91913	1.74635	-0.30547
2327.828	-2.27600	2.96431	2.17068	-0.23145
2331.829	-2.28613	2.78307	2.55230	-0.10451
2335.829	-2.26510	2.62646	2.10994	-0.05138
2339.828	-2.28266	2.47517	1.78771	-0.28649
2343.830	-2.32796	2.38302	2.01062	-0.00740
2347.831	-2.31916	2.31537	1.93695	-0.09293
2351.830	-2.42698	2.14657	2.15834	0.05840
2355.833	-2.41244	2.21583	2.31349	0.15679
2359.828	-2.42983	2.17445	2.32471	0.35038
2363.809	-2.38913	2.16458	2.04874	0.31309
2367.829	-2.46880	2.30572	1.90532	0.28479
2371.830	-2.50469	2.40791	2.25895	0.41150
2375.829	-2.52163	2.41851	2.03206	0.42124
2379.788	-2.48443	3.22429	1.94590	0.28259
2383.829	-2.49176	3.16867	1.99411	0.24494
2387.830	-2.44306	3.19883	2.09403	0.03730
2391.832	-1.69859	3.20612	2.45039	-0.36743
2395.827	-1.92585	3.43010	2.06332	-0.13157
2399.831	-1.45753	3.40228	2.22646	-0.26474
2403.823	-1.67529	3.52258	2.48208	-0.39341
2407.821	-1.72406	3.44788	2.47306	-0.62775
2411.828	-1.54093	3.56092	2.57858	-0.44461
2415.830	-1.38751	3.62275	2.45260	-0.75240
2419.822	-1.52982	3.70295	2.63225	-0.67828
2423.828	-1.51933	3.72478	2.70810	-0.76763
2427.832	-2.24321	3.80522	2.44980	-0.69431
2431.830	-2.39322	3.80282	2.78718	-0.73269
2435.837	-2.48487	3.83192	1.76395	-0.61100
2439.829	-1.39964	3.79523	1.62825	-0.68170
2443.832	-1.42871	3.86163	1.36667	-0.49474
2447.801	-1.37238	4.03111	1.30816	-0.25680
2451.824	-1.22546	3.50199	1.32647	-0.10320
2455.830	-1.18009	3.57048	1.31143	0.14876
2459.832	-0.57721	3.16483	1.42960	0.56264
2463.834	-0.78483	2.84498	1.14335	0.52144
2467.833	0.06232	2.89492	1.16290	0.62217
2471.829	-0.32295	2.82213	1.54038	0.60998
2475.829	-0.45964	2.71977	1.71784	0.50795
2479.828	-0.78952	3.45017	1.20963	0.38288
2483.825	-0.41246	2.63990	1.39780	0.75013
2487.818	-0.94140	2.88623	1.43009	0.76867
2491.829	-0.71367	3.00728	1.52625	0.68757
2495.833	-0.78479	3.25414	1.43126	0.74858
2499.824	-0.90835	3.62323	1.70038	0.63067
2503.831	-1.06386	3.52501	1.40373	0.59687
2507.833	-1.01491	3.55647	1.54348	-1.44162
2511.831	-1.17560	3.59761	1.61761	0.32686
2515.807	-1.19586	3.63886	1.48540	-1.40938
2519.833	-1.23642	3.66946	1.38818	-0.66166
2523.834	-1.22280	3.61046	1.29142	-0.92532
2527.831	-1.34460	3.66505	1.34363	-1.30839
2531.832	-1.39247	3.41619	0.99181	-1.59750
2535.789	-1.42568	3.26077	1.29335	-1.63024
2539.833	-1.52811	3.06153	1.44277	-2.04513
2543.832	-1.63688	3.28459	0.98303	-1.90552
2547.833	-1.64030	3.02716	1.31245	-2.00478
2551.790	-1.67722	2.92007	0.37251	-0.98846
2555.833	-1.71769	2.58163	0.32384	-1.53792
2559.832	-1.69264	2.44496	0.52835	-1.28495
2563.837	-1.78657	2.44048	1.00814	-2.32802
2567.828	-1.82874	2.38578	0.68754	-1.16369
2571.837	-1.81637	2.30643	-0.11836	-1.33644
2575.831	-1.88752	2.39492	0.34935	-1.18819
2579.824	-1.90173	2.29838	0.60312	-1.36515
2583.790	-1.92339	2.38694	0.20470	-0.55879
2587.833	-1.92106	2.41238	-0.34677	-0.39260
2591.832	-1.89198	2.31372	-0.38569	0.07137
2595.826	-1.80878	2.26753	-0.03951	-0.04254
2599.834	-1.78503	2.00346	-0.06914	0.18749
2603.790	-1.76629	2.23378	-0.54089	0.22112
2607.794	-1.69178	2.18625	-0.32613	-0.32040
2611.826	-1.65528	2.16191	-0.97690	0.06522
2615.823	-1.66311	1.89810	-0.83391	-0.43826
2619.835	-1.48518	1.68965	-0.68240	0.56846
2623.833	-1.52027	1.58481	-0.65948	1.65294
2627.837	-1.39582	1.78644	-0.38985	1.51784
2631.834	-1.29142	1.49416	-0.22954	0.98524
2635.833	-1.24974	1.50272	0.46465	1.75280
2639.833	-1.29802	1.37086	-0.10242	0.11659
2643.732	-1.28318	1.39927	0.13809	-0.40014
2647.834	-1.19051	1.35443	-0.44358	-0.39394
2651.834	-1.01072	1.38975	0.56364	-0.43364
2655.832	-0.71779	1.46174	0.60178	-0.65200
2659.718	-0.83533	1.50821	-0.02358	-0.34262
2663.842	-0.82798	1.59362	0.29654	-0.28387
2667.837	-0.68397	1.63414	1.28507	-0.79937
2671.838	-0.91416	1.85862	1.07999	-1.10031
2675.840	-0.96487	1.89004	1.36008	-0.57927
2679.832	-1.58470	2.62582	0.92897	-0.02112
2683.834	-2.75386	4.44006	1.07716	2.02666
2687.834	-8.38821	4.46567	10.59270	3.50593
2691.829	NaN	NaN	4.29105	4.92963
2695.819	NaN	NaN	NaN	NaN
2699.832	NaN	NaN	NaN	NaN
2703.834	NaN	NaN	NaN	NaN
2707.726	NaN	NaN	NaN	NaN
2711.834	NaN	NaN	NaN	NaN
2715.833	NaN	NaN	NaN	NaN
2719.794	NaN	NaN	NaN	NaN
2723.833	NaN	NaN	NaN	NaN
2727.837	NaN	NaN	NaN	NaN
2731.836	NaN	NaN	NaN	NaN
2735.710	NaN	NaN	NaN	NaN
2739.800	NaN	NaN	NaN	NaN
2743.835	NaN	NaN	NaN	NaN
2747.835	NaN	NaN	NaN	NaN
2751.834	NaN	NaN	NaN	NaN
2755.795	NaN	NaN	NaN	NaN
2759.835	NaN	NaN	NaN	NaN
2763.832	NaN	NaN	NaN	NaN
2767.837	NaN	NaN	NaN	NaN
2771.795	NaN	NaN	NaN	NaN
2775.836	NaN	NaN	NaN	NaN
2779.815	NaN	NaN	NaN	NaN
2783.835	NaN	NaN	NaN	NaN
2787.796	NaN	NaN	NaN	NaN
2791.839	NaN	NaN	-1.01189	7.87379
2795.736	NaN	NaN	-0.73166	5.33035
2799.835	NaN	NaN	-0.55059	4.36081
2803.839	NaN	NaN	-0.57458	3.42438
2807.802	NaN	NaN	-0.45195	0.97252
2811.733	6.84881	12.24263	2.37382	6.40236
2815.838	NaN	NaN	5.48937	1.74745
2819.826	-4.56940	0.58411	2.20850	2.79144
2823.834	-6.92513	0.68282	4.56368	2.61006
2827.706	-4.93531	0.93462	1.87785	1.97007
2831.835	0.78082	4.08143	7.34631	1.91178
2835.837	0.64881	4.07651	16.53847	0.95138
2839.834	-2.89752	1.79810	12.82007	0.23319
2843.731	7.71752	4.36382	7.21332	0.03000
2847.838	7.99493	4.25350	2.32684	-0.26651
2851.836	-1.84533	4.01201	3.34252	-0.32013
2855.838	4.35837	4.20115	7.44362	0.23191
2859.734	-1.98779	4.02334	2.34034	0.95553
2863.838	-1.50487	3.95479	2.89487	-0.31394
2867.837	-1.52221	3.99055	2.73989	-0.19673
2871.837	-0.95405	4.02861	3.98358	0.31953
2875.740	-1.34090	4.16112	3.39386	0.48990
2879.838	-1.25595	4.33331	4.09051	-0.29651
2883.839	-0.67126	4.36538	4.13651	-0.06704
2887.837	-1.23853	4.22553	3.51142	-0.27384
2891.735	-1.38684	4.38256	2.75858	0.10670
2895.838	-1.38525	4.10726	2.51948	-0.02060
2899.838	-1.53820	4.15903	2.50152	-0.10633
2903.821	-1.68989	4.09240	1.80514	-0.17224
2907.733	-1.34500	4.02789	1.79410	0.16052
2911.795	-0.51850	3.97869	1.54482	0.20727
2915.837	-1.71233	3.98202	1.29519	0.22090
2919.852	-1.15210	3.82042	1.35159	0.20689
2923.840	-1.24513	3.77246	2.01751	0.15280
2927.837	-0.46185	3.59951	0.33183	-0.00045
2931.836	-0.71082	3.45808	0.79421	-0.00683
2935.838	-0.96487	3.44192	1.13608	0.13366
2939.738	-1.47737	3.35339	0.20023	-0.20344
2943.842	-1.01928	3.42847	0.58012	0.09042
2947.836	-0.83635	3.12376	1.53493	-0.05331
2951.840	-0.91210	3.08532	0.99745	-0.08611
2955.737	-1.11144	3.19526	1.53629	-0.08451
2959.837	-0.94415	2.94399	1.27284	-0.09652
2963.837	-1.00744	2.84674	1.28100	0.37353
2967.842	-1.00201	3.11076	0.68034	0.11350
2971.736	-0.99365	2.88670	0.85674	0.24970
2975.837	-1.06587	2.90475	0.59744	0.13584
2979.839	-1.12422	2.93738	0.71722	0.67219
2983.840	-1.07187	3.08057	0.26150	0.75509
2987.740	-1.07689	2.96117	0.38693	0.64611
2991.705	-1.32872	2.53174	0.33230	1.69032
2995.704	-1.32773	1.95809	0.33935	1.03178
2999.716	-1.31813	2.75647	0.34983	1.06377
3003.708	-1.27209	2.40912	0.20944	1.09995
3007.715	-1.23305	2.01680	0.34873	1.32932
3011.714	-1.34904	1.93430	0.27121	1.63511
3015.717	-1.33393	2.07971	0.01663	1.35435
3019.715	-1.34346	2.16234	-0.24530	1.59571
3023.715	-1.39594	1.86218	-0.36020	1.78540
3027.672	-1.38208	1.78285	0.26274	1.69656
3031.714	-1.37625	1.95009	0.11091	2.00766
3035.706	-1.37149	1.70480	-0.50322	2.10883
3039.714	-1.31287	1.51885	0.05323	2.25615
3043.715	-1.26145	1.45929	-0.47641	2.21256
3047.714	-1.31183	1.50023	-0.24815	2.21703
3051.715	-1.24664	1.63819	-0.19983	2.24974
3055.713	-1.15466	1.50533	-0.18060	2.22039
3059.714	-1.20881	1.42819	-0.00149	2.27186
3063.714	-1.01940	1.91823	-0.18055	2.13752
3067.711	-1.00211	1.39509	0.42777	1.95127
3071.717	-0.76379	1.84713	0.03648	1.79710
3075.714	-0.81682	1.54561	0.31434	1.56089
3079.711	-0.86039	1.61061	0.84257	0.89820
3083.720	-0.71796	2.73601	0.18789	1.19345
3087.715	-0.82161	3.24140	0.29069	0.58234
3091.715	-0.96112	2.42756	0.79660	-0.28511
3095.717	-0.84322	3.37501	0.30051	-0.05725
3099.712	-0.91311	3.69219	0.62136	-0.23970
3103.674	-0.59880	3.54834	1.08083	-0.21908
3107.716	-0.12275	3.33000	1.42236	-0.47071
3111.720	-0.54620	3.08582	2.40127	-0.28221
3115.708	0.36849	2.93754	1.88707	-0.39292
3119.713	-0.14213	3.35429	1.75173	-0.37137
3123.716	0.24944	3.23856	3.02764	-0.37770
3127.674	0.18531	3.31696	2.75257	-0.45887
3131.717	0.75704	-0.21383	2.95290	-0.18131
3135.716	0.46433	3.06953	1.86402	-0.27044
3139.714	0.84349	2.35142	1.72399	0.71557
3143.714	0.56471	0.56624	1.49502	1.33517
3147.742	0.59406	0.98981	1.85921	1.07952
3151.716	0.47334	1.50238	1.21149	1.46307
3155.718	0.56471	1.23237	1.45760	1.61228
3159.695	0.46222	1.22094	0.84349	1.72802
3163.678	0.52930	1.74849	0.77992	1.70543
3167.718	0.43189	1.22973	1.06969	1.52290
3171.714	0.39067	1.22405	1.02759	1.84843
3175.717	0.31955	1.53332	1.33473	1.77532
3179.718	0.08264	1.38733	1.49279	1.53831
3183.718	0.09190	1.65047	1.80085	1.78244
3187.716	0.01000	1.69732	1.95277	1.60917
3191.715	-0.33963	1.88122	1.64365	1.64386
3195.691	-0.27386	1.68362	1.75223	1.70100
3199.718	-0.35782	1.75439	1.89186	1.31966
3203.707	-0.31327	1.95680	2.79619	1.03935
3207.720	-0.51686	2.86675	2.73595	1.37255
3211.691	-0.50949	2.39323	2.43498	0.85224
3215.718	-0.56101	2.58633	2.65612	0.64876
3219.718	-0.49361	2.34409	2.64488	0.52404
3223.716	-0.57677	2.26510	2.62719	0.97270
3227.679	-0.62250	2.51392	2.83251	0.41606
3231.716	-0.54227	2.52474	2.55064	0.91704
3235.688	-0.54481	2.64974	2.91648	0.36766
3239.717	-0.70082	2.81001	-3.47673	-3.82737
3243.711	-0.56573	2.88623	2.92527	0.40493
3247.717	-0.65096	2.91305	2.34966	0.40452
3251.719	-0.62429	2.87646	2.70901	0.43829
3255.718	-0.63645	2.72388	2.86400	0.41426
3259.710	-0.62560	2.74803	-3.21691	-3.94853
3263.677	-0.74335	3.05989	2.52357	0.57073
3267.726	-0.68168	3.12281	2.37706	0.43358
3271.675	-0.81555	2.85797	2.01114	0.59649
3275.718	-0.89632	3.05415	2.31537	0.53157
3279.718	-0.89890	2.87531	2.14364	0.62534
3283.701	-0.86758	2.74570	2.30660	0.76546
3287.720	-0.95504	2.81357	2.32986	0.99039
3291.744	-0.84759	3.00897	2.66058	0.84623
3295.685	-0.82243	2.37576	2.68331	0.90401
3299.720	-0.58426	2.33389	1.34170	1.13214
3303.718	-0.67297	2.07254	1.31292	0.97148
3307.713	-0.59640	2.99228	1.39549	0.85596
3311.721	-0.39598	2.13827	1.77690	1.12026
3315.719	0.08562	1.65958	1.30513	1.22103
3319.719	0.03492	1.14028	1.01975	1.21289
3323.710	0.18315	1.15674	1.55385	1.23225
3327.679	0.21447	1.11776	0.98025	1.11028
3331.719	0.04693	1.23352	1.02814	1.34733
3335.720	0.19432	1.10204	1.15784	1.42975
3339.718	0.25597	1.20405	1.11189	1.48472
3343.719	0.34968	1.29308	1.12348	1.45259
3347.677	0.40566	1.14430	1.01134	1.57991
3351.719	0.43222	1.00822	1.01923	1.60778
3355.736	0.53163	1.00416	0.99003	1.77437
3359.718	0.35958	1.01861	0.66531	1.78399
3363.720	0.46147	1.00228	0.36705	1.90459
3367.701	0.49788	0.98561	0.93334	1.63846
3371.719	0.48076	0.95473	0.24711	1.93333
3375.717	0.47354	0.89829	0.68680	1.78351
3379.720	0.41914	0.80958	0.65575	1.22460
3383.719	0.41112	0.72452	0.36643	1.48331
3387.720	0.35191	0.70669	0.49701	1.36696
3391.720	0.27133	0.80155	0.37866	1.52167
3395.720	0.20105	1.51089	0.39981	1.22095
3399.724	0.19378	2.60291	0.28989	1.27853
3403.713	-0.04852	3.30254	0.25123	1.25971
3407.708	-0.55632	3.40384	0.55525	0.95345
3411.678	-0.31595	3.60430	0.17146	0.89062
3415.721	-0.77575	3.32527	0.45445	0.94127
3419.722	-0.66002	3.50073	0.51537	0.64988
3423.721	-0.82692	3.43972	0.48537	0.37252
3427.723	-0.94986	3.36320	0.60687	0.27367
3431.721	-1.07272	3.44084	0.46438	0.03861
3435.720	-1.07716	3.49804	0.60992	-0.21394
3439.719	-1.19877	3.46079	0.50709	-0.90475
3443.720	-1.21755	3.50448	0.63069	-0.43758
3447.719	-1.33014	3.50588	0.68704	-0.37273
3451.713	-1.36970	3.18992	1.04957	-0.47152
3455.720	-1.43684	3.41078	0.67898	0.79385
3459.719	-1.54954	3.43226	0.56381	1.15254
3463.720	-1.58034	3.46263	0.11702	2.04307
3467.721	-1.57292	3.15021	0.38546	1.50128
3471.721	-1.70199	2.86912	-0.43400	1.52283
3475.719	-1.77179	3.40654	-0.40814	1.69092
3479.720	-1.73579	3.19734	-0.52413	1.67597
3483.721	-1.73348	2.70278	-0.25311	1.58290
3487.727	-1.69458	3.04900	-0.37933	1.72574
3491.704	-1.64583	3.19207	-0.11198	1.31747
3495.722	-1.64640	2.93210	-0.77791	1.59625
3499.722	-1.48565	3.01758	-0.82521	1.03030
3503.720	-1.48005	2.91393	-0.94874	1.34071
3507.721	-1.53292	3.51097	0.11141	-1.24410
3511.722	-1.55688	3.43827	0.65059	-1.17155
3515.722	-1.43530	3.33397	0.02817	-2.01081
3519.721	-1.26493	3.18211	-0.78804	0.60741
3523.725	-1.29702	3.16733	0.29853	-1.84498
3527.683	-1.22970	3.31882	-1.04682	-0.39165
3531.725	-1.27420	3.18019	-0.06123	-0.48810
3535.718	-1.23451	3.13390	0.65156	-0.86664
3539.722	-1.15263	3.14201	-0.27165	-0.77325
3543.720	-1.04662	2.99296	-0.48691	-0.69274
3547.726	-1.14429	2.99606	0.42971	-1.01458
3551.681	-1.04672	2.89174	-0.11684	-0.94709
3555.721	-0.96212	2.90086	-0.39862	-0.88995
3559.722	-0.77823	2.87993	-0.01668	-0.92908
3563.718	-0.95919	2.67220	-0.07053	-0.99988
3567.722	-0.88302	2.75062	-1.39448	-0.66367
3571.723	-0.92282	2.50092	-0.14288	-0.89884
3575.724	-0.84644	2.66666	0.61089	-2.59038
3579.726	-0.84883	2.67357	0.76568	-2.40333
3583.724	-0.83937	2.54159	0.14019	-2.61526
3587.723	-0.89227	2.76068	1.13466	-1.38006
3591.725	-0.79191	2.72019	0.09401	-1.43576
3595.726	-0.76675	2.83895	-0.13888	-1.26886
3599.723	-0.69501	2.78086	0.39199	-1.41807
3603.725	-0.68461	2.89082	1.10368	-1.91334
3607.725	-0.72345	3.05130	0.61900	-1.20208
3611.726	-0.57218	3.12285	1.07448	-1.30475
3615.724	-0.56682	3.12642	0.55354	-1.28932
3619.717	-0.55863	3.14104	0.70967	-1.18554
3623.724	-0.44142	3.06818	0.70278	-1.27806
3627.686	-0.44691	3.14025	0.61541	-1.08559
3631.723	-0.41370	3.18052	0.70017	-1.19915
3635.723	-0.37420	3.28964	0.36303	-1.04897
3639.725	-0.31416	3.01862	0.45343	-0.74285
3643.728	-0.34734	3.33839	0.51428	-0.69810
3647.723	-0.28910	3.08800	0.53379	-0.88216
3651.723	-0.11009	2.91638	0.84314	-0.86037
3655.724	-0.18052	2.75188	0.76352	-0.63027
3659.717	-0.19576	2.89307	0.40790	-0.65751
3663.681	-0.11898	2.37144	0.38700	-0.63831
3667.722	-0.26684	2.39116	0.67754	-0.60603
3671.724	-0.18219	2.03924	1.02203	-0.64421
3675.628	-0.25076	2.24537	0.64533	-0.39490
3679.724	-0.09669	1.95268	0.86835	-0.52141
3683.723	-0.07443	1.79203	0.89257	-0.46225
3687.725	0.16238	0.47317	0.23060	-0.32373
3691.622	0.15504	0.29056	0.66754	-0.16369
3695.726	0.40586	0.17190	0.92463	0.10400
3699.708	0.33704	0.17697	0.42117	-0.07430
3703.721	0.46885	0.42833	0.81478	0.08731
3707.730	0.65675	0.20049	0.77206	0.05181
3711.725	0.43388	0.11791	0.66451	0.08726
3715.725	0.42455	0.15622	0.71228	0.17010
3719.724	0.54764	0.91828	0.83104	0.12490
3723.729	0.57109	1.41408	0.81019	0.07827
3727.716	0.52922	1.76773	0.00062	0.12884
3731.726	0.46207	1.70658	0.62675	0.08659
3735.729	0.47885	1.79098	0.80406	0.00281
3739.738	0.37827	1.70404	0.48622	-0.04828
3743.725	0.39919	1.66719	0.66660	-0.10838
3747.725	0.37794	2.10018	0.70404	-0.19622
3751.727	0.39172	1.67218	0.92847	-0.13447
3755.623	0.36916	1.76551	0.74943	-0.18928
3759.727	0.29659	1.74561	0.78037	-0.21410
3763.727	0.53421	1.74598	0.97159	-0.18783
3767.725	0.63622	1.69471	0.96733	-0.23168
3771.626	0.54093	1.78615	1.18798	-0.19015
3775.727	0.73873	-0.22360	1.56127	-0.14343
3779.726	0.08453	1.13464	1.21206	-0.13806
3783.699	-0.18710	1.46041	1.10485	-0.09903
3787.623	-0.68873	0.52384	1.25972	-0.06211
3791.728	-0.19554	0.53633	1.38277	0.04173
3795.725	-0.94239	0.69985	1.17823	0.21294
3799.725	-0.38320	1.02435	1.51055	0.06476
3803.731	-0.58260	0.31656	1.14149	0.23199
3807.728	-0.92195	0.93574	1.37982	0.33817
3811.726	-1.53535	0.71218	1.33879	0.37996
3815.725	-0.92733	0.74143	1.33708	0.18098
3819.620	-1.61629	0.75023	1.49371	0.20441
3823.718	-1.70209	0.76127	1.24079	0.45944
3827.717	-0.85821	1.95731	1.38974	0.59742
3831.727	-0.83915	0.96348	1.39768	0.07410
3835.688	-1.30655	3.55702	1.57907	0.29934
3839.726	-0.72709	3.36431	1.31682	0.03331
3843.727	-1.57218	2.37786	1.19944	-0.23465
3847.728	-0.82466	3.35341	1.26458	-0.87689
3851.732	-0.69268	2.26562	1.04647	-0.53403
3855.726	-0.14935	3.19910	1.39525	-0.83875
3859.727	0.19417	3.11600	1.37449	-1.15125
3863.727	0.19730	3.03671	1.09939	-1.25241
3867.733	-0.01142	2.78570	1.24786	-1.41511
3871.731	-0.02859	2.82125	1.20514	-1.58231
3875.725	-0.06043	2.90503	0.93974	-1.03640
3879.726	0.24872	2.48160	0.62831	-1.19448
3883.731	0.18655	2.67437	1.13022	-1.15039
3887.728	0.14913	2.64475	0.06185	0.01705
3891.726	0.27413	2.54127	-0.05400	-0.10921
3895.728	-0.00459	2.71782	0.59858	0.50676
3899.626	0.05827	2.60607	0.33650	0.07132
3903.729	0.04661	2.53103	0.51629	0.08297
3907.726	-0.10791	2.47572	0.34278	0.72728
3911.685	-0.12846	2.46416	0.09091	0.61648
3915.624	-0.29451	2.47909	0.18891	0.68091
3919.730	-0.36613	2.44402	0.27962	0.89861
3923.727	-0.34479	2.54487	-0.02271	0.64466
3927.727	-0.39884	2.52705	0.11925	0.71924
3931.627	-0.51957	2.45357	0.15724	0.80719
3935.727	-0.50200	2.54497	-0.23683	1.02175
3939.728	-0.51920	2.40927	0.28992	0.80430
3943.688	-0.45480	2.44037	0.37109	1.00331
3947.627	-0.46006	2.54176	0.31620	1.01164
3951.695	-0.53366	2.40589	0.08917	0.80332
3955.743	-0.54510	2.40365	-0.12352	0.76429
3959.728	-0.58210	2.36943	3.68999	0.43750
3963.626	-0.55709	2.36478	0.31972	0.62698
3967.730	-0.52346	2.39895	0.39360	0.32907
3971.735	-0.52307	2.39215	-0.04616	0.22441
3975.686	-0.52317	2.41726	0.14305	0.02179
3979.632	-0.45165	2.17714	0.86744	1.40443
3983.728	-0.47493	2.14564	0.30347	0.93982
3987.729	-0.44974	2.11585	1.39205	1.22447
3991.733	-0.36390	1.94376	1.89600	0.58439
3995.734	-0.37586	1.86905	2.14020	0.33043
3999.727	-0.06386	1.97557	3.26690	1.70329
4003.728	-0.14436	1.84421	2.11420	1.94637
4007.730	-0.13456	1.63475	2.88975	1.77500
4011.734	-0.12895	1.77443	2.77022	1.79579
4015.732	-0.11729	1.62487	2.97970	1.89896
4019.603	-0.03668	1.51137	2.18847	1.94201
4023.605	-0.15094	1.71606	2.97517	1.72040
4027.734	-0.11044	1.59033	2.43199	2.02046
4031.607	-0.25887	1.50286	2.86326	1.85379
4035.608	-0.17204	1.65883	2.47838	1.99445
4039.606	-0.24376	1.67240	2.93710	1.88528
4043.604	-0.28433	1.55337	2.92332	1.78698
4047.608	-0.47408	1.59753	2.80555	1.99132
4051.606	-0.61151	1.42438	2.79941	2.09681
4055.607	-0.64675	1.62596	3.00554	1.99149
4059.736	-0.77677	1.67750	2.65812	2.38453
4063.605	-0.73729	1.64944	2.20500	1.97329
4067.607	-0.82530	1.73587	2.50387	2.14627
4071.607	-0.86223	1.58581	1.36997	2.08144
4075.734	-0.97857	1.83106	2.73977	1.35501
4079.587	-1.04997	1.71369	2.29983	2.18148
4083.608	-1.21678	1.82883	1.72964	2.43750
4087.606	-1.26240	1.08676	2.28009	2.47099
4091.736	-1.15372	1.86975	1.84885	1.73847
4095.604	-1.10747	1.56032	1.15590	2.07415
4099.604	-1.19998	1.22905	2.78914	2.27708
4103.605	-1.09832	1.92575	1.96481	2.32760
4107.607	-1.02491	1.38838	1.06250	2.26542
4111.607	-1.08629	1.93271	1.86340	2.31738
4115.605	-0.76838	0.95279	1.48910	2.26373
4119.604	-0.91438	1.28735	2.19799	2.00854
4123.628	-0.68191	0.62725	1.78126	2.08595
4127.608	-0.84793	0.89899	1.57920	1.72969
4131.605	-0.67583	0.42590	1.14288	1.34231
4135.607	-0.64325	0.61982	2.28098	1.63954
4139.631	-0.62496	0.37587	1.66805	1.85291
4143.606	-0.55476	0.45523	1.77110	1.35139
4147.605	-0.53679	0.79712	1.45688	1.30622
4151.605	-0.54890	0.24179	1.52330	1.24624
4155.601	-0.67037	0.83447	1.86927	1.05156
4159.608	-0.86952	0.93598	1.71308	1.03216
4163.589	-0.86213	0.79528	1.67293	1.02649
4167.604	-1.08358	0.93219	1.59819	1.24218
4171.567	-1.16882	1.31295	2.67246	0.98862
4175.564	-1.37349	1.80316	2.12528	0.93708
4179.606	-1.90314	2.37306	4.13209	0.86903
4183.605	-2.32243	1.66797	3.27472	1.47938
4187.607	-4.53608	2.76283	2.29411	1.72648
4191.604	-6.83071	2.66437	5.59462	1.05134
4195.605	-6.36542	2.60757	4.05367	2.07659
4199.608	-5.27031	2.67675	6.90725	0.95857
4203.607	0.42514	5.68531	2.26998	1.27363
4207.603	NaN	NaN	2.14114	1.62391
4211.608	NaN	NaN	NaN	NaN
4215.607	NaN	NaN	NaN	NaN
4219.607	NaN	NaN	NaN	NaN
4223.568	NaN	NaN	NaN	NaN
4227.608	NaN	NaN	NaN	NaN
4231.606	NaN	NaN	NaN	NaN
4235.566	NaN	NaN	NaN	NaN
4239.566	NaN	NaN	NaN	NaN
4243.610	NaN	NaN	NaN	NaN
4247.601	NaN	NaN	NaN	NaN
4251.610	NaN	NaN	NaN	NaN
4255.566	NaN	NaN	NaN	NaN
4259.609	NaN	NaN	NaN	NaN
4263.632	NaN	NaN	NaN	NaN
4267.608	NaN	NaN	NaN	NaN
4271.567	NaN	NaN	NaN	NaN
4275.610	NaN	NaN	2.89690	3.97000
4279.606	NaN	NaN	0.99621	3.32656
4283.606	NaN	NaN	-4.06653	3.93591
4287.588	8.96448	3.34928	13.91932	0.26317
4291.565	9.03120	3.35495	12.90701	4.62576
4295.610	-7.20915	1.74322	7.65885	-1.33388
4299.608	-7.56739	2.15270	3.09169	3.03613
4303.633	-3.61260	3.26322	-4.66186	-0.37083
4307.611	0.23884	3.88083	8.00360	-0.25911
4311.607	-0.87252	5.14035	8.10693	0.06032
4315.608	5.51482	4.98575	4.46463	0.47418
4319.627	-3.16208	4.49039	7.88419	-0.39754
4323.607	-0.15973	5.16168	3.82455	0.31994
4327.567	-0.84257	5.12666	-0.29463	-0.69208
4331.607	0.58061	3.96366	0.86148	0.44402
4335.615	0.16841	4.33903	-4.67209	1.53449
4339.610	0.32965	3.94938	0.13799	0.28912
4343.568	-0.19082	4.48516	-0.09872	0.37417
4347.609	-0.56982	4.21583	-0.11898	-0.01471
4351.607	-0.02005	4.09719	-0.40728	0.13945
4355.609	-0.30635	4.06279	4.36597	0.51562
4359.569	-0.57161	3.74800	3.84523	0.98397
4363.609	-0.60235	4.11338	3.35140	1.30532
4367.633	-0.57855	4.03072	3.35724	0.69472
4371.583	-0.57471	4.20092	3.50370	1.00592
4375.575	-0.11600	3.92953	-2.10887	0.65284
4379.613	-0.40266	4.07474	-0.06170	-7.50623
4383.611	-0.74794	3.73186	3.51461	2.07766
4387.610	-0.77377	4.05130	3.42980	1.19541
4391.610	-0.70923	3.93164	3.21193	1.29970
4395.610	-0.65893	3.89307	2.08461	2.85553
4399.610	-0.99645	4.06186	2.13363	2.99691
4403.611	-0.57372	3.65273	2.43820	2.78621
4407.611	-0.75270	3.56034	2.69361	2.44219
4411.593	-0.69809	2.90214	2.69985	1.28790
4415.611	-0.54533	2.45396	2.37748	2.10537
4419.610	-0.49393	3.31302	2.43867	2.51377
4423.611	-0.69094	2.84579	2.34897	2.47833
4427.610	-0.61727	2.22975	2.04059	2.26963
4431.603	-0.42703	2.05247	1.94216	2.34534
4435.611	-0.48897	3.00487	2.01035	2.17569
4439.612	-0.39983	2.11303	1.95098	2.57038
4443.611	-0.58049	2.92578	2.31188	2.71606
4447.612	-0.84870	2.80813	2.15276	2.65867
4451.612	-1.39927	2.73682	1.91365	1.32495
4455.579	-1.02146	2.44815	2.06409	-2.08359
4459.613	-0.87054	2.55695	1.87364	-1.65746
4463.612	-1.29236	3.15889	2.06416	-1.61898
4467.610	3.87749	3.96417	1.99907	-1.73068
4471.613	4.25914	4.07548	2.07626	-1.72690
4475.617	3.99867	5.13002	2.06409	-1.67342
4479.635	4.21387	4.67286	2.17058	-1.57791
4483.614	4.23350	5.03027	2.08560	-1.40269
4487.612	4.15784	5.10954	2.81263	-1.12677
4491.615	4.14994	5.41911	2.22490	-0.68199
4495.605	4.02673	5.37813	2.14342	-0.86470
4499.610	4.11826	5.43795	2.19348	-0.85007
4503.614	3.98072	5.18469	2.28105	-0.92509
4507.610	4.10202	5.11528	1.42231	-1.13660
4511.612	4.02757	5.16916	2.23286	-1.78591
4515.613	4.13962	4.97400	1.96043	-0.96568
4519.612	-1.46360	3.49267	2.23053	-1.74240
4523.613	-1.66388	2.94665	2.06158	-0.61991
4527.574	-1.16391	2.64319	2.19442	3.19946
4531.614	-1.26111	2.60889	2.03796	2.77916
4535.602	2.52587	2.60872	2.04297	1.08611
4539.602	-1.14791	2.44911	1.76678	0.94582
4543.607	1.94436	2.31618	1.91605	0.48154
4547.612	1.73078	2.08627	1.80630	0.32496
4551.572	-1.31950	2.10650	1.84143	-0.28894
4555.613	-1.24838	2.00733	2.09940	-0.01194
4559.616	-1.20078	2.05178	1.57957	-0.27013
4563.613	-1.19177	1.93318	1.76624	-0.31749
4567.614	-1.00298	1.90126	1.98730	-0.46325
4571.614	-1.04731	1.92251	2.00683	0.01478
4575.620	-0.58151	1.84618	2.14288	0.36289
4579.585	-0.59942	1.71895	2.17271	0.53123
4583.614	-0.77756	1.73346	2.46114	0.54211
4587.614	-0.23673	1.42988	2.36086	1.22423
4591.613	-0.49061	1.76541	2.04074	2.50397
4595.628	-0.49972	1.98535	2.71305	3.59508
4599.612	-0.32992	1.93957	2.86284	-1.78067
4603.616	-0.43078	2.08483	2.29166	-1.92035
4607.615	-0.61833	1.62570	2.70857	-0.36705
4611.614	-0.57793	1.47176	2.13207	-0.17953
4615.614	-0.37655	2.11969	2.59183	0.71804
4619.598	-0.42581	1.91513	2.13817	0.22056
4623.613	-0.29081	1.31174	2.97034	0.24731
4627.574	-0.54381	1.69340	3.03264	0.06380
4631.614	1.69361	1.39919	2.69988	-0.13821
4635.613	1.66750	1.45059	3.64234	-0.18341
4639.614	3.63317	2.60544	4.65666	-0.13389
4643.614	3.64681	1.79170	6.80913	-2.71609
4647.615	7.74491	1.20480	7.23699	-0.38120
4651.616	7.08150	1.47178	8.24322	3.15041
4655.615	6.85574	1.51112	8.06236	0.29878
4659.618	6.74455	1.39265	9.04626	2.48932
4663.572	6.65661	1.37189	10.71681	0.53147
4667.616	6.90145	1.23558	9.01961	1.58002
4671.615	6.65399	1.42570	9.53499	0.14360
4675.576	6.58523	1.07398	9.29722	1.12900
4679.617	6.45196	1.22966	9.00070	0.58460
4683.618	6.33856	1.05544	9.97392	-0.82563
4687.616	5.99674	1.18574	8.82439	0.48058
4691.616	5.81621	1.42367	8.80456	0.43010
4695.615	5.57933	1.28070	8.96612	0.22800
4699.616	5.72367	1.16037	9.60130	0.48692
4703.517	5.15827	1.10921	9.40405	0.74147
4707.616	5.81710	1.14745	9.38702	1.08134
4711.614	5.10039	1.24759	9.42235	3.11864
4715.614	5.39586	1.26507	5.93620	0.07002
4719.513	5.48624	1.41497	6.40739	0.30583
4723.617	5.56207	1.41026	6.19618	0.11690
4727.614	5.61549	1.47926	7.49349	0.62479
4731.573	6.15517	1.37141	7.47148	0.11686
4735.515	6.15922	1.34866	6.51738	0.91031
4739.615	6.28945	1.29083	7.11129	-0.03011
4743.610	6.29359	1.42531	7.01565	1.46610
4747.608	6.64391	1.40224	7.40921	1.35211
4751.516	6.44932	1.42818	7.44145	0.40990
4755.614	6.41800	1.40344	7.44101	-0.17393
4759.618	6.37109	1.50508	6.92838	0.49231
4763.616	6.39949	1.47708	6.84649	0.62144
4767.619	6.42447	1.44831	8.04154	1.86434
4771.616	6.43064	1.30069	7.44006	1.09400
4775.615	6.28977	1.05379	9.16141	1.23699
4779.615	6.18134	0.76481	7.59649	1.29806
4783.520	6.29281	0.58928	8.22650	1.84321
4787.589	6.15573	0.64695	8.52261	1.22963
4791.616	6.15907	0.51169	8.48027	1.73002
4795.616	6.12080	0.51966	8.20277	1.23814
4799.527	6.05491	0.41085	8.41721	1.28306
4803.620	6.10791	0.37205	8.39528	1.16033
4807.617	6.11012	0.47594	8.48058	1.39118
4811.618	6.04836	0.36534	8.90839	1.32494
4815.517	6.01130	0.38007	7.52630	0.56481
4819.574	6.17499	0.25982	8.49059	2.45446
4823.614	5.88871	0.48221	8.44351	-0.19710
4827.601	6.06024	0.34115	7.29438	-1.03296
4831.622	6.04446	0.32537	8.02798	-0.48900
4835.616	5.67189	0.33342	8.35000	-0.55756
4839.616	5.83626	0.45232	8.57233	-0.73126
4843.616	5.90354	0.39666	7.85565	-0.49329
4847.516	5.68880	0.50731	8.42843	-0.62140
4851.616	5.88849	0.26918	7.65303	-0.59762
4855.619	4.71826	0.73533	8.80023	3.17663
4859.617	4.63030	0.06331	7.46202	2.14542
4863.520	2.53107	0.29095	7.52291	-0.69791
4867.618	1.65989	-0.12576	6.41849	-0.82883
4871.582	1.15005	-1.24090	4.36394	-0.79832
4875.617	0.56414	-1.52215	4.37263	-1.16433
4879.617	0.37459	-1.83752	4.31158	-1.66796
4883.618	0.07219	-1.81919	4.43199	-2.14222
4887.618	0.13330	-1.42853	4.37468	-2.06754
4891.616	0.01720	-1.26963	4.35985	-2.44453
4895.484	-0.07036	-1.29211	4.84787	-3.10840
4899.618	-0.38777	-0.18110	4.55263	-3.05774
4903.618	-0.87237	0.03329	4.48177	-2.37748
4907.618	-1.17126	-0.44897	4.48330	-2.39711
4911.520	-1.31848	-0.02683	4.44080	-2.07896
4915.622	-1.54438	-0.51413	4.54572	-1.85527
4919.621	-1.44344	-0.30182	4.33646	-1.57085
4923.623	-1.65131	-0.02019	4.59477	-1.56102
4927.621	-1.52647	-0.23752	4.59221	-2.08869
4931.616	-1.28943	-0.34064	4.62399	-3.09824
4935.618	-0.86108	-0.46474	4.70347	-2.07407
4939.618	-1.22533	-1.50686	4.70697	-2.29746
4943.621	-1.33311	-1.25861	4.73927	-2.48492
4947.616	-1.33197	-1.43649	4.67764	-1.83305
4951.613	-1.17785	-1.46306	4.44802	-1.81765
4955.609	-1.00759	-1.71851	3.77879	-3.17365
4959.622	-0.91956	-1.77880	4.19479	-2.61050
4963.621	-0.84843	-1.47980	3.72333	-2.52827
4967.618	-0.99965	-1.58364	3.94083	-3.10760
4971.618	-0.78615	-1.28042	4.08893	-2.93642
4975.579	-0.79268	-1.38563	4.00598	-3.36208
4979.619	-0.78416	-1.56794	2.88425	-2.90765
4983.619	-0.70695	-1.51103	3.88446	-2.92515
4987.618	-0.81856	-1.20863	4.38304	-2.68413
4991.629	-0.82605	-1.40218	4.19677	-2.76853
4995.592	-0.87681	-1.33346	4.27846	-2.63725
4999.620	-1.10601	-0.91587	3.98519	-2.73459
5003.618	-0.97380	-0.93220	4.33693	-3.02904
5007.519	-1.26138	-0.62125	3.91701	-1.50346
5011.619	-1.50648	0.08786	4.14673	1.23673
5015.621	-1.48483	0.31975	4.05606	-0.16820
5019.621	-1.65572	0.25601	3.90550	0.13278
5023.625	-1.45423	0.38511	4.22239	0.70203
5027.620	-1.76170	0.65955	4.24552	0.35689
5031.619	-1.60156	0.79503	4.19640	0.66915
5035.608	-1.72795	0.67653	3.97103	0.75385
5039.580	-1.69572	0.57178	4.20173	0.61232
5043.619	-1.84114	0.85845	4.04204	-0.07600
5047.619	-1.96320	0.91796	4.06108	-0.46169
5051.621	-2.06743	0.74830	3.95150	-0.20050
5055.492	-2.18216	0.85795	4.21096	-1.96970
5059.495	-2.12659	0.85140	4.06503	-2.73637
5063.494	-2.09901	0.47665	4.06688	-3.09491
5067.496	-1.69108	0.01567	4.03606	-3.46313
5071.521	-1.86280	0.42747	3.95051	-3.59413
5075.496	-1.45331	-0.78784	3.90605	-3.70161
5079.502	-1.48233	0.05803	4.00102	-3.57391
5083.495	-1.28700	-0.33398	3.91086	-3.70566
5087.467	-1.16272	-0.05230	3.99032	-3.59231
5091.496	-1.05366	-0.29121	3.99235	-3.75881
5095.495	-1.04253	-0.34877	3.95500	-3.01754
5099.453	-1.37223	-0.12756	4.04036	-3.41532
5103.539	-0.97137	-0.24662	3.94342	-3.00547
5107.497	-1.12750	-0.33972	4.01944	-3.15584
5111.498	-1.24089	0.31118	4.35716	-3.36710
5115.496	-1.19904	-0.29728	4.18124	-3.60831
5119.525	-1.31759	-0.17305	4.13352	-3.32216
5123.486	-1.39485	-0.53008	4.33406	-2.91068
5127.454	-1.46355	-0.24987	4.27025	-3.05384
5131.501	-1.52665	-0.25486	4.37307	-3.10494
5135.519	-1.50390	-0.23792	4.56045	-2.95339
5139.495	-1.54882	-0.08493	4.43354	-3.03257
5143.495	-1.54445	-0.41741	4.54511	-3.02169
5147.494	-1.55216	-0.55528	4.48796	-2.86847
5151.522	-1.54420	-0.70282	4.61334	-3.07606
5155.497	-1.53374	-0.72674	4.64093	-2.68389
5159.498	-1.48034	-0.62601	4.72982	-1.54808
5163.500	-1.48012	-0.24515	4.57943	-1.45172
5167.519	-1.51546	-0.29167	4.65338	-1.07190
5171.497	-1.47040	-0.26634	4.64690	-2.07706
5175.498	-1.41186	-0.21739	4.31203	-1.23095
5179.499	-1.42280	0.02847	4.64012	-0.88793
5183.522	-1.38637	-0.19866	4.52654	-1.29818
5187.496	-1.34495	-0.26392	4.46630	-1.23210
5191.468	-1.42216	0.01649	4.31825	-1.39062
5195.497	-1.38029	-0.08546	4.25302	-1.31946
5199.521	-1.36600	0.09907	4.53924	-0.99914
5203.497	-1.48002	0.10639	4.69854	-0.98941
5207.480	-1.44150	0.17677	4.48305	-0.74437
5211.500	-1.45390	0.31051	4.69075	-0.76881
5215.522	-1.41601	-0.09765	4.67567	-0.74885
5219.497	-1.55425	0.13446	4.57845	-1.14117
5223.498	-1.56940	-0.31479	4.32133	-1.37712
5227.468	-1.53126	-0.44958	4.52303	-0.98612
5231.529	-1.68044	0.21368	4.60592	-1.58389
5235.455	-1.65788	0.25005	4.64305	-1.35798
5239.456	-1.64300	0.56003	4.55936	-1.10057
5243.497	-1.83427	1.52668	4.63299	-1.75780
5247.492	-1.81409	0.86654	4.56947	-1.42273
5251.494	-1.90163	0.80621	4.64828	-1.59723
5255.499	-1.92986	1.08541	4.59213	-1.70507
5259.499	-2.04988	0.92518	4.49857	-1.70118
5263.492	-2.10818	0.88791	4.47851	-1.75157
5267.500	-1.90735	0.99369	4.54089	-1.72113
5271.500	-1.83898	0.82061	4.63560	-2.12376
5275.498	-2.00923	1.17458	4.54624	-1.60996
5279.521	-1.93048	1.14323	4.55983	-1.72163
5283.498	-1.91157	0.75056	4.49635	-1.85807
5287.497	-1.95589	0.78344	4.46036	-1.65330
5291.500	-1.96499	0.58627	4.51216	-1.72946
5295.518	-1.96791	0.64411	4.60720	-2.56975
5299.499	-1.83635	-0.05032	4.32760	-2.37950
5303.498	-1.29397	0.48196	4.76739	-3.74879
5307.500	0.96958	0.80432	6.48240	-1.12739
5311.518	2.55824	-0.11712	7.62041	-3.34821
5315.499	4.86702	0.01557	11.57234	-0.37940
5319.500	5.34963	0.23326	10.31888	-1.31728
5323.499	7.95073	-0.38871	10.30389	-1.08061
5327.527	8.49743	-1.12661	15.13145	-0.98870
5331.490	8.99227	-1.18581	13.49882	-2.06666
5335.500	11.52741	-2.68607	18.84534	-1.06706
5339.499	11.63630	-3.11772	18.92917	-1.92683
5343.521	11.66242	-2.22083	18.64935	-1.11914
5347.499	11.57084	-2.39495	18.52570	-2.41920
5351.458	11.57812	-1.88704	19.17381	-2.72072
5355.499	11.65687	-2.50007	19.18851	-2.74199
5359.500	11.66330	-2.39561	19.06740	-2.65627
5363.503	11.61913	-2.09461	18.05418	-2.61268
5367.502	11.66915	-2.05132	17.71302	-2.45757
5371.499	11.56331	-2.00291	18.40553	-2.63541
5375.481	11.29200	-2.05827	18.50434	-2.75445
5379.507	11.52827	-2.05250	19.22737	-2.55552
5383.502	11.49371	-1.92538	19.59164	-2.74279
5387.501	11.56986	-1.99489	18.45661	-2.58867
5391.524	11.56443	-1.83302	18.90865	-2.43842
5395.500	11.38397	-1.88775	18.81275	-2.30522
5399.502	11.47395	-1.98669	18.43155	-0.95512
5403.502	11.21376	-2.30001	18.60641	-1.65537
5407.524	10.79662	-2.26225	18.49224	-1.53049
5411.502	11.28061	-2.61214	18.88330	-2.51504
5415.483	11.26903	-1.99934	18.77096	-2.72448
5419.500	11.39919	-2.53344	18.82498	-2.19308
5423.525	11.36047	-2.47377	19.07569	-3.57317
5427.460	11.38795	-2.32126	18.98675	-3.86333
5431.500	11.46981	-2.33371	19.27097	-3.42273
5435.502	11.49011	-2.46749	19.34941	-2.18948
5439.524	11.48256	-2.28041	19.96790	-2.36082
5443.505	11.41886	-2.47333	20.08390	-2.87464
5447.502	11.45786	-2.12593	19.34427	-3.20935
5451.500	11.47369	-2.05523	20.07744	-3.48570
5455.521	11.49202	-2.01100	19.77050	-3.42981
5459.501	11.57127	-2.08972	19.32630	-3.03017
5463.500	11.57355	-2.12189	19.00091	-3.25008
5467.500	11.58020	-2.07935	19.49148	-3.37766
5471.507	11.60158	-2.00173	19.00610	-3.49923
5475.502	11.58163	-2.08072	19.28019	-3.96972
5479.502	11.43588	-2.00068	19.49358	-4.13226
5483.501	11.44947	-1.93237	19.35662	-4.04395
5487.524	11.33948	-1.84869	19.18341	-4.20478
5491.502	11.35826	-1.75465	19.54816	-3.97376
5495.504	11.43979	-1.93506	19.04469	-3.40172
5499.503	11.33063	-1.74135	19.40511	-3.36499
5503.526	11.33898	-1.88449	19.01087	-3.51926
5507.460	11.32438	-1.94242	19.04043	-3.54866
5511.504	11.37975	-2.01187	19.66722	-3.86514
5515.501	11.37214	-1.96166	19.51342	-4.26764
5519.527	11.31939	-1.88302	19.73739	-3.60702
5523.504	11.49831	-1.98479	20.22606	-4.08304
5527.460	11.55616	-2.02365	20.07891	-4.12786
5531.504	11.62485	-2.07376	20.59143	-4.01287
5535.510	11.59615	-2.09061	19.82648	-3.28349
5539.504	11.56045	-2.04845	18.50519	-3.17172
5543.497	10.93641	0.58992	22.29877	-4.44819
5547.505	4.68008	13.36873	NaN	NaN
5551.490	NaN	NaN	NaN	NaN
5555.503	NaN	NaN	NaN	NaN
5559.503	NaN	NaN	NaN	NaN
5563.500	NaN	NaN	NaN	NaN
5567.503	NaN	NaN	NaN	NaN
5571.500	NaN	NaN	NaN	NaN
5575.505	NaN	NaN	NaN	NaN
5579.501	NaN	NaN	NaN	NaN
5583.469	NaN	NaN	NaN	NaN
5587.504	NaN	NaN	NaN	NaN
5591.504	NaN	NaN	NaN	NaN
5595.503	NaN	NaN	NaN	NaN
5599.500	NaN	NaN	NaN	NaN
5603.462	NaN	NaN	NaN	NaN
5607.543	NaN	NaN	NaN	NaN
5611.503	NaN	NaN	NaN	NaN
5615.503	NaN	NaN	NaN	NaN
5619.502	NaN	NaN	NaN	NaN
5623.503	NaN	NaN	NaN	NaN
5627.461	NaN	NaN	NaN	NaN
5631.507	NaN	NaN	NaN	NaN
5635.503	NaN	NaN	NaN	NaN
5639.462	NaN	NaN	NaN	NaN
5643.475	NaN	NaN	NaN	NaN
5647.506	NaN	NaN	NaN	NaN
5651.528	NaN	NaN	NaN	NaN
5655.508	NaN	NaN	NaN	NaN
5659.509	NaN	NaN	NaN	NaN
5663.505	-3.72230	13.46135	NaN	NaN
5667.506	NaN	NaN	NaN	NaN
5671.504	-2.22693	4.69921	NaN	NaN
5675.505	-2.36802	3.76153	-12.10727	6.34734
5679.506	-2.92260	0.89574	-12.16074	3.18714
5683.514	-4.64699	1.83771	-9.80445	10.57431
5687.508	-7.00221	0.82867	-12.23637	-4.34643
5691.505	-9.90084	1.03322	-3.99600	2.86394
5695.505	-9.68230	0.47522	-4.04942	-0.46490
5699.510	-9.79209	0.52381	-3.88824	-0.74223
5703.508	-9.68727	0.48254	-3.97474	-0.83177
5707.477	-9.67319	0.11082	-4.37631	-2.31393
5711.504	-9.69733	0.08350	-4.23293	-1.74731
5715.509	-9.71741	0.09400	-4.37512	-1.66096
5719.507	-9.73072	-0.13292	-4.43887	-3.41672
5723.506	-9.74989	0.08439	-4.21545	-4.74500
5727.505	-9.69769	-0.19186	-4.48017	-4.69204
5731.512	-9.66713	-0.52849	-4.38539	-5.26186
5735.506	-9.57020	-0.13570	-3.97091	-3.20872
5739.505	-9.35938	-0.54515	-4.21925	-3.11342
5743.508	-9.35150	-0.44476	-4.26487	-3.31817
5747.511	-9.21370	-0.02487	-4.40248	-3.47905
5751.505	-9.07895	-0.15871	-4.32195	-2.92286
5755.505	-8.80372	0.27621	-4.22296	-3.00742
5759.507	-8.85715	0.65514	-4.24645	-3.12719
5763.512	-8.70255	-0.04274	-4.13688	-3.05817
5767.506	-8.72161	0.64737	-4.14211	-2.99290
5771.508	-8.63381	0.04914	-4.23221	-2.77365
5775.506	-8.53972	0.55562	-4.40443	-2.87292
5779.512	-8.53438	0.60057	-4.08769	-2.70296
5783.512	-8.50382	0.73409	-4.13325	-2.39787
5787.508	-8.45502	0.48968	-4.11155	-2.69904
5791.474	-8.50569	0.41611	-4.01806	-2.58825
5795.512	-8.48959	0.48582	-4.06011	-2.72083
5799.507	-8.49974	0.68847	-3.98479	-2.67112
5803.508	-8.42190	0.67362	-3.94500	-2.66976
5807.506	-8.43370	0.43374	-3.97691	-2.77859
5811.409	-8.45118	0.65037	-4.05399	-3.31026
5815.510	-8.57888	0.36657	-4.01114	-3.85357
5819.509	-8.54780	0.32448	-3.98185	-5.23437
5823.508	-8.67044	0.52094	-4.15981	-4.95018
5827.513	-8.70107	0.16696	-4.14833	-4.92733
5831.490	-8.72835	0.11573	-4.20629	-3.89930
5835.508	-8.91628	-0.64045	-4.36772	-4.01324
5839.507	-9.90082	0.03344	-6.77198	-3.88020
5843.512	-9.86869	-1.60578	-7.94068	-3.86495
5847.465	-11.84606	-1.57310	-8.10270	-3.64943
5851.506	-12.77360	-1.63950	-8.57607	-4.41850
5855.506	-12.56578	-0.99024	-9.91006	-4.21541
5859.510	-12.71469	-1.69910	-10.12496	-3.13736
5863.508	-12.95694	-1.61319	-10.22123	-3.83465
5867.507	-12.90206	-1.50724	-10.46282	-3.65637
5871.506	-13.01595	-1.71257	-10.34110	-4.01033
5875.512	-13.07556	-2.02769	-10.39890	-4.04193
5879.508	-13.08774	-2.04292	-10.19459	-3.19795
5883.511	-13.17588	-2.06964	-10.11514	-3.06255
5887.508	-13.22415	-2.06819	-10.27775	-3.79589
5891.406	-13.42012	-2.15281	-10.15480	-3.70376
5895.508	-13.45482	-1.86096	-10.14970	-3.87478
5899.510	-13.57379	-2.33569	-10.22916	-3.25718
5903.508	-13.58648	-2.22166	-10.20027	-3.86251
5907.514	-13.54380	-1.76291	-10.21274	-3.74439
5911.506	-13.73570	-2.02100	-10.16906	-4.16413
5915.466	-13.73147	-1.66632	-10.13763	-3.94828
5919.466	-13.82759	-1.78024	-10.08558	-3.89479
5923.405	-13.81961	-1.54615	-10.18187	-4.33094
5927.507	-13.91095	-2.18087	-10.15059	-3.91808
5931.509	-13.82239	-1.49625	-10.24108	-4.13186
5935.507	-13.81907	-1.36448	-10.21279	-3.73660
5939.406	-13.77909	-1.34834	-10.15540	-3.69262
5943.508	-13.81537	-1.48723	-10.06374	-2.88953
5947.511	-13.78803	-1.32086	-9.92933	-3.53029
5951.509	-13.73128	-1.29213	-9.83619	-3.54473
5955.512	-13.58749	-1.30113	-9.68045	-3.24932
5959.498	-13.33530	-1.42081	-9.66412	-3.22902
5963.509	-13.15753	-1.36217	-9.68037	-3.09992
5967.508	-13.03006	-1.48155	-9.55915	-3.19052
5971.514	-13.11038	-1.88664	-9.52104	-3.04275
5975.507	-13.11031	-1.56574	-9.51623	-3.08116
5979.507	-13.11497	-2.18386	-9.49755	-2.95064
5983.468	-12.72286	-1.79359	-9.44725	-2.92871
5987.514	-12.70820	-2.09669	-9.42726	-2.94658
5991.511	-12.69117	-2.43992	-9.49344	-2.87570
5995.510	-12.65859	-2.07918	-9.58379	-2.97763
5999.481	-12.69334	-2.32422	-9.58313	-2.91242
6003.396	-12.70695	-2.31052	-9.63771	-2.97689
6007.512	-12.79501	-2.52454	-9.56984	-2.75154
6011.516	-12.83673	-2.58068	-9.75242	-3.10023
6015.509	-12.95614	-2.36205	-9.65700	-2.62654
6019.408	-12.94132	-2.43378	-9.67919	-2.50675
6023.510	-12.94212	-2.50285	-9.70439	-2.72704
6027.510	-13.10109	-2.42035	-9.73234	-2.34535
6031.511	-13.12288	-1.34937	-9.79585	-3.18473
6035.471	-13.14950	-2.24449	-9.71777	-2.23536
6039.510	-13.17861	-2.45366	-9.56525	-2.27211
6043.510	-12.94676	-2.00777	-9.27980	-1.55559
6047.510	-12.05699	-0.51655	-7.76966	-1.61257
6051.472	-9.72141	-0.63822	-6.34549	-0.21454
6055.511	-8.34286	-1.17631	-4.85780	0.15472
6059.511	-7.12579	-0.56133	-2.84108	0.16405
6063.512	-6.01481	-0.29180	-0.58503	-0.98082
6067.409	-3.67435	-0.37095	-0.79647	0.14257
6071.511	-2.67566	-0.30970	1.92071	-0.48686
6075.511	-3.21666	-0.15107	2.22872	-0.04867
6079.505	-3.17087	-0.11001	2.12783	-0.15820
6083.419	-3.32083	-0.06787	1.71228	-0.08736
6087.360	-3.45779	0.05469	1.66160	-0.12476
6091.387	-3.01368	0.32070	2.14711	-0.25991
6095.388	-3.01541	0.27931	2.64091	-0.19280
6099.412	-3.03650	0.27380	2.98985	0.07790
6103.347	-2.78718	0.33179	3.37116	0.27356
6107.389	-3.04360	0.43126	3.36250	0.25384
6111.399	-2.86230	0.39485	3.36995	-0.11800
6115.409	-2.94475	0.56473	3.46157	-0.01019
6119.388	-2.91478	0.57042	3.62610	-0.04895
6123.389	-2.85920	0.67289	3.52665	-0.15092
6127.373	-2.75663	0.63744	3.51246	0.02899
6131.385	-2.71146	0.32394	3.46273	-0.00933
6135.386	-2.75106	0.55341	3.49038	0.17417
6139.386	-2.66063	0.20210	3.41281	-0.23649
6143.385	-2.63693	0.13437	3.46115	-0.07334
6147.409	-2.71151	0.47159	3.40531	-0.14365
6151.386	-2.70000	-0.15762	3.31128	-0.61975
6155.387	-2.57756	-1.04701	3.33366	-0.88522
6159.389	-2.66565	-0.22052	3.26673	-1.18626
6163.412	-2.59950	-0.63866	3.17866	-1.45460
6167.386	-2.59046	-0.79384	2.90255	-1.22470
6171.354	-2.69193	-2.23072	3.05944	-2.13012
6175.387	-2.76136	-1.58961	3.02338	-2.83731
6179.409	-2.71401	-1.07369	2.99079	-3.67133
6183.387	-2.77661	-1.09291	2.85054	-3.08173
6187.346	-2.89616	-1.08181	2.57481	-1.21297
6191.386	-2.94745	-0.86749	2.48044	-1.36082
6195.410	-2.95235	-0.37134	2.54999	-1.30842
6199.388	-2.97193	-0.25198	2.59586	2.61589
6203.390	-3.04293	1.12369	2.48549	2.29382
6207.387	-3.04586	1.69855	2.53664	2.27638
6211.410	-3.04160	0.97731	2.58046	2.23094
6215.389	-3.05321	1.21366	2.37701	2.51584
6219.390	-3.08419	0.85277	2.40107	2.12930
6223.390	-3.09973	0.94555	2.55319	1.74001
6227.352	-3.15463	1.05392	2.53986	1.97494
6231.346	-3.19185	1.13680	2.61444	1.46721
6235.390	-3.01012	0.97942	2.67434	1.29108
6239.388	-3.09968	1.47527	2.74105	0.94774
6243.411	-3.05123	1.18653	2.60312	1.04714
6247.390	-2.89344	1.25231	2.59891	0.87390
6251.383	-2.79553	1.11520	2.69864	-0.52963
6255.347	-2.72734	1.25081	2.76116	0.62607
6259.381	-2.83108	1.09936	2.91428	0.59333
6263.390	-2.73895	1.19023	2.98955	0.38210
6267.388	-2.71449	1.27655	3.19588	0.24136
6271.391	-2.75811	1.32033	3.18507	0.31963
6275.411	-2.67070	1.35424	3.24744	0.28235
6279.390	-2.69279	1.38334	3.15978	0.24057
6283.388	-2.66602	1.43641	3.43509	0.12504
6287.391	-2.69567	1.44064	3.35400	-0.06971
6291.386	-2.71545	1.45771	3.39367	0.00310
6295.390	-2.77072	1.46181	3.38360	-0.01235
6299.390	-2.81325	1.39027	3.42403	-0.14106
6303.394	-2.85376	1.51669	3.41328	-0.81509
6307.390	-2.97282	1.59182	3.41605	-0.17860
6311.389	-2.93319	1.50166	3.32115	-0.23877
6315.390	-2.96864	1.60526	3.30336	-0.18988
6319.389	-2.99878	1.50695	3.26448	-0.40522
6323.395	-2.99428	1.26522	3.22438	-0.42052
6327.348	-3.10849	1.44178	3.20243	-0.59049
6331.392	-3.19949	1.23413	3.18531	-0.53004
6335.378	-3.20194	1.45395	3.14130	-0.57313
6339.412	-3.24271	1.39166	2.96473	-0.65454
6343.392	-3.18180	1.46528	2.87472	-0.95513
6347.389	-3.17485	1.69251	2.39852	-0.98840
6351.349	-3.21673	1.44408	1.30181	-0.70272
6355.413	-3.30868	1.65605	1.19120	-0.49786
6359.389	-3.65633	1.81554	0.87083	0.16550
6363.348	-3.66654	1.88590	0.95251	-0.60770
6367.392	-4.16626	1.92579	1.59321	-0.63989
6371.414	-4.03453	2.11557	1.58869	-0.21002
6375.391	-3.96693	1.90629	1.33986	-0.40271
6379.356	-4.20318	2.01652	1.39703	0.16748
6383.393	-4.11187	2.26520	1.83625	0.04550
6387.417	-4.32020	2.46550	1.85142	-0.01629
6391.349	-4.30457	2.40881	1.24659	0.72712
6395.391	-4.37145	2.54400	1.19832	0.63036
6399.391	-4.36103	2.50130	1.92748	-0.32526
6403.414	-4.37115	2.67319	1.98477	-0.39940
6407.391	-4.37793	2.40393	1.93313	0.15621
6411.393	-4.30976	2.58427	2.05692	0.00961
6415.393	-4.31978	2.59932	1.30990	-0.21740
6419.394	-4.28036	2.53291	1.45998	0.18859
6423.396	-4.27471	2.68965	1.64776	0.38420
6427.392	-4.22244	2.68610	1.86821	-0.18388
6431.392	-4.07752	2.34775	1.17508	-0.24640
6435.385	-4.08372	1.70322	0.73221	-2.06078
6439.392	-4.24697	1.97201	0.74796	0.13820
6443.391	-4.06693	0.19470	0.54205	-0.03193
6447.390	-4.03725	-0.39270	0.51458	-0.20606
6451.414	-4.06409	-1.18012	1.29593	-1.69490
6455.391	-3.95056	-1.66213	1.02119	1.04716
6459.387	-4.12935	-1.61635	0.65084	-1.31731
6463.385	-4.07700	-1.27403	0.83967	-0.46544
6467.417	-3.91131	-1.39079	0.57925	-0.50254
6471.390	-4.04715	-1.20403	0.55587	-0.06187
6475.394	-3.99558	-1.54159	0.57181	0.12290
6479.350	-4.01549	-1.32833	0.68709	1.25027
6483.465	-4.04542	0.15613	0.77161	1.14405
6487.394	-4.02482	0.69400	0.91326	1.98170
6491.390	-4.01381	0.77483	1.04952	0.26139
6495.391	-4.04137	0.87998	0.91505	1.48347
6499.420	-4.07167	0.79445	0.93423	1.26658
6503.367	-4.00551	0.92507	1.06902	1.14125
6507.394	-3.92877	0.93783	1.22901	0.63701
6511.394	-4.14722	1.59335	1.17505	1.32576
6515.416	-3.91012	1.15192	1.17969	1.21300
6519.392	-4.15616	1.22401	1.19820	1.26528
6523.392	-4.34524	1.45897	1.28574	1.23013
6527.394	-3.93203	1.26801	1.32503	0.41342
6531.398	-3.99151	1.67500	1.31535	1.00841
6535.393	-3.93685	2.01746	1.22968	0.29939
6539.396	-3.89026	1.53123	1.34388	-0.13651
6543.351	-3.68233	1.95532	1.28958	-0.25392
6547.385	-3.81259	1.97593	1.28993	0.09145
6551.352	-3.59130	1.72890	1.20762	-0.05297
6555.392	-3.51053	1.90711	1.20130	-0.67515
6559.393	-3.72630	2.00089	1.32007	-0.72161
6563.397	-4.33535	3.31440	1.34237	-0.71391
6567.393	-6.08281	5.64079	1.33492	2.35989
6571.393	-4.09611	13.81236	NaN	NaN
6575.394	NaN	NaN	NaN	NaN
6579.398	NaN	NaN	NaN	NaN
6583.394	NaN	NaN	NaN	NaN
6587.364	NaN	NaN	NaN	NaN
6591.393	NaN	NaN	NaN	NaN
6595.351	NaN	NaN	NaN	NaN
6599.391	NaN	NaN	NaN	NaN
6603.351	NaN	NaN	NaN	NaN
6607.392	NaN	NaN	NaN	NaN
6611.389	NaN	NaN	NaN	NaN
6615.393	NaN	NaN	NaN	NaN
6619.395	NaN	NaN	NaN	NaN
6623.394	NaN	NaN	NaN	NaN
6627.355	NaN	NaN	NaN	NaN
6631.396	NaN	NaN	NaN	NaN
6635.395	NaN	NaN	NaN	NaN
6639.393	NaN	NaN	NaN	NaN
6643.397	NaN	NaN	NaN	NaN
6647.352	NaN	NaN	NaN	NaN
6651.393	NaN	NaN	NaN	NaN
6655.395	NaN	NaN	NaN	NaN
6659.396	NaN	NaN	NaN	NaN
6663.386	NaN	NaN	NaN	NaN
6667.391	NaN	NaN	NaN	NaN
6671.400	NaN	NaN	NaN	NaN
6675.397	NaN	NaN	NaN	NaN
6679.398	NaN	NaN	NaN	NaN
6683.397	NaN	NaN	NaN	NaN
6687.403	NaN	NaN	NaN	NaN
6691.395	NaN	NaN	NaN	NaN
6695.395	NaN	NaN	NaN	NaN
6699.395	NaN	NaN	NaN	NaN
6703.396	NaN	NaN	NaN	NaN
6707.396	NaN	NaN	NaN	NaN
6711.368	NaN	NaN	2.04051	3.56979
6715.395	NaN	NaN	14.13150	0.32085
6719.397	-8.39149	13.11868	4.22145	4.43476
6723.397	5.50218	2.10019	12.92151	-2.88337
6727.395	-9.15778	13.39744	11.07957	-3.82146
6731.397	-3.67015	6.70819	4.14093	0.17232
6735.395	1.35730	2.97885	2.00267	-0.08118
6739.397	-3.86655	4.83898	3.87707	0.13928
6743.402	-3.94478	2.97701	2.27020	0.16253
6747.396	-3.85466	2.38603	1.93127	0.68728
6751.381	-3.94890	2.95121	1.95839	0.54453
6755.396	-3.80209	2.49602	2.15356	0.54849
6759.401	-3.90951	2.27774	2.20602	0.34969
6763.396	-3.77105	2.17467	2.21990	0.19872
6767.396	-3.76398	1.88205	2.82340	0.49647
6771.397	-3.59063	1.92748	2.36398	-0.02493
6775.404	-3.59604	1.88922	2.52874	0.38208
6779.397	-3.75914	1.83861	2.81318	0.28132
6783.400	-3.95940	1.56578	2.69854	0.29585
6787.401	-3.78966	1.90897	3.03811	-0.29680
6791.405	-3.87596	1.78925	2.98411	-0.62133
6795.399	-3.71617	1.49861	2.99136	-0.81337
6799.355	-3.73324	1.52883	2.91710	-0.57003
6803.396	-3.68092	1.70735	3.06407	-0.62942
6807.399	-3.75963	1.73982	3.09144	-0.77628
6811.396	-3.75615	1.78026	3.06194	-1.03653
6815.397	-3.72998	1.58796	3.10866	-0.86391
6819.398	-3.82210	1.66677	3.08513	-1.14602
6823.403	-3.78061	1.67857	3.07159	-0.90452
6827.400	-3.83920	1.98568	3.04939	-0.90181
6831.396	-3.78612	1.87472	2.94267	-0.34092
6835.377	-3.79176	2.05829	2.85158	-0.39545
6839.401	-3.61985	1.95982	2.78094	0.00675
6843.399	-3.64778	1.88802	2.85678	-0.19026
6847.396	-3.70287	2.00501	2.75940	-0.44261
6851.397	-3.66896	1.99656	2.66298	-0.24050
6855.400	-3.64635	2.00717	2.61466	-0.62269
6859.396	-3.73613	1.98760	2.52604	-0.22094
6863.399	-3.28810	2.10760	2.51547	-0.54979
6867.357	-3.67123	2.15112	2.41521	-0.61688
6871.296	-3.55592	2.00150	2.44856	-0.91468
6875.394	-3.24783	2.01180	2.43706	-0.47840
6879.398	-3.25439	2.02271	4.42834	-0.70427
6883.398	-2.33130	1.95102	3.13496	-1.14864
6887.406	0.23894	2.06127	4.50451	-0.23853
6891.400	0.54374	1.42390	8.23252	-1.14623
6895.401	0.34930	2.08399	7.84364	-1.30256
6899.399	1.22045	1.62192	8.42806	-0.90745
6903.414	2.13740	1.31348	8.86684	-0.96137
6907.397	2.46949	1.57095	9.46399	-0.54824
6911.399	2.17415	1.72014	9.22395	-0.64030
6915.398	2.05125	1.74697	9.16924	-0.33105
6919.360	2.14716	1.78842	9.15214	-0.83972
6923.397	2.21425	1.90405	8.80628	-0.08629
6927.357	2.12808	1.91453	8.97559	-0.23703
6931.398	2.22163	1.73500	9.65814	-0.77964
6935.359	2.25144	2.07101	9.78030	-1.00134
6939.398	2.34599	1.80983	9.93518	-1.01051
6943.397	2.49052	1.97824	9.85614	-0.66912
6947.399	2.38343	1.95506	10.62106	-1.09360
6951.402	2.39658	2.00467	10.07329	-0.79417
6955.398	2.51212	1.95084	10.92516	-0.65708
6959.387	2.68725	1.75527	10.85679	-0.43556
6963.399	2.65706	1.83321	10.61291	-0.39075
6967.403	2.60542	1.69763	10.51290	-0.24410
6971.398	2.59297	1.68415	10.54955	0.08667
6975.400	2.65327	1.93071	10.29385	0.28779
6979.402	2.74395	1.70706	9.87919	0.41724
6983.405	2.74776	1.62603	9.79129	0.15050
6987.401	2.62511	1.52792	9.62871	0.48926
6991.401	2.70488	1.31273	9.36141	0.29122
6995.400	2.66684	1.19524	9.23551	0.31679
6999.409	2.57885	0.93945	8.96850	0.23212
7003.363	2.60064	0.93006	9.95370	-0.75983
7007.402	2.60040	0.66862	9.68857	-0.69909
7011.398	2.53949	1.02562	9.61935	-1.60593
7015.297	2.56528	1.37068	9.56870	-1.86415
7019.399	2.49830	1.09599	9.65177	-2.17704
7023.399	2.49513	1.23416	10.47453	-2.29972
7027.401	2.52131	1.23225	12.09038	-2.59776
7031.407	2.53825	0.93608	11.47689	-2.15460
7035.400	2.45557	1.35718	10.71696	-1.70620
7039.359	2.36017	1.47039	11.18922	-1.05406
7043.361	2.40503	1.54770	10.37772	-0.87232
7047.403	2.36864	1.52462	10.43529	-1.32006
7051.400	2.21658	1.64306	9.92119	-0.92730
7055.400	2.31212	1.57636	10.16565	-0.55501
7059.400	2.39735	1.66984	9.77228	0.09144
7063.298	2.36693	1.93892	10.48245	-2.70113
7067.401	2.51881	1.63134	9.46807	-0.43925
7071.403	2.68752	1.58665	8.93772	-0.51602
7075.402	2.76596	1.46120	9.01155	-1.39011
7079.403	2.83615	1.46143	8.31380	-2.59656
7083.395	2.73511	1.50434	7.79244	-1.98326
7087.395	2.92186	1.35661	8.40728	-2.16645
7091.404	2.89663	1.32596	8.96174	-0.49027
7095.407	2.75821	1.40430	10.12779	-2.13654
7099.400	2.85413	1.51595	9.35063	-2.31537
7103.361	2.93297	1.12807	9.97770	-1.38490
7107.440	2.90168	1.24995	9.96573	-1.38847
7111.310	2.89062	1.31768	9.66709	-1.48086
7115.400	3.00052	1.04304	10.03260	-1.62872
7119.402	2.84167	0.95585	10.03205	-2.58132
7123.277	2.82744	0.53131	9.80561	-0.49378
7127.304	2.78433	0.70448	9.47254	-0.96635
7131.260	2.70612	0.15320	9.72534	-0.94168
7135.272	2.85106	-0.20016	10.23197	-1.71945
7139.267	2.76062	-0.45304	9.77457	-0.83132
7143.300	2.80375	-0.35032	9.92374	-1.48510
7147.276	2.80511	-0.56567	10.27542	-1.75545
7151.276	2.83813	-0.74214	9.91746	-2.57326
7155.277	2.81905	-0.61077	10.40312	-2.44956
7159.278	2.85393	-0.69150	9.99472	-1.95522
7163.278	2.98784	-0.76744	9.73615	-2.25172
7167.276	2.75123	-0.83503	9.48198	-2.08813
7171.276	2.90641	-1.19234	8.96411	-1.89465
7175.273	2.93401	-0.95046	9.05335	-1.95115
7179.277	3.11074	-1.21685	8.50598	-1.16837
7183.278	2.88799	-0.85202	9.47804	-1.25336
7187.277	3.14669	-0.92125	9.35740	-1.52361
7191.279	3.07130	-0.38584	9.51100	-0.53957
7195.277	2.84816	-0.09903	9.93068	-0.92346
7199.277	2.58965	-0.29475	9.71474	-1.75331
7203.277	2.80664	-0.20372	10.56644	-1.57009
7207.240	2.51430	0.02917	10.60152	-1.07501
7211.237	2.65315	0.11173	12.91027	-2.21122
7215.255	2.87398	-0.02886	12.22322	-3.21009
7219.278	2.64272	0.12853	10.51506	-2.55403
7223.299	2.87440	0.07813	9.58789	-2.67280
7227.236	2.82189	-0.00263	9.97597	-2.41779
7231.279	2.50818	0.08451	9.86143	-2.50939
7235.279	2.61209	-0.01437	9.98511	-2.75232
7239.300	2.77527	-0.14616	9.99142	-2.81037
7243.276	2.80446	-0.13487	9.85553	-2.72321
7247.280	2.92037	-0.17558	9.12868	-2.10210
7251.279	3.05481	-0.34642	9.26785	-2.69647
7255.292	3.14823	-0.38254	9.52821	-2.33857
7259.280	3.17777	0.11249	9.77703	-2.16249
7263.278	3.23093	-0.16985	9.88639	-2.34191
7267.281	2.77715	0.08491	9.84768	-2.26050
7271.303	2.71434	0.06238	11.14440	-2.53123
7275.278	3.04496	-0.30258	10.57167	-2.34092
7279.281	3.05949	0.26181	10.62945	-4.35943
7283.280	2.78386	0.12261	10.84446	-2.93713
7287.305	2.98940	0.48758	11.06270	-3.37635
7291.286	3.04828	0.49666	10.68072	-2.58523
7295.237	3.02984	0.38901	9.54843	-3.02697
7299.247	2.98784	0.16234	10.43373	-4.27656
7303.306	2.75106	0.34460	10.39412	-2.93292
7307.279	2.90715	0.22447	10.36874	-3.16159
7311.280	2.91809	0.18551	10.35440	-2.95884
7315.282	3.04229	0.45731	9.98466	-2.78340
7319.282	3.09946	0.72961	9.53547	-1.41972
7323.280	3.15122	0.59695	9.47046	0.09682
7327.281	3.12217	0.70577	9.83424	-1.21462
7331.281	2.99747	0.90965	9.69084	-1.37863
7335.275	2.95990	0.89162	9.68418	-0.64747
7339.265	3.02608	1.03267	9.68281	-0.21414
7343.280	2.90465	1.17057	9.77809	-1.25046
7347.279	2.72835	1.41575	10.06742	-1.17851
7351.303	2.63304	1.59287	10.31345	-1.34850
7355.278	2.67187	1.51251	10.62075	-2.48997
7359.282	2.48847	1.56093	10.73921	-3.15726
7363.280	2.63482	1.45565	10.72860	-2.97300
7367.306	2.58279	1.27988	11.05412	-3.36440
7371.279	2.63430	1.42055	11.21472	-3.60714
7375.280	2.58128	1.57076	11.05082	-1.91633
7379.278	2.35789	1.68455	10.80256	-1.48141
7383.304	2.27540	1.72087	8.95646	-1.57593
7387.281	1.70343	1.97517	7.37348	-1.17544
7391.286	0.68216	2.52606	7.09759	-0.24868
7395.283	0.43668	2.84745	7.00216	-0.45689
7399.304	0.33111	3.04577	7.00167	1.06888
7403.281	0.18159	3.12985	6.99113	1.84318
7407.281	0.19137	4.00976	6.86958	2.38650
7411.254	0.13913	3.29481	6.94164	2.40200
7415.307	0.10307	3.56814	6.70820	0.69547
7419.241	0.02134	3.17476	6.63685	0.61095
7423.262	0.03018	2.88483	6.40587	1.97277
7427.282	-0.16864	2.05178	6.73155	2.23687
7431.304	-0.14824	2.29870	4.29623	0.36871
7435.280	-0.18124	3.09752	4.62675	1.46724
7439.282	-0.06780	2.02357	5.14399	-0.34680
7443.280	-0.36251	2.98294	6.37121	-0.33230
7447.303	-0.07383	2.67061	6.40013	-0.35735
7451.280	-0.09535	2.65772	6.56346	-0.36009
7455.280	0.00035	2.39307	6.64888	-0.82980
7459.281	0.16176	2.52469	6.61046	-0.11930
7463.297	-0.00149	2.70964	6.89659	-0.05343
7467.271	-0.37010	2.86472	6.61406	2.79330
7471.281	-0.33652	3.00845	6.88778	0.67220
7475.282	-0.36625	3.67793	6.87621	1.01437
7479.244	-0.43100	4.02434	6.84906	1.44445
7483.282	-0.15069	3.17665	6.98089	-0.22921
7487.280	-0.00151	3.01259	9.64453	0.57443
7491.281	0.02549	3.03328	3.41617	2.42560
7495.307	-0.30270	3.41609	3.85451	0.75448
7499.283	-0.24688	3.31980	7.05599	2.42310
7503.284	-0.21380	3.18160	7.16356	2.04965
7507.250	-0.26063	2.72977	7.03056	2.28799
7511.306	-0.15389	2.87585	7.38781	2.70656
7515.285	-0.16126	2.32770	6.64031	2.92622
7519.282	-0.09329	2.33911	6.64418	2.76855
7523.284	-0.01541	2.29436	5.63031	2.71507
7527.306	0.00119	2.56262	5.54063	1.92415
7531.282	-0.15950	2.07970	5.75502	2.51301
7535.284	-0.21624	2.74232	5.45656	1.78530
7539.242	-0.15583	2.97147	5.59691	1.94156
7543.288	-0.54505	3.11751	5.53385	2.05888
7547.241	-0.68057	3.59383	5.96296	1.75328
7551.242	-0.56771	2.12829	5.60738	1.67636
7555.284	-0.32717	1.98891	5.77160	1.71612
7559.302	-0.42455	1.93638	5.69450	2.00883
7563.284	-0.60141	1.97380	5.75247	1.83197
7567.286	-0.49046	1.71369	5.64073	1.82941
7571.285	-0.50021	1.52962	5.97607	2.32185
7575.306	-0.40566	1.51886	5.71315	2.84372
7579.283	-0.44053	2.45365	6.06163	2.51450
7583.286	-0.38248	2.03127	6.14923	1.40654
7587.282	-0.27582	1.71481	6.32708	0.75741
7591.310	-0.30473	1.80961	6.52796	0.78908
7595.284	-0.23279	1.89633	6.21497	2.41895
7599.284	-0.16248	1.82971	6.66988	0.92871
7603.285	-0.26155	1.91419	6.89923	1.37362
7607.278	-0.32796	1.62691	5.98945	4.23452
7611.283	-1.24131	2.04835	6.49957	3.84405
7615.243	-1.59008	2.31166	3.09683	1.25655
7619.286	-2.91530	2.68061	3.44636	-2.39046
7623.289	-4.30156	2.64515	-0.39169	0.87381
7627.287	-3.07845	3.00130	-0.79352	2.84111
7631.259	-3.26641	2.85249	2.92812	1.41213
7635.288	-3.15268	3.09177	2.81907	1.02524
7639.291	-3.29159	2.86830	2.56176	3.33127
7643.287	-3.32404	2.83837	2.68430	0.89160
7647.284	-3.28197	3.14829	2.50620	3.81622
7651.286	-3.37952	3.20451	2.56587	1.70093
7655.289	-3.47250	3.40474	2.54838	4.01193
7659.285	-3.42703	3.26822	2.38472	4.85232
7663.287	-3.51342	3.19951	2.41556	2.53862
7667.247	-3.44723	3.30986	2.39480	2.47594
7671.291	-3.51174	3.54874	2.44541	3.42602
7675.260	-3.49211	3.36947	2.47103	2.72989
7679.284	-3.51683	3.53747	2.39054	3.46732
7683.285	-3.55891	3.71635	2.28455	5.34156
7687.291	-3.57466	3.56196	2.39116	4.53089
7691.284	-3.59500	3.38244	2.35883	3.06533
7695.288	-3.56900	3.41756	2.37974	2.61237
7699.286	-3.54870	3.34482	2.33180	2.57542
7703.289	-3.45405	3.41494	2.37572	2.50242
7707.288	-3.45391	3.49830	2.37662	3.03055
7711.286	-3.41694	3.24682	2.29587	2.71054
7715.258	-3.39320	3.24123	1.91774	2.72394
7719.290	-3.31761	3.33324	2.11301	2.63030
7723.288	-3.29923	3.16149	2.06927	2.63966
7727.287	-3.24489	3.10633	2.01843	3.01863
7731.245	-3.14729	3.43846	1.86313	2.69976
7735.292	-3.00638	3.25440	1.68746	2.88173
7739.286	-3.08312	3.22130	1.77462	2.59330
7743.289	-3.04548	3.37124	1.66157	2.50993
7747.286	-3.10992	3.31245	1.51420	2.81789
7751.295	-3.08607	3.32606	1.66443	2.97367
7755.269	-3.16753	3.22280	1.68144	2.92913
7759.282	-3.29463	3.19378	1.63965	3.54560
7763.287	-3.22688	3.30968	1.44158	3.30422
7767.292	-3.56979	3.51817	1.34358	4.33638
7771.245	-3.63416	3.13110	1.17972	3.31222
7775.288	-3.93025	3.00527	-1.40152	1.85188
7779.288	-3.76010	3.00209	-0.21688	1.24779
7783.293	-3.70823	3.17922	0.02958	1.36950
7787.245	-3.67744	3.22558	1.56092	-1.08495
7791.287	-3.64526	2.86894	1.63162	0.11245
7795.289	-3.79477	3.06027	1.36310	1.24651
7799.295	-3.95068	3.78299	1.86811	0.86331
7803.291	-3.51473	3.47586	2.07390	0.84016
7807.289	-3.27618	3.28447	2.20855	0.97104
7811.289	-3.25174	3.28853	2.27929	1.17995
7815.295	-3.36624	4.15290	2.23063	1.27890
7819.245	-3.51570	3.75639	2.11403	1.32913
7823.288	-3.49421	3.80199	2.12796	1.17216
7827.288	-3.37148	3.88202	2.17266	1.23459
7831.292	-3.48743	3.71007	2.00539	1.48315
7835.290	-3.46637	3.76962	2.22951	1.47909
7839.266	-3.46934	3.65071	2.20109	1.30816
7843.289	-3.37180	3.60861	2.11752	1.35489
7847.292	-3.46281	3.40986	1.84166	0.97791
7851.289	-3.83984	3.85485	1.75843	0.65675
7855.289	-3.89493	3.74886	1.99669	1.75048
7859.288	-4.22962	3.68821	1.66120	1.80319
7863.292	-4.49756	3.69116	1.72753	3.42345
7867.287	-4.56119	4.26331	1.54750	2.55537
7871.290	-4.84590	4.12245	1.57493	2.66877
7875.289	-4.95566	4.26713	1.56486	3.01058
7879.291	-5.09158	4.34109	1.49324	2.68138
7883.287	-4.97214	4.58080	1.37377	2.92140
7887.288	-4.97790	4.61023	1.38592	2.64046
7891.288	-5.03455	4.70261	1.41449	2.89233
7895.295	-4.97800	4.21472	1.29864	2.89760
7899.289	-4.92977	4.54744	1.33582	2.88378
7903.289	-4.25386	3.98738	1.32915	2.76062
7907.291	-4.00754	4.12245	1.27658	0.49757
7911.294	-4.38450	4.53148	1.26646	0.35625
7915.289	-4.12789	4.44221	1.26813	0.06462
7919.288	-3.91257	4.43468	1.40028	0.25602
7923.256	-3.79882	4.42403	1.41549	0.35992
7927.251	-3.83067	4.44743	1.54264	0.36020
7931.289	-3.82862	4.42309	2.06347	0.25585
7935.290	-3.57293	4.26046	1.61156	0.39345
7939.289	-3.59856	4.43472	1.45227	0.50685
7943.291	-3.50806	4.52786	1.61986	0.44253
7947.292	-3.49609	4.49299	1.70006	0.59617
7951.289	-3.50136	4.93564	1.58351	0.48002
7955.258	-3.46236	5.14999	1.66730	0.45849
7959.297	-3.42228	5.38733	2.03281	0.57659
7963.291	-3.41521	5.45387	1.76881	0.57464
7967.295	-3.37586	4.99111	1.81096	0.61146
7971.291	-3.34160	5.03501	1.82581	0.51895
7975.251	-3.27623	4.96539	1.71060	0.43389
7979.290	-3.25664	4.92370	1.79946	0.33927
7983.288	-3.28800	4.96033	1.67209	0.79272
7987.289	-3.36631	4.85334	1.71394	1.01714
7991.259	-3.28981	5.10697	1.84991	1.20229
7995.298	-3.45747	5.15777	1.95517	0.78552
7999.293	-3.40922	4.96679	1.94307	0.94560
8003.289	-3.41958	4.89009	1.89689	0.81905
8007.191	-3.48392	4.94769	1.94027	1.29919
8011.290	-3.52106	4.81845	1.98125	2.54843
8015.291	-3.56222	4.86310	1.87874	1.97982
8019.289	-3.72746	4.90030	1.93844	2.40782
8023.251	-3.99223	4.93222	1.86322	2.63268
8027.285	-4.06189	4.30884	1.94900	2.70382
8031.291	-3.94559	5.03248	2.01642	1.36736
8035.293	-3.55960	4.46429	2.05281	0.35002
8039.252	-3.55545	4.61825	2.00861	0.58608
8043.252	-3.63324	4.82202	1.90619	-0.11772
8047.267	-3.45346	4.60537	1.89367	-0.85048
8051.250	-3.55429	4.91834	2.05672	-0.49551
8055.298	-3.37959	4.68505	2.09638	-0.84693
8059.295	-3.45438	4.87893	1.97542	-0.56176
8063.292	-3.21540	4.57197	2.21660	-1.05359
8067.293	-3.24184	4.75664	2.18225	-0.23612
8071.297	-3.14580	4.56236	2.33177	-0.82919
8075.294	-3.19986	4.46584	2.38700	-1.64257
8079.293	-3.30084	4.37551	2.40761	-0.96978
8083.292	-3.29849	4.27419	2.42223	-2.24998
8087.283	-3.27932	4.14426	2.04465	-1.30596
8091.250	-3.34922	4.10808	2.21112	-1.92747
8095.299	-3.38899	4.06860	1.98943	-1.71771
8099.290	-3.61137	4.24918	1.99325	-1.75907
8103.191	-3.68517	4.11921	2.28531	-2.23991
8107.290	-3.69237	4.16795	2.00289	-1.64569
8111.294	-3.84026	4.00024	1.82487	-2.14187
8115.291	-3.75034	4.07199	1.80613	-2.33563
8119.190	-3.90760	4.10832	1.55722	-2.16861
8123.291	-3.80256	4.04110	1.68052	-2.07082
8127.251	-3.88527	4.06321	1.59115	-2.06660
8131.259	-3.80816	4.08664	1.81642	-2.24195
8135.298	-3.92949	3.98085	1.64273	-2.11678
8139.294	-3.89874	4.09965	1.53262	-1.26275
8143.292	-3.84807	3.90200	1.34244	-1.29215
8147.292	-3.67032	3.72187	1.21946	-0.93565
8151.189	-3.63011	3.74802	1.29144	-1.89554
8155.293	-3.54541	3.71273	1.30479	-1.69390
8159.169	-3.42252	3.87870	1.18448	-1.09215
8163.172	-3.42601	3.71179	1.21502	-1.15152
8167.189	-3.39624	3.64916	1.14201	-0.91558
8171.165	-3.36498	3.49192	1.09075	-1.09060
8175.175	-3.27388	3.40766	1.07832	-1.21142
8179.161	-3.25243	2.99726	1.09591	-1.31862
8183.161	-3.19674	3.49646	1.03826	-1.21432
8187.167	-3.11480	3.28904	1.11988	-1.37698
8191.169	-3.04128	3.23904	1.11489	-1.59957
8195.169	-2.97426	3.16752	1.27398	-1.78921
8199.170	-2.85742	2.96762	1.22625	-1.71575
8203.167	-2.85977	2.85907	1.17128	-1.90761
8207.167	-2.82335	2.84848	1.12948	-1.28935
8211.169	-2.70121	2.95680	1.21702	-1.87073
8215.170	-2.63314	2.74156	0.90825	-1.60913
8219.139	-2.61845	2.58247	1.10199	-1.54275
8223.167	-2.57600	2.36216	0.95934	-1.62157
8227.127	-2.72734	2.38509	1.04200	-1.37960
8231.170	-2.53937	2.22425	1.03861	-1.04544
8235.127	-2.78765	2.72764	0.95735	-1.08116
8239.169	-2.48453	2.44822	0.75310	-1.14239
8243.167	-2.32503	2.47549	1.38788	-1.17304
8247.163	-2.41056	2.90643	0.88155	-0.92867
8251.170	-2.64086	3.14652	0.98179	-0.98351
8255.172	-2.90903	3.08561	1.06468	-0.85547
8259.156	-2.36549	3.55136	1.31121	-0.84027
8263.163	-2.96757	3.48208	1.12804	0.09048
8267.170	-2.69661	3.32136	1.30546	-0.82378
8271.171	-3.24382	3.53918	1.33542	0.63442
8275.170	-3.22346	3.65034	1.57424	-0.61538
8279.168	-3.36923	4.07577	1.43414	-0.61003
8283.170	-3.35026	4.17994	1.61158	-0.26414
8287.170	-3.37005	3.93439	1.59360	-0.04809
8291.171	-3.45697	4.38134	1.55742	-0.02491
8295.130	-3.66006	3.93179	1.57186	0.04446
8299.127	-3.58007	4.19876	1.45271	-0.21612
8303.168	-3.53627	4.53369	1.46144	-0.17053
8307.169	-3.58151	4.72499	1.63502	-0.19476
8311.171	-3.71992	4.35331	1.56645	-0.27843
8315.171	-3.68312	4.22260	1.53146	-0.44784
8319.170	-3.70025	4.49480	1.48979	-0.58123
8323.171	-3.64328	4.60457	1.64918	-0.46192
8327.171	-3.64323	4.31917	1.59794	-0.46762
8331.171	-3.73764	3.96276	1.42952	-0.35575
8335.173	-3.75949	3.85740	1.82219	-0.48353
8339.170	-3.72776	3.30721	1.93036	0.00174
8343.132	-3.75202	3.59218	1.92572	-0.58487
8347.171	-3.83339	3.86727	1.87408	-0.17328
8351.170	-3.76623	4.14575	1.94025	0.98657
8355.129	-3.68389	3.75688	1.91186	0.62525
8359.164	-3.66562	2.85398	1.97850	0.20426
8363.129	-3.68162	3.68081	1.98764	0.67268
8367.172	-3.70346	2.81188	2.15095	0.47763
8371.171	-3.75630	3.78089	2.12962	0.12515
8375.172	-3.74184	3.44072	2.03519	0.66888
8379.173	-3.80856	3.44181	2.02428	0.26604
8383.167	-3.73517	3.58002	2.29860	0.52825
8387.166	-3.76841	3.35008	1.97585	-0.02359
8391.170	-3.75395	3.57177	1.93760	0.14454
8395.171	-3.75279	3.32266	1.84565	0.08258
8399.174	-3.84787	3.24715	1.92555	0.14886
8403.169	-3.88376	3.41172	2.04882	0.13867
8407.171	-3.87490	3.39327	1.73157	0.12133
8411.169	-3.90461	3.37253	1.77209	0.15379
8415.171	-3.87966	3.25506	1.83060	0.02158
8419.173	-3.90689	3.22985	1.88574	0.09428
8423.194	-3.85876	3.31647	1.67504	0.13294
8427.143	-3.92052	3.23241	1.59779	0.17974
8431.130	-4.13209	3.23938	2.08580	0.08915
8435.174	-4.17638	3.18492	1.73311	0.17044
8439.134	-4.17129	3.25518	1.56818	0.39726
8443.171	-3.97699	3.19826	1.31325	0.56977
8447.173	-3.99951	3.18256	1.27281	0.23842
8451.171	-3.94638	2.79694	1.44088	1.26231
8455.194	-3.32075	2.98424	1.31788	0.76270
8459.171	-3.80762	2.90447	1.27294	1.19177
8463.172	-3.27331	2.75976	1.03841	1.17697
8467.161	-2.94616	2.74400	1.52201	0.78824
8471.173	-3.26468	2.95895	1.18554	0.21015
8475.173	-3.29688	3.02496	1.17748	-1.19984
8479.172	-3.14669	3.00781	0.98457	-1.49695
8483.131	-2.96242	3.15533	1.25632	-1.24226
8487.165	-2.80097	2.99833	1.11539	-0.82960
8491.173	-2.78414	3.22362	1.04811	-0.99286
8495.174	-2.68314	2.95672	0.99181	-0.97968
8499.179	-2.69619	3.36875	0.98033	-0.26269
8503.172	-2.68435	3.25761	1.00521	-0.61711
8507.172	-2.68019	3.27321	0.89322	-0.28670
8511.138	-2.65986	3.39878	0.88555	-0.74147
8515.173	-2.66105	3.46828	0.57749	-0.35599
8519.168	-2.76859	3.57398	0.39683	-0.55801
8523.172	-2.64658	3.50018	0.83357	-0.73097
8527.175	-2.85281	3.50996	0.09284	-0.88088
8531.176	-2.85291	3.61913	0.59868	-0.95029
8535.134	-2.94594	3.55021	0.53066	-0.99390
8539.175	-2.78077	3.46878	0.51696	-1.28582
8543.172	-2.98836	3.42404	0.61622	-1.54930
8547.175	-3.13331	3.62073	0.15955	-1.70067
8551.136	-2.84237	3.59840	0.34886	-1.50032
8555.172	-2.87032	3.58452	0.37214	-1.55909
8559.176	-2.96416	3.56526	0.26972	-1.69226
8563.175	-2.83643	3.52024	0.02946	-1.54472
8567.147	-2.93389	3.51319	0.38874	-1.64060
8571.177	-2.94854	3.62206	0.32655	-1.58532
8575.174	-2.83841	3.92466	0.42820	-1.65780
8579.174	-2.78389	3.79159	0.40522	-1.61868
8583.167	-3.02336	4.54644	0.23634	-1.62046
8587.177	-2.86574	4.32875	0.34598	-1.61255
8591.172	-2.89755	4.39123	0.89790	-1.51471
8595.167	-2.92864	4.46638	0.95921	-1.46021
8599.171	-2.95423	4.37979	0.77878	-1.34799
8603.132	-2.90609	4.66690	1.08919	-1.14241
8607.174	-3.06357	4.30857	0.56749	-0.67852
8611.173	-2.99977	4.04510	1.34978	0.28134
8615.136	-3.06107	4.24812	0.75032	0.40145
8619.174	-3.11601	4.83517	0.93249	1.09472
8623.177	-3.06422	3.99780	-0.08592	2.09770
8627.176	-2.99143	3.82831	0.46043	1.85607
8631.169	-2.87928	3.47415	0.93299	-1.24801
8635.135	-2.83405	3.52752	0.84424	-3.02175
