time (ms)	lx (deg)	ly (deg)	rx (deg)	ry (deg)
0.000	-1.85080	1.68041	2.02815	-0.42132
4.039	-1.90272	1.61599	2.36624	-0.48525
7.923	-1.85789	1.73298	2.54350	-0.50564
12.037	-1.78922	1.53345	2.69188	-0.37336
16.039	-1.98246	1.68313	2.46957	-0.45960
20.040	-1.99798	1.77273	2.18974	-0.37946
23.936	-2.02054	1.80633	2.26787	-0.50537
28.038	-2.01979	1.77472	2.03419	-0.36855
32.038	-2.10364	1.73476	2.04319	-0.47033
36.017	-2.04255	1.86626	2.03903	-0.42144
39.927	-2.18944	1.77852	1.84885	-0.70236
44.038	-2.23700	1.72761	1.94900	-0.61196
48.040	-2.01880	1.83307	1.82509	-0.31751
51.998	-2.09965	2.84993	2.11616	-0.25463
55.935	-2.03288	3.30995	1.64479	-0.53658
59.916	-2.28269	4.25251	1.52863	0.31624
63.914	-2.48936	4.06152	1.69369	-0.42152
67.913	-2.27392	4.58027	1.78694	-1.33984
72.044	-2.41844	4.21469	1.97701	-1.23686
75.919	-2.43724	4.42535	1.61600	-1.70375
79.915	-2.49416	4.69521	2.24408	-1.10024
83.881	-2.60064	4.58750	1.95416	-1.11717
88.046	-3.09837	3.46186	1.58391	-1.81607
91.914	-3.12922	3.39088	1.67412	-1.01428
95.914	-3.90592	2.96600	1.77442	-1.60253
99.915	-3.71908	3.39900	2.15646	-0.87125
103.935	-3.68908	2.39262	1.83449	-1.60394
107.916	-3.49663	2.88543	2.04443	-1.30040
111.913	-3.50499	2.78473	2.45743	-1.60569
115.916	-3.79023	2.74078	2.59324	-2.03216
120.046	-3.65505	2.94373	2.12699	-1.30274
123.894	-3.47559	3.02655	1.66133	-1.57142
127.915	-3.63772	2.77585	2.04163	-1.46160
131.915	-3.86823	3.18153	1.70958	-1.27262
135.876	-3.85852	2.89443	1.80469	-1.34511
139.914	-3.96802	2.83893	1.72852	-1.31928
143.915	-3.88431	2.72722	2.08320	-1.08588
147.915	-3.99961	2.72546	1.68228	-1.15265
151.912	-4.10685	2.80119	1.55388	-1.07949
155.918	-4.09140	2.82649	1.12926	-0.81012
159.917	-4.25139	2.89990	1.21345	-0.23360
163.909	-1.49465	2.89639	1.72813	0.20384
167.935	-1.89183	2.87080	1.44760	0.89945
171.907	-1.74558	2.87507	1.46167	1.18229
175.874	-1.60045	2.90479	1.48932	1.44324
179.916	-1.91997	2.81311	0.83121	0.83233
183.920	-2.00331	2.77033	1.36060	1.14162
187.915	-2.11737	2.95232	1.06416	1.12866
191.920	-2.14895	2.97620	0.75831	0.07352
195.915	-2.14037	3.00874	0.83582	1.36359
199.919	-2.12642	2.95366	0.29371	0.99696
203.873	-2.23174	3.00150	0.53704	0.97388
207.897	-2.57679	2.92208	0.53830	0.43878
211.915	-2.34827	2.92112	0.56587	0.65715
215.917	-2.48188	2.71330	0.62446	0.38889
219.917	-2.49352	2.83134	0.32171	0.29694
223.887	-2.50751	2.84894	0.34546	0.79354
227.916	-2.61521	2.93143	0.35566	0.77573
231.920	-2.61072	2.90339	0.34576	0.44908
235.874	-2.57573	2.95331	0.23331	0.41872
239.915	-2.62719	3.16665	0.07458	0.27128
243.921	-2.62491	3.07818	0.04705	0.27302
247.878	-2.69262	3.15935	-0.13975	0.17491
251.919	-2.67761	3.19918	0.72754	0.20124
255.919	-2.71134	3.16225	0.06386	0.16343
259.917	-2.82192	3.10202	0.00449	0.21711
263.911	-2.82120	2.98301	0.28396	-0.00370
267.876	-2.80575	3.09784	-0.12220	0.12462
271.917	-2.83378	3.09732	0.20013	-0.09897
275.918	-2.81387	3.03453	0.65171	0.03956
279.918	-2.80585	3.04824	-0.14695	-0.20292
283.918	-2.79803	3.09169	0.72531	-0.09830
287.918	-2.79954	3.04063	0.41365	-0.29835
291.884	-2.86351	3.02747	0.09982	-0.36267
295.918	-2.88232	3.14841	0.30627	-0.73742
299.875	-2.91393	3.16940	0.19075	-0.96688
303.919	-3.00022	3.21776	0.13121	-0.69880
307.920	-2.94413	3.25290	-0.10825	-0.63944
311.920	-2.87009	3.27528	0.40921	-0.94846
315.917	-2.97245	3.30951	0.40544	-0.64320
319.920	-2.73016	3.41209	-0.04356	-1.09561
323.921	-2.82878	3.14625	0.25885	-0.89166
327.912	-2.83039	3.09470	0.13009	-0.82655
331.901	-2.84162	3.35350	0.33906	-0.61926
335.921	-2.62987	3.19886	0.41011	-0.57811
339.917	-2.63633	3.07743	0.33151	-0.32586
343.911	-2.42839	3.13820	0.41958	0.16519
347.918	-2.51631	3.05002	0.40961	0.20813
351.917	-2.50558	2.98947	0.55252	0.85041
355.916	-2.45126	3.15557	0.62945	1.26476
359.910	-2.42651	3.03042	0.48376	1.79927
363.922	-2.44888	2.90907	0.58315	1.51326
367.919	-2.46208	3.06891	0.61928	1.99652
371.918	-2.34964	3.12189	0.55121	2.39961
375.921	-2.30417	3.06099	0.56863	1.91797
379.920	-2.38244	2.94128	0.63481	2.45020
383.918	-2.29386	2.93515	0.69094	2.64280
387.921	-2.35808	2.89879	0.68754	2.83610
391.914	-2.23083	2.91200	0.65724	3.21257
395.923	-2.25290	2.92677	0.78920	3.03094
399.921	-2.17361	2.79488	0.69332	2.96147
403.919	-2.02716	2.79276	0.62980	2.98627
407.940	-2.25035	2.64633	0.65518	3.19560
411.922	-2.04540	2.68470	0.69173	2.92539
415.900	-2.10828	2.55831	0.80868	3.00444
419.920	-2.07762	2.47402	0.81898	2.83514
423.914	-1.98256	2.24414	0.74399	2.47898
427.917	-1.92500	2.11812	0.77250	2.28485
431.919	-1.94798	2.04596	0.87845	2.45529
435.916	-1.90644	2.04775	0.87103	2.10334
439.920	-1.86256	1.80468	0.54245	2.68949
443.919	-1.80566	1.87997	0.32193	2.19126
447.919	-1.81518	1.68024	0.05800	2.34083
451.923	-1.89885	1.74185	0.79962	2.41224
455.912	-1.80486	1.65017	0.67898	2.46305
459.919	-1.81823	1.59849	0.45733	2.54330
463.923	-1.73824	1.63584	0.63039	2.78878
467.920	-1.76988	1.81282	0.50299	2.98534
471.922	-1.79762	1.90402	0.83689	2.90757
475.923	-1.73814	2.37772	0.96150	3.26439
479.922	-1.72280	2.20722	0.79674	3.44789
483.919	-1.69676	2.61281	0.88376	2.71986
487.914	-1.74221	2.76896	1.04558	2.81573
491.920	-1.64947	3.24156	0.84540	2.16268
495.921	-1.64670	3.73823	1.06438	-0.71671
499.887	-1.72508	3.46686	1.40884	-0.19376
503.921	-1.77888	3.12509	1.27653	-0.48388
507.921	-1.75406	3.67498	1.24024	-0.10047
511.924	-1.85271	3.39507	1.45983	-0.39402
515.923	-1.96234	3.49386	1.23809	-0.12074
519.922	-1.85693	3.28138	1.21933	1.29472
523.921	-2.03672	3.33110	0.96480	0.66124
527.925	-2.10035	3.32765	1.42967	0.03977
531.922	-1.88688	3.12983	1.18180	1.64089
535.917	-1.97059	2.97077	0.91438	2.04793
539.922	-1.83449	3.28726	1.32022	2.95669
543.879	-1.97753	3.24162	1.12573	3.14083
547.922	-2.03533	3.35598	1.40564	2.91137
551.922	-2.24582	3.34008	1.62473	2.78850
555.923	-2.52713	3.49405	1.82202	3.00523
559.921	-2.33095	3.39953	1.73242	2.95511
563.888	-2.36797	3.49417	1.15530	2.44908
567.916	-2.51648	3.60489	0.81846	2.37906
571.921	-2.51591	3.78593	0.52113	0.08868
575.922	-2.42106	3.86982	0.54121	0.83829
579.918	-2.36153	3.95386	0.80898	1.10412
583.924	-2.39121	3.95350	0.27892	0.65740
587.922	-2.35796	3.66486	0.46674	-0.16703
591.922	-2.25010	4.02247	0.50336	-1.52249
595.923	-2.03234	3.97836	0.25098	-0.41350
599.930	-1.98288	3.84374	1.13310	-0.17935
603.924	-2.06490	3.99347	0.80736	0.95571
607.925	-3.45556	2.05056	1.42126	0.73862
611.925	-2.77475	2.97874	0.63317	1.30356
615.915	-2.38212	2.61155	1.27867	1.48485
619.922	-2.19522	3.14317	0.47865	2.85395
623.901	-2.66729	2.48627	0.96983	2.95361
627.924	-2.22488	3.03085	1.44232	2.69902
631.930	-1.97176	2.62007	1.09763	2.08282
635.921	-1.65173	2.59701	1.44818	1.93489
639.923	-1.93931	2.64807	0.88222	1.72617
643.922	-2.47967	2.92842	1.47285	1.63667
647.918	-2.54796	2.89194	1.16518	1.39407
651.924	-2.47789	2.87563	0.79141	1.27716
655.923	-2.32374	2.79365	0.63000	1.29849
659.924	-2.23026	2.88634	0.79203	1.44794
663.889	-2.18369	2.75745	0.59119	1.81517
667.915	-2.25774	2.91316	0.64563	1.37060
671.881	-2.11487	2.88352	0.46470	1.67241
675.925	-2.07747	2.89926	0.23601	1.57465
679.921	-2.18679	2.88477	0.00186	1.69099
683.924	-2.05521	2.94347	0.15881	2.22111
687.882	-1.93551	3.08445	0.27078	2.38608
691.926	-1.73227	2.96510	0.16226	2.60415
695.920	-1.61810	2.30957	0.31079	2.10943
699.921	-1.41402	1.56548	0.26004	1.88940
703.927	-1.38041	1.35709	0.18474	-1.07499
707.890	-1.18676	1.21317	0.78471	-1.61228
711.919	-0.98057	1.01518	0.76744	-1.13593
715.923	-1.25533	1.15721	1.05170	-0.94840
719.924	-1.44411	1.01173	0.70310	-0.56841
723.924	-1.11544	0.99914	0.92224	-0.60495
727.926	-1.26656	1.05795	1.27331	-0.86291
731.927	-1.49870	1.10480	0.75057	-0.79302
735.886	-1.51806	1.07537	1.21323	-1.03283
739.925	-1.73167	1.08047	1.27090	-0.63861
743.931	-1.57872	0.94581	1.24389	-0.10663
747.925	-2.20770	1.16527	1.32513	3.47666
751.920	-3.59960	2.85424	1.18706	3.11153
755.927	-2.06032	3.22875	1.30938	2.83046
759.828	-1.86070	3.09011	1.08897	1.57977
763.923	-1.28817	3.25887	1.44964	0.48973
767.926	-1.49041	2.68285	1.10256	-0.04584
771.927	-2.05933	2.43461	1.21430	-0.35769
775.918	-1.72617	2.05175	1.24582	-1.26983
779.924	-1.68508	1.94343	1.03565	0.07429
783.928	-2.17316	1.99297	1.16267	-0.28277
787.924	-1.45643	1.63470	1.10795	0.91788
791.824	-1.68741	1.34403	1.18110	0.35357
795.927	-1.86104	1.70630	1.13789	0.84042
799.928	-1.86109	1.72797	1.09505	0.92250
803.924	-1.85229	1.61184	1.20859	0.18099
807.887	-1.83266	1.62836	0.66623	0.01970
811.925	-1.87956	1.67589	1.08855	-0.39319
815.884	-1.96424	1.61635	1.25086	-0.04432
819.930	-1.97998	1.77856	1.09641	-0.24489
823.824	-2.11908	2.73737	0.86118	0.21077
827.925	-1.93256	3.16983	0.56602	0.13428
831.901	-2.08724	3.08342	0.62407	0.64094
835.928	-2.11670	3.53130	0.20455	0.34893
839.932	-2.26066	3.72025	0.99596	0.13725
843.926	-2.30764	3.67110	1.03315	0.44122
847.928	-2.43228	2.95858	0.61411	0.36068
851.927	-0.63421	3.76572	1.00551	0.70440
855.826	-3.01796	6.39329	1.59579	4.36967
859.925	-8.76607	7.52352	13.06457	3.61995
863.885	4.67384	4.65808	5.69401	5.77816
867.929	NaN	NaN	NaN	NaN
871.929	NaN	NaN	NaN	NaN
875.917	NaN	NaN	NaN	NaN
879.929	NaN	NaN	NaN	NaN
883.924	NaN	NaN	NaN	NaN
887.924	NaN	NaN	NaN	NaN
891.924	NaN	NaN	NaN	NaN
895.885	NaN	NaN	NaN	NaN
899.925	NaN	NaN	NaN	NaN
903.926	NaN	NaN	NaN	NaN
907.924	NaN	NaN	NaN	NaN
911.926	NaN	NaN	NaN	NaN
915.892	NaN	NaN	NaN	NaN
919.925	NaN	NaN	NaN	NaN
923.925	NaN	NaN	NaN	NaN
927.884	NaN	NaN	NaN	NaN
931.927	NaN	NaN	NaN	NaN
935.937	NaN	NaN	NaN	NaN
939.930	NaN	NaN	NaN	NaN
943.926	NaN	NaN	NaN	NaN
947.885	NaN	NaN	NaN	NaN
951.885	NaN	NaN	NaN	NaN
955.935	NaN	NaN	NaN	NaN
959.927	NaN	NaN	NaN	NaN
963.886	NaN	NaN	NaN	NaN
967.927	NaN	NaN	6.45625	0.79682
971.826	NaN	NaN	6.44986	-2.22675
975.935	NaN	NaN	5.45484	-1.35784
979.926	14.54216	-3.06245	4.45624	-3.02922
983.928	11.37767	0.05196	4.50952	-1.53143
987.824	-1.64260	-3.65201	6.75027	-3.86733
991.886	-3.46679	-2.70526	4.79378	-1.21960
995.926	-1.20152	-2.26943	5.42319	0.49626
999.902	-1.57101	3.56396	11.87639	0.80205
1003.935	9.27513	3.48870	-1.63613	-1.33046
1007.928	10.71027	3.89743	7.79495	-0.27606
1011.930	6.44353	3.95522	6.05170	-1.44460
1015.930	2.32694	3.28985	4.00712	-1.43819
1019.825	4.12606	1.59469	14.14523	-1.61750
1023.931	4.05061	2.36686	6.51927	-1.48204
1027.931	3.87776	-0.06109	11.06810	-1.76299
1031.930	3.39000	-0.31453	9.72134	-1.60902
1035.829	3.67358	-1.24792	10.56560	-2.87238
1039.931	3.18611	-0.73872	9.32615	-3.37570
1043.929	3.10074	-1.05604	7.02981	-1.77061
1047.930	2.89666	-0.39122	8.01387	-1.65297
1051.828	3.14508	-0.07208	8.04616	-1.78124
1055.887	2.86631	0.00117	7.22485	-1.73774
1059.933	2.92983	-0.01648	6.81405	-1.50208
1063.933	2.66011	0.07616	7.03225	-0.10052
1067.829	2.12620	0.29346	6.90975	-0.04142
1071.931	2.15871	0.15450	6.71485	-0.09109
1075.931	1.84190	0.35309	6.13449	0.42653
1079.921	2.17457	0.32655	7.14866	0.04413
1083.828	1.80286	0.39185	6.69211	0.21967
1087.887	1.65528	0.34302	5.85846	0.40331
1091.928	1.65027	0.38015	6.39494	0.27934
1095.806	1.70100	0.38747	6.44520	0.35514
1099.798	1.60305	0.29231	5.99478	0.49934
1103.804	1.79053	0.21308	5.88135	0.17315
1107.808	1.67608	0.13202	5.93546	0.01609
1111.805	1.14977	0.03433	5.66425	-0.19495
1115.809	-1.18239	0.18193	0.85339	0.38964
1119.806	-2.21494	0.38169	1.08006	-0.15883
1123.763	-5.06176	1.07133	-3.01537	0.05702
1127.806	-5.03149	0.02139	-2.79137	-0.82545
1131.779	-8.60414	0.52000	-4.35681	-2.07496
1135.807	-7.66000	0.25878	-5.16206	-1.82982
1139.807	-10.74707	0.21298	-6.87658	-1.41801
1143.806	-9.48787	0.21458	-8.08776	-1.84962
1147.831	-7.93768	0.31300	-8.01995	-2.56608
1151.808	-7.83636	0.12089	-7.61731	-1.80418
1155.763	-9.38714	0.13621	-7.80238	-2.19303
1159.803	-9.84467	-1.18947	-7.74649	-2.32003
1163.833	-9.44950	0.09202	-7.72617	-2.42646
1167.802	-9.78698	-0.49478	-7.79429	-4.86588
1171.764	-9.65799	-0.24291	-7.88972	-5.17070
1175.764	-9.60709	-0.35530	-7.85826	-4.08309
1179.829	-9.68471	-0.16262	-7.79135	-3.56214
1183.806	-9.61592	-0.06172	-7.89086	-3.77284
1187.807	-9.62847	0.20339	-7.67248	-4.90334
1191.806	-9.68693	0.16833	-7.59400	-4.37598
1195.768	-9.63501	0.69041	-7.63876	-4.17557
1199.806	-9.69754	0.62178	-7.70363	-4.13229
1203.806	-9.68221	1.14262	-7.68676	-4.77410
1207.806	-9.68664	1.44284	-7.60775	-4.21215
1211.807	-9.69921	1.58771	-7.44821	-3.83271
1215.806	-9.72002	1.44299	-7.48585	-3.76243
1219.805	-9.67258	1.64780	-7.34126	-1.54785
1223.811	-9.67010	1.50188	-7.34777	-2.93493
1227.830	-9.70637	1.42111	-7.31418	-2.29707
1231.809	-9.69660	1.50215	-7.09473	-1.88191
1235.806	-9.61054	1.54474	-7.07329	-1.70277
1239.809	-9.53159	1.63979	-7.20917	-1.83977
1243.831	-9.54865	1.64941	-6.79124	-0.82075
1247.808	-9.35479	-0.44498	-6.35528	-1.34272
1251.791	-9.47116	1.44458	-6.63994	-1.80431
1255.804	-9.41453	0.52004	-6.47600	-0.99372
1259.828	-9.39798	-0.25376	-6.61673	-1.81475
1263.806	-9.50351	1.40305	-6.63519	-1.55246
1267.815	-9.50728	0.87175	-6.61553	-1.29200
1271.808	-9.45462	-0.67220	-6.60267	-1.78770
1275.810	-9.38146	-0.70526	-6.61217	-1.68012
1279.810	-9.23152	-0.99836	-6.66910	-2.51383
1283.811	-9.26222	-1.96686	-6.78931	-3.50218
1287.809	-9.17827	-2.05999	-6.79719	-3.75363
1291.800	-9.23193	-1.54112	-6.90507	-3.73228
1295.766	-9.35447	-1.57113	-7.08001	-3.60892
1299.809	-9.30394	-1.42261	-6.94787	-3.89205
1303.807	-9.50279	-1.15217	-6.92212	-3.78802
1307.829	-9.63452	-0.97767	-7.04306	-3.76352
1311.806	-9.63378	-0.88656	-7.00164	-3.26991
1315.812	-9.87006	-0.37143	-7.13588	-3.63953
1319.808	-10.14275	-0.26508	-7.08627	-2.65290
1323.831	-9.93244	-0.30299	-6.97198	-2.70167
1327.809	-9.93814	0.33960	-6.18034	-1.99072
1331.809	-9.81954	0.69916	-7.66836	-4.17575
1335.788	-9.87107	1.04098	-8.27287	-3.78414
1339.832	-9.72739	0.85186	-8.61239	-3.75871
1343.807	-9.69429	0.77963	-9.53692	-3.24271
1347.808	-9.62967	0.08582	-6.33343	-2.24716
1351.810	-9.52507	-0.26070	-6.27780	-3.52458
1355.834	-9.72903	-0.03221	-6.36731	-3.70027
1359.807	-9.53617	-0.18546	-6.39057	-3.16152
1363.767	-9.37805	0.57969	-6.21480	-3.08074
1367.769	-9.45933	0.39936	-6.39761	-2.57081
1371.834	-9.41917	0.31657	-6.31237	-1.84629
1375.797	-9.46239	0.91580	-6.37388	-1.07667
1379.802	-9.44455	0.01064	-6.87310	-3.18138
1383.809	-9.69518	0.03525	-6.57284	-2.76356
1387.832	-9.98986	-0.87113	-6.45142	-1.37892
1391.820	-9.63491	-1.64363	-6.32238	-1.75237
1395.812	-9.67217	-1.39474	-6.32108	-1.64960
1399.812	-9.32219	-0.24697	-6.28236	-1.52777
1403.831	-8.46990	-1.04119	-5.77460	-0.74491
1407.808	-8.23743	-0.62807	-3.50561	-0.54520
1411.811	-8.62702	0.29449	-3.79378	0.64870
1415.810	-8.79116	1.16037	-4.09090	0.77193
1419.831	-8.63071	0.59189	-4.06908	-1.55069
1423.776	-8.59233	-0.39064	-4.07997	-0.64008
1427.768	-8.46034	-1.29729	-4.02971	-1.95950
1431.809	-8.57520	-1.00086	-4.01914	-2.07366
1435.810	-8.41255	-1.21878	-4.15436	-1.28354
1439.810	-8.42935	-0.87478	-3.98338	-1.01729
1443.809	-8.44465	-1.16767	-4.06880	-0.36052
1447.811	-8.48947	-0.75882	-4.04478	0.50634
1451.832	-8.52100	-0.75497	-4.23737	0.06837
1455.814	-8.45106	-0.63447	-4.19353	0.31791
1459.793	-8.39564	-0.13471	-4.06792	0.28633
1463.810	-8.37519	0.77077	-4.04270	0.28607
1467.831	-8.19078	0.57515	-4.08016	-1.17656
1471.814	-8.26162	0.22629	-4.21913	-1.17610
1475.814	-8.11943	1.00899	-4.51115	-0.01905
1479.813	-8.24648	0.62469	-4.01601	-0.68241
1483.834	-8.27319	0.50943	-4.20178	-0.31102
1487.810	-8.25776	0.34310	-4.05917	-1.03238
1491.811	-8.31776	-0.00718	-3.88453	-1.67827
1495.769	-8.29691	-0.15041	-3.97965	-1.94845
1499.836	-8.37344	0.19294	-3.76747	-1.98517
1503.812	-8.39273	-0.22680	-3.89762	-2.21611
1507.813	-8.26816	-1.41246	-3.90706	-1.70249
1511.810	-8.36334	-0.79048	-4.03851	-1.69192
1515.835	-8.41391	-1.10968	-4.00971	-0.89414
1519.810	-8.43741	-1.49522	-4.15522	-1.44930
1523.810	-8.46099	-1.54865	-4.13337	-1.20730
1527.812	-8.39331	-1.23717	-4.17813	-1.08178
1531.837	-8.37810	-1.34796	-4.33922	-0.60223
1535.814	-8.26568	-1.65339	-4.06742	-0.16079
1539.810	-8.37888	-1.63301	-4.23609	-0.39005
1543.792	-8.44438	-1.24293	-4.14991	0.05881
1547.836	-8.47451	-1.15279	-4.01989	-0.63284
1551.814	-8.55311	-1.04298	-4.26919	-3.08256
1555.811	-8.60504	-0.73911	-4.06762	-2.73416
1559.813	-8.42840	-0.62325	-4.17114	-2.91302
1563.773	-8.52241	0.02676	-4.03209	-2.70683
1567.813	-8.60220	0.14818	-4.06863	-3.11507
1571.817	-8.34021	0.31751	-3.94952	-2.63007
1575.815	-8.47119	-0.47196	-3.97711	-2.62303
1579.817	-8.48969	-0.41746	-4.01312	-2.49838
1583.804	-8.47721	-0.38328	-4.03243	-2.35217
1587.802	-8.35687	-0.13298	-4.21022	-1.97509
1591.816	-8.46665	-0.47632	-4.20195	-2.08706
1595.834	-8.36343	-0.42730	-4.27402	-1.83879
1599.824	-8.32301	-0.69781	-4.29199	-1.64795
1603.813	-8.40786	-0.21386	-4.36718	-1.92960
1607.812	-8.35347	-0.32920	-4.30420	-1.55111
1611.816	-8.33513	-0.48191	-4.68861	-2.00874
1615.769	-8.35612	-0.73012	-4.30485	-1.64805
1619.771	-8.36018	-0.81556	-4.41048	-1.90709
1623.815	-8.35061	0.22117	-4.31435	-2.15639
1627.816	-8.27922	-0.09880	-3.62739	-1.28360
1631.813	-6.00391	1.43332	-2.47640	-2.03284
1635.812	-4.83802	0.21794	-1.86166	-0.46619
1639.814	-3.75988	-0.78054	0.85816	2.96574
1643.818	-3.19058	-0.14177	1.05099	2.39307
1647.815	-1.72795	-0.07548	2.45976	-0.01286
1651.817	-0.70829	-0.31384	5.10660	-1.82211
1655.816	-0.70784	-0.42535	5.89242	-0.03194
1659.820	-0.48225	-0.07929	5.19273	-0.09936
1663.815	-0.24324	-0.13555	4.51467	0.31530
1667.796	-0.35672	-0.04995	4.51618	0.01474
1671.815	-0.33461	-0.16917	5.94580	-0.27792
1675.820	-0.35213	-0.32792	6.26652	-0.55582
1679.774	-0.29453	-0.29816	6.57742	-0.80504
1683.816	-0.23941	-0.29784	6.74259	-0.76473
1687.812	-0.23763	-0.31034	6.79640	-0.82782
1691.820	-0.15742	-0.41597	6.67103	-1.00900
1695.816	-0.13014	-0.46169	6.80389	-0.68714
1699.773	-0.08756	-0.39654	6.93570	-0.54229
1703.813	0.00417	-0.34351	6.68756	-0.05496
1707.824	-0.03005	-0.33660	6.78652	-0.56072
1711.810	-0.07599	-0.52013	6.84722	-0.54237
1715.815	-0.04194	-0.52696	6.82258	-0.71904
1719.816	0.00174	-0.49011	6.77533	-0.55069
1723.819	0.05393	-1.30013	6.80962	-0.37185
1727.813	-0.01353	-0.76218	6.86848	-0.17181
1731.817	-0.02266	-0.69221	6.61506	-0.48638
1735.773	0.02849	-0.76181	6.67077	-0.33694
1739.819	0.01782	-1.10918	6.53781	-0.45165
1743.814	0.05249	-1.78637	6.50802	-0.64213
1747.815	0.00826	-1.31357	6.75323	-1.18676
1751.794	0.08088	-1.90284	6.71221	-2.41295
1755.820	0.27255	-2.38042	6.42795	-3.00162
1759.816	0.02288	-1.29705	6.24624	-2.99371
1763.815	0.13493	-1.70782	6.18880	-3.20602
1767.794	0.01253	-1.20759	6.12040	-3.63006
1771.825	0.11334	-0.78282	6.41793	-3.81086
1775.815	-0.00571	-1.22729	6.60840	1.77436
1779.818	-0.00874	-0.96485	6.43572	-0.03551
1783.816	-0.02981	-1.01980	6.14342	-0.34221
1787.820	-0.13789	-1.57412	5.94573	-0.53606
1791.806	-0.09900	-1.71909	6.13974	-2.73596
1795.816	-0.09736	-1.36028	5.94452	-2.56235
1799.819	-0.12429	-1.49813	5.96394	-2.74212
1803.822	-0.14739	-0.60398	5.93858	-3.94315
1807.816	-0.20437	0.30154	6.13314	-0.84630
1811.818	-0.17688	-1.13289	6.10710	-0.40274
1815.821	-0.26905	-0.63481	6.24009	-0.49237
1819.824	-0.24914	-1.08073	5.89910	-2.24427
1823.817	-0.23584	-1.48010	6.26596	-3.88705
1827.816	-0.26450	-1.54595	6.49477	-3.38764
1831.818	-0.41777	0.03069	6.08696	-0.56715
1835.789	-0.41368	-0.82685	6.01569	-0.88693
1839.816	-0.35913	-1.35370	6.07322	-2.87939
1843.817	-0.36477	-0.43517	6.37793	-2.14352
1847.815	-0.38559	0.10136	6.58504	-0.87174
1851.821	-0.25386	-0.32542	6.46034	-2.67625
1855.816	-0.17618	-1.62633	6.50330	-0.01168
1859.816	-0.18596	-0.06565	6.72602	-1.21795
1863.817	-0.06971	-0.09925	6.08166	-2.71135
1867.779	-0.15791	-0.60759	5.76573	0.08685
1871.825	-0.10039	-0.88411	6.05209	-0.47661
1875.800	0.02132	-0.36374	6.00570	-2.81625
1879.819	0.06919	-1.60253	6.29342	-0.44278
1883.821	0.11257	0.59705	6.21031	-2.66926
1887.817	-0.13074	-0.67234	6.54541	-0.85204
1891.817	-0.17422	-0.93526	6.54759	-0.72495
1895.820	-0.19961	0.89156	6.19780	-1.67117
1899.822	0.03206	1.13541	6.60823	-0.90509
1903.775	-0.49517	3.83196	5.88085	-0.49890
1907.819	-0.93755	4.15354	4.62190	2.72375
1911.818	-1.81478	5.93669	2.98505	3.93064
1915.821	-3.09535	7.78685	2.48386	4.49061
1919.815	-3.53819	10.38716	2.26881	5.23037
1923.774	-3.32951	10.70699	1.81795	8.25294
1927.812	-3.26104	10.50297	1.76631	10.36142
1931.716	-2.65545	10.36085	1.97654	11.65161
1935.814	-7.82163	14.07266	1.29541	11.12161
1939.818	-3.46167	10.62236	0.57858	11.66726
1943.817	-3.76947	10.65646	-0.13332	10.64599
1947.821	-3.52692	13.31496	0.34469	11.00000
1951.817	-3.57177	10.65388	-0.29203	11.24895
1955.776	-3.24175	13.98681	1.12015	11.27936
1959.817	-2.96596	10.84778	0.00228	11.90918
1963.823	-3.56032	14.05558	0.84801	12.28528
1967.819	-4.38304	11.49765	-0.34541	12.22964
1971.781	-4.08002	10.73183	-0.51803	13.24678
1975.819	-3.56349	11.24870	-0.28570	12.30286
1979.822	-3.49258	11.27936	-0.72419	12.79190
1983.819	-3.32887	11.89267	0.94043	12.80778
1987.817	-2.84192	11.67728	1.35655	12.49064
1991.821	-2.97460	11.31366	0.78528	12.91496
1995.780	-2.55908	11.28728	-0.16888	12.81237
1999.778	-3.89762	11.61093	-1.11499	12.92552
2003.813	-4.44765	11.30253	-0.80828	11.83828
2007.819	-4.50819	11.50719	-1.12109	14.36175
2011.823	-4.31704	10.74666	-0.71451	14.57971
2015.820	-4.40004	11.43319	-0.25135	14.41716
2019.820	-3.15367	12.06778	0.23646	12.92530
2023.823	-2.79751	11.87367	1.46204	10.02067
2027.824	-2.84900	11.89880	0.90565	11.67283
2031.818	NaN	NaN	1.05126	12.17685
2035.821	-2.92332	11.63098	0.74096	14.53119
2039.817	-3.01831	12.04088	0.26964	13.32888
2043.825	-4.18687	12.54330	1.06220	12.50813
2047.787	-5.08160	11.77964	0.19080	10.23771
2051.778	-4.57830	11.97339	0.28170	10.38297
2055.819	-4.74013	11.89742	0.15203	11.74860
2059.826	-3.34106	11.67606	0.25314	12.30085
2063.821	-4.69125	13.05679	-0.01720	12.10885
2067.823	-3.82133	11.98088	0.06807	11.93688
2071.821	-4.34048	13.44040	0.10684	12.15130
2075.719	-4.91964	11.15593	-0.01117	12.82344
2079.819	-4.49886	11.21093	-0.24157	13.44579
2083.804	-4.60690	11.19146	-0.03864	13.31201
2087.820	-3.99213	10.31711	NaN	NaN
2091.827	-4.17097	11.20415	0.04179	12.03746
2095.822	-4.28634	11.49511	0.20527	11.51458
2099.824	-3.99465	13.19271	-0.01712	12.61328
2103.823	-4.25680	10.34678	0.04748	12.23825
2107.825	-4.25025	11.13912	0.21688	11.99003
2111.823	-4.31136	11.07479	0.29096	13.05006
2115.779	-3.70193	11.21257	0.13436	13.02700
2119.697	-4.11394	12.60092	0.31573	11.04834
2123.721	-4.49714	11.19010	0.01243	11.96885
2127.696	-4.13127	10.85942	-0.12741	13.05800
2131.670	-4.30936	11.40080	-0.22425	15.03779
2135.695	-3.94742	11.26434	0.13186	11.21376
2139.715	-3.97010	12.52217	-0.32816	11.62959
2143.692	-4.43031	11.05806	-0.42224	13.99336
2147.696	-4.64515	11.29814	-0.23001	13.61863
2151.698	-4.46628	11.19411	0.19286	14.75088
2155.690	-4.53517	11.56665	0.05390	10.69684
2159.696	-3.57083	11.44414	-0.33206	11.34406
2163.700	-2.10012	11.23719	-1.07703	14.05147
2167.696	-3.65460	11.39529	-0.42008	14.54762
2171.658	NaN	NaN	NaN	NaN
2175.656	NaN	NaN	2.57278	7.01024
2179.698	NaN	NaN	NaN	NaN
2183.696	NaN	NaN	NaN	NaN
2187.698	NaN	NaN	NaN	NaN
2191.697	NaN	NaN	NaN	NaN
2195.656	NaN	NaN	NaN	NaN
2199.694	NaN	NaN	NaN	NaN
2203.694	NaN	NaN	NaN	NaN
2207.696	NaN	NaN	NaN	NaN
2211.697	NaN	NaN	NaN	NaN
2215.663	NaN	NaN	NaN	NaN
2219.696	NaN	NaN	NaN	NaN
2223.701	NaN	NaN	NaN	NaN
2227.699	NaN	NaN	NaN	NaN
2231.700	NaN	NaN	NaN	NaN
2235.695	NaN	NaN	NaN	NaN
2239.697	NaN	NaN	NaN	NaN
2243.696	NaN	NaN	NaN	NaN
2247.700	NaN	NaN	NaN	NaN
2251.696	NaN	NaN	NaN	NaN
2255.702	NaN	NaN	NaN	NaN
2259.676	NaN	NaN	NaN	NaN
2263.696	NaN	NaN	NaN	NaN
2267.697	NaN	NaN	NaN	NaN
2271.700	NaN	NaN	NaN	NaN
2275.701	NaN	NaN	NaN	NaN
2279.669	NaN	NaN	NaN	NaN
2283.715	NaN	NaN	NaN	NaN
2287.696	NaN	NaN	NaN	NaN
2291.700	NaN	NaN	NaN	NaN
2295.658	NaN	NaN	NaN	NaN
2299.678	NaN	NaN	NaN	NaN
2303.657	NaN	NaN	NaN	NaN
2307.701	NaN	NaN	NaN	NaN
2311.664	NaN	NaN	NaN	NaN
2315.701	NaN	NaN	NaN	NaN
2319.696	NaN	NaN	NaN	NaN
2323.698	NaN	NaN	NaN	NaN
2327.722	NaN	NaN	NaN	NaN
2331.701	NaN	NaN	NaN	NaN
2335.701	NaN	NaN	NaN	NaN
2339.670	7.86155	9.06968	NaN	NaN
2343.672	5.95955	9.77328	NaN	NaN
2347.701	NaN	NaN	NaN	NaN
2351.700	NaN	NaN	NaN	NaN
2355.701	NaN	NaN	NaN	NaN
2359.722	NaN	NaN	NaN	NaN
2363.724	NaN	NaN	NaN	NaN
2367.699	0.57228	14.61957	NaN	NaN
2371.700	-1.82222	14.38334	NaN	NaN
2375.697	-2.01377	13.34429	-0.34851	14.44621
2379.688	-2.00103	11.82218	1.74142	13.92814
2383.693	-1.46370	13.42468	-0.45862	12.12626
2387.702	-0.60972	13.32785	6.98746	12.68080
2391.692	-1.63058	13.55259	4.90797	14.53345
2395.702	-1.37545	13.34077	NaN	NaN
2399.699	-1.42263	13.36662	2.93441	13.03662
2403.697	-1.05332	13.26052	2.56929	14.49135
2407.697	-0.66146	13.07263	2.68477	14.58135
2411.697	-1.35134	12.48804	2.57419	12.77374
2415.701	-1.12680	11.63631	2.53053	14.39457
2419.701	-0.77588	11.15054	3.30876	14.64292
2423.723	-1.04888	11.35092	1.97052	13.55274
2427.695	1.31017	13.27376	0.94204	13.45282
2431.659	1.58894	13.10090	0.88979	13.16468
2435.701	1.29355	13.31022	2.73858	12.17644
2439.693	-1.06617	11.29991	2.11861	13.85651
2443.700	-1.10040	10.23039	2.53585	13.77965
2447.701	-1.04220	10.55123	2.42250	13.87426
2451.701	-1.20596	11.01814	2.10466	13.22075
2455.694	0.05681	13.60255	1.46998	13.45146
2459.701	-1.30727	13.12646	2.00435	12.81356
2463.683	-1.12573	9.87506	2.45567	14.15638
2467.699	-1.20405	9.59943	NaN	NaN
2471.703	-1.32108	10.56779	0.76598	13.48632
2475.704	-1.53116	11.85464	3.29283	12.18282
2479.700	-1.47484	12.69291	3.17252	13.15380
2483.704	-1.42184	10.86117	2.49882	14.85124
2487.703	-1.36700	9.26532	NaN	NaN
2491.701	-1.59296	10.66766	NaN	NaN
2495.703	-1.63879	10.45585	3.40615	13.14221
2499.703	-1.85227	12.01606	3.33206	13.73853
2503.691	-1.51333	11.95952	3.13689	12.74237
2507.694	-1.77454	12.50437	3.10497	13.23113
2511.701	-1.42558	10.11417	3.26045	14.68721
2515.659	-1.27693	10.10088	2.83553	15.04694
2519.691	-1.26887	9.65704	NaN	NaN
2523.701	-1.49026	10.17107	3.24964	14.96849
2527.702	-1.87493	10.37043	3.49166	12.65351
2531.702	-1.72525	10.92444	2.79439	13.55645
2535.703	-2.08790	11.80536	3.44876	11.70226
2539.700	-1.39158	11.83539	3.42942	12.31972
2543.701	-1.00799	11.93567	3.14961	12.85297
2547.676	-1.01330	12.19126	2.65349	13.14520
2551.688	-0.75640	11.44627	2.70800	14.18232
2555.704	-0.81315	9.08499	NaN	NaN
2559.705	-1.22625	9.84300	3.14934	14.33793
2563.665	-1.55938	10.78725	2.68348	12.38716
2567.707	-1.64880	11.42334	2.61020	11.89805
2571.703	-1.23164	11.74904	2.84997	11.57539
2575.711	-1.11427	11.87637	3.17351	12.23918
2579.705	-0.82248	9.41788	3.03487	14.31778
2583.664	-0.88148	10.15064	2.67033	14.47159
2587.703	-0.61218	10.77036	NaN	NaN
2591.701	0.29458	11.11498	3.99553	11.67937
2595.705	1.61136	11.09785	4.60106	12.30072
2599.704	3.68962	11.36742	5.36474	14.36411
2603.704	5.60059	10.61572	NaN	NaN
2607.705	6.94259	11.05355	NaN	NaN
2611.704	6.58188	11.70806	NaN	NaN
2615.696	9.69798	11.15074	10.14323	13.81449
2619.705	9.96566	11.08676	14.10198	14.05454
2623.702	12.07194	10.91876	14.30801	13.38045
2627.706	12.06396	10.79260	15.20062	12.56030
2631.696	12.20650	10.43969	16.55662	13.11170
2635.706	12.11878	10.78041	16.68348	13.33039
2639.707	11.71128	10.76682	14.97828	13.64426
2643.704	11.13301	11.01602	15.89742	13.56972
2647.704	11.66522	10.94436	15.63051	13.85830
2651.704	11.69188	10.97917	NaN	NaN
2655.707	11.77698	11.02905	15.41983	13.93408
2659.705	11.38733	10.95352	16.08420	13.61601
2663.700	11.54249	11.16406	16.45936	13.71567
2667.701	11.36842	12.00182	16.78446	13.64980
2671.689	11.41006	11.64546	16.78060	13.53238
2675.707	11.15599	11.64519	16.19840	13.89980
2679.709	10.94423	12.19158	16.39826	14.04625
2683.704	11.04169	11.67915	NaN	NaN
2687.704	10.95765	11.70089	NaN	NaN
2691.705	11.02777	11.58464	15.74872	14.22970
2695.707	11.23896	11.70648	15.59450	14.36721
2699.706	11.09045	11.31597	16.06447	13.64469
2703.716	10.94404	11.45882	15.83478	14.34576
2707.703	10.96478	11.11302	16.92451	14.30516
2711.696	10.93461	11.13853	16.95529	13.65851
2715.698	11.12992	11.12782	NaN	NaN
2719.663	11.40186	10.74673	NaN	NaN
2723.705	11.19996	10.66017	NaN	NaN
2727.706	11.43259	10.61454	NaN	NaN
2731.704	11.65765	10.53470	NaN	NaN
2735.703	11.33247	10.51537	NaN	NaN
2739.708	11.44604	10.52124	NaN	NaN
2743.708	11.39520	10.63224	NaN	NaN
2747.704	11.58679	10.64462	15.26520	13.23519
2751.707	11.02325	10.91906	16.26646	13.14091
2755.678	11.13136	11.39282	15.14541	13.46003
2759.710	10.91377	11.89985	14.95616	13.01798
2763.705	10.73174	12.14474	15.18705	11.90393
2767.707	11.02564	12.11828	15.64922	12.95717
2771.706	10.78568	12.07339	15.76557	12.93685
2775.708	10.73545	12.33747	16.07696	12.89275
2779.711	11.07838	11.19006	16.20020	13.01570
2783.709	10.83845	11.69958	16.20959	13.01832
2787.706	10.57220	11.23771	16.41555	13.03270
2791.703	10.85906	11.37523	15.65552	13.09975
2795.695	10.96023	11.10590	16.21391	13.11837
2799.705	11.10560	10.87499	16.07350	13.54832
2803.706	12.42191	10.70512	NaN	NaN
2807.604	11.21066	10.79570	NaN	NaN
2811.705	11.12123	10.38769	16.13033	14.05768
2815.707	11.52598	10.29287	NaN	NaN
2819.708	11.51566	10.32117	NaN	NaN
2823.604	11.33977	10.41023	15.54464	13.92488
2827.709	11.70713	10.29224	15.77892	13.99470
2831.706	11.64373	10.06258	15.58596	14.07175
2835.706	11.74249	10.20564	15.71798	13.57121
2839.604	11.83980	10.12623	15.75656	13.52484
2843.706	11.64135	10.09110	15.71009	12.90147
2847.709	12.03294	9.91820	15.70195	12.99944
2851.708	11.68684	10.39683	15.83338	12.62765
2855.668	11.64954	11.65539	15.89333	13.48267
2859.706	11.65618	10.68079	NaN	NaN
2863.721	11.60196	12.65770	15.89267	12.80583
2867.707	11.61942	12.05517	16.36590	13.94916
2871.611	11.42117	12.48664	17.62095	12.64803
2875.707	11.40419	12.34350	NaN	NaN
2879.691	11.22293	12.38950	NaN	NaN
2883.710	11.03733	12.23312	NaN	NaN
2887.701	10.93174	12.23347	NaN	NaN
2891.707	11.13912	12.24156	NaN	NaN
2895.711	10.96406	12.20643	NaN	NaN
2899.707	10.99671	12.40216	NaN	NaN
2903.609	10.50117	12.25159	NaN	NaN
2907.709	8.19995	11.79417	NaN	NaN
2911.709	6.15048	11.41462	10.77703	13.31459
2915.705	5.97759	10.62110	7.68740	11.50518
2919.607	3.77943	11.45613	6.62522	13.92658
2923.697	1.98388	10.22048	5.98572	12.89261
2927.708	-1.32939	10.05078	4.55366	10.11320
2931.709	-0.87694	8.26441	2.28296	10.08578
2935.604	-2.76170	7.65326	1.77070	7.72311
2939.710	-2.99235	9.17887	0.22554	5.67518
2943.709	-4.28261	7.74819	-2.18337	6.23983
2947.707	-5.17831	7.84508	-2.64443	3.42796
2951.609	-5.95886	7.71807	-2.98203	3.48943
2955.710	-4.79504	8.12450	-2.56634	4.51749
2959.708	-7.51013	7.25503	-2.01437	4.64346
2963.708	-7.00614	6.60249	-1.99456	5.44999
2967.713	-7.03545	6.82334	-2.32555	6.72635
2971.710	-7.35385	6.80169	-2.33911	6.17890
2975.710	-7.50878	6.29564	-2.64775	5.31794
2979.710	-5.92537	5.94291	-2.71003	4.21585
2983.713	-5.41807	6.38008	-2.47348	4.09299
2987.725	-5.53626	6.60828	-1.95034	2.77275
2991.710	-5.60325	6.48566	-1.98650	2.57888
2995.709	-5.65912	6.42104	-2.26539	2.63184
2999.607	-6.03849	6.42083	-1.61032	2.16198
3003.700	-5.81977	6.34488	-1.73009	2.25915
3007.703	-5.94897	6.39410	-1.72505	4.26465
3011.712	-6.11753	6.43614	-1.77105	3.95634
3015.713	-6.03309	6.48074	-2.15403	3.76483
3019.709	-6.22915	6.62613	-2.02906	3.46116
3023.710	-6.33682	6.64380	-2.14290	4.65809
3027.710	-6.92714	6.66189	-2.46169	4.44693
3031.714	-6.62444	6.85103	-1.87379	5.83008
3035.711	-6.70702	6.80747	-1.77256	8.13070
3039.709	-6.32880	7.63998	-2.03077	6.87518
3043.709	-6.27915	7.75687	-1.86174	6.39860
3047.610	-6.12028	7.25433	-1.87698	5.15904
3051.710	-6.29421	7.23302	-1.62267	5.77682
3055.709	-5.88225	7.29526	-1.71451	6.05802
3059.708	-5.71106	7.14511	-2.17883	6.01332
3063.612	-5.57490	7.16691	-2.14131	6.08932
3067.713	-5.58203	7.14756	-2.21326	6.12981
3071.712	-5.79160	7.18942	-2.13363	6.74674
3075.713	-5.91651	7.16803	-2.54333	6.81969
3079.719	-5.83046	7.49256	-1.80625	6.95594
3083.713	-6.02075	7.44518	-2.33004	6.58191
3087.692	-6.17906	7.43424	-2.44388	6.07046
3091.710	-6.60460	7.48282	-2.23164	6.63731
3095.574	-6.67559	7.19800	-2.14466	6.62892
3099.714	-6.94024	7.54843	-2.24748	7.14301
3103.712	-5.94035	7.06164	0.13434	6.87396
3107.711	-6.06640	7.02923	-1.93695	6.60027
3111.716	-6.20001	7.05241	-2.21125	6.84223
3115.669	-5.97627	6.69040	-1.82452	6.18839
3119.673	-5.99144	7.46200	-2.14905	6.92773
3123.714	-5.68836	7.10200	-2.25969	5.82637
3127.613	-5.73080	7.34227	-2.11014	6.80745
3131.706	-5.66118	7.04637	-2.43761	5.20182
3135.711	-5.83540	6.91201	-2.68294	4.14413
3139.711	-6.05351	6.83611	-2.64445	3.64248
3143.717	-6.02963	7.04385	-2.77505	4.93003
3147.714	-6.02109	7.17745	-2.06617	5.87159
3151.711	-6.55797	7.14382	-0.17236	5.69740
3155.713	-6.53850	7.00676	-0.07587	7.75746
3159.609	-6.43876	6.63769	-2.00663	7.36670
3163.586	-5.91533	6.80158	-2.62940	7.79767
3167.588	-6.10249	6.33170	-2.47189	6.82973
3171.585	-6.35545	5.88989	-2.55668	7.45265
3175.580	-6.45919	5.28659	-1.90594	7.62732
3179.587	-5.80968	4.99446	-1.97540	7.86875
3183.587	-5.75303	5.18342	-1.06567	7.39290
3187.588	-6.02313	5.22721	-1.87971	7.32266
3191.589	-5.99748	4.73628	-1.79024	7.12167
3195.586	-6.06536	5.48679	-1.82797	4.87023
3199.587	-6.12072	5.45883	-1.88717	4.89632
3203.586	-6.27187	5.68964	-1.99377	4.69964
3207.587	-6.32402	7.84375	-1.96067	3.58273
3211.590	-5.87570	5.70195	-1.92401	4.51601
3215.588	-5.90998	5.60785	-1.89632	3.81498
3219.590	-5.76659	5.60335	-2.05839	4.02418
3223.583	-5.74509	5.66880	-2.13901	4.22627
3227.590	-5.66968	5.92560	-2.03043	3.74542
3231.586	-5.61687	5.68800	-1.93479	2.87497
3235.587	-5.67266	5.68009	-2.19851	3.60223
3239.589	-5.62036	4.52533	-3.11237	4.20409
3243.589	-5.75229	3.91490	-2.13700	8.73814
3247.588	-5.66762	5.69960	-2.27991	7.51632
3251.586	-6.08691	5.86831	0.30888	6.38483
3255.614	-6.43187	5.80872	-2.03201	6.99793
3259.568	-5.98798	6.37578	-2.07839	6.79615
3263.545	-5.70318	6.48391	-2.19303	6.72831
3267.587	-5.92343	6.63440	-2.19033	7.42399
3271.592	-6.05349	6.24881	-2.23994	6.89109
3275.588	-5.97990	6.72885	-2.08887	7.19162
3279.594	-6.13944	6.71311	-2.15472	7.47845
3283.592	-6.06082	6.47102	-2.11594	7.21171
3287.589	-5.96775	6.21224	-1.07751	7.27510
3291.586	-5.99873	6.66475	-1.93903	7.36663
3295.591	-6.05928	6.65224	-0.87346	7.00383
3299.546	-6.05113	6.47553	-0.49900	7.10581
3303.590	-6.21416	6.60586	-2.09316	7.25688
3307.590	-6.55802	6.31061	-1.76366	4.76235
3311.592	-6.51023	6.33913	-1.81022	4.79232
3315.591	-6.87946	6.33296	-1.54911	4.74902
3319.612	-6.65926	6.02069	-1.71622	6.85028
3323.589	-6.26863	6.08205	-1.80241	4.72145
3327.591	-6.24828	5.98129	-2.11088	4.55949
3331.547	-5.91823	5.90149	-2.26277	7.06976
3335.592	-6.51501	5.26136	-0.72030	6.92396
3339.591	-6.91586	5.57129	-2.24289	4.39930
3343.559	-7.50459	5.36279	-2.79062	7.42330
3347.590	-6.60257	5.79461	-2.82261	7.06590
3351.584	-7.56842	5.34840	-2.38905	7.54427
3355.587	-6.36246	6.13855	-3.19088	8.00501
3359.591	-6.74158	6.64470	-3.50954	6.94534
3363.590	-6.81923	6.99060	-3.72247	7.08897
3367.550	-6.81652	6.99018	-3.71921	6.93747
3371.547	-6.97925	6.57760	-4.02784	6.81022
3375.591	-7.09321	6.67948	-3.83354	6.67444
3379.592	-7.11029	6.85312	-4.39812	5.57014
3383.585	-7.22405	6.59851	-3.27284	5.05857
3387.588	-7.27223	6.59309	-3.06976	5.08703
3391.589	-7.42805	6.07970	-2.75467	4.83446
3395.587	-7.56632	6.63605	-3.02252	4.65571
3399.592	-8.02192	6.60899	-3.35785	5.68972
3403.591	-8.09148	6.19899	-3.20860	6.53300
3407.589	-7.46938	6.20376	-3.35659	6.51306
3411.591	-7.25233	6.21961	-3.32877	7.21515
3415.553	-7.40894	5.98217	-3.76038	7.53912
3419.591	-7.36828	6.48563	-4.21772	7.27850
3423.590	-7.22246	6.13167	-4.22424	7.58647
3427.548	-7.14976	6.41309	-3.26648	5.13470
3431.589	-7.06386	6.60061	-3.85269	6.40117
3435.591	-7.27751	6.38540	-2.68502	4.37159
3439.591	-7.45006	6.59412	-3.09918	3.88276
3443.593	-7.22441	6.49665	-3.20248	3.74838
3447.584	-7.33979	6.33524	-2.59331	3.92014
3451.593	-7.56371	6.34398	-2.61271	3.48217
3455.593	-7.51286	6.24926	-3.84784	4.05483
3459.590	-7.66799	5.98916	-3.36305	4.35925
3463.584	-7.97342	6.65677	-3.02749	4.15382
3467.549	-7.81266	6.55325	-3.23784	4.37255
3471.591	-7.87633	6.18938	-3.69158	4.36112
3475.593	-7.40330	6.47159	-3.26450	4.09165
3479.591	-7.52944	6.01462	-2.59958	4.33482
3483.594	-7.16261	5.51473	-2.91747	4.58364
3487.588	-7.27685	6.63729	-2.95285	4.50130
3491.595	-7.20016	6.54516	-2.86695	5.37137
3495.553	-7.25255	6.32746	-3.36616	6.29805
3499.592	-7.01345	5.28467	-3.45714	5.72175
3503.591	-6.91968	6.01958	-3.08891	6.03286
3507.583	-6.35493	7.24205	-2.57006	4.98230
3511.585	-4.99561	9.17863	-2.66952	8.94249
3515.593	-3.45331	11.05567	-0.10520	10.17515
3519.592	-3.12346	8.75715	-0.27416	9.76883
3523.592	-3.28558	9.71526	0.00107	9.99058
3527.613	-3.08802	10.42490	0.09307	11.04260
3531.591	-3.19563	11.31518	0.03668	12.99639
3535.592	-3.21958	10.75991	0.68082	11.76583
3539.593	-2.40057	10.79292	-0.01849	11.08189
3543.586	-1.87998	10.70105	0.35332	11.11686
3547.595	-2.13988	11.05165	0.16501	11.76724
3551.563	-2.51165	10.87560	0.20842	12.11896
3555.550	-2.59074	10.83159	0.03986	12.55304
3559.594	-2.71315	11.25089	0.04616	12.42755
3563.555	-2.69832	10.95262	-0.05013	12.20070
3567.592	-2.55336	10.98504	-0.19139	12.09543
3571.594	-2.85975	11.05349	-0.07877	12.39227
3575.585	-2.74898	10.91913	-0.06190	12.20442
3579.591	-3.17460	10.71851	-0.04288	12.64667
3583.567	-2.74975	10.50953	0.25361	12.32967
3587.597	-2.81187	10.71237	0.63878	12.56114
3591.555	-2.82553	10.48662	0.92770	12.38120
3595.590	-2.78461	10.40069	0.91512	12.62500
3599.592	-2.89148	10.48330	0.63871	12.91479
3603.550	-2.90950	10.38835	1.12903	12.43332
3607.587	-2.83922	10.45031	0.69965	12.56123
3611.594	-2.91896	10.48974	0.78838	12.60399
3615.594	-2.69106	10.40616	0.53217	12.61295
3619.592	-2.92584	10.47447	0.50364	12.93673
3623.587	-2.74489	10.78237	0.52662	13.24853
3627.593	-2.96728	10.84459	0.15422	13.34333
3631.596	-2.88470	11.24678	-0.00519	13.71127
3635.593	-2.33945	11.02562	0.47361	14.22754
3639.587	-2.77718	11.32425	-0.10786	13.10101
3643.553	-2.88418	11.18358	-0.06631	12.86366
3647.592	-3.01076	11.46897	-0.22492	12.59260
3651.592	-2.83551	11.57358	-0.36784	12.72669
3655.602	-3.01801	11.86005	-0.55044	12.02357
3659.597	-3.17188	11.65146	-0.22976	12.27506
3663.594	-2.90183	11.90206	-0.13801	12.09154
3667.596	-1.90455	12.26642	-0.24617	11.93417
3671.587	-2.36916	12.34101	-0.38181	12.06910
3675.577	-1.98536	12.22769	0.28118	12.01562
3679.552	-2.39185	12.36711	0.55570	11.91413
3683.598	-2.40793	12.47710	0.01784	12.12001
3687.595	-2.29860	12.26200	1.20866	11.96339
3691.598	-2.24374	12.47143	1.13213	11.79588
3695.553	-2.26881	12.62497	0.94229	12.05765
3699.595	-2.18042	12.32829	0.41164	12.08731
3703.599	-2.35511	12.57826	0.16963	11.95425
3707.594	-2.26150	12.37248	0.55200	12.27636
3711.599	-2.24210	12.22452	0.18305	12.56380
3715.597	-2.54848	12.32656	0.53332	12.30353
3719.599	-2.39844	12.49763	0.31464	12.70675
3723.596	-2.39455	12.27116	0.24433	11.93640
3727.597	-2.48757	11.86485	-0.05514	13.18915
3731.595	-2.47110	11.84747	-0.20800	13.16908
3735.600	-2.49647	11.73829	-0.13335	13.12280
3739.597	-2.53706	11.47153	-0.25061	13.22755
3743.595	-2.52240	11.20398	-0.33451	13.36677
3747.598	-2.56448	11.48047	-0.42495	13.76514
3751.597	-2.63051	11.26152	-0.22380	13.53892
3755.610	-2.73744	11.32305	-0.31878	13.52952
3759.597	-2.63205	10.97334	0.12898	13.14142
3763.595	-2.81682	11.06209	0.16362	13.35941
3767.602	-2.81464	10.88563	-0.27111	12.89777
3771.594	-2.73152	11.15402	-0.31079	12.93615
3775.598	-2.76210	10.96593	-0.36290	12.96547
3779.596	-2.77755	10.82080	-0.27590	12.98575
3783.606	-2.69262	10.98152	-0.13111	12.77149
3787.596	-2.63200	11.02647	-0.19790	12.65644
3791.599	-2.57660	10.87612	-0.12265	12.64449
3795.601	-2.66694	11.15027	-0.17516	12.78853
3799.584	-2.66934	10.89769	-0.59059	12.76023
3803.594	-2.72380	10.99223	-0.55151	12.56055
3807.597	-2.63507	11.21599	-0.76823	12.47940
3811.597	-2.74289	11.06638	-0.95031	12.49163
3815.597	-2.76886	11.14706	-1.14876	12.46415
3819.599	-2.66211	11.09585	-1.04841	12.41257
3823.597	-2.45324	11.23816	-0.91190	12.41318
3827.599	-1.98757	11.41627	-0.76709	12.49892
3831.603	-2.67182	11.33460	-1.07106	12.48427
3835.598	-2.73068	11.79397	-1.08646	12.55254
3839.598	-2.69723	11.56355	-1.08882	14.55882
3843.562	-2.58202	11.73801	NaN	NaN
3847.493	-2.32102	12.08603	NaN	NaN
3851.598	-2.68831	12.67089	NaN	NaN
3855.599	NaN	NaN	NaN	NaN
3859.598	NaN	NaN	NaN	NaN
3863.559	NaN	NaN	NaN	NaN
3867.599	NaN	NaN	NaN	NaN
3871.596	NaN	NaN	NaN	NaN
3875.596	NaN	NaN	NaN	NaN
3879.596	NaN	NaN	NaN	NaN
3883.581	NaN	NaN	NaN	NaN
3887.596	NaN	NaN	NaN	NaN
3891.592	NaN	NaN	NaN	NaN
3895.596	NaN	NaN	NaN	NaN
3899.592	NaN	NaN	NaN	NaN
3903.596	NaN	NaN	NaN	NaN
3907.595	NaN	NaN	NaN	NaN
3911.598	NaN	NaN	NaN	NaN
3915.596	NaN	NaN	NaN	NaN
3919.555	NaN	NaN	NaN	NaN
3923.554	NaN	NaN	NaN	NaN
3927.556	NaN	NaN	NaN	NaN
3931.598	NaN	NaN	NaN	NaN
3935.555	NaN	NaN	NaN	NaN
3939.596	NaN	NaN	NaN	NaN
3943.573	NaN	NaN	NaN	NaN
3947.601	NaN	NaN	NaN	NaN
3951.556	NaN	NaN	NaN	NaN
3955.602	NaN	NaN	NaN	NaN
3959.602	NaN	NaN	NaN	NaN
3963.598	NaN	NaN	NaN	NaN
3967.572	NaN	NaN	NaN	NaN
3971.605	NaN	NaN	NaN	NaN
3975.599	NaN	NaN	NaN	NaN
3979.597	NaN	NaN	NaN	NaN
3983.606	NaN	NaN	NaN	NaN
3987.603	NaN	NaN	NaN	NaN
3991.602	NaN	NaN	NaN	NaN
3995.558	NaN	NaN	-7.26227	14.55740
3999.599	0.06247	9.84875	-7.12036	14.48809
4003.498	NaN	NaN	-5.02686	13.84786
4007.574	-3.88357	10.36349	-5.09763	14.31008
4011.600	NaN	NaN	NaN	NaN
4015.598	NaN	NaN	-4.13549	13.20430
4019.499	NaN	NaN	1.94558	13.55969
4023.599	NaN	NaN	-1.86008	14.28635
4027.600	NaN	NaN	-1.70373	12.95990
4031.600	-8.76813	10.01543	0.92984	12.73875
4035.606	NaN	NaN	1.17093	12.97910
4039.601	NaN	NaN	3.68191	10.44369
4043.599	NaN	NaN	3.84893	9.88640
4047.599	NaN	NaN	-2.09437	10.72791
4051.561	NaN	NaN	-3.68656	10.36287
4055.558	-0.89570	14.93557	0.78245	7.04295
4059.602	-0.83992	14.27399	-0.71809	8.47978
4063.594	-0.92808	13.94905	0.53689	8.89935
4067.500	-0.98807	14.25454	0.40261	8.67463
4071.599	-0.94894	13.61952	0.51572	8.56205
4075.600	-0.91572	14.21575	0.36007	8.78607
4079.599	-0.93534	14.00122	0.27153	8.63868
4083.500	-0.73610	13.59068	0.07981	9.68809
4087.600	-0.78635	13.67580	0.18529	9.89386
4091.582	-0.80538	14.08448	0.09242	9.64418
4095.599	-0.74987	8.74070	-0.42003	10.22973
4099.607	-0.60143	8.84555	-0.73905	11.03564
4103.604	-0.65168	9.05457	-1.90891	11.59812
4107.603	-0.64354	9.09669	-1.58101	12.15027
4111.604	-0.58069	9.68044	-2.10592	12.31294
4115.609	-0.54098	10.00579	-1.79817	12.49548
4119.600	-0.48902	10.65665	-1.64193	14.29104
4123.600	-0.30635	10.32582	-1.97924	13.69655
4127.601	-0.45505	11.53522	-1.92686	14.69759
4131.592	-0.31823	12.63117	NaN	NaN
4135.594	-0.20482	11.65533	-2.09874	13.70633
4139.597	-0.55091	12.49070	-2.15214	14.15136
4143.599	-6.56554	12.10881	-1.73415	11.69285
4147.606	-6.36636	12.44486	-1.62579	9.68048
4151.602	-4.71913	12.10130	-1.26691	9.95604
4155.600	-4.60316	11.60730	-1.35028	10.13887
4159.601	-1.83395	14.85882	-1.19061	10.59843
4163.499	-1.36342	14.86634	-1.12621	10.80781
4167.604	-1.60350	14.68026	-0.96405	11.14880
4171.602	-1.62034	14.78887	-1.13831	11.06430
4175.601	-2.58863	11.99975	-1.20502	11.39068
4179.606	-3.69931	11.83070	-2.17715	11.68387
4183.602	-4.43606	12.20177	-3.38217	11.55625
4187.602	-5.93895	11.28944	-3.98188	12.19155
4191.604	-5.49138	11.26141	-4.40416	11.89178
4195.480	-4.86428	11.02683	-4.38048	12.18893
4199.605	-5.01526	10.64973	-3.80399	11.93441
4203.479	-5.05141	10.16235	-4.25336	12.08387
4207.476	-4.82247	11.31781	-3.93403	11.99342
4211.502	-4.47489	11.29295	-3.76482	12.07064
4215.436	-4.42459	11.37788	-3.65440	12.09531
4219.473	-4.64756	11.07374	-3.55325	12.18764
4223.474	-4.54040	11.40143	-3.70423	11.97063
4227.478	-4.67044	10.74167	-3.76043	11.41655
4231.479	-4.51055	11.59970	-3.33154	11.85907
4235.477	-4.48729	10.52155	-3.38627	12.03339
4239.480	-4.41768	10.89696	-3.36970	11.84254
4243.500	-4.30670	11.83606	-3.33995	11.68992
4247.479	-4.26348	11.16419	-3.25251	11.32211
4251.477	-4.16601	11.20379	-3.12761	11.77857
4255.478	-4.22207	10.86194	-3.00044	11.45403
4259.502	-4.16060	10.59810	-3.10314	11.90440
4263.452	-4.13774	11.37996	-3.32511	11.41405
4267.479	-4.04742	10.68028	-2.99071	12.00047
4271.481	-3.99877	10.81534	-3.06412	11.60536
4275.499	-3.90738	10.58538	-3.06538	12.02761
4279.480	-3.91803	10.89810	-3.01309	11.61294
4283.435	-3.88268	10.64750	-3.09540	11.84175
4287.481	-3.77841	10.71025	-2.89468	11.72949
4291.503	-3.73749	10.62770	-3.27079	11.89810
4295.480	-3.74046	11.88527	-2.84499	11.89803
4299.478	-3.58729	10.59204	-3.06771	11.75971
4303.436	-3.62378	10.72719	-3.37022	11.75672
4307.441	-3.63218	11.30040	-2.89822	11.64683
4311.481	-3.55693	11.28165	-3.05182	11.68466
4315.481	-3.59310	11.24938	-2.75698	11.68991
4319.479	-3.67311	11.01057	-2.95530	11.70082
4323.503	-3.69429	10.55010	-3.20800	12.10030
4327.478	-3.94181	11.27004	-2.71325	11.67195
4331.494	-3.78005	10.29692	-2.75539	12.16461
4335.479	-3.90620	11.12274	-2.86111	12.37857
4339.504	-3.95360	11.09601	-2.63965	12.09420
4343.482	-4.22303	11.33688	-2.73702	12.79910
4347.449	-4.42952	10.66653	-2.53278	12.78002
4351.481	-4.59213	10.45666	-2.52904	13.46479
4355.505	-4.54742	10.22443	-2.68779	13.76007
4359.477	-4.65195	10.07760	-2.59923	14.37827
4363.475	-4.52508	9.82871	-2.36282	14.17939
4367.476	-4.53043	10.06375	-2.34324	13.68024
4371.507	-4.56718	10.05251	-2.34793	14.02343
4375.478	-4.64976	10.45763	-2.47888	14.20226
4379.482	-4.72975	10.14860	-2.37037	14.42831
4383.481	-4.65834	9.79567	-2.48596	14.23809
4387.504	-4.78144	10.05207	-2.29349	14.51197
4391.478	-4.76147	10.01259	-2.34161	14.56479
4395.481	-4.81140	9.76392	-2.43531	14.74626
4399.481	-4.84198	10.01852	NaN	NaN
4403.505	-4.88446	10.22427	-2.19187	14.33241
4407.479	-2.49166	10.21853	-1.90011	12.57747
4411.479	-0.92986	10.44062	-1.77506	13.49305
4415.484	-0.55153	10.72541	1.22992	13.67413
4419.474	0.80791	10.32077	0.75680	12.96595
4423.481	1.45631	10.58427	2.01132	14.17105
4427.439	0.24460	10.74813	4.73663	12.28177
4431.474	1.29194	11.22102	5.95128	12.19054
4435.505	1.52860	11.48619	6.07405	11.59874
4439.481	1.47992	11.62333	6.04659	12.04163
4443.481	1.33803	11.41374	6.07832	12.04660
4447.480	1.49046	11.50194	6.04895	12.08792
4451.504	1.60856	11.53600	6.21325	12.40676
4455.481	1.48208	11.73924	6.72115	13.35168
4459.480	1.49468	11.54163	3.91222	7.41984
4463.484	1.72034	11.22884	3.92314	7.59288
4467.504	2.15371	11.14022	4.23826	7.95123
4471.455	2.33425	11.34391	3.74048	7.99407
4475.481	2.03305	11.60941	4.17245	8.15059
4479.484	2.62586	11.52157	3.97027	8.40523
4483.483	2.62477	11.56731	3.33740	8.28023
4487.440	1.84699	11.67009	5.98167	13.24197
4491.481	1.80891	11.72911	4.50056	13.28561
4495.482	2.00405	11.81728	4.97866	13.40930
4499.476	1.64439	11.84040	5.14015	14.00353
4503.485	1.53902	11.87189	5.20260	14.13592
4507.482	1.45544	12.06603	4.78745	14.26365
4511.475	1.44245	11.89397	5.04454	14.71743
4515.475	1.50911	11.94086	5.29546	14.24219
4519.483	1.46231	12.08353	5.17191	13.99971
4523.482	1.46730	11.95851	5.20108	14.07134
4527.483	1.39014	12.22147	5.19194	14.03490
4531.504	1.41849	12.03210	5.46035	13.91919
4535.485	1.34358	11.94538	NaN	NaN
4539.483	1.37005	12.10131	5.41595	14.26729
4543.485	1.36325	12.09187	5.36796	14.29160
4547.508	1.43317	12.00213	5.35409	13.88400
4551.440	1.41903	12.26742	5.28561	14.15050
4555.440	1.52853	12.01893	5.43615	13.99137
4559.484	1.34686	12.33658	5.52283	14.23852
4563.449	1.43610	12.08485	NaN	NaN
4567.484	1.32977	12.12722	NaN	NaN
4571.483	1.40480	12.08912	NaN	NaN
4575.482	1.31855	12.19992	NaN	NaN
4579.510	1.29744	12.16370	NaN	NaN
4583.485	1.28571	12.16366	5.27498	13.96833
4587.486	1.22434	12.18098	NaN	NaN
4591.484	1.39894	12.07846	4.49731	14.68960
4595.514	1.28976	12.05437	4.53610	14.56415
4599.484	1.28427	12.02800	NaN	NaN
4603.485	1.32679	12.01413	4.56304	14.88509
4607.507	1.28631	11.97793	4.79989	14.79987
4611.485	1.33579	12.00161	NaN	NaN
4615.486	1.27403	11.93172	4.70599	14.83265
4619.483	1.44540	11.88054	NaN	NaN
4623.442	1.47119	11.88767	4.25909	14.91248
4627.489	1.98930	11.83492	5.16935	13.50764
4631.485	2.08173	11.79465	4.60636	13.01087
4635.485	2.04314	11.88337	4.98953	11.83014
4639.477	1.91191	11.73173	4.35652	12.14164
4643.492	1.93137	11.47674	4.73441	11.84999
4647.487	1.87969	11.60372	4.97672	11.69496
4651.486	2.12315	11.65562	4.94965	11.54643
4655.485	1.92766	11.59704	4.71637	11.59931
4659.477	2.23263	11.45175	4.84484	11.68833
4663.483	2.24507	11.49799	4.68324	11.59716
4667.487	2.15281	11.61307	4.65230	12.61745
4671.487	2.34525	11.59776	4.88151	11.12935
4675.446	1.94295	11.49751	4.69004	11.79594
4679.458	-0.27324	9.73997	1.61424	11.99003
4683.486	-0.49902	7.54021	0.33652	7.68052
4687.488	-2.01295	10.96655	-0.23413	7.51868
4691.485	-3.64271	7.59131	-0.47825	7.71743
4695.443	-3.76077	5.23635	-2.23397	5.23884
4699.484	-5.93262	6.91985	-3.16470	2.25240
4703.484	-4.68540	5.25016	-3.93700	4.23440
4707.487	-6.07248	3.58330	-4.40631	3.93635
4711.488	-8.14076	2.80494	-5.49001	2.12526
4715.489	-8.71722	3.40604	-6.86792	-1.09782
4719.469	-8.33263	2.28399	-5.54388	-1.42885
4723.491	-8.70049	1.91590	-6.43650	-2.16576
4727.485	-9.08883	0.93665	-6.95110	-1.69888
4731.487	-8.69241	1.69840	-6.95964	-0.82236
4735.488	-8.67139	0.45607	-6.58080	-0.04927
4739.478	-8.86265	1.01040	-6.89421	-0.18625
4743.488	-9.22654	1.45511	-7.07217	1.92309
4747.487	-9.44409	1.06903	-7.11464	1.81027
4751.486	-9.34906	1.17579	-7.15506	1.80720
4755.493	-9.44960	0.91209	-7.21396	1.51723
4759.488	-9.36319	1.04884	-7.00771	1.27253
4763.486	-9.51816	0.91350	-6.81510	1.39415
4767.443	-9.54771	0.82400	-6.69684	1.73008
4771.481	-9.34142	0.79505	-6.71676	1.59691
4775.486	-9.39117	0.61935	-6.58996	1.50295
4779.489	-9.46783	0.73704	-6.61577	1.48215
4783.487	-9.58755	0.63688	-6.73382	1.44043
4787.487	-9.53402	0.78512	-6.64180	1.39613
4791.490	-9.56513	0.71373	-6.59446	1.28946
4795.445	-9.62251	0.67175	-6.64185	1.21927
4799.486	-9.48297	0.94322	-6.49783	1.16403
4803.456	-9.54373	1.08016	-6.45606	0.68267
4807.488	-9.48466	1.57233	-6.49090	0.65462
4811.487	-9.48811	0.92502	-6.54501	1.16927
4815.486	-9.62803	1.01399	-6.41204	0.35519
4819.387	-9.64463	0.69394	-6.57186	0.78146
4823.487	-9.37598	1.08199	-6.57455	0.74490
4827.487	-9.62347	1.85372	-6.58665	-0.37866
4831.487	-9.72530	1.22420	-6.64633	-1.48588
4835.490	-9.62367	1.08424	-6.54688	-1.11562
4839.487	-9.68973	1.88614	-6.41293	-1.15706
4843.487	-9.61163	1.64927	-6.56289	-1.31659
4847.481	-9.72399	2.02258	-6.51231	-1.40703
4851.481	-9.81469	2.13532	-6.32181	-1.50261
4855.490	-9.72269	2.34615	-6.38366	-1.28255
4859.485	-9.73877	2.22441	-6.37496	-1.58996
4863.446	-9.79889	2.54090	-6.33145	-1.43431
4867.484	-9.78840	2.67509	-6.31838	-1.62051
4871.484	-9.76432	2.51961	-6.43626	-1.48107
4875.487	-9.76163	2.59598	-6.25642	-1.45858
4879.490	-9.84411	2.65182	-6.29693	-1.59193
4883.388	-9.84546	2.99152	-6.51170	-1.51090
4887.488	-9.85038	2.82809	-6.27353	-1.15446
4891.487	-9.84961	2.80343	-6.30129	-1.29984
4895.489	-9.75321	2.90142	-6.36815	-1.53394
4899.491	-9.69810	2.91079	-6.27368	-1.57739
4903.490	-9.67386	2.81299	-6.25088	0.53657
4907.446	-9.47162	2.69858	-6.32512	1.66982
4911.489	-9.54599	2.62589	-6.39481	-0.32957
4915.489	-9.49294	2.75793	-6.26510	1.92791
4919.488	-9.29118	2.58125	-6.25249	1.04470
4923.490	-9.24399	2.47362	-6.23221	1.12892
4927.473	-9.16924	2.23884	-6.23405	1.74124
4931.450	-9.11244	2.17981	-6.21595	1.58832
4935.488	-9.15120	2.10861	-6.23440	1.99091
4939.488	-8.97920	2.10824	-6.56870	2.23894
4943.491	-8.91451	1.59461	-6.46576	2.24288
4947.494	-8.83852	1.25670	-6.77922	0.90120
4951.491	-8.92258	1.50771	-6.71170	0.88829
4955.489	-8.69920	1.53739	-6.45853	-0.38076
4959.491	-8.73938	1.69174	-6.67326	1.30618
4963.450	-8.57170	1.81811	-7.00113	0.39138
4967.501	-8.69840	1.47780	-7.13715	0.15753
4971.455	-8.65948	1.68380	-6.94264	-0.97371
4975.491	-8.82204	1.10492	-7.17771	-1.13142
4979.388	-8.71368	1.32107	-6.96108	-0.59179
4983.488	-8.80527	1.51300	-7.09876	-0.72675
4987.490	-8.68329	1.67942	-6.93836	-1.00795
4991.491	-8.94026	1.49425	-7.05039	-1.05013
4995.388	-8.89487	1.66792	-7.04677	-1.01010
4999.490	-9.08341	1.18612	-7.05452	-0.60227
5003.493	-9.17698	1.36164	-6.84375	0.01145
5007.491	-9.21558	1.21133	-6.78828	0.24579
5011.394	-9.36419	1.21415	-6.79714	0.73884
5015.486	-9.31794	1.44047	-6.79307	1.41360
5019.491	-9.40192	1.54049	-6.64848	2.54788
5023.492	-9.24960	1.46222	-6.72739	2.48471
5027.389	-9.32465	1.40662	-6.58829	2.28463
5031.448	-9.40033	1.26112	-6.77010	2.08547
5035.491	-9.42747	1.35444	-6.71990	2.23698
5039.491	-9.46392	1.41706	-6.38349	2.18276
5043.390	-9.43354	1.40385	-6.51535	1.90371
5047.491	-9.40774	1.30029	-6.71106	2.47720
5051.493	-9.31455	1.64791	-6.46581	2.04587
5055.485	-6.86696	2.25280	-5.50208	2.62775
5059.389	-6.39687	3.65128	-5.06619	3.06754
5063.491	-5.67187	3.32365	-4.41223	2.37681
5067.491	-6.34667	4.44524	-3.94495	2.65631
5071.491	-5.67342	5.16711	-2.27449	1.99554
5075.391	-4.97751	4.97659	-1.83977	3.46318
5079.493	-4.85546	5.04509	-2.10208	4.41356
5083.493	-5.02711	5.01736	-2.15827	3.62337
5087.491	-4.90567	4.84352	-2.29347	2.52764
5091.502	-4.89131	4.86472	-2.11428	3.95967
5095.449	-4.83319	5.02393	-1.97195	2.92494
5099.490	-4.77022	4.67473	-1.76614	2.77400
5103.492	-4.83797	5.16426	-1.76871	3.11421
5107.388	-4.77636	4.65975	-2.04324	3.52175
5111.488	-4.70907	4.91894	-1.73861	2.21742
5115.450	-4.60000	4.43022	-2.04983	3.73771
5119.516	-4.53507	4.10577	-1.86469	3.34169
5123.391	-4.63422	4.26952	-2.03913	3.12086
5127.490	-4.51741	3.77779	-1.87993	3.30305
5131.490	-4.57680	3.93763	-1.95178	3.23555
5135.480	-4.45713	3.73772	-2.08907	2.64421
5139.407	-4.34793	3.82165	-1.81109	2.95511
5143.494	-4.33379	3.31668	-1.90812	2.66165
5147.494	-4.21029	2.80060	-1.93395	2.17894
5151.494	-4.14441	3.28271	-2.04307	2.54548
5155.390	-3.99072	3.13087	-1.96253	2.38012
5159.492	-4.24339	2.93097	-1.85666	2.20597
5163.492	-4.18134	2.99082	-1.95510	2.18464
5167.450	-4.19921	3.15096	-1.81771	2.10805
5171.387	-4.35067	3.30591	-1.74885	2.55650
5175.512	-4.10564	3.41324	-1.63112	2.70260
5179.459	-4.19538	3.47748	-1.70502	2.83782
5183.492	-4.47777	3.54003	-1.68548	3.19550
5187.393	-4.21881	3.47843	-1.50256	3.44902
5191.498	-4.60629	3.60878	-1.54036	3.43933
5195.492	-4.53280	3.64537	-1.52878	3.58816
5199.491	-4.82535	3.81536	-1.38652	3.61805
5203.390	-4.85435	3.79981	-1.59494	3.55986
5207.491	-5.16721	3.69709	-1.53453	3.23394
5211.492	-5.29122	3.89708	-1.49426	1.75586
5215.493	-5.13225	3.70168	-1.49949	1.09166
5219.399	-5.23393	3.45247	-1.62698	0.86526
5223.494	-5.37810	3.71256	-1.47821	3.21436
5227.494	-5.29504	3.82647	-1.32781	1.41131
5231.367	-5.27410	3.85007	-1.33006	3.34580
5235.454	-5.25554	3.58853	-1.83685	2.72411
5239.368	-5.33448	3.77959	-1.42823	3.55951
5243.370	-5.36639	3.81920	-1.48372	3.69048
5247.370	-5.37741	3.74918	-1.71404	2.75182
5251.368	-5.35726	3.84219	-1.24270	3.24273
5255.372	-5.14476	3.66217	-1.28621	2.80763
5259.371	-5.06003	3.72755	-1.40281	2.76418
5263.371	-4.95881	3.78771	-1.27115	2.77627
5267.370	-5.10928	3.89641	-1.42384	2.83835
5271.371	-4.91819	3.76684	-1.43419	2.74283
5275.370	-5.02430	3.84212	-1.53304	2.63952
5279.369	-4.88419	3.79784	-1.39587	2.19047
5283.372	-4.98854	3.61899	-1.46988	1.53831
5287.369	-4.87727	3.58557	-1.49852	1.66001
5291.375	-4.82947	3.50923	-1.42320	1.88352
5295.369	-4.83471	3.53030	-1.48352	1.42954
5299.370	-4.80716	3.50895	-1.50770	1.32945
5303.369	-4.81286	3.47024	-1.51717	1.55955
5307.370	-4.85120	3.43807	-1.54854	1.49099
5311.368	-4.79526	3.37459	-1.56610	1.41087
5315.370	-4.80988	3.33504	-1.60104	1.41762
5319.371	-4.79694	3.33288	-1.53671	1.34080
5323.371	-4.81510	3.38664	-1.70102	1.29695
5327.370	-4.80305	3.42943	-1.79668	1.33092
5331.331	-4.76529	3.31100	-1.58879	1.40862
5335.370	-4.82769	3.67755	-1.79405	1.33269
5339.373	-4.79556	3.53933	-1.94892	1.33731
5343.371	-4.82427	3.66573	-1.69936	1.52307
5347.372	-4.89203	3.43128	-2.00279	1.44111
5351.337	-4.82673	3.23848	-1.96410	1.41424
5355.372	-4.58291	3.40003	-1.99047	1.46043
5359.372	-4.62409	3.31547	-2.00673	1.37360
5363.372	-4.35748	3.33011	-1.92431	1.29409
5367.370	-4.94413	3.40809	-1.63011	1.52868
5371.329	-8.31870	5.86187	-1.16508	1.81417
5375.370	NaN	NaN	-1.24888	8.69988
5379.371	NaN	NaN	0.95060	9.43947
5383.372	NaN	NaN	-2.36537	7.13840
5387.375	NaN	NaN	NaN	NaN
5391.359	NaN	NaN	NaN	NaN
5395.402	NaN	NaN	NaN	NaN
5399.370	NaN	NaN	NaN	NaN
5403.370	NaN	NaN	NaN	NaN
5407.370	NaN	NaN	NaN	NaN
5411.367	NaN	NaN	NaN	NaN
5415.368	NaN	NaN	NaN	NaN
5419.373	NaN	NaN	NaN	NaN
5423.370	NaN	NaN	NaN	NaN
5427.371	NaN	NaN	NaN	NaN
5431.360	NaN	NaN	NaN	NaN
5435.360	NaN	NaN	NaN	NaN
5439.341	NaN	NaN	NaN	NaN
5443.332	NaN	NaN	NaN	NaN
5447.370	NaN	NaN	NaN	NaN
5451.370	NaN	NaN	NaN	NaN
5455.373	NaN	NaN	NaN	NaN
5459.364	NaN	NaN	NaN	NaN
5463.374	NaN	NaN	NaN	NaN
5467.373	NaN	NaN	NaN	NaN
5471.331	NaN	NaN	NaN	NaN
5475.365	NaN	NaN	6.49957	5.33043
5479.374	NaN	NaN	6.31529	14.23572
5483.371	NaN	NaN	3.15416	1.92125
5487.371	NaN	NaN	8.58828	1.86186
5491.335	16.10903	9.11596	3.89755	-2.39861
5495.332	11.90702	8.82189	8.57534	5.18705
5499.372	12.67239	0.18161	3.03987	-0.95704
5503.372	0.61178	0.86787	2.92463	1.93671
5507.366	-2.48805	0.09255	13.88595	4.62925
5511.374	5.82670	2.47662	8.04633	5.38827
5515.362	0.12813	5.23133	2.05375	1.90247
5519.373	7.03313	4.48018	4.97238	2.14321
5523.374	2.39579	4.07949	6.57597	4.52950
5527.373	2.27966	4.55148	3.49542	2.52430
5531.375	1.75094	4.41627	7.25062	3.79448
5535.373	1.97292	4.76438	3.33893	3.75538
5539.373	1.95981	4.58196	7.15921	4.00471
5543.373	1.95765	4.65023	7.35952	4.92239
5547.374	2.26145	4.40189	7.08094	3.77922
5551.331	2.47712	4.36401	6.70320	1.46403
5555.368	2.47298	4.42071	6.83369	0.31299
5559.340	2.70795	4.66934	5.67585	0.19295
5563.337	2.76861	4.75465	6.69304	-0.09045
5567.373	2.43476	4.07342	5.97025	0.28925
5571.375	2.72947	3.75299	6.64888	0.20839
5575.331	2.41514	3.38124	6.41574	0.87352
5579.374	2.55131	2.66247	6.11981	1.30589
5583.375	2.50781	2.11622	6.06912	1.90236
5587.369	2.75618	2.26703	6.61550	2.94242
5591.375	2.56094	3.18716	6.81294	3.06803
5595.376	2.44432	3.05722	6.90505	2.67892
5599.355	2.36621	2.78148	6.42141	2.99240
5603.346	2.29882	2.84509	4.65471	0.38166
5607.375	2.27630	3.16136	4.95526	0.49544
5611.373	2.20124	3.02298	4.70495	0.50149
5615.379	2.18315	3.15248	4.27792	0.58152
5619.376	2.11537	2.92396	3.88122	0.45341
5623.376	2.00522	3.23166	4.15302	0.52486
5627.376	1.96481	3.31315	6.71025	2.89204
5631.376	1.93973	3.42505	6.80812	2.90026
5635.368	1.90708	3.10191	6.83873	2.89988
5639.365	1.89203	3.18833	6.33135	2.50459
5643.366	1.87624	3.15127	6.17308	2.89704
5647.374	1.90829	3.19885	6.48815	2.78952
5651.367	1.78138	3.11999	6.19761	2.83710
5655.374	1.82363	3.10617	6.56691	4.26390
5659.376	1.75587	2.70493	6.53838	2.83968
5663.376	1.70804	3.03134	6.20548	3.56173
5667.376	1.82661	3.08029	6.37920	2.69131
5671.376	1.74700	3.03440	6.13220	2.69130
5675.375	1.71818	2.99338	6.33888	-2.01372
5679.376	1.86427	3.16112	6.09368	-1.74306
5683.369	2.51834	2.01105	5.94438	-1.00819
5687.375	3.46150	3.54472	8.92999	3.98374
5691.378	6.64435	6.93777	9.01496	3.62769
5695.379	7.30942	6.35885	9.42709	8.26823
5699.369	7.77800	8.42556	12.18279	8.06044
5703.376	9.49241	6.73617	14.78602	10.04816
5707.376	10.31146	8.95022	14.78923	9.47084
5711.379	10.26485	9.05686	14.82119	12.68059
5715.378	11.81008	9.19151	NaN	NaN
5719.379	12.29500	10.69557	NaN	NaN
5723.362	11.79503	11.04397	14.06326	14.68496
5727.382	11.85661	10.43224	14.76120	11.41260
5731.379	11.70373	10.67178	14.77858	11.71140
5735.334	11.99270	10.89514	14.77041	12.08787
5739.378	11.97536	11.49612	15.10737	10.83933
5743.378	11.97066	12.39901	14.94023	12.24666
5747.376	11.90162	11.49359	14.96775	13.67539
5751.333	11.90208	11.01316	15.15568	12.23386
5755.377	11.88720	11.37315	15.38932	13.84118
5759.376	11.98650	10.64501	15.78244	13.80350
5763.378	11.99391	10.28896	15.51539	14.34495
5767.379	12.11894	10.90719	15.58536	14.03120
5771.377	11.87776	10.46863	NaN	NaN
5775.377	11.82468	11.11809	NaN	NaN
5779.381	11.84772	11.45144	15.72662	14.01807
5783.376	11.91721	11.64575	15.58872	12.53038
5787.379	11.54099	11.91569	15.14625	13.17679
5791.378	11.36069	11.72085	15.30127	13.78468
5795.380	11.75469	10.53302	15.14181	14.21893
5799.343	12.10592	10.61675	15.75943	13.80300
5803.380	11.42923	10.60807	NaN	NaN
5807.357	11.54542	11.07367	NaN	NaN
5811.349	11.65965	11.29950	NaN	NaN
5815.378	11.46821	11.61479	14.30676	11.75364
5819.378	11.36601	12.09078	14.53884	11.30371
5823.378	11.90255	11.48489	13.79599	12.40967
5827.372	12.08167	11.27226	13.91773	12.40647
5831.380	11.49343	10.76009	13.66395	14.01049
5835.380	11.56526	10.99007	13.57462	14.09654
5839.380	11.65625	10.62339	NaN	NaN
5843.390	11.44501	11.19731	NaN	NaN
5847.335	11.50375	11.34610	NaN	NaN
5851.378	11.44673	11.58403	NaN	NaN
5855.375	11.38566	11.47563	NaN	NaN
5859.373	11.32834	11.94332	NaN	NaN
5863.379	11.27104	11.91519	15.16509	14.10751
5867.379	11.35129	12.13466	NaN	NaN
5871.378	11.31281	11.92146	NaN	NaN
5875.384	11.24982	12.03674	NaN	NaN
5879.378	11.31772	11.89927	15.03450	11.57465
5883.379	11.21011	11.70019	14.68821	11.35185
5887.379	11.16330	11.41854	15.21303	11.41366
5891.382	11.18351	12.00701	14.52358	11.60240
5895.340	11.11437	10.79945	14.33795	11.66671
5899.378	11.14792	10.99668	14.17602	11.88287
5903.378	11.17949	11.48730	14.18892	12.55234
5907.384	11.44826	11.59136	14.10552	12.91410
5911.378	11.28464	11.61672	14.26434	14.45563
5915.382	11.36491	11.45091	14.59052	13.88963
5919.382	11.17417	11.60926	14.29433	14.15570
5923.276	11.13265	11.87381	NaN	NaN
5927.381	11.18890	11.87748	NaN	NaN
5931.363	11.48256	12.06924	NaN	NaN
5935.338	11.40639	12.16500	14.55658	14.36341
5939.287	11.23399	11.42400	16.91967	13.90943
5943.378	11.62025	10.46448	12.44910	13.93077
5947.379	11.28374	11.45496	13.83154	13.25841
5951.378	11.35690	11.50574	14.28399	13.68314
5955.275	11.27531	11.06036	14.60590	13.13017
5959.378	11.27359	11.27123	14.48218	13.27628
5963.380	11.33075	11.62769	14.72501	12.51252
5967.379	11.31705	11.76793	14.13225	12.77405
5971.373	11.30037	12.00960	14.24823	13.18821
5975.346	11.29889	11.88955	14.53581	12.57520
5979.380	11.22317	11.80184	14.08981	13.40181
5983.337	11.31113	11.70550	14.29825	13.16571
5987.278	11.23759	11.88324	14.39976	12.71034
5991.338	11.24282	11.90587	14.49020	12.91025
5995.362	11.28725	11.89718	14.47371	12.98183
5999.379	11.53148	11.98345	14.64552	12.69309
6003.280	11.66396	11.95930	15.01265	12.14682
6007.380	11.22277	11.98735	14.84332	12.43722
6011.382	11.12863	12.00970	14.80906	13.32542
6015.360	11.03468	12.00267	14.38942	12.96302
6019.270	11.23012	12.00280	14.70126	12.78084
6023.382	11.35558	11.93207	14.45223	12.98746
6027.381	11.24776	12.02221	14.46366	12.70361
6031.382	11.32218	12.07225	14.75214	13.58959
6035.358	11.18406	12.10749	14.77004	13.25681
6039.387	11.07176	12.05799	14.67186	13.34369
6043.381	11.00180	12.03150	13.99022	13.43487
6047.379	11.00718	12.01958	14.43100	13.01134
6051.384	11.34227	11.87721	14.85857	13.58224
6055.372	11.26849	11.95941	15.06357	13.39961
6059.372	11.58829	11.75318	NaN	NaN
6063.383	11.49159	11.69820	NaN	NaN
6067.384	11.54799	11.61965	NaN	NaN
6071.382	11.28319	11.77832	NaN	NaN
6075.381	11.07059	13.01469	19.11061	13.48588
6079.379	NaN	NaN	NaN	NaN
6083.281	NaN	NaN	NaN	NaN
6087.383	NaN	NaN	NaN	NaN
6091.381	NaN	NaN	NaN	NaN
6095.387	NaN	NaN	NaN	NaN
6099.357	NaN	NaN	NaN	NaN
6103.380	NaN	NaN	NaN	NaN
6107.381	NaN	NaN	NaN	NaN
6111.382	NaN	NaN	NaN	NaN
6115.281	NaN	NaN	NaN	NaN
6119.339	NaN	NaN	NaN	NaN
6123.385	NaN	NaN	NaN	NaN
6127.388	NaN	NaN	NaN	NaN
6131.280	NaN	NaN	NaN	NaN
6135.339	NaN	NaN	NaN	NaN
6139.365	NaN	NaN	NaN	NaN
6143.379	NaN	NaN	NaN	NaN
6147.387	NaN	NaN	NaN	NaN
6151.339	11.73818	13.64034	11.06136	6.35543
6155.380	NaN	NaN	14.46163	13.45796
6159.381	12.40955	11.75627	8.87958	9.79713
6163.386	12.58306	10.87310	17.52390	13.92675
6167.385	NaN	NaN	NaN	NaN
6171.384	16.11061	11.50276	10.36559	9.16944
6175.385	14.59066	13.58473	13.92674	13.75274
6179.279	14.71240	13.57976	17.35552	10.61158
6183.383	17.04348	13.42759	14.41112	11.58830
6187.339	14.39303	10.91130	14.27028	8.95587
6191.386	12.89657	12.66195	14.17808	13.83932
6195.282	12.66757	10.71114	12.98735	9.19468
6199.387	12.18469	13.22652	13.01819	13.69902
6203.383	12.33148	10.71498	11.31865	8.64134
6207.383	11.83840	10.57472	NaN	NaN
6211.281	12.44399	10.22022	14.38118	8.57658
6215.383	10.91205	10.93968	14.26604	3.94035
6219.385	11.34726	9.21972	13.99573	8.84300
6223.363	11.03846	10.59338	16.68742	4.37263
6227.279	11.13762	10.09876	13.78394	12.46874
6231.382	11.10443	7.96069	13.78274	7.19544
6235.386	11.34738	10.64582	17.05945	2.82373
6239.385	11.45298	10.04823	14.55274	9.15930
6243.282	11.02093	10.59965	19.71201	3.50751
6247.384	11.45460	10.16674	15.73375	11.24696
6251.386	11.35210	9.17493	14.45837	7.91412
6255.388	11.09810	8.03399	16.99683	6.04930
6259.281	11.32125	10.35512	19.95084	3.44442
6263.372	11.12099	9.99685	22.93988	-0.01249
6267.376	11.49905	9.07117	18.96060	7.55873
6271.226	11.50806	9.62303	16.74305	6.77036
6275.231	11.59951	10.85861	22.38618	4.03431
6279.262	11.49185	11.10349	13.87173	13.15548
6283.261	12.13028	11.18029	NaN	NaN
6287.259	12.39194	11.44027	NaN	NaN
6291.253	13.07928	11.29761	NaN	NaN
6295.262	NaN	NaN	NaN	NaN
6299.219	NaN	NaN	NaN	NaN
6303.258	NaN	NaN	NaN	NaN
6307.362	NaN	NaN	NaN	NaN
6311.244	NaN	NaN	NaN	NaN
6315.217	NaN	NaN	NaN	NaN
6319.259	NaN	NaN	NaN	NaN
6323.258	NaN	NaN	NaN	NaN
6327.255	NaN	NaN	NaN	NaN
6331.260	NaN	NaN	NaN	NaN
6335.258	NaN	NaN	NaN	NaN
6339.258	NaN	NaN	NaN	NaN
6343.262	NaN	NaN	NaN	NaN
6347.261	NaN	NaN	NaN	NaN
6351.259	NaN	NaN	NaN	NaN
6355.255	NaN	NaN	NaN	NaN
6359.258	NaN	NaN	NaN	NaN
6363.263	NaN	NaN	NaN	NaN
6367.263	NaN	NaN	NaN	NaN
6371.261	NaN	NaN	NaN	NaN
6375.260	NaN	NaN	NaN	NaN
6379.264	NaN	NaN	NaN	NaN
6383.259	NaN	NaN	NaN	NaN
6387.259	NaN	NaN	NaN	NaN
6391.218	NaN	NaN	NaN	NaN
6395.241	NaN	NaN	NaN	NaN
6399.260	NaN	NaN	NaN	NaN
6403.263	NaN	NaN	NaN	NaN
6407.261	NaN	NaN	NaN	NaN
6411.262	NaN	NaN	NaN	NaN
6415.260	NaN	NaN	NaN	NaN
6419.230	NaN	NaN	NaN	NaN
6423.263	NaN	NaN	NaN	NaN
6427.264	NaN	NaN	NaN	NaN
6431.263	NaN	NaN	NaN	NaN
6435.223	NaN	NaN	NaN	NaN
6439.252	NaN	NaN	NaN	NaN
6443.261	NaN	NaN	10.14533	3.19220
6447.260	NaN	NaN	-4.84218	-2.15965
6451.262	NaN	NaN	NaN	NaN
6455.218	-10.54723	1.32654	NaN	NaN
6459.264	-3.48887	13.28622	2.59118	-4.51486
6463.265	-3.63203	4.08178	1.88628	-1.94652
6467.263	0.82414	6.27754	1.74843	-0.38970
6471.256	5.31098	1.91984	1.59579	-0.85712
6475.262	1.04957	4.01861	1.45596	0.16542
6479.229	0.61268	2.00556	0.75412	0.52319
6483.262	-1.54708	1.93619	0.93867	0.34602
6487.223	-1.22328	2.23366	12.27609	-0.32364
6491.264	-0.70332	2.04277	10.82399	-0.59473
6495.265	-2.12647	2.17132	1.33683	0.73289
6499.267	-1.46454	2.15997	0.67017	0.41517
6503.267	-2.29597	2.38463	0.91726	0.15539
6507.266	-1.99218	2.78645	1.77675	0.43936
6511.265	-2.25600	2.95994	1.27599	1.73334
6515.264	-2.31703	4.04592	1.45172	1.34135
6519.258	-2.54254	3.62651	1.44036	1.88314
6523.264	-2.56030	3.89294	1.86025	1.70362
6527.264	-2.83781	1.99643	1.74474	1.17550
6531.265	-2.79466	1.64474	1.58482	1.53569
6535.261	-2.98297	1.66430	1.53314	0.25938
6539.263	-3.38080	1.79744	0.45038	-0.85512
6543.265	-3.50215	2.92520	0.88741	-3.34271
6547.265	-3.76092	3.56310	1.85718	-1.18978
6551.289	-3.75469	4.31409	1.12593	-0.28757
6555.264	-3.79119	4.37095	0.33836	1.20717
6559.263	-3.28189	1.49702	0.51758	-1.93744
6563.226	-3.98217	1.83877	1.14935	-2.77528
6567.257	-4.24480	3.47461	0.59230	-0.64731
6571.267	-3.91195	2.64236	0.34447	-0.04155
6575.267	-3.83529	3.81071	0.33727	0.04326
6579.263	-4.02836	3.66855	0.59813	-1.48631
6583.292	-3.66266	2.24474	0.45629	-1.68535
6587.264	-3.50126	1.25747	-0.90793	-1.47305
6591.264	-3.09131	1.93061	-1.23883	0.26930
6595.267	-2.90450	2.54542	-0.53359	-0.37167
6599.261	-3.07560	3.93219	0.68613	-0.17150
6603.246	-3.10794	3.75978	0.98951	-0.13417
6607.265	-3.11188	4.48910	0.68967	-1.73883
6611.264	-3.22888	3.61945	0.01298	-1.43576
6615.226	-3.29659	1.00048	0.75315	-2.00796
6619.265	-3.18113	0.34256	0.71982	-1.89378
6623.265	-3.21938	1.54940	0.38184	-1.01516
6627.263	-3.43909	2.17351	0.47026	-0.61510
6631.269	-3.78252	3.18002	0.57632	0.21329
6635.266	-4.01546	3.75676	0.59322	0.58403
6639.268	-4.24226	3.88259	0.29113	-0.85349
6643.253	-3.63989	2.90720	-0.12210	-2.31788
6647.285	-3.56141	2.56733	-0.33298	-0.86805
6651.267	-3.98385	0.48737	0.07870	-0.36356
6655.267	-3.87687	2.20654	-0.76382	0.30509
6659.264	-3.97625	2.39331	-0.08354	-1.48371
6663.226	-4.08505	3.00582	0.28252	-0.90420
6667.264	-3.87191	3.22872	0.29347	-1.73772
6671.264	-3.65171	0.20399	0.14186	-1.42346
6675.265	-3.82143	2.36697	0.70744	-0.37606
6679.226	-3.70351	2.78564	0.01263	-0.02075
6683.265	-3.49327	3.32040	0.54113	-2.62611
6687.233	-3.72131	2.23610	0.51426	-0.37523
6691.268	-3.73890	1.44400	0.52873	0.10409
6695.262	-3.57777	2.40490	0.40204	0.31326
6699.271	-3.61700	3.04496	0.58245	-2.76087
6703.264	-4.14947	3.43343	0.52401	-1.00396
6707.265	-3.74231	1.48382	0.39834	0.55520
6711.260	-3.90575	2.30694	0.45718	0.79920
6715.266	-3.92976	2.76200	0.25376	-1.68214
6719.268	-4.09402	2.69302	0.83654	-2.73201
6723.266	-4.06636	3.07517	0.32091	-0.64982
6727.228	-3.89520	2.50032	0.17901	0.78327
6731.261	-3.87922	2.34260	0.32831	0.99238
6735.270	-3.99813	2.57478	0.53503	-2.57407
6739.226	-4.04967	3.05600	0.95403	-2.89829
6743.289	-3.95999	3.22682	0.23172	-1.54682
6747.270	-3.78027	0.21480	0.66563	-0.55962
6751.268	-3.55641	2.48792	0.47696	-0.16370
6755.268	-3.69733	2.55383	0.24202	-1.22832
6759.259	-3.78306	2.98759	0.32920	-2.99388
6763.269	-3.68065	2.97313	0.66895	-2.18194
6767.263	-3.69882	0.41604	1.05424	-1.25762
6771.263	-3.72615	2.23010	1.03593	-0.77221
6775.260	-3.76314	2.76373	0.19854	-3.61376
6779.270	-3.74464	3.22025	-0.50577	-1.47352
6783.269	-3.46746	0.71314	-0.84176	-0.48037
6787.267	-3.19316	2.66024	0.00246	0.35792
6791.269	-3.39161	3.22947	-0.46284	-3.15151
6795.225	-3.66550	2.76680	-0.31808	-1.44286
6799.252	-3.74669	0.44022	-0.63791	0.70656
6803.272	-3.64150	2.09495	-0.23217	-0.79745
6807.292	-3.86430	2.58731	0.34285	-3.41575
6811.243	-3.16607	2.18335	0.13853	-3.11023
6815.269	-2.67266	1.13008	0.33625	-0.61508
6819.270	-0.61340	0.73093	4.01258	-0.73406
6823.273	1.62232	1.14109	3.76297	0.44249
6827.268	1.68478	1.02500	5.35719	0.44584
6831.268	1.56518	1.63362	6.38935	-0.28132
6835.269	1.81431	0.62201	6.41373	-3.49012
6839.262	1.82244	0.38139	6.65443	-0.96571
6843.272	1.85482	0.67755	6.70472	-1.28476
6847.270	1.66579	1.24929	6.84118	0.12800
6851.259	1.79450	1.34577	6.61482	0.16637
6855.264	1.88747	0.43978	6.83479	-4.35290
6859.264	1.70804	-0.25235	7.43766	-4.17647
6863.225	1.80856	0.15369	7.68927	-1.80550
6867.271	1.78991	0.15637	7.19571	-1.20991
6871.262	1.85090	1.43171	7.28481	-0.21484
6875.267	1.76093	0.10208	7.40740	-3.18885
6879.267	1.70045	0.01190	7.86466	-2.22230
6883.268	1.74152	0.21594	6.45890	-1.58807
6887.270	1.66666	0.53203	7.33418	0.27983
6891.270	1.84736	-0.50516	7.02575	-2.58919
6895.227	1.74962	-0.67428	6.99600	-2.39308
6899.271	1.78476	0.53465	6.20413	-0.99998
6903.264	1.81642	-0.10523	7.24336	-1.13416
6907.270	1.56861	-0.02703	7.22153	-5.41452
6911.269	1.54703	0.84299	6.80849	-2.90919
6915.268	1.62899	1.77374	7.40191	-1.70766
6919.270	1.69180	-0.01736	7.71255	-1.03775
6923.270	1.98826	-0.69825	7.37760	-2.83766
6927.227	1.71610	0.46806	6.55888	-3.16290
6931.227	1.55705	1.47249	6.39016	-2.26563
6935.204	1.59417	-0.18893	7.58924	-1.66140
6939.265	1.46564	-0.65779	6.32223	-0.86661
6943.270	1.78570	-0.09220	6.90671	-1.80363
6947.272	1.46167	-0.79084	6.39261	-3.31875
6951.264	1.56613	-0.09064	6.78174	-4.68884
6955.270	2.17688	-0.30666	7.82053	-4.13621
6959.270	1.74171	-0.28826	8.38313	-4.64466
6963.272	2.17041	-0.25415	9.40240	-3.59383
6967.167	1.52484	-0.21772	6.93337	-2.23494
6971.269	1.52270	-0.31500	7.79459	-2.34442
6975.266	1.47603	-0.31958	7.31731	-1.90115
6979.264	1.64972	-0.67102	6.62770	-0.81886
6983.165	1.50383	-0.38746	6.72969	-2.20039
6987.270	1.50948	-0.39829	6.31666	-2.18111
6991.272	1.68354	-0.34691	6.72558	-2.99436
6995.273	1.81776	-0.04654	7.59061	-4.79143
6999.231	1.66735	-0.38415	6.41959	-4.64558
7003.276	1.79891	-0.25855	6.65463	-4.94082
7007.273	1.61592	-0.30388	7.90711	-4.72107
7011.273	1.40175	-0.35220	8.71707	-4.51456
7015.171	1.34053	-0.34801	7.77956	-3.69388
7019.251	1.74350	-0.52622	8.68225	-3.38775
7023.271	1.83642	-0.43038	7.78552	-2.58589
7027.272	1.81865	-0.49098	7.72805	-2.24173
7031.168	1.64174	-0.42429	6.58746	-1.70506
7035.271	1.30950	0.57310	6.54658	-1.42472
7039.271	1.80826	-0.27795	6.65627	-0.68140
7043.273	1.64781	-0.29372	6.23327	-0.64591
7047.176	1.34581	-0.15392	6.35483	-0.72880
7051.230	1.52342	-0.22336	6.90013	-1.00845
7055.272	1.31697	-0.21710	7.55596	-1.24931
7059.273	1.55152	-0.28571	7.39044	-1.92358
7063.167	1.64176	-0.22747	7.88777	-2.36635
7067.271	1.53848	-0.29565	8.06244	-2.92074
7071.273	1.51067	-0.45013	8.35031	-3.47479
7075.272	1.54537	-0.32374	8.54411	-3.07246
7079.276	1.63216	-0.63059	7.97960	-4.20786
7083.273	1.55380	-0.80486	6.26937	-3.45773
7087.269	1.54076	-1.18183	6.26750	-3.39862
7091.271	1.62244	-1.48624	7.19835	-3.88440
7095.171	1.52057	-1.63443	5.88837	-4.88627
7099.270	1.49044	-1.37353	7.12271	-5.33183
7103.272	1.41115	-1.69522	7.33852	-5.15282
7107.271	1.53277	-1.51786	6.77423	-4.38151
7111.275	1.46363	-1.45090	6.59461	-4.49788
7115.229	1.67149	-1.46881	6.31421	-3.84994
7119.275	1.55484	-1.56287	6.41655	-4.66719
7123.273	1.57280	-1.58619	7.12764	-4.27266
7127.170	1.61652	-1.56101	8.51190	-3.65395
7131.274	2.34887	-1.89892	9.48468	-5.51341
7135.272	2.56087	-2.30219	10.02066	-5.72428
7139.271	1.88985	-1.68193	9.55915	-5.98600
7143.170	2.02894	-2.52407	10.21555	-7.43909
7147.276	2.15633	-2.60368	8.58760	-6.58842
7151.273	2.75539	-2.28507	9.92102	-6.59059
7155.272	2.56647	-2.49363	9.27810	-5.26066
7159.279	1.83595	-2.19920	9.60900	-6.44488
7163.276	2.22698	-2.67049	10.80493	-7.11389
7167.273	1.92334	-2.21526	9.46790	-6.84277
7171.284	2.11603	-2.29389	10.32030	-7.38271
7175.171	2.22190	-2.56615	8.89998	-6.44775
7179.276	1.86999	-1.82591	8.71800	-6.76316
7183.270	1.89860	-2.18077	8.46828	-6.45647
7187.267	1.86094	-1.90618	8.72023	-6.57587
7191.170	2.01583	-1.94925	8.97225	-6.52581
7195.248	1.88603	-1.87696	8.93314	-6.29767
7199.273	1.79118	-2.07849	8.88918	-6.84333
7203.272	1.93313	-2.11558	8.75325	-6.60103
7207.169	1.95820	-2.34351	8.78563	-6.38906
7211.275	1.90805	-2.39103	8.33950	-6.31494
7215.273	2.05264	-2.53597	8.54549	-6.51995
7219.274	2.14012	-2.60361	8.35998	-6.48527
7223.286	2.27751	-5.07990	7.58432	-6.53057
7227.276	2.24453	-4.89562	7.51891	-6.96612
7231.274	2.30340	-4.99511	6.84054	-6.73179
7235.273	2.45795	-4.93093	6.48200	-7.13116
7239.279	2.38276	-4.63840	6.10203	-6.94394
7243.277	2.43915	-4.48277	6.10185	-6.92724
7247.276	2.52208	-3.46067	6.25308	-6.69328
7251.273	2.45478	-3.68841	7.07051	-6.10341
7255.281	2.55790	-3.19719	6.20021	-6.51219
7259.277	2.53573	-3.63760	6.41954	-6.04097
7263.275	2.44534	-3.33594	6.24693	-5.38568
7267.263	2.49941	-3.19505	6.21934	-5.45393
7271.280	2.47405	-2.47503	6.31698	-5.38631
7275.276	2.27179	-2.17862	6.36493	-5.24223
7279.275	2.15494	-3.07809	6.30369	-4.19096
7283.275	2.20686	-3.06043	6.92031	-5.58289
7287.279	2.15259	-2.62869	6.73179	-4.85335
7291.275	2.01821	-1.80774	7.01939	-4.96380
7295.232	2.37411	-2.95170	6.84808	-4.68905
7299.150	2.23457	-3.61878	8.78006	-5.13993
7303.170	2.08032	-4.62558	7.28063	-4.67428
7307.147	2.19963	-4.21336	7.07454	-5.52502
7311.147	2.28697	-4.36014	7.26723	-7.68893
7315.130	1.97223	-3.82900	7.96183	-7.61917
7319.171	2.16228	-3.41165	7.57054	-7.20108
7323.152	1.92071	-3.53502	8.39251	-6.97558
7327.151	2.22000	-3.25025	8.33710	-6.73803
7331.149	2.49847	-3.18615	7.96281	-5.86569
7335.151	2.14815	-3.01848	8.40222	-5.46712
7339.152	2.53736	-3.79104	8.74872	-5.52306
7343.151	2.58836	-3.29723	8.78197	-5.87750
7347.150	2.58437	-3.60218	8.55226	-6.16018
7351.154	2.00487	-3.01513	8.49486	-6.08816
7355.142	2.20979	-3.01350	7.90479	-5.71997
7359.140	1.77052	-3.07236	5.97308	-6.59798
7363.109	0.17921	-4.01157	5.22111	-4.28336
7367.145	-1.69545	-2.75510	2.88141	-6.03971
7371.154	-2.91648	-3.16924	0.94135	-5.21719
7375.136	-4.57630	-1.88891	-1.30486	-5.67480
7379.152	-4.84272	-2.52089	-2.67608	-7.30740
7383.172	-7.10216	-1.96151	-4.09994	-6.81118
7387.150	-7.55752	-1.54027	-6.03633	-7.00788
7391.149	-9.29715	-2.15781	-7.38324	-6.69477
7395.108	-9.46194	-2.11317	-6.45098	-6.56351
7399.156	-9.63440	-1.74494	-6.74782	-6.39138
7403.161	-9.64695	-1.84378	-6.48490	-6.50336
7407.150	-9.49202	-1.84878	-6.49835	-6.69756
7411.152	-9.41784	-2.03745	-6.66440	-6.63450
7415.152	-9.57541	-1.89074	-6.69615	-6.32117
7419.152	-9.66668	-1.86603	-7.28349	-6.42134
7423.150	-9.68783	-1.80614	-7.49102	-6.29227
7427.152	-9.79843	-2.06710	-6.98243	-6.48955
7431.154	-9.85310	-1.93158	-7.10553	-6.50917
7435.153	-9.88022	-1.81245	-6.86934	-6.17654
7439.135	-9.90862	-2.46845	-6.83235	-6.39992
7443.148	-9.86789	-3.60301	-6.79241	-5.98586
7447.174	-9.94118	-4.38424	-6.82564	-5.78174
7451.152	-9.89484	-4.38023	-6.90857	-4.70404
7455.151	-9.87659	-3.94095	-6.77362	-5.37329
7459.153	-9.87943	-4.02684	-6.57014	-5.24308
7463.177	-9.87750	-2.75073	-6.70687	-5.16830
7467.154	-9.89277	-2.95147	-6.80399	-5.56254
7471.153	-9.91344	-2.94155	-6.68465	-5.50275
7475.156	-9.62859	-2.51080	-6.70364	-5.45554
7479.181	-9.48248	-2.70087	-6.34942	-6.22126
7483.119	-9.44851	-2.63930	-5.86379	-6.02691
7487.154	-9.58101	-2.85290	-6.07209	-5.89326
7491.151	-9.55594	-3.29184	-6.44157	-6.14574
7495.155	-9.63824	-3.38939	-6.19427	-5.82838
7499.151	-9.71160	-3.60346	-6.12269	-5.60271
7503.153	-9.87647	-3.56312	-6.26807	-6.05367
7507.158	-9.78710	-3.73839	-6.25338	-6.27706
7511.155	-9.75883	-3.85035	-6.22199	-6.16171
7515.152	-9.73966	-3.95025	-6.33809	-6.20880
7519.154	-9.74227	-4.10867	-6.25007	-5.63778
7523.134	-9.78245	-3.74290	-6.29884	-3.75194
7527.146	-9.78922	-3.63853	-6.22898	-4.58023
7531.154	-9.66899	-3.22286	-6.12219	-4.47140
7535.154	-9.71992	-3.92832	-6.17379	-4.81810
7539.152	-9.59836	-3.62431	-6.29820	-4.67785
7543.147	-9.69330	-3.81757	-6.36555	-5.64506
7547.152	-9.71874	-3.83657	-6.34383	-4.83049
7551.156	-9.99508	-3.84245	-6.28420	-6.00243
7555.154	-9.81802	-4.15166	-6.40888	-5.94933
7559.149	-9.77934	-3.41463	-6.46885	-5.79415
7563.117	-9.71799	-3.81254	-6.50815	-6.08328
7567.147	-9.62910	-3.37864	-6.47997	-5.30728
7571.156	-9.59756	-2.57373	-6.69508	-6.22147
7575.176	-9.75181	-3.46094	-6.56267	-6.18019
7579.155	-9.85944	-3.73599	-6.06647	-5.58952
7583.113	-9.63532	-2.42996	-6.08149	-5.32580
7587.158	-9.70647	-3.32429	-6.64185	-5.07888
7591.176	-9.17718	-3.51501	-5.69037	-5.43616
7595.113	-6.29955	-3.17690	-3.67820	-5.16996
7599.155	-5.51993	-2.22530	-1.79800	-4.17338
7603.155	-3.88950	-3.56034	-1.63980	-3.72338
7607.149	-3.53770	-2.57475	1.34368	-3.32318
7611.155	-2.91480	-3.48163	1.65847	-3.82103
7615.112	-1.44257	-3.52344	2.50860	-3.06868
7619.156	0.03023	-3.82434	4.67315	-2.83857
7623.158	0.05998	-3.43683	5.40073	-3.07920
7627.156	0.24093	-3.70950	5.22997	-3.01014
7631.158	0.07738	-3.58316	4.27842	-2.27306
7635.153	-0.35757	-3.69726	5.12208	-2.58955
7639.156	0.15975	-3.69663	4.08915	-2.37885
7643.158	0.34526	-3.53983	4.32834	-1.81425
7647.140	0.19067	-3.11882	5.28679	-1.74442
7651.158	0.21631	-2.86345	5.01861	-1.40074
7655.177	0.19082	-2.44865	6.30085	-1.69043
7659.156	0.12982	-2.70971	6.24009	-1.67281
7663.157	0.12967	-2.36518	5.38415	-2.39105
7667.156	0.15030	-2.07215	5.43573	-1.72195
7671.159	-0.12379	-1.64386	5.15859	-2.05740
7675.156	0.14565	-2.05771	5.20807	-1.68876
7679.113	0.00375	-1.92474	4.16542	-2.68222
7683.157	-0.09200	-1.91319	4.06606	-2.42778
7687.174	-0.14635	-1.58070	4.40063	-3.03333
7691.124	-0.11245	-1.82179	3.87860	-3.34913
7695.158	-0.15568	-1.75236	3.62885	-2.91183
7699.170	-0.17362	-1.84001	5.02009	-3.05630
7703.148	-0.16732	-2.38495	4.99019	-2.91779
7707.160	-0.23120	-1.85884	4.94408	-1.20575
7711.158	-0.27647	-2.20537	4.99083	-1.39400
7715.158	-0.24818	-2.62130	5.11671	-1.51990
7719.177	-0.30488	-3.32942	4.77710	-2.27265
7723.115	-0.22390	-3.95139	4.35570	-1.88886
7727.158	-0.20313	-2.48662	4.15754	-2.89659
7731.135	-0.26686	-2.54861	4.84874	-3.26770
7735.128	0.16725	-2.06322	4.38909	-3.86705
7739.158	0.33583	-2.36329	5.03657	-6.48183
7743.118	0.47398	-2.35643	5.18082	-2.07018
7747.160	0.26302	-4.11742	5.19069	-2.35189
7751.149	-0.14662	-2.83354	4.63617	-2.09594
7755.157	0.06961	-2.55741	5.04890	-2.00067
7759.158	0.22194	-2.93688	4.52042	-2.29087
7763.159	-0.22874	-3.42906	4.93253	-3.07934
7767.151	-0.14220	-4.25883	4.90410	-3.28401
7771.149	-0.29982	-3.69149	4.66290	-3.06389
7775.150	-0.26314	-4.12164	4.43162	-3.39829
7779.159	-0.18402	-3.10322	4.92531	-3.79754
7783.152	-0.30791	-3.42121	4.89971	-4.09552
7787.161	-0.09537	-3.42227	4.36570	-3.63810
7791.158	-0.15595	-1.20125	4.40850	-4.14850
7795.116	-0.11468	-2.18827	4.12540	-4.61011
7799.162	-0.14702	-2.74033	4.66992	-5.83346
7803.161	-0.32354	-1.83373	4.55813	-5.50014
7807.118	-0.13191	-2.21692	4.74836	-4.86158
7811.154	-0.06197	-2.09603	4.58597	-5.52052
7815.159	-0.05078	-2.34713	6.87614	-3.87454
7819.157	-0.09902	-2.74209	5.99190	-4.01704
7823.157	-0.02258	-2.67880	6.72141	-3.38553
7827.157	0.01879	-2.81986	5.16290	-3.24038
7831.150	-0.07793	-3.04039	5.33310	-3.56356
7835.157	-0.02119	-2.65708	6.07641	-3.41651
7839.158	-0.75069	-1.24390	2.93084	-3.65606
7843.158	-2.46065	-0.48172	2.48765	-3.80040
7847.161	-4.74525	-1.08644	-0.72300	-4.05360
7851.161	-5.14692	-1.30867	-2.43218	-4.55577
7855.144	-5.98741	-2.43954	-3.89735	-3.95951
7859.155	-7.05450	-1.89256	-4.38502	-3.50409
7863.152	-8.23829	-1.61190	-6.30622	-4.96410
7867.162	-10.56944	-0.50832	-8.09056	-3.41899
7871.159	-10.55296	-1.13062	-8.59851	-3.65014
7875.159	-10.25567	-1.58471	-7.90282	-3.14194
7879.164	-10.01980	-1.65208	-7.97388	-3.15423
7883.160	-10.08719	-2.54172	-8.19270	-4.09993
7887.158	-9.71794	-2.72602	-8.37189	-4.53427
7891.159	-10.16858	-2.63871	-8.49816	-4.01049
7895.123	-10.26689	-0.25962	-8.62928	-3.15466
7899.126	-10.16062	-1.22188	-8.42454	-3.20166
7903.160	-10.25290	-0.94991	-7.97697	-1.78152
7907.163	-10.47727	-2.25598	-8.42148	-2.66455
7911.162	-10.16993	-1.86593	-7.52513	-1.81643
7915.158	-10.07519	-2.25108	-7.36935	-2.12409
7919.159	-10.16343	-2.90734	-7.81973	-2.50966
7923.158	-10.06051	-3.17143	-8.15654	-2.67245
7927.164	-10.12019	-1.58550	-7.86391	-2.76692
7931.160	-10.23264	-2.09838	-7.42090	-2.33999
7935.159	-10.55423	-2.06336	-7.85219	-2.66033
7939.139	-10.25447	-1.37144	-7.80392	-3.34951
7943.164	-10.44542	-1.50907	-7.50439	-3.77595
7947.159	-10.21589	-1.56426	-7.62370	-3.17128
7951.162	-10.26302	-1.46343	-7.27658	-2.80740
7955.161	-10.25334	-1.30506	-7.38351	-2.84055
7959.160	-10.37378	-1.40023	-7.61707	-3.37175
7963.160	-10.47535	-1.48248	-7.73463	-3.00026
7967.159	-10.33468	-1.33121	-7.58405	-2.66825
7971.160	-10.35229	-1.41789	-7.49827	-1.00394
7975.165	-10.29063	-1.30853	-6.76723	-3.27533
7979.156	-10.26989	-1.27792	-6.99431	-3.15337
7983.159	-10.26891	-1.32814	-7.25819	-1.37262
7987.162	-10.26547	-1.39182	-7.10220	-1.40276
7991.164	-10.32364	-1.46442	-7.08649	-1.54894
7995.160	-10.29406	-1.43719	-7.06190	-1.67588
7999.119	-10.24524	-1.36744	-6.81740	-1.68109
8003.163	-10.18397	-1.31080	-6.96499	-1.63019
8007.170	-10.11550	-1.36032	-6.74442	-1.47697
8011.163	-10.11096	-1.36919	-7.28810	-1.31363
8015.164	-12.05832	-1.44953	-7.70338	-0.56328
8019.160	-10.10482	-1.07958	-7.65771	0.75486
8023.166	-8.50700	8.86676	-6.84191	3.86013
8027.160	-16.47991	2.87162	-12.40195	5.14719
8031.163	NaN	NaN	-13.44045	8.87857
8035.161	NaN	NaN	NaN	NaN
8039.062	NaN	NaN	NaN	NaN
8043.160	NaN	NaN	NaN	NaN
8047.156	NaN	NaN	NaN	NaN
8051.119	NaN	NaN	NaN	NaN
8055.120	NaN	NaN	NaN	NaN
8059.159	NaN	NaN	NaN	NaN
8063.143	NaN	NaN	NaN	NaN
8067.158	NaN	NaN	NaN	NaN
8071.162	NaN	NaN	NaN	NaN
8075.163	NaN	NaN	NaN	NaN
8079.164	NaN	NaN	NaN	NaN
8083.160	NaN	NaN	NaN	NaN
8087.119	NaN	NaN	NaN	NaN
8091.159	NaN	NaN	NaN	NaN
8095.161	NaN	NaN	NaN	NaN
8099.163	NaN	NaN	NaN	NaN
8103.165	NaN	NaN	NaN	NaN
8107.169	NaN	NaN	NaN	NaN
8111.163	NaN	NaN	NaN	NaN
8115.120	NaN	NaN	NaN	NaN
8123.161	NaN	NaN	NaN	NaN
8127.166	NaN	NaN	NaN	NaN
8131.162	NaN	NaN	NaN	NaN
8135.164	NaN	NaN	NaN	NaN
8139.161	NaN	NaN	NaN	NaN
8143.119	NaN	NaN	NaN	NaN
8147.142	NaN	NaN	NaN	NaN
8151.164	NaN	NaN	NaN	NaN
8155.171	NaN	NaN	NaN	NaN
8159.127	NaN	NaN	NaN	NaN
8163.163	NaN	NaN	NaN	NaN
8167.164	NaN	NaN	10.00254	1.73848
8171.061	NaN	NaN	1.12973	-8.45184
8175.164	NaN	NaN	-0.07909	-1.36525
8179.164	NaN	NaN	-0.32672	-5.86638
8183.162	12.52040	-3.68038	-4.13530	-9.43216
8187.155	NaN	NaN	-19.99372	-12.07738
8195.161	NaN	NaN	7.72088	-0.59664
8199.031	10.21904	-0.11054	5.63931	-0.51670
8203.122	8.41939	-0.38432	10.19317	-0.49896
8207.164	4.71213	-0.30018	15.18345	-0.50622
8211.167	NaN	NaN	5.79585	-1.08384
8215.125	NaN	NaN	10.91143	-0.50497
8219.163	NaN	NaN	12.03774	-0.77601
8223.165	2.23343	-0.51656	11.91759	-0.97432
8227.125	2.14739	-0.97664	11.51256	-1.03208
8231.126	1.91754	-0.74812	NaN	NaN
8235.132	1.12653	-0.99775	9.59725	-0.55629
8239.122	1.05066	-1.25805	8.67590	-0.33393
8243.163	1.52875	-1.28080	8.29647	0.21865
8247.126	1.27294	-1.23853	8.13984	-0.46250
8251.157	0.87930	-1.46059	8.69889	0.12235
8255.168	1.08480	-1.65713	8.34628	0.18612
8259.167	0.84267	-1.23547	8.85381	-0.61758
8263.127	0.77469	-1.10925	8.54775	-1.91400
8267.167	0.95217	-1.68510	8.68504	-1.16021
8271.149	0.82605	-1.38162	8.62549	-1.30063
8275.167	4.49447	3.56176	8.35913	-1.99632
8279.063	4.72297	3.17096	8.34045	-1.93112
8283.124	4.20185	3.58479	8.55663	-1.35429
8287.182	4.41869	3.39181	8.59196	-1.81739
8291.165	0.84161	-1.50289	8.10026	-1.43973
8295.062	4.35237	3.63278	8.21590	-1.40436
8299.122	0.91587	-1.26145	8.55258	-1.77897
8303.165	0.92423	-1.44148	8.07810	-1.66230
8307.165	1.03067	-1.53399	8.21687	-1.70148
8311.063	1.20556	-1.49311	8.34575	-1.96220
8315.130	1.44870	-1.24917	8.21215	-1.95476
8319.167	1.76557	-1.12092	7.99639	-3.07385
8323.165	1.98308	-1.38094	8.52921	-3.89272
8327.064	2.09018	-1.23372	7.84652	-3.13341
8331.165	2.15264	-1.19026	8.65247	-3.75440
8335.167	2.51564	-1.11074	8.18755	-3.30710
8339.044	2.13529	-1.21427	8.46128	-3.55700
8343.034	2.33549	-1.25632	7.81052	-2.99670
8347.040	2.18771	-1.36835	6.90363	-3.78507
8351.043	2.33839	-2.17963	6.92992	-3.41729
8355.044	2.22575	-1.87998	6.27133	-3.28868
8359.003	2.13715	-1.50608	6.12460	-4.03349
8363.033	2.17286	-2.03194	6.28768	-4.00740
8367.042	2.26239	-1.96939	7.14910	-3.11908
8371.041	2.20349	-1.97731	7.78984	-3.54175
8375.047	2.03737	-2.17025	7.02612	-3.81225
8379.041	1.87562	-2.41463	7.42922	-4.25115
8383.042	1.40643	-2.09399	7.50659	-4.28392
8387.044	1.78471	-2.01505	7.97532	-4.29009
8391.045	2.11160	-2.13117	7.50854	-4.25386
8395.041	1.99087	-2.17029	6.60362	-4.60388
8399.041	2.06845	-2.13653	6.40155	-4.93100
8403.013	2.30157	-2.78081	6.83504	-4.55022
8407.041	1.77962	-2.89140	6.97360	-3.91295
8411.044	1.56675	-2.10250	6.76339	-4.23714
8415.043	2.00316	-3.40039	6.55792	-4.64524
8419.042	2.23960	-2.66129	8.34628	-4.81640
8423.034	1.74199	-3.27817	7.12625	-4.64559
8427.042	1.98162	-3.36136	6.49308	-4.54553
8431.043	2.14590	-3.51209	6.19439	-5.20945
8435.042	2.13678	-3.67585	6.64170	-4.49438
8439.037	1.92443	-3.35484	6.81067	-4.84176
8443.041	2.00343	-3.24560	7.02934	-4.48514
8447.039	2.10726	-3.11698	6.57624	-3.34104
8451.043	1.99892	-2.73416	7.28190	-4.44842
8455.034	2.05335	-2.93807	7.31726	-5.14886
8459.043	1.92354	-2.57142	7.12202	-6.14510
8463.042	1.98008	-2.97419	5.65975	-5.39496
8467.045	2.10223	-2.68176	5.95457	-7.48186
8471.045	1.95644	-2.55144	6.25946	-7.38115
8475.043	2.07807	-2.99746	7.07244	-7.38604
8479.048	2.07844	-2.48267	7.23577	-7.75315
8483.043	2.28063	-3.83442	7.76560	-7.22159
8487.004	2.11090	-3.63481	7.44054	-6.49192
8491.002	1.98194	-4.46931	7.25904	-6.90192
8495.044	2.03201	-4.20786	5.54346	-6.27880
8499.001	2.17906	-4.45249	5.90391	-5.91017
8503.022	2.06101	-4.35548	6.15728	-6.65988
8507.045	2.01156	-4.01256	6.12892	-7.00467
8511.048	1.95827	-3.66842	6.80210	-6.06395
8515.043	1.97966	-3.76640	7.56776	-6.71799
8519.038	1.74583	-3.97543	7.62972	-6.65602
8523.043	1.76043	-4.08555	7.44035	-6.75338
8527.043	1.75071	-4.03266	6.36177	-7.16059
8531.043	1.81054	-3.85188	6.34152	-6.73770
8535.041	1.70355	-3.95712	6.23707	-6.55214
8539.043	1.69812	-3.73029	6.19824	-7.06968
8543.043	1.65433	-3.77123	7.18794	-7.14038
8547.043	1.68206	-3.76470	6.41658	-7.05667
8551.044	1.84210	-3.96766	6.26449	-7.48261
8555.042	1.75190	-3.86637	6.54372	-6.94899
8559.043	1.80236	-3.96339	6.54982	-5.50684
8563.006	1.82383	-4.08010	7.56332	-5.61185
8567.006	1.92832	-4.12188	6.47750	-4.52734
8571.035	1.98070	-4.09351	8.18115	-4.55813
8575.044	1.89097	-4.15224	6.60313	-4.62964
8579.045	1.89389	-4.76635	8.08158	-4.35270
8583.047	1.94089	-4.61628	7.84045	-4.40975
8587.044	1.80365	-4.36651	6.81583	-4.79560
8591.049	1.73437	-4.56264	7.68623	-4.72296
8595.044	1.84587	-4.20412	6.58344	-5.20480
8599.046	1.22263	-4.33359	6.07994	-5.57927
8603.047	1.40244	-4.15268	6.79772	-7.65379
8607.045	1.53401	-4.03033	6.41221	-5.21788
8611.016	1.45438	-3.91816	6.01834	-7.82396
8615.044	1.46417	-3.71206	5.77593	-6.68901
8619.047	1.33872	-3.52852	5.71770	-5.56041
8623.044	1.50284	-3.17988	5.67027	-5.51635
8627.043	1.32235	-1.95901	5.60086	-5.66577
8631.039	1.46824	-2.57564	5.23037	-5.64347
8635.047	1.46028	-2.08384	5.53198	-5.74984
8639.046	1.24582	-3.00846	5.37674	-5.47764
8643.046	1.27333	-2.80663	5.68733	-5.45901
8647.040	1.37476	-2.35598	5.66307	-5.39927
8651.025	1.31677	-2.44568	5.46291	-4.89801
8655.042	1.26882	-2.37624	5.53697	-5.10226
8659.047	1.28338	-2.08219	5.69182	-5.01993
8663.046	1.39195	-2.19918	5.60568	-4.66763
8667.047	1.19304	-3.02472	5.93824	-4.42763
8671.045	1.35769	-2.76961	5.89601	-4.66649
8675.047	1.43119	-2.26795	6.02374	-4.88029
8679.009	1.51112	-2.38718	6.18527	-5.57859
8683.048	1.60771	-2.82723	6.54590	-5.21077
8687.050	1.78124	-2.72249	6.80012	-5.67879
8691.044	1.80142	-2.74419	7.08791	-6.61187
8695.041	1.58294	-2.97082	7.04068	-6.97782
8699.050	1.61166	-1.99300	7.72758	-7.59513
8703.047	1.67025	-2.76294	7.82694	-7.62695
8707.043	1.59360	-2.81035	7.31858	-7.54847
8711.051	1.64595	-2.80029	5.87833	-6.08171
8715.047	0.40254	-2.88263	2.85663	-5.46542
8719.047	-0.89696	-1.24119	2.96072	-4.94535
8723.048	-2.91931	-1.93526	0.19725	-2.54106
8727.048	-3.89031	-1.65242	-0.41524	-4.35499
8731.046	-4.46625	-2.72370	-2.52614	-4.39729
8735.025	-5.73925	-1.52663	-4.25778	-5.96237
8739.004	-7.04609	-0.60520	-4.84797	-4.55503
8743.069	-7.16126	-1.21735	-5.22005	-3.19011
8747.046	-7.46143	-0.51469	-6.98859	-2.69503
8751.048	-8.77788	-0.19357	-6.97553	-2.56227
8755.050	-9.10809	-0.66715	-7.30874	-2.25706
8759.040	-8.96486	-0.50131	-6.41930	-2.85394
8763.047	-9.00220	-0.28430	-7.20624	-2.29181
8767.049	-8.81215	-0.15271	-6.49406	-2.05000
8771.048	-9.02285	-0.19007	-7.00492	-2.48164
8775.009	-9.01491	-0.14826	-6.73588	-2.23244
8779.047	-9.17624	0.07752	-6.81011	-2.11637
8783.046	-9.19977	0.12988	-6.96230	-1.95362
8787.050	-9.20990	0.51838	-7.12759	-2.89044
8791.043	-9.20325	0.13111	-7.03333	-2.55429
8795.048	-9.16494	-0.13966	-6.98328	-2.44034
8799.050	-9.17885	-0.42543	-6.99866	-3.18351
8803.045	-9.13139	-0.86136	-7.12642	-3.42529
8807.073	-9.05838	-1.38713	-7.01768	-3.08008
8811.051	-8.93852	-1.42637	-7.19813	-3.77452
8815.050	-8.96094	-1.33209	-7.10826	-3.69517
8819.052	-8.80747	-1.25869	-7.16977	-4.04006
8823.054	-8.71707	-1.47068	-7.12869	-3.61314
8827.051	-8.67840	-1.55773	-7.03721	-3.54875
8831.051	-8.55683	-1.45505	-7.05709	-3.63204
8835.047	-8.59803	-1.33572	-7.26200	-3.67868
8839.073	-8.65007	-1.27482	-7.19412	-4.03244
8843.048	-8.62736	-1.34041	-7.29438	-3.55903
8847.047	-8.73138	-1.21567	-7.05990	-1.49484
8851.048	-8.79913	-1.13003	-6.99988	-2.21510
8855.053	-9.02520	-0.74182	-6.54261	-2.06265
8859.031	-8.78370	-0.10152	-6.54122	-1.42340
8863.044	-8.95159	-0.66830	-6.33750	-1.57196
8867.050	-8.79104	-0.01498	-6.00872	-1.07050
8871.050	-9.01542	-0.62909	-6.23356	-1.13808
8875.048	-8.87249	-0.36432	-6.19069	-1.30818
8879.049	-8.93195	-0.56267	-5.99186	-0.54187
8883.049	-8.86253	-0.43870	-5.96971	-0.30495
8887.053	-8.92776	-0.34274	-6.04288	-0.91260
8891.051	-8.91413	-0.31066	-5.95898	-1.27747
8895.051	-8.95692	-0.35668	-5.99406	-1.78081
8899.046	-8.92769	-0.30066	-6.06640	-1.21273
8903.011	-8.92462	-0.22351	-6.15691	-1.80964
8907.048	-9.02179	-1.18287	-6.06578	-1.40676
8911.052	-8.97639	-0.54029	-6.13731	-2.13708
8915.051	-8.86747	-1.42857	-6.05120	-2.70583
8919.055	-8.86994	-2.13945	-5.96448	-3.04750
8923.019	-8.96922	-2.61533	-5.93920	-2.61733
8927.050	-8.93534	-2.50775	-6.09778	-2.73218
8931.051	-8.98913	-2.88525	-6.01292	-2.22130
8935.051	-9.05081	-2.78026	-6.12521	-2.03446
8939.049	-9.25676	-2.36155	-6.13547	-1.18126
8943.050	-9.40446	-2.69666	-6.07113	-1.66058
8947.049	-9.53825	-2.53734	-6.14864	-1.47417
8951.054	-9.72436	-2.05976	-6.30767	-1.43447
8955.051	-10.04942	-2.16001	-6.11022	-1.38590
8959.050	-9.25357	-2.28608	-6.34765	-1.13386
8963.049	-9.54213	-1.97021	-6.24531	-0.98972
8967.050	-9.53352	-1.94373	-6.40523	-0.95165
8971.054	-9.63158	-1.73585	-6.38552	-1.36209
8975.052	-9.59662	-1.41401	-6.56309	-0.78036
8979.054	-9.64878	-1.19274	-6.37498	-1.08494
8983.044	-9.24849	-1.56394	-6.35844	-1.00000
8987.010	-9.32473	-1.51702	-6.40964	-1.18551
8991.051	-9.30778	-1.47715	-6.29526	-0.94970
8995.050	-9.28526	-2.04376	-6.67843	-0.94779
8999.051	-9.80130	-2.60789	-7.92980	-1.75615
9003.013	-10.48701	-3.81022	-7.44071	-1.40208
9007.056	-10.92619	-3.55556	-8.30342	-2.78763
9011.055	-11.03212	-2.26004	-7.69044	-2.23001
9015.061	-10.89147	-2.78726	-8.24507	-2.15109
9019.051	-10.51021	-2.09155	-8.44125	-1.97746
9023.055	-10.62142	-2.66967	-8.40239	-1.94665
9027.052	-10.29901	-2.51841	-8.33702	-1.89766
9031.055	-10.58999	-2.57961	-8.16160	-1.86179
9035.051	-10.55596	-2.38878	-8.34922	-1.98439
9039.051	-10.74738	-2.30554	-8.38678	-2.00708
9043.052	-10.73121	-2.21776	-8.35289	-2.10206
9047.058	-10.70941	-2.46080	-8.58757	-2.42691
9051.049	-10.80101	-2.52730	-8.04908	-2.42550
9055.050	-10.65779	-2.51180	-8.42527	-2.67654
9059.052	-10.61210	-2.36499	-8.48641	-2.98974
9063.052	-10.69649	-2.39122	-8.11775	-2.05380
9067.031	-10.68679	-2.43673	-8.27275	-2.32855
9071.052	-10.76815	-2.48362	-8.22975	-2.58752
9075.055	-10.86981	-2.42887	-8.32028	-2.45306
9079.056	-10.87046	-2.18964	-8.63750	-2.79382
9083.052	-10.90293	-1.17577	-8.35277	-2.59046
9087.054	-10.84334	-0.89019	-8.14526	-2.77549
9091.054	-11.08555	-2.51239	-8.09598	-2.86644
9095.044	-10.99413	-2.01443	-8.21670	-2.77398
9099.053	-10.85251	-1.99275	-8.05742	-2.58065
9103.011	-10.96344	-2.00843	-8.01696	-2.68863
9107.053	-11.05113	-1.46749	-7.97975	-2.57704
9111.013	-11.10104	-1.87835	-8.02638	-2.60199
9115.014	-11.11826	-1.83479	-8.07217	-2.40466
9119.052	-11.30961	-2.17127	-8.02823	-2.12092
9123.051	-11.27884	-2.29479	-8.47583	-2.27107
9126.926	-11.04924	-1.99573	-8.30031	-2.15061
9131.066	-10.73135	-2.00713	-8.09924	-1.69503
9135.054	-10.40593	-1.95255	-8.10900	-2.02009
9139.052	-10.26071	-2.01815	-8.30505	-1.75193
9142.949	-10.15408	-2.05258	-8.00136	-0.73040
9147.053	-10.47283	-2.32376	-8.08372	-1.06299
9151.055	-10.40082	-2.38110	-7.93476	-1.58773
9155.053	-10.27145	-1.98071	-8.02015	-1.86603
9158.952	-10.25247	-2.17705	-7.97824	-2.03853
9163.053	-10.34631	-2.15040	-7.69919	-2.23215
9167.054	-10.28217	-2.07661	-7.51732	-2.38507
9171.054	-10.23704	-2.24235	-7.82747	-1.71059
9175.061	-10.18464	-2.20377	-7.53388	-2.62596
9179.055	-10.20548	-2.21703	-7.39452	-2.51461
9183.057	-10.24497	-2.25189	-7.37104	-2.50035
9187.047	-10.29140	-2.26550	-7.42351	-2.57968
9191.047	-10.28270	-2.18480	-7.81960	-2.50907
9195.046	-10.28510	-2.23571	-7.66568	-2.49342
9199.055	-10.29214	-2.30582	-7.93479	-2.52380
9203.011	-10.32349	-2.29980	-7.47073	-2.38053
9207.059	-10.29236	-2.15690	-7.93936	-2.17626
9211.056	-10.30466	-2.15176	-8.13913	-2.01647
9215.058	-10.38898	-1.85077	-8.02321	-2.14908
9219.056	-10.37482	-2.16620	-7.91071	-2.12438
9222.954	-10.39352	-2.09050	-8.19513	-2.24999
9227.060	-10.44268	-2.01200	-8.20846	-1.89818
9231.056	-10.42977	-1.80598	-8.18079	-1.86232
9235.022	-10.49656	-2.07068	-8.14062	-1.97101
9239.060	-10.49956	-1.92865	-8.19550	-1.98061
9243.054	-10.44609	-1.75864	-8.21928	-1.93385
9247.056	-10.44638	-1.93814	-8.23500	-1.90370
9251.052	-10.45699	-1.77840	-8.16700	-1.96651
9255.059	-10.46256	-1.99698	-8.24485	-1.93149
9259.054	-10.45749	-2.05495	-8.26692	-2.15114
9263.056	-10.44264	-1.79054	-8.40917	-2.46661
9267.057	-10.40788	-1.73776	-8.29492	-2.93167
9270.955	-10.45238	-2.18210	-8.41211	-3.07569
9275.054	-10.47660	-1.87029	-8.40737	-3.28127
9279.053	-10.47122	-1.92185	-8.44475	-3.03068
9283.054	-10.43937	-2.54824	-8.44679	-2.58007
9286.955	-10.58301	-2.38540	-8.29817	-3.21843
9291.056	-8.57908	-2.01793	-7.66412	-3.46574
9295.053	-6.71233	-1.67941	-4.64423	-1.91075
9299.054	-5.49119	-2.89794	-4.02473	-1.35346
9302.953	-4.94805	-2.19661	-2.92478	-1.10198
9307.052	-4.35679	-1.43889	-1.95116	-1.41641
9311.059	-2.78344	-1.97351	0.18191	-2.53126
9315.060	-1.02302	-2.45201	1.62758	-2.22303
9318.954	-1.11861	-1.79693	2.91671	-3.03399
9323.056	0.53746	-1.90964	3.97859	-2.41050
9327.058	0.20671	-1.80803	4.16712	-3.54935
9331.055	0.64640	-2.57260	5.30919	-4.11842
9334.955	0.72496	-2.33464	4.76892	-4.16164
9339.056	0.75821	-2.14061	4.88473	-3.55736
9343.058	0.99452	-2.45777	4.97482	-4.40339
9347.059	1.09800	-2.57262	5.45144	-4.42687
9350.952	0.73585	-2.84571	5.18173	-4.46730
9355.056	0.62943	-2.77213	5.17201	-4.50709
9359.032	0.79781	-3.00898	4.40458	-4.33909
9363.056	0.40656	-2.24178	3.82306	-4.40030
9366.956	0.36506	-2.72974	3.87742	-4.29654
9371.056	0.32531	-2.39879	5.15630	-4.36407
9374.930	0.38355	-2.49069	4.71274	-4.31599
9378.933	0.41795	-2.21059	4.75484	-4.45925
9382.932	0.24428	-2.42123	3.59229	-4.35861
9386.931	0.52411	-2.35730	4.26316	-4.41258
9390.932	0.07490	-2.18440	4.18312	-4.37361
9394.931	-0.06676	-2.27240	4.49129	-4.31321
9398.933	0.07006	-2.21050	3.95305	-4.44987
9402.935	-0.01549	-2.08152	3.79532	-4.27054
9406.896	0.08852	-2.14192	3.65549	-4.41997
9410.932	-0.00467	-2.04382	3.47183	-4.29104
9414.929	-0.06291	-2.04886	3.95893	-4.40506
9418.932	-0.14059	-2.00185	3.85780	-4.53890
9422.933	-0.11156	-1.96020	3.73697	-3.98295
9426.890	-0.22212	-1.52204	3.55305	-4.32608
9430.953	-0.12645	-1.74193	3.68500	-3.74063
9434.936	-0.11702	-1.63190	3.55481	-3.88660
9438.932	-0.07445	-1.66226	3.50254	-4.33127
9442.935	-0.05115	-2.02531	3.65601	-4.32490
9446.927	0.03023	-1.95432	3.43679	-4.27950
9450.933	-0.00050	-2.23196	3.53824	-4.21244
9454.934	0.20775	-2.83824	3.76248	-4.04169
9458.936	0.16057	-3.58404	3.63636	-4.05652
9462.937	0.30540	-2.77743	3.41612	-3.88939
9466.934	0.33593	-3.48493	3.84048	-3.98808
9470.932	0.29607	-2.96296	3.87571	-3.76519
9474.934	0.36710	-3.69659	4.01722	-3.93077
9478.934	0.39313	-3.74372	4.07093	-3.98411
9482.933	0.34223	-3.79206	3.52074	-3.97361
9486.934	0.31302	-3.68335	3.92677	-4.09384
9490.926	0.16993	-3.46346	3.76225	-4.07877
9494.957	0.25229	-3.13969	3.70393	-4.03312
9498.934	0.21477	-3.08411	3.69303	-3.99549
9502.891	0.09974	-2.69808	3.49095	-3.93483
9506.932	0.02973	-3.16145	3.69825	-3.96844
9510.927	0.05902	-2.92630	3.62546	-4.35786
9514.933	0.11699	-2.46780	3.56447	-4.14485
9518.934	0.18814	-2.35146	3.53703	-4.80332
9522.934	0.14278	-2.09104	3.49423	-5.11751
9526.952	0.17740	-2.57533	4.66605	-4.77052
9530.905	0.65129	-2.52814	6.08492	-5.05585
9534.937	1.25498	-2.87512	5.70676	-4.26004
9538.934	2.08243	-5.21252	5.83333	-4.48193
9542.934	2.21583	-6.12931	6.00820	-6.16108
9546.933	2.32305	-4.11969	6.67390	-5.73275
9550.893	2.32721	-4.38357	7.46392	-7.29509
9554.926	2.35553	-4.83056	6.99773	-7.52608
9558.937	2.42084	-5.09776	7.39510	-7.86531
9562.918	2.43625	-5.07709	7.18567	-7.95620
9566.935	2.43694	-4.84006	7.25494	-7.88207
9570.917	2.45807	-4.11507	7.59802	-6.99383
9574.934	2.37003	-3.82918	7.25819	-7.42892
9578.934	2.45156	-3.69070	7.66073	-5.97282
9582.934	2.39654	-3.80093	8.15637	-5.97005
9586.934	2.41561	-4.05238	7.96680	-5.91323
9590.936	2.35206	-3.74600	8.56767	-5.99139
9594.934	2.43392	-3.75117	9.04021	-5.76850
9598.936	2.38281	-3.72762	8.58755	-5.36439
9602.934	2.39857	-3.62460	7.96612	-5.27044
9606.957	2.36108	-3.68718	7.79836	-6.49065
9610.936	2.37191	-3.68663	8.29795	-6.63224
9614.892	2.36519	-3.72787	8.50605	-6.32873
9618.939	2.44611	-3.88569	8.50474	-7.95927
9622.958	2.27525	-3.81154	8.22370	-7.20091
9626.935	2.35563	-3.88167	7.90443	-8.95611
9630.935	2.29617	-4.62305	6.63987	-7.77692
9634.935	2.25194	-4.69294	7.22495	-8.27570
9638.897	2.12483	-4.21362	6.31404	-8.11495
9642.936	2.20746	-5.01756	6.77423	-7.12224
9646.935	2.14912	-4.44277	6.43474	-6.82312
9650.937	2.14694	-4.25087	6.28646	-7.18628
9654.936	2.20089	-4.47893	6.20899	-7.48492
9658.937	2.01637	-4.48849	6.33140	-7.26063
9662.937	2.07963	-4.46615	7.08373	-7.13801
9666.938	2.06203	-4.50362	6.33711	-6.87770
9670.958	2.03598	-4.52121	6.19783	-6.31115
9674.936	2.07968	-4.40271	6.83027	-6.88760
9678.938	2.04758	-4.44109	6.45486	-6.97315
9682.939	2.10862	-4.38431	5.97894	-6.86744
9686.938	2.04508	-4.46052	6.73960	-7.27932
9690.937	2.05905	-4.68942	6.29004	-6.96038
9694.925	2.01446	-4.37487	6.31382	-6.65906
9698.928	2.06483	-4.80472	6.32301	-6.97770
9702.941	2.08778	-4.78488	6.47397	-7.31146
9706.936	2.10686	-5.14800	6.22422	-7.46404
9710.938	2.07393	-5.00664	6.54533	-8.03125
9714.936	2.09105	-5.06459	6.19604	-7.20621
9718.936	2.27523	-5.15674	7.38659	-7.77633
9722.936	2.15197	-5.21017	7.52640	-7.74408
9726.937	0.95797	-4.89096	6.09906	-6.25048
9730.937	-0.13302	-3.85982	5.57768	-5.87284
9734.959	-2.21370	-1.24930	0.34896	-3.17935
9738.909	-3.18363	-0.93119	0.39951	-2.44639
9742.895	-5.28857	-0.97118	-2.85054	-4.69432
9746.940	-6.09540	-0.51175	-4.87710	-5.92861
9750.959	-7.05853	-0.98010	-5.85183	-3.63004
9754.941	-9.31206	-2.38752	-8.20367	-3.61480
9758.938	-9.35892	-3.17147	-8.21295	-2.95445
9762.941	-10.72522	-2.56487	-8.58980	-3.98312
9766.964	-10.79868	-0.82731	-8.58689	-3.30369
9770.939	-10.55569	-1.03889	-8.58912	-4.97887
9774.934	-10.77081	-1.21858	-8.49498	-5.42005
9778.924	-10.83446	-1.90106	-8.58488	-4.94635
9782.936	-10.96236	-1.64209	-8.73109	-4.73200
9786.937	-11.11571	-1.57270	-8.80192	-4.52503
9790.938	-11.16330	-1.31175	-8.73688	-4.35885
9794.939	-11.30371	-1.39116	-8.75407	-4.16895
9798.941	-11.13353	-1.34052	-8.75153	-4.38381
9802.938	-11.04092	-1.15453	-8.78091	-5.38486
9806.938	-11.01089	-1.08159	-8.48869	-4.77447
9810.940	-10.57313	-1.08898	-8.57444	-4.46102
9814.960	-10.66850	-0.79959	-8.60065	-4.44311
9818.942	-10.73718	-0.87960	-8.57478	-4.35112
9822.904	-10.70658	-0.81077	-8.46138	-4.15380
9826.938	-10.82495	-0.76309	-8.43559	-4.13249
9830.929	-10.85363	-0.48757	-8.37531	-4.00317
9834.938	-10.72764	-0.62614	-8.32218	-3.58523
9838.939	-10.66160	-0.56941	-8.20311	-3.89749
9842.938	-10.58821	-0.53755	-8.13390	-3.82225
9846.962	-10.65987	-0.58133	-8.10170	-3.38889
9850.938	-10.23315	-0.53349	-8.14898	-3.93780
9854.939	-10.45404	-0.48738	-8.23712	-3.79462
9858.898	-10.52559	-0.69053	-8.30347	-3.75621
9862.943	-10.71710	-0.63703	-8.24227	-3.01552
9866.942	-10.67993	-0.51649	-8.14830	-2.25222
9870.940	-10.75854	-0.79574	-7.87114	-2.50957
9874.939	-10.94502	-0.55399	-8.02484	-2.40479
9878.944	-11.02237	-0.99821	-8.46255	-3.35581
9882.938	-10.86091	-0.98778	-8.10197	-2.66027
9886.939	-10.70840	-0.99597	-8.05609	-1.70720
9890.938	-10.99566	-1.21659	-8.28014	-2.34852
9894.945	-11.17766	-1.39321	-8.21388	-1.88437
9898.939	-10.87309	-1.57899	-8.20048	-2.24028
9902.931	-11.09248	-1.53659	-8.07336	-2.53448
9906.931	-10.91078	-1.72582	-7.98751	-2.36954
9910.942	-10.75562	-1.94999	-7.87250	-2.10226
9914.939	-10.63046	-2.00253	-8.09890	-2.25090
9918.943	-10.86428	-1.94401	-7.93160	-2.02709
9922.939	-10.64290	-2.15983	-7.96746	-1.69718
9926.930	-10.89757	-2.32743	-7.88709	-1.91817
9930.943	-10.94559	-2.42389	-7.84153	-1.81919
9934.938	-10.85186	-2.29156	-7.73655	-2.16790
9938.939	-10.81616	-2.12462	-7.65268	-1.75204
9942.947	-10.86091	-2.24103	-7.72390	-1.95390
9946.913	-10.97062	-2.64559	-7.89140	-1.97750
9950.941	-10.98281	-2.89902	-7.76998	-2.26781
9954.940	-10.94478	-2.20578	-7.64452	-1.93534
9958.945	-10.85109	-2.39908	-7.79617	-2.17505
9962.944	-10.89504	-2.38860	-7.78645	-2.04461
9966.940	-10.98583	-2.04847	-7.77734	-1.82891
9970.942	-11.06997	-1.99530	-7.73913	-1.65843
9974.948	-10.95923	-1.54830	-7.74749	-1.58840
9978.942	-10.86344	-2.06477	-7.68998	-1.62609
9982.945	-10.75763	-2.31007	-7.76430	-1.71887
9986.930	-10.87146	-2.18812	-7.78119	-1.38706
9990.902	-10.84298	-2.29665	-7.66560	-1.32468
9994.940	-10.78659	-2.56174	-7.63267	-1.34878
9998.942	-10.81528	-2.66019	-7.76416	-1.20937
10002.899	-10.85258	-2.71034	-7.80336	-0.20860
10006.945	-10.74420	-2.53174	-7.77546	-2.08686
10010.943	-10.57390	-2.80588	-7.82794	-1.13472
10014.942	-10.56536	-2.96904	-7.80292	-1.61564
10018.945	-10.61401	-2.86021	-7.77812	-1.47056
10022.946	-10.57747	-2.91133	-7.73082	-1.18128
10026.942	-10.59308	-2.95835	-7.49668	-1.70581
10030.908	-10.68252	-2.97119	-7.68796	-2.39261
10034.939	-10.67766	-2.95546	-7.28603	-2.26626
10038.950	-10.38476	-0.80597	-7.56652	-1.31885
10042.943	-9.06915	0.87512	-6.95993	-0.18327
10046.900	-8.29093	1.63362	-5.46667	0.78070
10050.941	-7.19371	1.63832	-3.06328	0.98471
10054.948	-4.08118	3.78705	-2.53481	5.74846
10058.942	-4.31230	5.20494	0.27078	5.54544
10062.900	-3.63656	4.75236	0.85739	3.23692
10066.946	-1.04625	4.07878	2.03407	5.92691
10070.843	-0.95336	4.35352	3.14145	7.17933
10074.945	-0.60250	6.31020	3.14936	9.69771
10078.942	-0.70089	6.32957	3.47364	11.22547
10082.943	-0.70466	6.58181	5.08628	9.70536
10086.948	-0.82166	6.39170	1.66500	8.03278
10090.941	-0.66692	6.72208	3.65052	8.90630
10094.943	-0.59947	6.88528	3.61718	6.98588
10098.941	-0.33015	6.90044	3.84809	6.68546
10102.836	-0.21872	6.94619	3.83072	7.24794
10106.943	0.01715	7.04035	4.12048	6.54355
10110.938	-0.13650	7.22233	4.06268	5.88963
10114.933	-0.16682	7.36882	4.01798	6.44771
10118.845	-0.21100	7.74700	3.95051	6.88272
10122.943	-0.20725	7.46588	3.83433	7.11897
10126.944	-0.00596	7.13074	3.25043	7.32105
10130.945	-0.00588	6.92068	2.76002	8.04280
10134.844	0.04852	7.01318	2.61696	8.19016
10138.945	-0.01328	5.37463	4.02554	7.59348
10142.945	-0.10808	5.97818	3.88871	7.35370
10146.944	-0.17658	5.78527	3.83470	7.41990
10150.846	-0.24008	5.88182	4.03912	8.05707
10154.918	-0.27597	6.32582	4.12429	7.83506
10158.945	-0.26748	6.31529	4.37167	7.59451
10162.943	-0.31069	6.32042	4.23591	8.30027
10166.947	-0.36283	6.19561	4.33453	8.14725
10170.947	-0.35002	6.13411	4.31072	8.45488
10174.943	-0.38886	6.18677	4.31447	8.26677
10178.942	-0.40365	6.01051	4.31649	8.16573
10182.951	-0.37978	6.20552	4.21565	9.09103
10186.948	-0.36154	6.18102	4.31889	8.26340
10190.946	-0.32335	6.10794	4.27498	8.50536
10194.930	-0.35720	6.19058	4.28515	8.51916
10198.948	-0.36988	6.16547	4.24571	8.75161
10202.901	-0.36990	6.10329	4.17638	8.55129
10206.942	-0.29773	5.94657	4.00803	8.91440
10210.947	-0.27180	5.93953	4.11436	8.78651
10214.843	-0.23775	5.82455	4.06861	8.58566
10218.944	-0.16097	5.56404	4.06421	8.48120
10222.946	-0.17551	5.60861	3.93510	8.62024
10226.946	-0.18330	5.24403	3.97516	8.67865
10230.842	-0.14218	6.02010	4.00040	8.50181
10234.947	-0.14409	6.64957	4.37497	8.36655
10238.941	-0.09513	5.99180	4.59369	8.46404
10242.947	-0.07366	5.65330	4.48320	8.28171
10246.845	-0.05177	5.65424	4.54067	8.06277
10250.903	-0.09915	6.12434	4.72139	8.05739
10254.943	-0.06078	6.19288	4.44164	8.09164
10258.944	-0.02668	6.36033	4.68553	7.93734
10262.840	-0.01469	6.21395	4.56395	8.07859
10266.903	-0.02869	6.57151	4.56030	7.67395
10270.946	-0.00990	7.21364	4.71195	7.56549
10274.947	-0.04348	7.59295	4.68789	7.51785
10278.845	-0.07589	8.24837	4.58432	7.38147
10282.947	-0.07609	6.97951	4.59573	7.13144
10286.946	-0.06867	7.19358	4.50500	7.19783
10290.945	-0.10830	7.19534	4.51087	7.16286
10294.843	-0.15819	7.33081	4.38183	7.34013
10298.949	-0.23807	7.28391	4.37944	7.17473
10302.904	-0.27806	7.39503	4.43312	7.24386
10306.947	-0.28091	7.40050	4.36283	7.27024
10310.812	-0.33263	7.39707	4.37098	7.02935
10314.945	-0.33593	7.32531	4.35380	6.96236
10318.934	-0.43785	7.34695	4.34258	4.26011
10322.940	-0.52880	6.70485	2.20813	9.45853
10326.952	-1.15920	1.99852	2.08602	5.04004
10330.947	-2.99341	5.68692	2.54549	2.70938
10334.947	-2.50177	3.62130	1.92314	5.12478
10338.945	-2.90351	2.21971	1.55755	2.82381
10342.953	-3.49737	4.03736	1.20224	-0.07707
10346.946	-3.51785	2.26370	0.68655	0.04373
10350.945	-3.22512	1.56781	1.04019	1.68279
10354.946	-3.29424	-0.19516	1.07703	0.93962
10358.845	-3.48968	0.90018	0.55659	2.38140
10362.922	-3.52952	1.30962	0.52550	1.82949
10366.946	-3.60534	1.42749	0.29637	1.26259
10370.947	-3.57590	1.41717	0.38425	1.04231
10374.950	-3.57127	1.07294	0.03340	1.29961
10378.947	-3.60017	1.06279	0.32531	1.06723
10382.946	-3.70544	0.85594	0.25138	1.94750
10386.951	-3.62840	0.94358	0.29299	1.00086
10390.951	-3.59886	0.89363	0.12136	1.60933
10394.906	-3.67650	0.85138	0.30076	1.98329
10398.948	-3.68552	0.95284	0.04169	1.65360
10402.934	-3.72133	0.78970	0.14593	2.10511
10406.847	-3.78783	0.81822	0.11178	1.64903
10410.817	-3.82220	0.67873	0.15451	1.54635
10414.824	-3.81533	0.70221	0.15186	1.86327
10418.820	-3.78271	0.61422	0.18328	1.58546
10422.823	-3.95105	0.46381	0.13424	1.55587
10426.821	-4.02386	0.41350	0.15059	1.59934
10430.821	-4.07718	0.34497	0.11630	0.65932
10434.821	-4.11532	0.39113	0.29513	1.11629
10438.823	-4.13700	0.35037	0.10513	1.10682
10442.823	-4.19788	0.28571	0.11307	1.05001
10446.823	-4.21061	0.20192	0.16717	1.11737
10450.795	-4.16522	0.11574	0.16725	0.99883
10454.825	-4.22143	0.36337	0.25368	0.79991
10458.824	-4.16588	0.45544	0.31387	0.72550
10462.823	-4.25546	0.55165	0.19159	0.69179
10466.825	-4.20978	0.70338	0.01702	0.73177
10470.784	-4.17095	0.78011	0.04939	0.60821
10474.822	-4.11863	0.44741	-0.01792	0.68742
10478.824	-4.10290	0.24116	0.09098	0.70687
10482.824	-4.04248	0.39322	0.21738	0.71708
10486.847	-4.12478	0.13148	0.15690	0.41202
10490.781	-4.06290	0.04781	0.08887	0.32043
10494.816	-4.03572	0.45544	0.19147	0.40357
10498.823	-3.92838	0.38341	0.14578	0.10379
10502.850	-3.97195	0.62613	0.07922	0.36150
10506.827	-3.83902	0.44605	0.17884	-0.89054
10510.822	-3.69921	0.29851	0.77655	0.46925
10514.824	-3.86131	0.01713	0.94462	0.02755
10518.849	-3.76460	0.12609	0.71575	0.00606
10522.827	-3.71258	-0.19704	0.77945	-0.27955
10526.823	-3.73814	0.25882	0.93448	-0.22786
10530.826	-3.64588	-0.16199	1.05111	0.01680
10534.786	-3.67343	0.19303	1.36352	-0.91391
10538.799	-3.60136	0.07859	0.98452	-0.10701
10542.825	-3.60729	0.34174	1.12707	-0.43122
10546.823	-3.70369	0.10794	1.17919	-1.12394
10550.849	-3.68552	-0.16490	1.35363	-1.24783
10554.828	-3.69471	0.16106	1.26783	-0.92431
10558.823	-3.76250	-0.03593	1.42084	-1.54189
10562.804	-4.04964	0.27015	1.37330	-1.25544
10566.851	-3.94525	1.14340	1.14561	-1.19503
10570.825	-3.92181	0.44677	1.43622	-1.36224
10574.808	-3.94881	1.55223	1.45869	-1.19943
10578.823	-4.07172	2.36677	1.13003	-0.74144
10582.846	-4.10177	2.74287	0.85458	-1.17149
10586.824	-3.98689	2.60883	0.99030	-1.34906
10590.825	-3.94614	2.99570	0.81042	-1.19806
10594.824	-4.01201	3.00463	0.85818	-0.85945
10598.829	-4.11779	2.49220	0.55374	1.46941
10602.826	-4.14843	2.65416	0.93197	1.18565
10606.783	-4.12142	2.91536	0.62325	1.23966
10610.830	-4.07031	2.34320	0.38631	1.21208
10614.835	-4.12787	2.85160	0.44656	1.25430
10618.825	-4.05804	2.86068	0.36814	1.17227
10622.828	-4.04737	2.76601	0.29272	1.29681
10626.825	-4.00000	2.24740	0.38023	1.25691
10630.848	-4.00356	2.64430	0.37147	1.21271
10634.825	-4.06392	2.59767	0.43217	0.58273
10638.827	-4.02342	2.43558	0.55242	0.61516
10642.825	-4.01761	1.91174	0.53136	-1.49753
10646.849	-3.86926	0.34518	0.60171	-1.44432
10650.828	-3.88322	-0.01611	0.81312	-1.78232
10654.827	-3.83124	-0.03692	0.83213	-1.71499
10658.798	-3.76702	0.24471	0.91760	-1.76326
10662.848	-3.72420	0.13207	0.89078	-1.11369
10666.827	-3.70114	0.03539	0.98564	-1.61602
10670.826	-3.66681	0.23293	1.04739	-1.65419
10674.784	-3.66162	0.06601	1.16736	-1.74038
10678.850	-3.55931	1.06167	1.12685	-0.65979
10682.801	-3.51587	0.57063	1.14124	-1.27060
10686.830	-3.59945	1.17643	1.09068	2.47693
10690.827	-3.72348	2.14084	1.12430	2.14818
10694.854	-3.80446	2.80075	1.00844	2.23792
10698.819	-3.55303	3.28704	0.95177	2.09967
10702.817	-3.67719	3.66994	1.06153	2.25867
10706.828	-4.08666	5.07780	1.04382	2.25325
10710.850	4.23372	5.62244	11.09418	1.99545
10714.828	NaN	NaN	NaN	NaN
10718.826	NaN	NaN	NaN	NaN
10722.832	NaN	NaN	NaN	NaN
10726.828	NaN	NaN	NaN	NaN
10730.828	NaN	NaN	NaN	NaN
10734.830	NaN	NaN	NaN	NaN
10738.820	NaN	NaN	NaN	NaN
10742.947	NaN	NaN	NaN	NaN
10750.823	NaN	NaN	NaN	NaN
10754.824	NaN	NaN	NaN	NaN
10758.826	NaN	NaN	NaN	NaN
10762.827	NaN	NaN	NaN	NaN
10766.828	NaN	NaN	NaN	NaN
10770.827	NaN	NaN	NaN	NaN
10774.830	NaN	NaN	NaN	NaN
10778.830	NaN	NaN	NaN	NaN
10782.809	NaN	NaN	NaN	NaN
10786.829	NaN	NaN	NaN	NaN
10790.827	NaN	NaN	NaN	NaN
10794.828	NaN	NaN	NaN	NaN
10798.828	NaN	NaN	NaN	NaN
10802.828	NaN	NaN	NaN	NaN
10806.864	NaN	NaN	NaN	NaN
10810.787	NaN	NaN	NaN	NaN
10814.787	NaN	NaN	NaN	NaN
10818.832	NaN	NaN	NaN	NaN
10822.832	NaN	NaN	NaN	NaN
10826.822	NaN	NaN	NaN	NaN
10830.788	NaN	NaN	NaN	NaN
10838.829	NaN	NaN	NaN	NaN
10842.831	NaN	NaN	1.88958	2.30323
10846.830	-5.38356	1.76807	1.51090	2.34438
10850.831	-2.74918	9.23927	-2.27937	-2.53188
10854.831	0.36300	7.43018	5.80958	0.70660
10858.830	0.06855	6.22404	1.87116	2.06830
10862.831	-1.07004	6.09885	0.69161	1.89211
10866.788	-0.93795	5.56371	0.31071	1.58855
10870.819	-2.73536	4.68297	1.72862	1.72050
10874.831	-1.92664	3.32481	1.95490	-0.67597
10878.828	-2.22349	3.78982	1.83152	-0.67726
10882.832	-2.73103	3.70966	1.03528	0.90816
10886.824	-2.69168	3.53378	1.12531	-0.41159
10890.829	-2.65260	3.68916	2.03261	-0.45936
10894.831	-2.72340	3.73042	1.74412	-0.46567
10898.828	-2.60594	3.63317	2.05065	-0.44612
10902.837	-2.59804	3.41003	2.10912	-0.65592
10906.819	-2.47653	3.42230	2.55993	-0.42571
10910.824	-2.26264	3.51169	3.05749	-0.42396
10914.832	-2.39500	3.46981	2.84494	-0.00246
10918.832	-2.36896	3.51168	2.79312	-0.29009
10922.831	-2.36522	3.50417	2.94760	-0.10046
10926.833	-2.20215	3.50033	3.07907	-0.08943
10930.831	-2.03419	3.56350	3.08300	-0.13603
10934.837	-2.10872	3.66843	3.04207	-0.04601
10938.829	-1.99642	3.72383	3.00185	0.35180
10942.833	-2.10419	3.68587	3.10111	1.44400
10946.830	-2.18838	3.81824	3.03813	0.69834
10950.836	-2.24532	3.99589	3.05046	1.18740
10954.788	-2.23799	3.96794	2.94490	0.76646
10958.831	-2.26334	4.20365	2.90106	1.30641
10962.831	-2.29649	4.28812	2.93985	1.09574
10966.835	-2.31658	4.23732	3.02576	0.62741
10970.832	-2.35692	4.36212	2.90426	0.93729
10974.831	-2.34778	4.49863	3.11920	0.43984
10978.831	-2.44410	4.47952	2.95044	0.11083
10982.836	-2.42346	4.57413	2.88492	1.42092
10986.831	-2.38333	4.75403	3.04407	1.06572
10990.815	-2.30345	4.68188	3.14117	1.11850
10994.827	-2.26346	4.60470	2.98581	1.00748
10998.838	-2.34810	4.58706	3.19766	1.08272
11002.835	-2.20510	4.44444	3.30265	1.45546
11006.829	-2.18944	4.47457	3.00257	1.97226
11010.829	-2.22195	4.35868	2.58861	1.99037
11014.793	-2.19992	4.25759	2.80493	2.50276
11018.832	-2.22304	4.15617	2.41868	2.17358
11022.834	-2.11395	3.98438	2.83276	2.95266
11026.834	-2.20399	4.08525	2.60399	2.82203
11030.832	-2.21422	3.98997	2.46119	2.62820
11034.834	-2.29810	3.97101	2.44167	3.22165
11038.832	-2.10419	3.63159	2.34193	3.32590
11042.835	-2.01563	3.51480	2.40778	2.66722
11046.837	-2.04830	3.47879	2.31976	3.39696
11050.831	-2.15504	3.71562	2.32256	2.85760
11054.836	-2.03050	3.82310	2.31440	3.59630
11058.834	-2.05397	3.97198	2.27166	3.40027
11062.835	-2.16721	4.20330	2.31748	3.00454
11066.833	-2.09256	4.17880	2.30199	2.90089
11070.835	-2.09080	3.58744	2.26705	2.78841
11074.806	-2.18000	4.22144	2.19469	2.71313
11078.838	-2.32830	3.90055	2.24763	2.83246
11082.833	-2.06880	3.85179	2.20166	2.99366
11086.835	-2.01035	3.69786	2.02649	2.94971
11090.832	-1.94032	3.73954	1.98489	2.83609
11094.836	-2.27372	3.88693	2.03819	2.96938
11098.832	-2.43422	4.15268	1.97356	4.58720
11102.835	-0.52957	3.81747	2.21945	2.97171
11106.833	-1.13372	3.83781	2.27734	3.64610
11110.840	-1.69150	3.68771	2.45183	1.36812
11114.823	-0.92041	3.62458	4.42651	2.59388
11118.836	-0.77585	3.55757	3.67766	2.40483
11122.836	-0.39432	3.64365	4.23772	2.41679
11126.731	-1.26981	3.95350	3.99060	1.89744
11130.832	-0.48230	3.69782	3.75457	1.64961
11134.833	-0.63456	3.84102	4.01406	1.75032
11138.833	-0.73392	4.00362	4.06026	1.67085
11142.834	-0.66603	4.13671	4.11322	1.53574
11146.833	-0.86498	4.24222	3.93675	1.71063
11150.792	-0.81478	4.34031	3.94125	1.67704
11154.835	-0.45207	4.42789	3.91000	1.81664
11158.730	-0.33752	4.28320	3.71491	1.74239
11162.836	-1.03156	4.43653	3.78318	1.85791
11166.837	-0.96948	4.44135	3.77849	1.94369
11170.834	-0.96509	4.57163	3.66387	1.91568
11174.732	-1.04602	4.59209	3.51960	1.85652
11178.835	-1.03310	4.71882	3.45846	1.95822
11182.835	-1.01298	4.73686	3.61807	1.88655
11186.837	-0.98355	4.82822	3.64150	1.17213
11190.736	-0.90803	4.84270	4.50690	1.62745
11194.833	-0.99941	4.92903	4.07814	1.72953
11198.816	-0.91053	5.00417	4.09663	1.52658
11202.832	-1.03972	4.96606	4.15749	1.00305
11206.732	-0.85816	5.07101	4.76445	0.43186
11210.835	-0.53679	4.85423	4.38980	0.22658
11214.834	-0.85277	4.77858	4.70872	1.01185
11218.791	-0.78751	4.92253	4.75018	0.22485
11222.729	-0.62064	4.77276	4.53426	0.88932
11226.838	-0.56242	4.57994	4.47859	1.28178
11230.835	-0.59007	4.61793	4.60306	1.79734
11234.833	-0.36449	4.19551	4.89161	1.95972
11238.705	-0.42966	4.26265	4.69918	1.22579
11242.831	-0.47569	4.23900	4.28399	1.81434
11246.834	-0.64243	3.94675	4.14362	1.80221
11250.835	-0.69799	4.11745	4.21817	1.90656
11254.736	-0.74828	4.10843	4.14389	1.51830
11258.834	-0.60201	4.03773	4.28577	1.87087
11262.836	-0.80771	3.96261	4.07518	1.75992
11266.837	-0.62565	3.86102	3.96256	1.90538
11270.842	-0.85870	4.01398	2.23130	1.99486
11274.836	-0.87232	3.99520	2.75059	1.99390
11278.836	-0.89272	3.99808	3.76730	1.92239
11282.834	-0.91899	4.02836	3.10265	2.03917
11286.730	-0.90235	3.97942	4.10767	2.19810
11290.835	-0.85032	3.83656	4.30756	2.35983
11294.839	-0.83074	4.08798	4.46307	1.98468
11298.838	-0.80985	4.14236	4.46147	2.53113
11302.797	-0.76900	4.18835	4.31528	2.77404
11306.872	-0.81426	4.30459	4.81399	1.56627
11310.794	-0.81287	4.34637	5.12501	1.12741
11314.838	-0.79372	4.61880	4.55103	0.32680
11318.841	-0.70605	4.42673	4.61216	-0.08236
11322.836	-0.51078	4.35953	4.59778	-0.37401
11326.832	-0.74270	4.55889	4.98169	0.26510
11330.836	-1.11296	4.58492	4.66014	2.67282
11334.840	-1.60112	4.38477	3.88443	1.79535
11338.838	-2.03300	2.66539	3.45569	2.93046
11342.837	-2.31346	2.03340	1.63050	1.02458
11346.839	-2.36899	2.11961	0.90044	1.44926
11350.734	-2.43506	1.99110	0.92773	2.50935
11354.795	-1.79296	1.78612	1.89513	2.42377
11358.840	-2.14932	2.27403	1.92922	2.14921
11362.794	-2.39302	2.03686	1.48791	2.20366
11366.761	-2.35811	1.84342	1.57416	2.32150
11370.839	-2.45775	1.72570	1.75609	2.69207
11374.796	-2.42527	1.25482	1.65785	2.28351
11378.838	-2.35239	1.00775	2.20295	2.38189
11382.736	-2.42069	1.60502	2.32949	1.94941
11386.838	-2.37201	2.09466	2.13019	1.92361
11390.840	-2.40771	3.10869	2.01630	0.72605
11394.838	-2.35932	3.25134	2.38940	0.89216
11398.736	-2.45607	3.01000	2.10781	-0.07119
11402.851	-2.50652	3.02742	2.11197	-0.28341
11406.821	-2.50375	3.37008	2.22852	-0.48110
11410.841	-2.51252	3.21299	2.17395	-0.66207
11414.737	-2.49077	3.19579	2.03323	-1.70050
11418.835	-2.44541	3.07774	2.15656	-0.86030
11422.794	-2.43149	3.22836	2.07811	-1.33599
11426.843	-2.49513	3.07465	2.09536	-1.75928
11430.843	-2.44903	3.16894	2.06195	-2.01844
11434.838	-2.09883	2.96018	2.00656	-2.19177
11438.840	-2.20912	3.03259	1.94516	-2.30160
11442.839	-2.11519	2.80026	1.84617	-2.48926
11446.736	-2.41673	2.44805	1.72302	-2.43731
11450.713	-2.25674	2.68324	2.07090	-2.33464
11454.714	-2.21891	2.72991	1.62445	-2.27603
11458.713	-2.43456	2.61294	1.85951	-2.18107
11462.675	-2.15227	2.87673	1.60650	-2.51345
11466.713	-2.24753	2.64716	1.51670	-2.35281
11470.712	-2.24929	2.71479	1.59789	-0.24733
11474.711	-2.43409	2.63343	1.78285	-1.66141
11478.708	-2.11167	2.70939	1.64647	-1.26762
11482.711	-2.41209	2.70457	1.49485	-1.40245
11486.713	-2.63049	2.96353	1.71441	-1.25787
11490.672	-2.39470	2.96617	1.79663	-1.27097
11494.847	-2.37503	2.86839	1.59797	-0.80882
11498.713	-2.60277	2.89402	1.56623	-0.28277
11502.715	-2.45000	2.94428	1.52501	-0.14047
11506.714	-2.50358	2.94367	1.32803	-0.71520
11510.677	-2.51336	2.90398	1.16949	-0.52626
11514.716	-2.51601	2.88902	1.58706	-0.26315
11518.671	-2.40565	2.93145	1.16957	-0.52511
11522.713	-2.49577	2.98347	1.56652	-0.27863
11526.737	-2.58130	2.57737	1.65292	-0.50725
11530.715	-2.54831	2.51604	1.22653	-0.78717
11534.718	-2.55770	2.68334	1.28221	-0.40548
11538.716	-2.57107	2.50621	1.70774	-0.82584
11542.708	-2.52322	2.31968	1.75721	-1.08157
11546.714	-2.49483	2.12184	1.18339	-1.93061
11550.714	-2.48086	1.90029	1.66824	-1.22111
11554.717	-2.41626	1.75053	1.08904	-1.00332
11558.716	-2.41735	1.91621	1.50713	-1.32054
11562.714	-2.42525	1.54907	1.15637	-1.39472
11566.712	-2.36430	1.85113	1.72503	-1.21466
11570.715	-2.36956	1.62448	1.26703	-0.89572
11574.710	-2.31473	1.78020	0.85312	-1.28713
11578.697	-2.25982	1.52109	1.30045	-1.42481
11582.715	-2.21613	1.60771	1.06155	-1.12717
11586.716	-2.15423	1.58594	0.86138	-1.29102
11590.718	-2.18092	1.92245	1.54629	-0.55881
11594.715	-2.17916	1.81899	1.03632	-1.25865
11598.715	-2.21110	1.81223	0.94254	-1.28709
11602.717	-2.27285	1.60295	1.58495	-0.67059
11606.739	-2.25479	1.80722	2.11420	-0.22418
11610.675	-2.26418	1.88988	2.13576	-0.17633
11614.722	-2.23003	1.92839	1.01814	-0.54524
11618.678	-2.36277	2.10105	1.01556	0.14152
11622.719	-2.41643	2.18020	1.04002	-0.27148
11626.673	-2.38893	2.16260	1.53577	0.03331
11630.717	-2.49419	2.26949	1.15650	0.11145
11634.720	-2.49515	2.33333	1.04731	0.11454
11638.709	-2.52052	2.30724	1.02578	-0.05839
11642.715	-2.60926	2.62847	0.93472	0.23606
11646.715	-2.54407	2.34854	0.97556	0.33119
11650.719	-2.55547	2.33270	1.07441	0.22373
11654.710	-2.50001	2.21983	0.90723	0.36970
11658.720	-2.53744	2.19262	0.84600	0.34750
11662.718	-2.53590	2.28196	1.18133	0.38242
11666.720	-2.50633	2.10948	1.09926	0.35527
11670.718	-2.35551	1.99488	1.04416	0.34293
11674.716	-2.26083	1.97401	1.46541	0.18653
11678.719	-2.19204	1.97460	1.04483	-0.17374
11682.718	-2.10917	1.93467	1.12717	-0.30829
11686.712	-2.03467	1.87317	1.52684	-0.65183
11690.718	-1.91204	1.91699	1.34142	-0.09060
11694.716	-1.79500	1.96882	1.42119	-0.78455
11698.718	-1.72902	2.01982	1.50375	-0.81017
11702.679	-1.63420	1.93137	1.35350	-0.97851
11706.716	-1.54681	1.97604	1.77313	-0.96844
11710.721	-1.46893	2.01573	2.00118	-0.97995
11714.715	-1.27678	1.87927	2.26544	-1.18064
11718.715	-1.28053	1.94359	2.07982	-1.16010
11722.713	-1.29955	2.10904	1.89126	-1.27574
11726.716	-1.53485	1.90355	2.19036	-1.36840
11730.720	-1.45839	2.18300	2.18642	-1.48429
11734.740	-1.41782	2.02846	2.07251	-1.75489
11738.710	-1.50951	1.82613	1.33440	-1.83763
11742.718	-1.58363	1.87420	2.20770	-1.40975
11746.683	-1.66462	1.86679	1.82611	-1.84147
11750.712	-1.62634	1.56674	1.21936	-1.59415
11754.717	-1.83965	1.73920	1.43612	-1.32669
11758.721	-1.80095	1.68363	1.97131	-0.13699
11762.676	-1.91727	1.37514	1.77077	0.11159
11766.741	-1.86489	1.29207	1.56776	0.08786
11770.717	-1.86075	0.66515	1.47494	0.11936
11774.720	-1.90827	1.00963	1.47278	0.13459
11778.719	-1.96831	1.07906	1.45311	-0.00571
11782.723	-1.92401	1.10853	1.76232	0.15466
11786.718	-1.97694	1.14052	1.71506	0.18795
11790.719	-1.78024	1.07503	1.75728	0.22806
11794.721	-1.49294	1.00567	1.70095	0.19376
11798.680	-1.60918	0.81530	1.41856	0.32296
11802.719	-1.74682	0.96428	1.05200	0.05933
11806.720	-1.69674	0.97597	1.28886	0.55197
11810.722	-1.62830	1.04402	1.01692	0.23951
11814.724	-1.52756	1.14613	1.51655	0.18933
11818.723	-1.56905	1.76186	1.24950	-1.67309
11822.720	-1.33899	1.44130	1.19502	-1.86662
11826.715	-1.46489	2.20021	1.18349	-1.48180
11830.693	-1.51670	2.27340	1.16104	-1.62653
11834.720	-1.67633	2.50035	0.89282	-1.75999
11838.719	-1.61280	2.61500	0.91495	-1.83775
11842.719	-1.79700	2.38002	0.74660	-1.80481
11846.721	-1.75575	2.51137	0.94792	-1.85257
11850.718	-1.81248	2.62653	0.93840	-1.81930
11854.718	-1.91405	2.57364	1.21003	-1.70950
11858.718	-1.94684	2.54377	1.45495	-1.77193
11862.712	-2.03335	2.66277	1.27443	-1.79770
11866.723	-2.06052	2.72908	0.80434	-1.71292
11870.692	-2.10528	3.03045	1.06853	-1.70778
11874.720	-2.03942	2.90780	1.01523	-1.64190
11878.720	-2.00787	2.94571	1.21960	-1.67944
11882.722	-2.13108	2.95665	1.25696	-1.71570
11886.722	-2.10015	2.96872	1.04590	-1.47341
11890.720	-2.13638	3.12128	1.09956	-1.52279
11894.722	-2.09214	2.87982	1.27224	-1.48861
11898.678	-2.07279	3.00726	0.96405	-1.52012
11902.718	-2.06984	3.05602	1.02169	-1.59117
11906.721	-2.02217	3.10556	1.06947	-1.50731
11910.722	-1.98906	3.03329	1.09522	-1.63530
11914.721	-2.11118	2.94668	1.02394	-1.53050
11918.720	-1.99339	2.77860	0.66546	-1.57469
11922.721	-1.99367	2.72827	1.19653	-1.17395
11926.715	-1.96759	2.72507	0.90344	-1.39667
11930.726	-1.96997	2.49513	1.08530	-1.35334
11934.721	-1.92557	2.48565	1.15141	-0.63223
11938.735	-1.93628	2.20944	0.89284	2.98081
11942.724	-1.94055	-0.16135	1.44064	0.95665
11946.720	-1.66006	-0.80979	1.85713	-1.01187
11950.722	-1.19100	-1.59285	2.11482	-1.54598
11954.720	-0.93673	-1.32087	2.05370	-1.95510
11958.720	-0.46934	-1.18651	2.04354	-1.99517
11962.720	-0.64642	-1.16313	1.98626	-3.01509
11966.678	-0.71111	-1.28382	2.73526	-2.96186
11970.721	-0.65635	-1.37736	2.92802	-2.54172
11974.715	-0.95810	-1.33680	3.03177	-2.50032
11978.724	-0.83625	-1.27774	2.81521	-2.25284
11982.721	-0.61866	-1.76743	2.99341	-2.32317
