time (ms)	lx (deg)	ly (deg)	rx (deg)	ry (deg)
0.000	-0.90029	4.37532	2.21583	0.73549
4.031	-0.74054	4.03865	2.41692	0.58292
8.048	-0.63129	4.14715	2.18662	0.64801
12.011	-0.70449	3.99208	2.78070	1.83366
16.033	-0.50657	3.96959	2.33859	0.43432
20.033	-0.28066	3.93211	2.46434	1.62533
24.054	-0.59565	3.50406	2.52376	2.01112
28.042	-0.44306	3.84931	2.44962	1.73848
32.039	-0.49175	3.62689	2.62363	1.58996
36.041	-0.57918	3.36243	2.74876	2.17616
40.040	-0.48671	2.81528	2.61114	1.12009
44.042	-0.52915	3.44327	2.92510	0.80359
48.045	-0.60682	3.16482	2.67137	0.72263
52.001	-0.64670	3.46274	2.64901	0.69396
56.036	-0.67965	3.30627	2.67219	1.23399
60.044	-0.72414	3.14857	2.43825	1.27610
64.039	-0.70603	2.90583	2.70255	0.80928
68.043	-0.69652	3.05164	2.90203	0.25917
72.043	-0.37563	2.97997	2.73789	1.01936
76.044	-0.25304	3.10380	2.64968	0.93156
80.042	-0.63866	3.13507	2.57162	1.05580
84.033	-0.26319	3.19179	2.48210	0.65522
88.041	-0.50590	3.27809	2.64814	0.57703
92.043	-0.26024	3.20569	2.67630	1.01598
96.038	-0.15551	3.23724	2.55804	0.79207
100.007	-0.01348	3.27830	2.72422	0.82827
104.043	-0.10431	3.50912	2.66389	0.88301
108.045	-0.11989	3.54912	2.73566	1.02469
112.042	-0.02216	3.54978	2.81506	1.03549
116.006	0.15427	3.43806	2.68475	1.05161
120.039	0.16439	3.21970	2.68967	1.15656
124.039	0.06448	3.26118	2.82650	1.26983
128.040	-1.58391	3.19388	2.76834	1.38279
132.040	-0.57972	3.05602	2.85799	1.41954
136.042	0.07289	2.77175	3.17121	1.33142
140.042	-1.49681	2.79606	3.13328	1.49912
144.040	-1.61275	2.63285	3.11071	1.50146
148.032	0.05142	2.82195	3.07986	1.51207
152.041	-1.51648	2.56007	3.38820	1.51696
156.044	-0.24507	2.63670	3.18895	1.60032
160.043	-0.25560	2.55655	3.35174	1.45616
164.045	-0.35216	3.22164	3.18351	1.34299
168.045	-0.30918	3.39254	3.29021	1.35685
172.043	-0.46495	3.46631	3.24758	1.21785
176.049	-0.32967	3.53172	3.27645	1.11788
180.044	-0.14749	3.90969	3.17626	1.03808
184.043	-0.21499	3.86995	3.14768	0.91200
188.043	-0.22537	3.88120	3.04477	0.87567
192.041	-0.28287	3.89246	2.84804	0.80464
196.040	-0.26058	3.85235	2.97916	0.72073
200.045	-0.19459	3.26545	2.88975	0.70079
204.045	-0.24277	3.51729	2.90683	0.70177
208.043	-0.24825	3.29181	2.78317	0.55163
212.033	-0.20688	3.41988	2.81786	0.55995
216.045	-0.19502	3.43236	2.75636	0.58142
220.043	-0.17427	3.47004	2.74249	0.47526
224.044	-0.20435	3.45298	2.65250	0.48631
228.049	-0.04370	3.37567	2.81682	0.39107
232.048	-0.13630	3.35147	2.63896	0.43350
236.046	-0.11419	3.50872	2.45448	0.41966
240.044	-0.02529	3.43535	2.47380	0.37636
244.036	-0.02991	3.29484	2.65656	0.23249
248.045	-0.02462	3.29442	2.38412	0.31575
252.047	0.05462	3.30054	2.24269	0.76907
256.044	0.09540	3.20658	2.08270	0.89170
260.047	0.01941	3.14111	2.14226	2.90650
264.044	-0.00194	2.92992	1.87555	2.67610
268.048	-0.04621	2.82004	1.75042	2.48662
272.044	-0.16186	2.59480	1.89077	2.35131
276.047	-0.34270	2.64900	1.73333	1.55022
280.007	-0.63119	2.63520	1.85192	3.24406
284.046	-3.29340	3.15253	1.70990	2.53498
288.044	-2.88118	3.90779	1.49297	3.37302
292.039	-8.41417	3.90345	7.21100	2.66077
296.048	-0.68603	2.74996	9.59527	3.26772
300.044	8.91502	6.37999	9.85915	5.79049
304.043	8.74716	10.10396	4.26968	3.96091
308.044	NaN	NaN	1.79338	3.65726
312.039	NaN	NaN	1.45289	5.26832
316.045	NaN	NaN	-1.29092	3.36551
320.046	NaN	NaN	-1.52935	4.85501
324.047	NaN	NaN	0.84945	3.14909
328.048	NaN	NaN	-2.75395	3.33676
332.044	NaN	NaN	-3.08775	4.31957
336.043	NaN	NaN	-0.88671	4.36387
340.044	NaN	NaN	-0.73079	5.31715
344.024	NaN	NaN	-1.04213	5.69872
348.044	8.03609	1.64927	-5.48280	5.87005
352.046	9.59527	2.82245	0.04239	5.17429
356.055	-4.85933	0.03041	0.31138	3.04768
360.048	9.34435	3.20531	0.53441	1.93684
364.046	-1.40100	3.75003	3.86284	1.72740
368.044	1.85740	4.01636	2.37657	2.00455
372.044	5.04302	4.15358	0.55692	1.98905
376.046	4.79502	3.82840	0.64268	2.08662
380.044	-1.37811	4.33651	0.53763	1.66112
384.038	-1.31922	4.14400	0.72610	0.19945
388.046	-0.92438	3.68515	0.80575	2.02620
392.044	-0.61399	3.86548	0.81910	1.36869
396.046	-1.16868	3.99877	0.71953	2.21879
400.044	-0.67719	3.77187	0.70977	1.72048
404.045	-1.11730	3.98433	0.80878	2.11625
408.048	-1.17116	4.11334	0.67980	2.11224
412.045	0.06867	3.58411	0.59215	2.09659
416.046	-0.10128	3.70985	0.34407	2.26028
419.946	0.10654	3.97133	0.21383	2.24666
424.047	0.05420	3.71552	0.90163	2.10319
428.047	-0.48197	3.53705	1.47340	2.08996
432.050	-0.44363	3.66404	1.00668	2.20006
435.946	-0.54116	3.44074	1.77167	2.07162
440.050	-0.41169	3.39733	0.97497	2.05762
444.047	-0.93639	3.31867	1.00407	2.06435
448.047	-1.10899	3.33753	1.74139	2.11213
452.049	-1.11737	3.16251	2.07021	2.12319
456.048	-1.48014	2.95310	1.47032	2.05816
460.047	-1.26468	2.83464	0.90545	2.09044
464.049	-0.08679	3.03107	0.93855	2.11178
468.034	-0.90163	2.38593	0.43130	2.12312
472.042	-0.54307	2.75970	0.10265	2.10221
476.047	0.13285	2.75429	0.36395	1.88752
480.051	0.00020	2.54130	0.09480	2.03915
484.049	0.53818	3.11001	-0.00712	1.88348
488.046	-0.16246	3.06749	0.99062	1.94175
492.049	-0.25847	3.07575	1.46120	1.85309
496.047	-2.36145	4.13020	1.34586	1.66166
499.954	-4.10073	3.78649	1.13476	2.05037
504.005	-4.42799	3.77650	2.15281	1.57487
508.049	-5.33561	2.98407	7.94625	1.30996
512.015	-9.62615	4.34883	13.54401	2.14964
516.040	NaN	NaN	4.50135	7.23339
520.049	NaN	NaN	1.61359	8.38146
524.011	NaN	NaN	NaN	NaN
528.047	NaN	NaN	NaN	NaN
532.046	NaN	NaN	NaN	NaN
536.051	NaN	NaN	NaN	NaN
540.050	NaN	NaN	NaN	NaN
544.047	NaN	NaN	NaN	NaN
548.049	NaN	NaN	NaN	NaN
552.014	NaN	NaN	NaN	NaN
556.049	NaN	NaN	NaN	NaN
560.012	NaN	NaN	NaN	NaN
564.049	NaN	NaN	NaN	NaN
568.050	NaN	NaN	NaN	NaN
572.056	NaN	NaN	NaN	NaN
576.051	NaN	NaN	NaN	NaN
580.053	NaN	NaN	NaN	NaN
584.048	NaN	NaN	NaN	NaN
588.048	NaN	NaN	NaN	NaN
592.050	NaN	NaN	NaN	NaN
596.038	NaN	NaN	NaN	NaN
600.052	NaN	NaN	NaN	NaN
604.026	NaN	NaN	NaN	NaN
608.052	NaN	NaN	NaN	NaN
612.049	NaN	NaN	NaN	NaN
615.951	NaN	NaN	NaN	NaN
620.022	NaN	NaN	NaN	NaN
624.053	NaN	NaN	NaN	NaN
628.052	NaN	NaN	-2.33403	10.27052
631.950	NaN	NaN	1.36151	2.83830
636.018	NaN	NaN	-0.90053	2.77822
640.051	NaN	NaN	1.17411	2.30298
644.051	NaN	NaN	1.28197	-0.83037
648.055	NaN	NaN	1.41730	-1.05483
652.050	NaN	NaN	-1.83452	0.28065
656.053	NaN	NaN	-1.88169	-1.05955
660.052	NaN	NaN	10.43889	1.92871
664.012	11.53334	-12.25598	-1.00075	-0.74075
667.951	-19.99372	-12.04645	-1.65173	1.59253
672.051	3.11096	-12.14333	6.39396	0.71522
676.036	14.03239	3.07001	-0.83709	-0.00753
680.055	3.17618	-9.77280	-0.49637	0.95033
684.052	1.08547	-8.66786	-0.91192	2.83215
687.952	-0.26106	-7.10106	12.05706	2.13478
692.051	-1.48344	-7.71478	1.05969	2.75506
696.052	-4.09678	-6.23141	3.86981	3.19914
700.053	-5.69470	-5.37290	-1.70698	3.41965
703.948	-3.49715	-5.99297	-2.90512	3.61328
708.054	-5.42764	2.78335	-2.22076	3.44893
712.053	-5.20088	2.95038	-2.33546	2.86652
716.050	6.16496	-5.50719	-2.23989	1.48354
719.951	6.21529	-5.14328	-0.98179	3.14895
724.053	0.89011	3.30640	2.70144	3.29740
728.052	-1.00271	4.16619	3.75158	3.24753
732.053	-1.20440	4.76278	-1.96990	1.22631
735.951	-1.45688	4.23924	-1.53748	1.08109
740.053	-0.41425	4.34479	-0.63933	1.06112
744.054	0.48359	2.05732	1.25322	-1.11430
748.032	0.73796	2.09122	2.59054	1.23906
751.949	1.05523	1.98938	2.50754	0.82928
756.016	-1.94545	-4.51445	2.13128	3.26757
760.032	0.18092	-3.28712	0.97162	3.35607
764.053	-0.78483	3.34384	-0.82024	0.85965
767.922	-0.24468	2.18128	1.87284	2.22968
772.052	0.03077	1.90927	2.32166	2.85585
775.927	0.21142	2.74218	1.90832	2.42891
779.931	-0.08525	3.94751	1.05977	2.94860
783.954	-0.57106	5.04430	1.23491	2.48353
787.931	-0.13550	4.49493	1.30518	1.90774
791.928	-2.95210	1.48578	2.23144	1.82272
795.928	-2.87861	0.78826	0.79305	1.87519
799.928	-2.38088	2.36191	1.69222	-0.46034
803.932	-2.19229	2.96287	0.85280	1.50239
807.896	-1.66810	2.72436	2.30972	1.63253
811.927	-0.45262	2.19855	1.18473	2.96869
815.957	-0.24723	1.34562	1.51859	2.51080
819.931	0.17784	1.93051	1.15893	1.69707
823.930	0.99839	2.37770	1.57089	1.39515
827.929	-2.01932	2.36469	1.81421	0.08884
831.920	-1.68674	3.72695	1.94511	1.11112
835.928	-1.07522	3.63834	1.36896	0.64194
839.928	2.74271	1.50404	1.89057	1.13859
843.930	-0.16787	2.10858	1.26393	2.81167
847.919	-1.25366	2.73172	2.29394	2.72003
851.925	-1.32438	2.99700	0.88897	1.50069
855.931	-0.81965	2.42051	1.87919	1.32177
859.925	-0.07420	1.94799	2.01221	0.05851
863.921	-0.18889	1.42825	2.84962	1.10619
867.930	0.06070	1.81485	0.54729	2.09564
871.891	-1.02610	2.99120	1.53557	0.33363
875.931	-1.28596	3.05724	1.93836	1.81155
879.925	-0.51210	2.62203	2.70230	1.39132
883.930	-0.05889	2.61832	2.53439	1.66694
887.928	0.25587	2.13738	-0.82243	1.99899
891.892	-0.60826	2.62293	-0.97904	1.52359
895.923	-1.14059	3.32868	1.98452	1.41973
899.929	-1.70618	3.58069	3.09265	1.58926
903.933	-1.75704	3.39956	2.17185	1.52915
907.929	-1.15704	3.49215	-0.96437	1.54957
911.929	-0.54875	3.32726	0.79885	1.22903
915.928	-0.75977	3.60565	1.48902	-0.06908
919.929	-0.23793	3.22365	1.79009	1.38293
923.932	0.22301	3.40492	1.91276	1.30475
927.933	-0.10585	3.56346	-1.22442	1.49824
931.933	-1.93841	4.25026	-0.69660	1.47675
935.933	-1.84161	4.40726	-0.07550	1.47152
939.929	-1.64823	5.04092	1.98645	1.28677
943.923	-0.86560	4.99161	0.62709	2.29246
947.932	-0.37556	4.64395	-2.73727	2.27267
951.929	-0.22931	4.78277	-0.60851	3.07479
955.930	-0.76024	4.69284	0.68039	2.31482
959.923	-0.31434	2.26850	1.67811	3.29115
963.929	-0.85158	2.67969	0.91391	1.86604
967.935	-1.29916	2.50955	1.20174	2.45591
971.915	-0.90398	4.20281	2.31121	2.56069
975.928	-0.90001	3.83992	-1.43121	2.64123
979.933	-0.75325	3.82213	1.26862	1.15142
983.931	-0.27202	4.11956	0.88274	2.42454
987.892	-0.78419	3.48556	0.89217	2.44370
991.921	-0.88098	3.95892	NaN	NaN
995.930	-1.40735	3.97407	-1.77873	3.19920
999.932	-1.74035	3.76760	-0.26155	3.12262
1003.930	-1.69797	3.43669	-1.59817	0.98074
1007.931	-1.02866	3.38654	0.76429	2.31068
1011.933	-1.01588	3.38728	0.79526	2.18838
1015.897	-0.79101	3.52679	1.75406	-0.20148
1019.935	-0.28078	3.27667	2.51054	0.55681
1023.924	-0.26880	3.39530	2.79211	0.58639
1027.930	0.00926	3.75279	-1.76924	2.39337
1031.933	-0.00702	3.87168	-1.64647	2.04494
1035.932	-1.80806	3.61652	0.52438	0.41843
1039.922	-1.14407	4.23002	2.01528	1.93134
1043.931	-0.83555	4.01675	1.39852	2.43809
1047.933	-1.42357	3.64622	0.57357	1.30600
1051.894	-1.53709	3.15893	0.63305	1.11008
1055.892	-0.45661	3.24936	1.44463	1.65590
1059.933	-1.88400	3.76600	2.57959	2.53392
1063.932	-1.64898	3.76610	-1.88958	1.17816
1067.934	-1.66953	4.16825	0.08180	1.16889
1071.923	-1.60308	4.85494	-0.42681	1.45149
1075.933	-1.41501	5.28284	-0.45448	2.29335
1079.931	-1.36005	2.80019	1.71617	2.84977
1083.896	-1.12559	2.86807	1.03858	1.19617
1087.953	-0.73275	2.72598	1.10971	1.54560
1091.932	-0.39008	2.80921	1.53830	2.86744
1095.932	-0.45733	3.78866	-2.05730	1.34558
1099.895	0.12061	3.93660	-1.58438	1.75259
1103.929	-1.25949	4.16533	-1.71727	2.18129
1107.933	-1.13784	4.74977	-0.73201	3.30980
1111.932	-0.31918	5.54857	1.71255	1.84297
1115.895	0.48545	3.29438	2.25523	2.50342
1119.927	0.38219	3.84575	-1.77231	1.93461
1123.933	0.04418	3.32810	-1.08527	2.82261
1127.934	0.06723	2.88575	-1.05637	2.22722
1131.934	-0.21859	3.16958	-1.06632	3.24945
1135.961	-0.69340	3.87422	-1.42216	2.26466
1139.907	-1.23245	3.68871	-1.00633	2.33176
1143.932	-1.64551	3.67481	-1.18842	2.57454
1147.932	-1.55566	3.65820	-1.24034	2.90554
1151.931	-2.13757	4.10299	-1.22633	2.33712
1155.933	-0.73191	3.53674	-1.30129	2.84266
1159.932	-0.01047	3.67687	-1.37344	2.65525
1163.896	-0.18990	3.71421	-1.10720	3.04288
1167.900	0.07483	4.17822	-1.19735	4.20219
1171.933	-1.13241	4.18504	-0.40906	3.95256
1175.935	-1.57776	4.42436	2.03511	2.25273
1179.894	-1.72597	4.92508	-0.33161	2.67613
1183.935	-0.23780	3.64677	1.92711	2.92963
1187.934	0.18864	3.09843	-0.08949	-0.41468
1191.935	-1.38798	3.66310	-0.12694	0.35159
1195.936	-1.15188	3.61147	-0.24388	0.04542
1199.926	-0.04423	3.83730	-0.49642	2.04811
1203.933	-1.27113	2.45560	-0.53180	2.54225
1207.934	0.12280	2.73745	-1.54646	2.43009
1211.936	0.11910	3.03972	0.37420	2.27824
1215.937	0.25723	2.87358	0.55414	2.72605
1219.936	0.04035	2.20028	0.50011	2.77643
1223.904	0.09185	2.29441	-0.11362	1.92136
1227.892	0.01005	2.15678	0.48852	1.92447
1231.927	-0.30779	2.67331	0.21557	2.98117
1235.936	0.04472	2.33758	-0.30967	3.14969
1239.934	-0.04519	2.66107	0.79687	0.31468
1243.898	-0.09957	3.02369	0.54309	1.33559
1247.982	-0.30803	3.48279	0.78245	2.01819
1251.933	-0.46438	3.85612	0.01338	2.40213
1255.935	-0.97018	4.24884	-0.14724	2.82124
1259.934	-1.74920	4.58334	-1.32051	2.89435
1263.937	-0.45165	3.81813	-1.56893	3.89437
1267.935	-0.33945	3.71083	-2.24599	4.40188
1271.936	-0.61578	3.60170	0.67392	1.75346
1275.936	-1.43022	4.06270	0.62650	2.42133
1279.937	-1.81848	4.17014	0.62707	0.72822
1283.938	-2.00646	4.13024	-0.71417	1.57355
1287.934	-0.60416	4.53719	-1.11025	-0.65895
1291.934	-0.65784	4.81223	0.90557	0.87491
1295.941	-0.72685	5.83023	0.62727	0.80789
1299.938	-1.23327	5.45517	0.37861	1.47441
1303.931	-1.25173	5.92049	-0.09252	1.75209
1307.928	-1.11402	4.87550	-0.64982	0.95065
1311.935	-1.44627	5.02111	-0.45247	1.58470
1315.936	-1.29266	4.68332	-0.36943	1.27905
1319.934	-1.91100	5.56330	-0.89220	0.87951
1323.937	-1.77070	4.49848	-0.77771	1.18210
1327.938	-1.56548	4.55725	-1.39897	3.94157
1331.934	-2.01241	4.51044	-1.55457	4.47897
1335.937	-1.72513	4.06939	-1.87079	3.96020
1339.935	0.19082	3.03451	-1.63447	3.93531
1343.937	0.10386	2.49080	-1.48887	3.69743
1347.900	-0.77823	2.19980	-0.62952	2.93633
1351.938	-0.27592	1.88143	-1.28971	0.80297
1355.939	0.04323	2.33473	-1.48997	0.91990
1359.942	-1.48647	5.42747	0.21956	0.69452
1363.938	-2.04133	4.01372	0.01454	1.64101
1367.899	-1.28249	5.40336	-0.62821	0.62350
1371.943	-0.40941	5.03283	-0.46289	1.39789
1375.941	-0.59491	5.05892	-0.37568	0.86410
1379.938	-1.29425	4.69018	2.16263	3.68590
1383.945	-1.24806	4.51064	2.20025	4.29359
1387.941	-1.61736	4.40958	2.08272	3.30158
1391.940	-1.31647	3.91903	1.32267	3.54799
1395.939	0.14332	2.86549	0.34067	4.12191
1399.938	-0.06348	2.44385	1.20509	4.17962
1403.940	-0.37896	2.86328	-0.21408	3.63131
1407.942	0.25004	2.30935	1.94692	3.80599
1411.941	0.09044	2.08449	1.74397	3.64643
1415.939	-0.12910	2.34474	0.96328	3.45284
1419.938	-0.36985	2.23775	0.57114	3.54435
1423.942	-0.40862	2.14894	0.78109	3.34030
1427.947	-0.06351	2.30401	1.41085	3.16188
1431.901	-0.26269	2.07018	1.57163	3.42713
1435.942	-0.06994	1.97716	1.29415	3.18945
1439.930	-0.44490	5.58019	1.08353	2.89326
1443.939	-0.78724	5.54663	0.74685	2.74789
1447.939	-0.72975	4.83951	1.19266	0.17192
1451.939	-1.04017	3.75625	-0.49257	1.89044
1455.942	-0.74747	2.31840	-1.79490	1.81024
1459.939	0.36998	1.69463	0.59414	3.21112
1463.940	0.30583	4.89850	1.00995	3.36099
1467.943	0.38509	4.03887	0.73722	2.09487
1471.927	-0.73791	2.81299	2.16233	1.68388
1475.940	-0.34886	2.46082	-0.24413	1.96413
1479.937	-1.10832	5.35450	0.47897	5.36548
1483.942	-1.17828	4.17499	1.29511	2.93219
1487.942	0.70766	2.97903	-0.75948	2.97791
1491.939	0.43951	2.42153	-1.83414	2.75740
1495.940	-0.62012	2.68573	0.51475	5.86005
1499.939	-1.47742	4.84427	0.24063	2.95485
1503.917	0.42549	4.08385	-2.15328	2.53755
1507.942	0.37109	2.72771	-1.28368	2.88020
1511.941	-0.74928	1.61897	-1.00739	2.88003
1515.932	-0.52709	5.27013	0.76084	2.99352
1519.942	-1.06473	4.78581	-3.22161	3.00198
1523.939	-0.59401	3.39233	-2.06148	2.12201
1527.940	-1.19738	2.42271	-1.69517	2.48525
1531.939	-1.07029	2.51504	-1.85061	3.01276
1535.839	-0.71454	5.04593	0.23415	3.05714
1539.938	-1.08527	4.71509	0.37871	2.58156
1543.939	-1.48143	4.17648	-1.94456	2.51393
1547.939	0.24822	2.16542	-1.70735	1.63790
1551.950	0.99692	4.67889	1.04272	1.85572
1555.914	0.29036	4.96382	1.24473	3.01342
1559.940	-0.33159	4.54954	0.83156	2.96517
1563.939	-0.88882	3.86790	-2.47628	2.36779
1567.839	0.47443	3.26474	0.01685	1.37909
1571.939	0.59640	0.93087	-0.08460	2.92840
1575.939	0.42586	5.10937	-0.57349	2.72495
1579.941	-0.35829	4.42703	0.02417	2.94429
1583.948	0.66702	2.87817	0.04549	2.68078
1587.942	0.79923	3.12171	-0.35099	2.74073
1591.942	0.48426	2.57342	-0.39045	2.77498
1595.939	0.00573	1.51224	0.00196	5.77078
1599.842	-3.05803	3.91149	0.41571	3.01412
1603.942	0.14019	4.46855	3.08483	1.06612
1607.942	-0.21728	4.00627	-2.09311	2.04033
1611.943	-0.44835	3.90216	-2.79431	1.87197
1615.942	-0.08217	1.36652	-0.24353	3.61147
1619.942	0.26458	4.30411	-0.07413	3.43059
1623.941	-1.38763	3.97284	0.01904	2.89866
1627.940	0.61930	3.92772	-0.07852	2.50089
1631.840	0.25393	3.96091	-2.07360	1.63857
1635.942	-0.05080	2.53770	-2.80199	3.01635
1639.906	0.07492	-1.05232	-1.51191	3.35772
1643.944	1.07086	-0.40109	-0.84290	3.04715
1647.906	2.33702	3.62478	0.10247	4.33281
1651.945	3.01168	3.63575	6.03336	4.20100
1655.940	7.08708	3.62424	8.64585	3.50966
1659.938	7.81751	3.54132	6.17035	5.57953
1663.838	7.89289	-3.21983	13.02306	4.24854
1667.904	8.11192	5.03783	5.94082	2.44268
1671.938	8.42612	3.62152	NaN	NaN
1675.942	8.33481	3.15362	15.42525	5.30976
1679.812	7.67189	3.92357	10.78704	14.06615
1683.946	10.48300	3.25477	4.76867	14.33699
1687.944	8.65356	4.39242	14.15953	4.28689
1691.941	7.64067	4.35474	13.85683	3.82565
1695.842	7.77154	5.28401	10.81873	11.34599
1699.943	7.72412	5.11257	NaN	NaN
1703.944	7.22456	4.90615	4.16458	10.93726
1707.940	6.78077	4.92983	5.33071	10.36456
1711.841	8.46961	4.62258	NaN	NaN
1715.942	8.27686	4.58120	NaN	NaN
1719.943	7.36371	4.62371	NaN	NaN
1723.935	7.48110	4.17721	NaN	NaN
1727.798	6.72805	4.99274	13.91752	3.89167
1731.944	7.71730	4.79280	4.77035	11.96954
1735.945	8.04575	4.60724	NaN	NaN
1739.940	7.59885	4.88552	8.37611	12.37776
1743.842	8.06127	4.58934	13.67625	4.03515
1747.943	8.06365	4.52435	13.48939	4.07597
1751.946	7.80755	3.56051	NaN	NaN
1755.954	7.45450	3.92230	NaN	NaN
1759.843	7.09956	4.08396	NaN	NaN
1763.912	8.27521	3.71728	NaN	NaN
1767.905	7.36896	4.34983	15.86716	3.01594
1771.945	7.18122	4.27952	13.65041	2.47910
1775.842	6.97942	4.06440	4.18494	11.49467
1779.942	8.36652	3.71700	15.77182	3.72179
1783.942	7.84747	3.94844	13.65840	2.82109
1787.908	7.88629	3.40779	6.61905	10.64798
1791.844	8.38034	4.04703	5.04521	10.18199
1795.942	7.37121	4.13543	15.79016	2.31705
1799.947	7.12860	4.45904	14.72473	5.62306
1803.904	7.29582	4.00107	NaN	NaN
1807.844	7.25831	3.82146	16.32115	2.29172
1811.785	7.00890	3.84701	7.56883	11.89028
1815.816	9.02203	3.62168	17.92008	2.79001
1819.818	7.36149	4.01270	14.30328	1.29720
1823.812	7.23001	4.42573	6.41021	10.30283
1827.820	7.08686	4.48662	13.76034	3.78629
1831.818	7.26381	4.58081	13.73418	1.99869
1835.819	6.86701	4.46344	17.71797	1.72520
1839.818	7.08866	4.07069	15.91321	1.94119
1843.819	7.42058	3.97405	12.23979	7.48948
1847.819	7.40911	3.67428	15.67991	2.21552
1851.801	7.37265	2.85232	NaN	NaN
1855.817	5.17198	4.19078	7.22011	7.91010
1859.825	5.68615	4.29971	8.85809	7.59362
1863.819	4.70808	2.53340	5.79497	5.00030
1867.783	2.50125	4.06297	-1.07753	2.84879
1871.841	-0.64712	6.65868	0.69223	1.52452
1875.821	-3.67588	6.52580	1.93031	1.69204
1879.819	-4.47208	6.50082	-0.52220	-0.01419
1883.818	-4.76734	6.76194	-1.18249	1.04420
1887.818	-7.46319	5.68556	-5.14040	1.87569
1891.811	-7.51813	4.05191	-7.25103	3.01015
1895.810	-7.80855	3.99441	-6.67451	2.25397
1899.821	-7.65495	3.78109	-8.07920	2.05717
1903.843	-7.52183	3.00725	-8.15742	1.73494
1907.819	-7.76589	5.14045	-6.57463	3.82479
1911.818	-7.75100	5.85565	-7.10866	1.41026
1915.821	-7.97965	5.38720	-7.73275	1.95927
1919.819	-8.13064	3.78126	-6.78121	5.93315
1923.821	-7.89486	3.27288	-7.48546	1.54727
1927.824	-7.53830	3.44952	-7.33423	6.27450
1931.820	-7.93622	5.32101	-7.35319	6.65036
1935.815	-8.19664	4.85011	-7.63640	6.12082
1939.821	-8.15217	4.82093	-7.72719	5.48011
1943.794	-8.32373	3.39476	-7.51171	4.37666
1947.823	-8.21808	3.51253	-7.21108	4.23405
1951.819	-8.21692	2.76331	-7.52527	3.52777
1955.824	-8.03896	3.19778	-7.58268	3.78670
1959.823	-8.45713	5.70991	-6.27469	3.64998
1963.825	-8.51782	5.79864	-7.57471	3.41025
1967.818	-7.95178	5.74444	-6.09479	3.45589
1971.824	-8.71349	5.51871	-5.89110	3.12976
1975.822	-8.15893	4.49532	-7.10924	2.91451
1979.820	-8.76389	4.74244	-7.23213	2.32388
1983.822	-8.23671	2.08062	-6.47688	1.37364
1987.820	-8.24242	2.59782	-6.10841	1.78349
1991.819	-8.17986	1.85370	-5.78018	5.83150
1995.822	-7.91273	4.72232	-7.59315	5.59771
1999.820	-9.01184	3.36091	-5.87133	2.86625
2003.820	-8.01888	2.49843	-6.59927	2.42014
2007.820	-8.02633	4.18602	-6.51312	2.58642
2011.822	-8.02438	5.04248	-5.69979	5.52418
2015.848	-8.79741	4.21287	-6.89177	3.97887
2019.818	-8.02706	2.42740	-5.66794	3.32096
2023.824	-8.33170	4.88981	-5.63867	5.61540
2027.821	-8.64762	4.59195	-6.89742	6.02315
2031.847	-8.22596	4.00170	-5.84434	3.73686
2035.824	-8.60075	2.18964	-6.34059	2.35547
2039.824	-8.48068	5.20285	-6.31088	2.08991
2043.823	-9.13640	4.94566	-6.42383	5.36326
2047.820	-8.37322	2.20842	-7.05247	4.20503
2051.821	-8.60650	2.71460	-6.26076	1.93244
2055.824	-8.50391	5.04453	-5.57884	4.10048
2059.803	-7.52793	4.69707	-6.83198	2.35578
2063.792	-8.80231	4.55606	-6.96225	7.36372
2067.784	-8.38559	2.40654	-6.35758	4.29380
2071.822	-8.55712	2.21406	-7.63681	4.04227
2075.823	-9.09013	4.19444	-7.10897	4.02831
2079.846	-8.55399	5.15646	-6.80761	2.24399
2083.822	-8.26850	5.16387	-6.17914	2.67085
2087.826	-8.60477	5.19189	-6.43795	2.72725
2091.823	-8.74074	5.16130	-6.21274	1.46796
2095.815	-8.04903	4.70135	-5.59418	1.50527
2099.810	-8.95888	3.69462	-6.08352	4.18060
2103.811	-8.66207	3.72456	-5.92596	5.44860
2107.825	-8.74952	1.82986	-7.07586	4.41466
2111.845	-8.84070	2.15796	-6.49585	5.57185
2115.785	-8.71734	5.57839	-6.36300	4.42828
2119.824	-8.63721	4.78403	-6.43817	3.52459
2123.824	-7.80014	4.10039	-6.14972	2.36326
2127.848	-8.73557	2.86973	-6.49629	1.53582
2131.826	-8.80965	2.93712	-6.80450	5.37065
2135.823	-8.59893	4.30614	-6.35314	3.25459
2139.820	-8.66760	2.85295	-5.86754	1.46080
2143.818	-8.51375	4.30407	-5.88309	5.39366
2147.823	-8.83689	4.36071	-6.82251	3.76582
2151.821	-8.42051	2.16578	-5.95390	1.97477
2155.823	-8.42364	4.87365	-6.64386	4.68031
2159.815	-8.45779	4.30978	-5.89687	3.32625
2163.824	-8.66149	4.03989	-5.54108	2.28163
2167.826	-8.63170	4.34629	-5.80897	3.07734
2171.825	-8.55256	4.99715	-6.79782	5.24645
2175.815	-8.67582	6.60083	-6.39197	6.18661
2179.822	-8.54035	6.72330	-6.47500	10.00079
2183.807	-8.89615	8.55888	-6.99802	13.10801
2187.824	-6.17325	3.82311	-7.74542	11.60239
2191.846	-7.57103	11.54155	-9.95931	12.69041
2195.826	-8.58328	11.12780	-7.93975	9.93242
2199.824	-8.87328	8.37112	-8.45830	11.71652
2203.823	-8.79378	9.25567	-8.27652	11.77960
2207.826	-8.71608	11.58836	-9.66414	12.68070
2211.826	-8.46951	10.23561	-8.89494	13.00828
2215.825	-8.29071	9.48399	-8.42777	11.36724
2219.823	-8.74530	9.49661	-8.22372	10.32223
2223.846	-8.85344	9.05112	-8.14049	11.67498
2227.788	-8.87610	8.76920	-8.02891	11.78365
2231.827	-8.49326	8.88836	-8.29941	13.24363
2235.823	-8.63085	10.50553	-8.44089	14.35054
2239.826	-8.39970	9.94579	-8.29244	12.50818
2243.824	-8.59335	9.87366	-8.19725	11.16738
2247.827	-9.42180	9.47071	-7.90786	11.34571
2251.828	-8.61424	8.68327	-8.07438	12.86862
2255.822	-9.08065	9.53011	-7.86349	13.37193
2259.824	NaN	NaN	NaN	NaN
2267.802	-8.58277	9.86415	-7.86240	12.92502
2271.788	-8.92113	10.00409	-7.55501	11.09703
2275.825	-9.93159	9.67786	-8.20807	14.77154
2279.851	-9.40180	10.84723	-8.22606	12.20473
2283.829	-9.02021	9.75321	-8.41677	12.77238
2287.832	-8.88167	10.98009	-8.06830	12.47893
2291.827	-8.72677	8.49518	-7.54579	10.70153
2295.831	-9.16646	10.10996	-8.86408	13.33327
2299.825	-9.20366	9.43145	-8.08277	10.30031
2303.790	-8.83551	10.20083	-8.45417	13.38560
2307.821	-8.75987	10.01121	-7.91400	11.87383
2311.817	-8.71210	10.50462	-7.98320	14.10154
2315.830	-8.79501	9.74518	-8.16552	12.00392
2319.826	-9.24735	9.51702	-8.33450	14.10676
2323.825	-8.96830	10.38203	-8.04205	12.19876
2327.823	-8.60130	9.06746	-7.81571	9.97734
2331.824	-9.24240	10.53200	-8.78442	13.54895
2335.828	-9.17116	10.11353	-8.32940	12.70884
2339.825	-8.86631	9.68563	-8.12191	11.96988
2343.824	-8.69607	10.33658	-7.96595	13.04785
2347.833	-8.90761	10.39859	-7.97498	11.85493
2351.828	-9.22472	9.82695	-8.00143	9.95201
2355.827	-8.50379	9.13846	-8.02840	14.11335
2359.817	-8.72466	10.48827	-8.34337	13.38179
2363.827	-9.29684	10.30005	-7.92834	9.98526
2367.792	-8.48648	8.15047	-8.30405	13.32648
2371.831	-9.15301	10.77086	-8.04903	11.48400
2375.832	-9.27740	10.38318	-8.01917	11.38249
2379.828	-9.20966	8.71707	-7.76564	10.46501
2383.829	-9.12285	10.22707	-7.95638	14.23562
2387.838	-8.80182	9.86634	-7.66826	11.07684
2391.820	-8.62525	9.94260	-8.04268	14.57557
2395.825	-8.15883	9.40737	-6.66812	13.58680
2399.825	-7.56293	11.50548	-6.66690	11.03953
2403.822	-6.29896	11.08289	-6.84441	14.39881
2407.819	-6.26152	11.27123	-5.14370	13.66848
2411.827	-6.14244	11.70787	-5.65656	13.38092
2415.827	-6.03378	10.66247	-5.73817	13.87250
2419.828	-6.67735	11.53371	-4.83050	13.19831
2423.830	-6.03569	11.44701	-5.65875	14.73346
2427.827	-5.93615	9.60801	-5.26482	11.10812
2431.828	-6.11859	11.01024	-5.16826	14.89426
2435.824	-5.77829	11.46026	-4.66169	13.99808
2439.833	-6.05287	10.67726	-4.48182	13.17772
2443.827	-5.88972	11.34363	-5.11268	14.82220
2447.830	-5.91084	10.14432	-4.58481	13.24830
2451.830	-5.88650	10.77754	-4.05710	10.92986
2455.794	-5.98763	11.38246	-4.22861	14.65929
2459.830	-5.97089	11.91274	-5.03819	14.76435
2463.827	-5.10051	10.28571	-4.21163	11.58717
2467.830	-5.88122	9.95936	-4.38213	12.95675
2471.796	-6.00820	9.82762	-4.25613	14.59863
2475.830	-6.02180	10.62131	-4.25001	13.15171
2479.828	-5.91501	10.92843	-4.37944	12.91984
2483.829	-5.82569	11.02580	-4.82020	14.07341
2487.819	-5.80396	11.90279	-4.41040	13.32613
2491.793	-5.90463	12.16965	-4.65451	13.67455
2495.829	-5.86605	11.06026	-4.64039	13.70528
2499.833	-5.86912	11.90737	-4.50362	12.43928
2503.827	-5.77499	11.97831	-4.56146	14.57584
2507.829	-5.81636	9.84560	-3.92228	10.57815
2511.829	-5.87673	11.72097	-2.87596	13.36312
2515.817	-5.84033	10.21017	-4.50118	12.81904
2519.826	-5.99340	11.74670	-4.93612	13.31933
2523.793	-6.18205	10.86337	-4.61322	12.35618
2527.829	-6.03920	10.07323	-4.74104	13.70719
2531.832	-5.91374	9.80533	-4.20388	12.65116
2535.833	-5.97875	10.39183	-4.34574	13.68720
2539.829	-6.17555	11.73649	-4.75815	12.17529
2543.829	-5.84190	10.61627	-4.44479	12.97583
2547.831	-6.31666	11.98144	-4.59125	12.84568
2551.833	-6.18492	10.75188	-4.57837	12.41485
2555.832	-5.99011	10.12416	-4.21454	12.76577
2559.801	-6.27633	11.80205	-5.17809	12.30079
2563.830	-5.99492	11.48440	-4.66263	14.49304
2567.729	-5.92849	11.69282	-4.69061	12.50201
2571.792	-5.87255	11.36857	-5.11327	14.78485
2575.829	-5.81823	10.35734	-4.65274	13.66067
2579.830	-6.03248	11.74150	-4.80825	11.95728
2583.832	-5.89033	11.54275	NaN	NaN
2587.831	-5.95196	10.57514	-5.18414	14.02161
2591.796	-5.99971	11.69618	-4.64056	12.07641
2595.832	-6.04966	11.80169	-5.13225	13.54269
2599.735	-6.23736	11.73044	-5.21368	13.87532
2603.826	-6.46490	10.35721	-5.02785	10.13462
2607.830	-7.15567	7.17785	-5.20142	8.38880
2611.829	-7.70199	7.15906	-5.42614	9.68342
2615.729	-8.76045	7.21358	-6.91982	7.95704
2619.832	-9.53907	7.21702	-7.71810	8.96467
2623.795	-9.13923	6.52969	-7.52527	5.33281
2627.834	-9.89545	4.11654	-7.83507	4.24645
2631.708	-11.48289	4.13599	-9.04057	4.38880
2635.834	-12.32516	5.18109	-9.36822	5.12756
2639.825	-12.88131	5.06812	-9.47881	5.14662
2643.829	-14.37631	4.90891	-13.08126	2.16762
2647.730	-14.13843	5.05768	-9.94142	5.05498
2651.829	-14.65031	7.17646	-13.44846	5.58034
2655.828	-12.07547	4.54588	-9.85693	6.30647
2659.794	-12.00352	5.35728	-10.09340	4.43681
2663.730	-14.58008	5.19701	-10.02492	4.26959
2667.833	-11.96971	7.59151	-11.58796	4.44593
2671.831	-11.89659	3.57323	-9.83127	6.05000
2675.831	-13.42864	3.77377	-9.87702	4.11361
2679.729	-12.63849	4.27331	-10.08106	3.92699
2683.813	-13.64288	6.01508	-12.84074	3.80898
2687.831	-11.96622	5.24551	-9.34384	5.84610
2691.835	-11.73964	3.49124	-10.76592	1.54853
2695.735	-11.73100	4.05508	-9.29935	3.84390
2699.832	NaN	NaN	NaN	NaN
2707.834	-12.14954	3.29203	-9.44003	6.14138
2711.835	-12.38436	3.36788	-9.13117	3.70077
2715.831	-12.00345	4.36249	-9.42537	3.80376
2719.732	-11.85858	3.64652	-11.41070	4.44025
2723.822	-11.79603	3.82382	-9.21437	4.06802
2727.795	-11.93284	5.11309	-11.20679	1.09412
2731.832	-11.88361	5.12383	-8.81023	3.75585
2735.731	-11.86650	3.63188	-11.65963	4.72725
2739.832	-11.81784	3.06144	-9.20506	4.12558
2743.834	-11.70480	3.71924	-10.62360	2.75869
2747.832	-11.70832	4.95383	-8.43489	3.50907
2751.735	-11.88929	4.39703	-11.17840	5.21153
2755.834	-11.51251	3.95237	-9.55111	4.89028
2759.837	-11.49316	4.95287	-8.64478	3.46645
2763.833	-11.81522	4.28616	-8.89114	4.30126
2767.734	-11.82587	4.73760	-9.23935	5.44203
2771.794	-11.58391	3.96764	-10.58138	2.92306
2775.795	-11.64999	3.66454	-8.78110	4.15062
2779.833	-11.51478	4.61149	-10.97612	5.60575
2783.735	-11.83148	4.46382	-9.01276	5.03336
2787.836	-11.76920	3.47143	-8.67291	3.79238
2791.839	-11.45095	5.30547	-8.76050	4.59640
2795.796	-12.05651	4.60273	-8.83401	5.51999
2799.730	-12.04792	3.75530	-11.01797	3.98209
2803.837	-11.75814	4.46585	-8.77965	5.30070
2807.821	-11.52314	4.27005	-8.61705	6.00665
2811.831	-11.12818	4.57401	-8.11948	4.34258
2815.839	-9.39361	5.23082	-6.15885	6.15160
2819.833	-5.94914	5.33909	-5.49010	4.79651
2823.833	-5.82682	6.16030	-3.56232	4.70984
2827.836	-3.18754	6.07297	-0.07344	6.23841
2831.733	-3.04583	4.56896	-2.58861	5.58613
2835.709	-1.06848	5.71395	0.80002	6.54067
2839.710	0.08058	4.39426	2.42542	5.01914
2843.708	1.18540	5.58461	3.15555	7.40531
2847.707	2.88938	4.73163	6.71204	5.83920
2851.712	3.43326	5.48117	6.97379	7.34918
2855.686	3.51401	4.66547	7.13378	5.53332
2859.710	3.48353	5.52244	7.94896	8.42948
2863.798	3.49139	4.94435	7.18323	5.98760
2867.710	3.13355	4.45481	7.03626	4.54073
2871.672	3.90916	4.97105	7.00389	5.23780
2875.713	3.74735	4.41951	7.48658	5.48778
2879.838	3.21609	5.29467	5.60721	5.60720
2883.709	3.86133	4.81294	7.36664	7.83589
2887.712	4.02364	4.42586	7.23477	5.78015
2891.716	3.43172	2.82254	7.38998	4.10858
2895.841	4.13033	4.90033	7.82594	5.10428
2899.700	4.15480	4.27283	7.93530	6.84886
2903.712	3.71014	4.46562	7.83972	4.95095
2907.713	4.21202	4.90381	7.32424	4.09479
2911.710	3.33310	4.95213	7.58393	3.64121
2915.712	3.05704	4.53375	7.94603	6.66578
2919.710	3.49893	3.66616	7.38397	5.83084
2923.710	3.94152	5.06173	7.13470	4.82719
2927.731	4.05498	5.09866	7.05000	5.12156
2931.683	3.74481	4.96390	7.04134	3.72523
2935.710	3.92527	5.23792	7.36611	6.36958
2939.678	3.79028	5.33318	7.90134	5.11999
2943.704	0.38400	5.73934	7.69446	5.82248
2947.711	4.10164	4.43711	7.98973	5.72834
2951.712	4.13875	3.48896	8.15326	4.67514
2955.710	3.71649	5.53394	7.90180	6.87988
2959.701	3.23351	5.59323	7.13644	5.43816
2963.710	2.79077	4.52663	7.45433	4.82437
2967.712	3.68050	5.94127	4.83898	4.98855
2971.711	2.80308	5.63791	5.31022	5.74172
2975.713	2.74053	4.27884	7.59622	5.57063
2979.710	3.20367	6.51679	7.57576	4.86059
2983.708	2.62435	6.13471	7.04555	4.38205
2987.712	2.42782	4.49233	6.96343	5.59917
2991.682	2.89426	6.04632	7.26527	5.00205
2995.713	2.78065	5.49052	7.17656	4.00735
2999.677	3.13808	6.70523	7.06207	5.65849
3003.711	2.33752	6.00009	7.17316	5.28246
3007.738	2.02686	4.18060	6.94411	3.97767
3011.714	1.36905	6.71439	7.10624	5.78741
3015.713	3.96632	4.13409	7.39974	3.77317
3019.707	0.81042	7.11012	6.95553	3.75256
3023.704	3.09277	5.03665	7.02585	5.34446
3027.714	3.13516	6.40338	3.24570	5.89928
3031.713	1.17359	5.80570	6.52988	7.04858
3035.710	-0.05567	6.03051	4.75218	6.19978
3039.710	-0.82818	6.85453	0.11885	5.25373
3043.710	-3.73050	7.13928	-1.44319	5.68148
3047.713	-6.12902	7.07094	-3.38617	6.27609
3051.712	-4.66778	7.29655	-3.82049	3.98299
3055.706	-7.43625	6.46287	-4.47521	5.93667
3059.713	-7.97578	6.21465	-6.92943	6.96287
3063.686	-8.41485	6.97317	-8.14597	5.88255
3067.676	-11.98581	6.45226	-8.54617	4.36391
3071.735	-10.69829	5.97589	-9.21360	5.51461
3075.713	-11.35341	-0.49202	-9.09476	5.89332
3079.712	-10.93294	6.86815	-9.49977	4.24752
3083.713	-10.65848	5.42533	-8.70490	3.84128
3087.673	-8.61052	-1.77374	-8.64907	4.32120
3091.711	-11.58034	6.18030	-8.23017	6.80099
3095.721	-11.21076	5.20600	-8.35699	6.01315
3099.717	-11.48821	5.26704	-8.00353	4.37956
3103.727	-11.53822	6.72547	-8.39868	5.41891
3107.716	-10.06785	5.60422	-8.50656	6.51556
3111.711	-11.55099	5.20841	-8.24536	6.12415
3115.711	-11.49519	5.43407	-8.13556	3.85419
3119.740	-11.67272	6.17447	-8.36149	6.25658
3123.715	-11.67305	5.31864	-8.05010	6.41015
3127.716	-11.66703	6.41046	-8.26062	5.48815
3131.714	-11.50193	6.79098	-8.04227	3.45281
3135.679	-10.64190	4.50768	-8.03531	3.30717
3139.713	-12.79314	6.86428	-7.98873	5.79208
3143.713	-12.10450	6.03790	-8.50205	3.54911
3147.678	-11.79173	5.60530	-9.25920	3.43380
3151.736	-10.67104	7.01170	-8.12838	6.32066
3155.715	-11.14536	7.20311	-8.42408	6.38671
3159.714	-11.72712	6.38882	-7.88142	5.06104
3163.714	-9.97914	5.87395	-8.44025	3.11611
3167.735	-9.67480	-0.16326	-8.64468	7.76819
3171.714	-8.75516	-0.53305	-8.07569	6.76676
3175.716	-8.78045	-0.97171	-8.32616	6.08014
3179.677	-12.96795	6.65204	-8.15603	5.91372
3183.741	-12.45766	7.39221	-8.15805	5.85080
3187.696	-12.46673	7.02148	-7.92193	6.08389
3191.677	-10.76508	7.10314	-8.38284	5.51253
3195.718	-11.76697	4.18609	-8.25965	6.32027
3199.739	-9.48693	6.07391	-8.12201	6.87043
3203.676	-10.80644	5.51431	-8.94414	4.14722
3207.714	-11.54609	6.86262	-8.20277	4.83448
3211.715	-10.63087	6.87327	-8.12600	4.88936
3215.743	-12.15040	5.48940	-8.07117	6.48250
3219.714	-11.35024	6.64987	-8.13702	4.05505
3223.715	-10.50868	6.96230	-7.94742	4.54158
3227.712	-11.01675	5.72809	-7.88378	6.84041
3231.741	-10.38889	6.50102	-7.93104	4.61860
3235.716	-11.36801	6.03860	-7.94061	6.82470
3239.715	-11.23793	6.38444	-8.00355	5.57641
3243.715	-11.46494	6.13973	-7.94401	6.63032
3247.710	-10.91516	6.19564	-8.03431	5.29876
3251.717	-11.85136	5.97275	-7.93189	6.53127
3255.715	-11.54821	11.41054	-10.78918	7.12306
3259.716	NaN	NaN	-7.80818	12.74325
3263.714	NaN	NaN	NaN	NaN
3267.715	NaN	NaN	NaN	NaN
3271.678	NaN	NaN	NaN	NaN
3275.716	NaN	NaN	NaN	NaN
3279.716	NaN	NaN	NaN	NaN
3283.713	NaN	NaN	NaN	NaN
3287.689	NaN	NaN	NaN	NaN
3291.716	NaN	NaN	NaN	NaN
3295.719	NaN	NaN	NaN	NaN
3299.714	NaN	NaN	NaN	NaN
3303.716	NaN	NaN	NaN	NaN
3307.716	NaN	NaN	NaN	NaN
3311.705	NaN	NaN	NaN	NaN
3315.705	NaN	NaN	NaN	NaN
3319.717	NaN	NaN	NaN	NaN
3323.674	NaN	NaN	NaN	NaN
3327.717	NaN	NaN	NaN	NaN
3331.715	NaN	NaN	NaN	NaN
3335.679	NaN	NaN	NaN	NaN
3339.682	NaN	NaN	NaN	NaN
3343.716	NaN	NaN	NaN	NaN
3347.718	NaN	NaN	NaN	NaN
3351.717	NaN	NaN	NaN	NaN
3355.683	NaN	NaN	NaN	NaN
3359.674	NaN	NaN	NaN	NaN
3363.713	NaN	NaN	NaN	NaN
3367.718	NaN	NaN	NaN	NaN
3371.722	NaN	NaN	NaN	NaN
3375.684	NaN	NaN	NaN	NaN
3379.719	NaN	NaN	NaN	NaN
3383.720	NaN	NaN	NaN	NaN
3387.717	NaN	NaN	NaN	NaN
3391.720	NaN	NaN	NaN	NaN
3395.696	NaN	NaN	NaN	NaN
3399.688	NaN	NaN	NaN	NaN
3403.717	NaN	NaN	NaN	NaN
3407.688	NaN	NaN	-2.88524	13.23670
3411.716	NaN	NaN	NaN	NaN
3415.716	NaN	NaN	NaN	NaN
3419.717	NaN	NaN	NaN	NaN
3423.716	NaN	NaN	NaN	NaN
3427.719	NaN	NaN	NaN	NaN
3431.718	NaN	NaN	NaN	NaN
3435.719	NaN	NaN	NaN	NaN
3439.712	NaN	NaN	NaN	NaN
3443.681	NaN	NaN	NaN	NaN
3447.719	NaN	NaN	NaN	NaN
3451.720	NaN	NaN	NaN	NaN
3455.718	NaN	NaN	NaN	NaN
3459.681	NaN	NaN	NaN	NaN
3463.718	NaN	NaN	NaN	NaN
3467.719	NaN	NaN	NaN	NaN
3471.718	NaN	NaN	NaN	NaN
3475.726	NaN	NaN	NaN	NaN
3479.722	NaN	NaN	NaN	NaN
3483.720	NaN	NaN	NaN	NaN
3487.717	NaN	NaN	NaN	NaN
3491.717	NaN	NaN	NaN	NaN
3495.723	NaN	NaN	NaN	NaN
3499.722	NaN	NaN	NaN	NaN
3503.713	NaN	NaN	NaN	NaN
3507.687	NaN	NaN	NaN	NaN
3511.683	NaN	NaN	NaN	NaN
3515.724	NaN	NaN	NaN	NaN
3519.722	NaN	NaN	NaN	NaN
3523.715	NaN	NaN	NaN	NaN
3527.721	NaN	NaN	NaN	NaN
3531.723	NaN	NaN	NaN	NaN
3535.723	NaN	NaN	NaN	NaN
3539.720	NaN	NaN	NaN	NaN
3543.953	-8.96140	4.59017	-7.47492	4.38379
3551.725	NaN	NaN	NaN	NaN
3555.726	NaN	NaN	NaN	NaN
3559.731	NaN	NaN	NaN	NaN
3563.722	NaN	NaN	NaN	NaN
3567.720	NaN	NaN	NaN	NaN
3571.725	NaN	NaN	NaN	NaN
3575.723	NaN	NaN	NaN	NaN
3579.682	NaN	NaN	NaN	NaN
3583.723	NaN	NaN	NaN	NaN
3587.722	NaN	NaN	NaN	NaN
3591.721	NaN	NaN	NaN	NaN
3595.725	NaN	NaN	NaN	NaN
3599.721	NaN	NaN	NaN	NaN
3603.627	NaN	NaN	NaN	NaN
3607.718	NaN	NaN	NaN	NaN
3611.723	NaN	NaN	NaN	NaN
3615.681	NaN	NaN	NaN	NaN
3619.725	NaN	NaN	NaN	NaN
3623.684	NaN	NaN	NaN	NaN
3627.724	NaN	NaN	NaN	NaN
3631.722	NaN	NaN	NaN	NaN
3635.622	NaN	NaN	NaN	NaN
3639.720	NaN	NaN	NaN	NaN
3643.717	NaN	NaN	NaN	NaN
3647.715	NaN	NaN	NaN	NaN
3651.722	NaN	NaN	NaN	NaN
3655.723	NaN	NaN	NaN	NaN
3659.721	NaN	NaN	NaN	NaN
3663.721	NaN	NaN	NaN	NaN
3791.505	NaN	NaN	NaN	NaN
3860.060	0.02507	3.96925	2.44551	2.71067
3863.854	0.50183	4.85664	2.43877	3.06218
3867.849	0.25431	4.35714	2.49243	3.03492
3871.815	0.05542	4.55104	2.42512	2.66374
3875.849	0.33166	4.08271	2.28115	2.73150
3879.854	-0.07406	4.44522	1.95004	2.42540
3883.851	0.00333	4.51423	2.41014	2.11521
3887.846	0.07671	4.54847	2.65691	2.67540
3891.846	-0.07582	4.18694	2.49394	2.64451
3895.814	0.10947	4.18103	1.91648	2.20823
3899.814	-0.04266	4.70374	2.72097	2.80495
3903.856	0.17447	3.90530	2.38885	1.53514
3907.847	-0.08597	4.60990	2.54722	2.45276
3911.754	0.13637	4.42678	3.08924	3.13270
3915.848	0.07232	4.25454	2.59916	1.57114
3919.850	-0.09865	4.68875	3.20399	1.80946
3923.849	0.06711	4.71210	2.89968	3.29696
3927.852	0.05894	4.05684	3.21676	1.54055
3931.847	-0.05438	3.80746	2.04369	1.97263
3935.850	-0.06542	4.66720	1.82214	3.37895
3939.850	-0.15747	4.11465	3.36631	1.02355
3943.753	-0.01243	4.31389	3.25357	3.74115
3947.852	-0.29992	4.96115	3.13825	1.51466
3951.849	-0.28525	4.04136	3.52113	4.14221
3955.850	-0.31012	5.31393	2.44269	2.52821
3959.753	-0.38440	4.71153	3.33468	4.44926
3963.852	-0.40115	4.44190	3.32726	1.41549
3967.851	-0.38497	4.57504	2.50323	3.89333
3971.839	-0.37722	4.34913	3.82810	2.67944
3975.753	-0.43713	4.65626	2.79263	3.00927
3979.853	-0.40554	4.88313	3.36498	3.47306
3983.852	-0.41802	4.39671	3.45319	2.02384
3987.853	-0.31741	5.36502	3.21812	1.93581
3991.855	-0.36846	4.61465	3.03054	3.34895
3995.850	-0.32627	4.79616	2.67583	4.49186
3999.853	-0.31908	5.00795	3.16728	4.40065
4003.849	-0.27438	3.94915	3.47460	1.66838
4007.853	-0.30816	4.65282	3.48172	2.71079
4011.851	-0.34856	5.04019	3.34801	2.96050
4015.816	-0.42976	4.61691	3.37437	3.97160
4019.848	-0.39827	4.43803	4.47240	4.97756
4023.753	-0.49996	5.01677	3.78249	2.02550
4027.727	-0.38365	5.00008	6.03339	0.36106
4031.723	-0.27997	4.62654	4.00954	1.78084
4035.723	-0.28148	4.29976	5.17548	1.90735
4039.819	-0.26165	5.09358	3.99200	3.18968
4043.728	-0.27396	5.29185	4.34408	4.10471
4047.725	-0.08267	4.48333	4.22895	4.50339
4051.724	-0.29692	4.54298	3.34910	3.59532
4055.691	-0.13230	4.87631	4.34954	4.49448
4059.720	0.05023	5.33751	3.56781	1.39664
4063.727	0.10734	4.79336	3.59330	1.71691
4067.725	1.76175	4.96998	5.68578	3.87908
4071.726	3.87737	4.97487	9.14970	2.22432
4075.726	6.37775	2.37917	11.00699	2.87949
4079.728	7.00710	2.11283	10.66865	3.51161
4083.727	7.04731	4.49318	10.78594	1.47000
4087.718	8.52440	1.72162	11.13915	0.21572
4091.726	8.18490	2.48279	13.20388	0.90945
4095.727	9.01271	2.28285	14.33462	1.80636
4099.733	8.68269	2.43524	12.20574	3.09189
4103.721	8.89414	2.85439	13.89033	-0.39478
4107.744	8.78925	2.45024	13.59525	1.31151
4111.726	9.41023	2.30963	12.92986	2.43650
4115.726	8.89419	2.29080	14.30943	-0.67587
4119.721	8.91224	2.64787	14.92269	1.30708
4123.725	8.84227	2.50118	13.58704	-0.25146
4127.689	NaN	NaN	NaN	NaN
4135.726	8.80820	1.62101	12.70048	0.33991
4139.731	8.75686	3.33893	13.87248	2.20369
4143.709	8.80805	2.11455	12.32563	0.03450
4147.722	8.87241	2.57037	13.45493	2.29518
4151.729	8.66314	2.55412	13.99933	-1.11071
4155.719	8.68390	2.03947	14.84413	0.77731
4159.728	8.67090	2.92028	12.31194	-0.77465
4163.731	8.38461	1.71773	14.40609	0.72065
4167.730	8.65628	3.16668	13.94238	2.16620
4171.719	8.84588	1.56211	12.78696	0.03368
4175.725	9.05313	1.99118	14.02970	1.33955
4179.692	8.04166	2.00718	14.38311	0.80830
4183.730	8.71390	2.92428	14.45567	0.46733
4187.724	8.77669	1.83259	13.43256	2.46685
4191.728	8.68824	2.06908	13.30338	0.65773
4195.731	8.54760	2.55445	14.06670	-0.77767
4199.732	8.34951	1.95887	14.25895	0.02223
4203.728	8.78079	2.24445	14.28061	0.80848
4207.730	8.82415	2.73671	13.62488	0.64052
4211.729	9.90917	2.37163	13.89194	-1.74674
4215.731	8.40723	1.97879	14.01449	-1.22944
4219.729	8.23043	2.63451	14.95741	-0.47593
4223.730	8.61926	2.89201	14.42179	-0.06948
4227.709	8.06090	3.02251	13.30980	1.39211
4231.729	8.41306	2.82263	12.95093	0.20098
4235.755	8.48580	2.32779	12.72386	0.10886
4239.731	8.32041	2.08345	13.99601	-1.88194
4243.694	8.22910	2.45878	14.34869	-1.97403
4247.728	8.11788	2.95179	15.00130	-1.19740
4251.730	8.12554	3.38082	13.05418	-0.26560
4255.727	8.51576	3.35730	12.51529	-0.49700
4259.732	8.13140	2.80594	12.21821	0.57282
4263.727	8.20945	3.30986	12.45904	0.10470
4267.753	8.14139	2.81475	12.46720	0.10300
4271.723	8.30301	2.45383	12.75261	0.19915
4275.730	8.19713	2.09395	12.83758	0.24526
4279.731	8.08861	2.46144	12.67589	0.10279
4283.728	7.68120	2.80428	13.12481	-0.18496
4287.731	7.30200	2.67565	12.73297	0.19635
4291.729	7.65797	2.90032	12.84807	-0.21804
4295.730	7.79510	2.65742	11.49019	-0.05710
4299.732	7.11415	2.96802	10.65575	0.05583
4303.706	6.93614	3.07877	12.44422	-0.30305
4307.730	6.85278	3.62988	12.78278	-0.97147
4311.707	7.34558	3.43978	12.73118	-1.47995
4315.697	7.21484	3.67632	12.62117	-0.47029
4319.730	7.24390	3.55697	12.23282	-0.68505
4323.735	7.30922	3.72179	12.17421	1.99122
4327.729	7.13295	3.81910	12.13135	2.57428
4331.752	7.25941	3.88059	12.36343	2.29198
4335.731	7.16483	4.00269	12.59519	1.51326
4339.730	7.31628	3.98740	12.29474	1.75712
4343.692	7.24434	4.11823	12.44136	1.23701
4347.724	7.21183	4.28151	12.59985	0.86450
4351.715	7.06828	4.38458	12.35017	0.89848
4355.726	6.99230	4.22829	12.16539	0.82686
4359.730	6.84913	3.17524	12.23334	1.49340
4363.724	6.97881	2.36642	12.54642	1.23976
4367.731	6.67517	3.14112	12.67459	1.63646
4371.732	6.84911	3.12624	12.48797	2.52355
4375.731	7.06613	3.71781	12.19114	1.05914
4379.757	7.73509	3.50095	11.49185	1.61640
4383.727	6.91640	4.12493	11.76856	-2.39404
4387.731	6.78189	4.68749	11.70337	-1.90344
4391.729	6.66288	3.07104	12.74834	-1.93819
4395.735	6.84487	2.87006	13.14204	0.50423
4399.736	6.90664	2.83564	12.40176	0.56551
4403.730	7.01617	3.25884	12.27775	0.78808
4407.729	7.24246	3.15366	11.84957	1.27696
4411.697	7.47004	3.99295	11.91495	1.17147
4415.732	7.40323	3.93473	12.67083	0.54652
4419.732	7.02137	4.45323	11.18126	-1.30078
4423.731	6.90461	3.39960	11.94475	-1.97350
4427.698	6.96083	2.77074	12.68498	-1.36732
4431.731	7.24261	2.58130	10.89642	0.32224
4435.710	6.96174	3.18585	12.44413	-0.11555
4439.731	6.95162	4.07537	10.84789	0.52792
4443.757	6.77237	4.07159	12.61448	1.03126
4447.731	6.70568	4.53846	13.15329	0.94624
4451.731	6.74902	4.74058	11.98355	1.32813
4455.730	7.12222	4.65962	12.98730	1.41204
4459.725	6.93878	4.70029	13.27250	1.79426
4463.731	6.81605	4.88761	13.21347	2.11732
4467.732	7.14736	4.48419	12.70260	2.44153
4471.734	7.01235	4.66148	13.09562	2.39506
4475.750	7.00780	4.48581	12.34550	2.96329
4479.724	6.97093	4.55000	13.26949	1.73443
4483.733	7.10572	4.55642	13.32860	1.85687
4487.734	7.14682	4.64987	12.41802	2.27168
4491.734	7.26041	4.61026	13.76017	0.49854
4495.710	7.26053	4.37144	14.01854	-1.84698
4499.731	7.11467	4.38301	13.38527	-0.50428
4503.726	7.18985	4.34121	13.36013	-1.44867
4507.734	7.29775	3.32712	12.81495	-0.64064
4511.733	7.14946	3.31120	9.89571	-0.70796
4515.733	5.90988	4.25295	12.84055	2.41265
4519.731	2.32516	4.59224	9.86534	3.64949
4523.731	2.35268	7.39013	10.03664	2.83849
4527.734	2.15004	7.51551	5.41133	3.71697
4531.734	0.01943	7.56731	3.31571	3.40712
4535.743	-1.72213	7.69677	1.58036	3.29111
4539.726	-1.72356	7.64675	1.49438	4.16786
4543.733	-4.79452	7.93418	0.52741	3.26077
4547.697	-4.26914	9.84684	-0.23927	4.64885
4551.732	-5.65467	10.84316	-3.48751	6.84912
4555.737	-5.41448	9.46228	-3.40722	4.57079
4559.720	-6.81150	10.04061	-3.62556	6.34417
4563.731	-7.70012	10.70178	-3.37395	7.53384
4567.732	-6.29465	9.58253	-6.42530	6.95859
4571.734	-1.90148	11.24280	-4.15695	6.30679
4575.733	-7.70740	10.68472	-4.14653	8.90674
4579.736	-6.27856	10.16858	-4.48078	6.88457
4583.733	-6.21264	10.11526	-4.58215	6.16776
4587.736	-5.82636	9.90590	-5.88167	6.65516
4591.733	-6.00003	10.14958	-4.43076	7.81689
4595.735	-8.11389	9.71352	-4.10350	8.48702
4599.732	-8.16603	10.10390	-8.29013	9.69334
4603.728	-6.67006	10.37023	-4.58567	7.71966
4607.736	-5.87118	10.08622	-4.76438	8.22077
4611.735	-6.51143	10.30628	-4.52178	8.28446
4615.738	-6.14185	9.86313	-4.45246	7.86240
4619.735	-6.64905	9.82495	-4.70108	8.62114
4623.734	-6.60688	9.60167	-4.46349	8.79255
4627.737	-6.72822	9.43386	-4.40224	9.15140
4631.734	-6.48568	9.28709	-4.58979	9.84915
4635.742	-6.52750	9.48766	-4.31250	7.53890
4639.737	-6.53727	9.49180	-4.41514	9.32862
4643.717	-6.76014	9.10838	-4.39064	5.26681
4647.737	-6.51672	9.38410	-5.40621	6.90626
4651.736	-6.50513	9.10387	-4.30161	7.28111
4655.735	-6.25715	9.34446	-4.15734	8.30903
4659.735	-6.57255	8.87686	-2.62184	6.30313
4663.737	-6.16633	9.13253	-3.99408	9.25975
4667.738	-6.54021	9.47534	-3.09072	6.05805
4671.736	-6.69366	9.16558	-4.21066	8.74781
4675.697	-6.01841	10.20270	-2.87267	6.30744
4679.735	-6.60718	10.38659	-4.06843	8.17161
4683.737	-5.94227	9.08797	-4.27785	6.93973
4687.727	-6.22005	9.02368	-4.03823	7.95866
4691.738	-6.71698	8.92935	-4.56474	6.15620
4695.734	-6.03231	9.17040	-4.15184	6.71737
4699.634	-7.28102	9.06668	-4.68151	7.90449
4703.740	-6.53904	9.99737	-4.45634	5.84225
4707.739	-6.86134	9.57154	-2.95468	9.61468
4711.736	-6.91975	9.22425	-3.54747	8.13710
4715.738	-6.90326	9.20978	-2.80095	9.84879
4719.734	-6.95748	9.06236	-4.06994	10.01914
4723.739	-6.80590	9.13771	-2.91557	10.41516
4727.708	-7.38678	9.26477	-3.96148	9.67264
4731.622	-7.34187	9.35406	-4.95263	8.93789
4735.737	-7.16532	9.58545	-4.58414	9.19082
4739.699	-7.83161	10.95818	-5.01149	10.61901
4743.736	-7.87640	11.60331	-4.31965	11.47929
4747.739	-7.56776	12.07103	-5.16979	10.79573
4751.737	-9.20913	11.79550	-3.92245	11.61193
4755.736	-7.82338	11.61611	-4.61827	11.11633
4759.738	-8.08764	11.51454	-4.82274	11.65346
4763.743	-7.44943	11.08953	-4.39604	10.16616
4767.701	-7.95971	10.59239	-4.72208	9.80348
4771.702	-8.04674	9.73593	-4.89786	11.31158
4775.736	-7.60939	9.60938	-5.09539	12.85548
4779.740	-8.03236	11.80567	-5.25694	14.30102
4783.739	-7.63030	11.53255	-6.70306	13.95631
4787.735	-7.56008	10.36492	-5.43654	11.74570
4791.737	-7.94720	9.74801	-5.20642	11.66410
4795.738	-7.77108	11.40237	-6.68161	10.58424
4799.737	-7.35803	11.13986	-6.88673	14.55649
4803.740	-7.71679	10.55587	-5.55649	13.09701
4807.739	-2.65401	10.09017	-6.96599	11.71605
4811.741	-7.48322	10.83615	-5.12188	9.32975
4815.736	-7.59251	10.65164	-5.64316	12.93943
4819.737	-2.71493	10.33862	-6.13093	11.94507
4823.738	-7.61692	10.89929	-5.61409	10.82250
4827.740	-7.65724	9.96119	-6.20850	13.21977
4831.737	-7.82340	11.42097	-6.65407	12.32729
4835.739	-7.62245	10.44301	-6.55285	11.11247
4839.740	-7.28234	9.80467	-6.42704	13.53964
4843.741	-7.62760	11.99561	-6.31534	12.57564
4847.738	-7.70119	10.48051	-5.81228	11.69687
4851.719	-7.59449	9.87242	-15.19632	9.30836
4855.739	-7.57595	12.08426	-6.41464	13.51573
4859.739	-7.60061	10.52709	-6.46429	12.54648
4863.740	-7.50752	9.34278	-6.05008	11.31282
4867.738	-7.46243	11.01641	-6.33792	12.69958
4871.702	-7.55976	11.21404	-5.98547	13.03287
4875.741	-7.51864	9.68468	-5.96097	11.95868
4879.738	-6.69958	11.16061	-5.94995	11.72020
4883.740	-6.97947	10.97894	-6.06721	11.36183
4887.735	-7.49122	10.99372	-5.75487	13.48962
4891.733	-7.63160	9.98920	-6.18404	12.91414
4895.723	-6.92090	11.98692	-6.35354	12.79269
4899.736	-6.26547	10.79890	-5.87093	11.56838
4903.743	-7.18042	10.92582	-6.04394	11.43290
4907.743	-7.46341	10.30511	-5.90755	12.65930
4911.738	-7.79054	10.47281	-5.99188	12.82694
4915.739	-7.78967	9.40378	-6.42903	12.88785
4919.738	-7.07427	9.43395	-6.41538	12.72822
4923.741	-7.15743	10.30779	-6.14805	11.18075
4927.738	-6.99758	11.74001	-6.04639	11.97989
4931.740	-5.91189	11.82966	-5.66307	10.72045
4935.715	-5.38262	11.16858	-3.05944	11.21767
4939.651	-3.48968	10.95653	-2.52096	11.46178
4943.741	-3.16748	10.62382	-2.05316	12.53594
4947.738	-2.78931	11.15318	-2.26941	12.68451
4951.740	-2.83239	11.10671	-2.49899	13.12180
4955.708	-2.37278	11.30954	-2.52064	13.79920
4959.738	-2.75608	11.47972	-4.14833	14.54863
4963.738	-2.86282	11.36107	NaN	NaN
4967.743	-3.11695	11.60859	-2.26296	14.28216
4971.607	-3.00497	11.68601	-2.48921	12.01350
4975.724	-3.26473	12.65432	-2.26566	12.57027
4979.739	-3.05350	11.57690	-2.25048	14.48224
4983.740	-3.03729	11.65414	-2.46667	14.51252
4987.744	-3.33733	11.47283	-2.57749	14.72078
4991.743	-3.20105	11.64142	-2.75158	14.42627
4995.738	-3.01687	11.67827	-2.31839	14.38227
4999.743	-2.99064	11.57098	-2.87175	14.60899
5003.747	-3.22854	11.48536	-2.72887	11.75981
5007.742	-3.24338	11.36704	-2.66209	11.75439
5011.741	-3.37079	11.24617	-2.62650	11.72826
5015.744	-3.29448	10.74218	-2.42270	11.32227
5019.744	-3.68273	11.20811	-2.21080	11.47701
5023.703	-3.88764	11.14182	-2.27907	11.56188
5027.741	-3.91193	10.99516	-2.63311	11.17358
5031.744	-4.06238	10.85031	-2.88908	11.47605
5035.746	-3.96469	12.42443	-3.09156	14.09559
5039.740	-4.37853	11.19128	-2.42495	14.37294
5043.743	-3.56455	12.97773	NaN	NaN
5047.743	-3.33181	12.50573	NaN	NaN
5051.608	-2.76718	12.62001	NaN	NaN
5055.617	-2.07906	12.62875	NaN	NaN
5059.618	-2.19051	12.41044	NaN	NaN
5063.617	-2.39554	11.49497	-2.31039	14.39807
5067.638	-3.17554	11.37522	NaN	NaN
5071.616	-2.51165	11.63606	-3.07726	14.59692
5075.616	-2.52485	11.16810	NaN	NaN
5079.615	-2.59936	11.02125	-2.33252	14.57839
5083.644	-2.62454	11.60326	-2.18937	13.71933
5087.617	-2.35442	11.19378	-1.25364	13.71156
5091.590	-2.57771	11.17697	-2.34926	13.19922
5095.613	-2.59995	11.44390	-2.23950	13.05575
5099.645	-2.96148	11.53283	-1.97912	13.05873
5103.617	-3.89715	14.65610	-1.38173	14.03836
5107.588	NaN	NaN	NaN	NaN
5111.620	NaN	NaN	NaN	NaN
5115.641	NaN	NaN	NaN	NaN
5119.616	NaN	NaN	NaN	NaN
5123.611	NaN	NaN	NaN	NaN
5127.615	NaN	NaN	NaN	NaN
5131.616	NaN	NaN	NaN	NaN
5135.614	NaN	NaN	NaN	NaN
5139.615	NaN	NaN	NaN	NaN
5143.576	NaN	NaN	NaN	NaN
5147.614	NaN	NaN	NaN	NaN
5151.614	NaN	NaN	NaN	NaN
5155.614	NaN	NaN	NaN	NaN
5159.580	NaN	NaN	NaN	NaN
5163.581	NaN	NaN	NaN	NaN
5167.620	NaN	NaN	NaN	NaN
5171.622	NaN	NaN	NaN	NaN
5175.598	NaN	NaN	NaN	NaN
5179.620	NaN	NaN	NaN	NaN
5183.619	NaN	NaN	NaN	NaN
5187.616	NaN	NaN	NaN	NaN
5191.583	NaN	NaN	NaN	NaN
5195.613	NaN	NaN	NaN	NaN
5199.621	NaN	NaN	-3.75239	5.80469
5203.617	NaN	NaN	-3.60123	7.26926
5207.621	NaN	NaN	-4.39279	5.86682
5211.622	NaN	NaN	-2.19851	3.38327
5215.617	NaN	NaN	-0.09307	1.98532
5219.617	NaN	NaN	-4.85613	8.91103
5223.616	NaN	NaN	-2.85304	8.97017
5227.580	NaN	NaN	5.18665	6.16885
5231.616	4.31299	-0.38949	-4.20385	6.31263
5235.590	-0.38003	2.46160	-5.09628	5.25172
5239.617	2.59150	2.30126	9.41687	1.74671
5243.586	0.25435	2.98667	-2.48619	1.87435
5247.618	-4.11310	6.10397	-5.52384	0.72639
5251.618	-0.81915	8.46046	-6.26434	1.60145
5255.618	-1.45244	6.07190	-2.16441	2.35637
5259.621	-0.81863	6.37389	-1.61441	3.07156
5263.622	5.14892	0.95594	-1.34361	3.20806
5267.624	5.87297	0.81008	-1.15027	3.97130
5271.608	4.07811	2.41988	-0.68670	4.83026
5275.612	5.39352	3.13207	-2.01528	1.19716
5279.620	5.86622	3.32241	-1.11978	0.83265
5283.613	-3.24177	4.86949	-1.13313	1.04968
5287.621	-2.68891	5.36223	-2.03191	1.69025
5291.622	-4.95994	5.22917	-2.43181	3.13874
5295.583	4.21377	3.14645	-1.81019	3.69782
5299.621	-5.03644	3.37330	-2.56287	3.18589
5303.624	-3.30834	3.20212	-2.05383	0.93374
5307.626	-3.63737	3.69359	-1.91886	0.63603
5311.620	-3.69397	4.87047	-2.40731	0.91245
5315.602	-4.81924	4.48426	-2.42661	1.58353
5319.619	-4.14421	5.12428	-1.98046	2.48604
5323.618	-5.37955	4.91089	-1.68843	3.01470
5327.618	-4.94036	3.08580	-2.12637	2.83933
5331.612	-4.42861	3.18918	-1.93685	1.12739
5335.620	-4.10448	3.22524	-1.94325	1.43997
5339.620	-3.97958	3.79752	-2.08042	2.54835
5343.620	-3.76453	3.87962	-1.84079	1.28732
5347.617	-3.74839	4.60191	-1.54046	0.77462
5351.622	-4.26339	3.54030	-1.84716	0.21647
5355.604	-5.74072	4.44966	-1.52280	0.11598
5359.617	-5.40840	4.74488	-1.16443	0.29283
5363.613	-5.57360	4.92180	-1.13122	1.03197
5367.620	-5.24095	5.28095	-1.43719	1.38558
5371.623	-5.51676	5.87511	-2.00661	2.68932
5375.625	-3.70250	5.44751	-1.35943	5.25875
5379.645	0.82588	5.79990	10.73593	2.78659
5383.623	NaN	NaN	-2.01890	4.99463
5387.621	NaN	NaN	2.89673	4.07266
5391.623	NaN	NaN	NaN	NaN
5395.623	NaN	NaN	NaN	NaN
5399.619	NaN	NaN	NaN	NaN
5403.622	NaN	NaN	NaN	NaN
5407.622	NaN	NaN	NaN	NaN
5411.617	NaN	NaN	NaN	NaN
5415.621	NaN	NaN	NaN	NaN
5419.621	NaN	NaN	NaN	NaN
5423.623	NaN	NaN	NaN	NaN
5427.624	NaN	NaN	NaN	NaN
5431.591	NaN	NaN	NaN	NaN
5435.623	NaN	NaN	NaN	NaN
5439.622	NaN	NaN	NaN	NaN
5443.624	NaN	NaN	NaN	NaN
5447.624	NaN	NaN	NaN	NaN
5451.620	NaN	NaN	NaN	NaN
5455.623	NaN	NaN	NaN	NaN
5459.634	NaN	NaN	NaN	NaN
5463.622	NaN	NaN	NaN	NaN
5467.623	NaN	NaN	NaN	NaN
5471.622	NaN	NaN	NaN	NaN
5475.620	NaN	NaN	NaN	NaN
5479.623	NaN	NaN	NaN	NaN
5483.612	NaN	NaN	NaN	NaN
5487.618	NaN	NaN	-5.35665	8.81854
5491.586	NaN	NaN	-4.24475	9.69054
5495.622	NaN	NaN	0.39263	7.04283
5499.588	NaN	NaN	0.28056	6.85302
5503.621	NaN	NaN	0.60402	6.55794
5507.609	NaN	NaN	0.49714	9.94131
5511.624	NaN	NaN	0.58421	9.93259
5515.624	-22.37676	4.04146	0.51939	6.84095
5519.623	-19.99399	-12.07740	-6.13959	8.01327
5523.622	-19.99399	-12.07740	0.53667	4.06341
5527.620	-19.99399	-12.07740	0.46969	4.23878
5531.619	-3.64719	-1.96085	0.23572	4.11757
5535.623	-7.01296	-0.23467	-2.65869	3.71067
5539.624	-2.18295	1.05754	-0.78047	3.64218
5543.625	-9.30708	4.30996	-1.50038	3.91064
5547.623	-6.83881	3.39683	-1.92602	2.93456
5551.586	0.21192	6.68558	-2.11222	1.86874
5555.624	-4.47748	6.53887	-1.13940	1.91798
5559.629	3.79354	6.14787	-0.76541	2.05456
5563.620	-2.28398	3.90436	-1.34472	1.89738
5567.589	-0.04403	3.67528	0.15437	1.90070
5571.582	-0.83553	3.81386	-1.39185	1.82610
5575.625	-2.06173	4.29886	-1.68892	2.23355
5579.620	-2.73484	4.16740	-0.68771	2.76966
5583.587	-3.26868	5.40091	-1.34202	2.97223
5587.626	-2.75123	5.33341	-0.99499	2.48534
5591.625	-2.67972	4.86197	-2.29686	3.12570
5595.619	-2.93931	4.96896	-1.18522	3.14091
5599.626	-3.09666	4.47997	-1.94625	3.38507
5603.620	-3.33967	4.64455	-2.51524	3.29373
5607.594	-3.66938	4.57667	-1.24848	3.11003
5611.620	-3.60917	2.21999	-2.15053	3.01253
5615.621	-3.58534	4.76164	-1.91169	3.06637
5619.626	-2.88646	5.12178	-1.11025	3.07808
5623.626	0.53629	5.39593	-0.41102	2.80056
5627.629	3.15305	8.01301	2.73343	2.82033
5631.624	5.09554	5.01511	5.44940	2.62238
5635.589	6.50518	7.49338	8.53544	3.32916
5639.625	7.57778	4.31893	15.65559	-4.16478
5643.618	8.04738	4.34230	10.92655	5.96720
5647.606	8.29180	4.01712	10.56059	6.00587
5651.625	9.20419	3.40007	10.90025	3.15450
5655.626	8.80643	3.44112	10.01272	3.35986
5659.630	8.18808	3.40264	9.88278	3.61404
5663.625	8.43792	3.51794	9.70037	3.84590
5667.627	8.49959	3.39276	9.99804	3.82078
5671.590	8.35233	3.41933	10.38010	3.69091
5675.618	8.38311	3.50793	10.24252	3.72977
5679.590	8.24516	3.51575	11.20309	3.52978
5683.629	8.32405	3.64348	11.59130	3.66395
5687.617	8.33447	4.01157	9.91830	3.89655
5691.629	7.97388	4.35368	11.74834	3.90031
5695.627	8.22205	4.09099	11.37968	4.30321
5699.624	8.02280	3.78741	10.26766	4.38119
5703.626	7.81028	3.82698	11.23972	5.48384
5707.634	7.52081	3.53672	11.56357	5.95961
5711.626	6.95435	3.48549	11.63261	5.95141
5715.625	7.53371	3.36303	11.88701	5.68357
5719.625	8.16202	3.26411	12.04035	5.41412
5723.594	8.61501	3.09842	12.21271	5.58537
5727.627	8.45310	4.24066	12.20636	4.38964
5731.593	7.76728	4.40798	12.67409	3.06905
5735.627	7.88853	4.19797	12.33243	3.99225
5739.525	7.60712	4.45138	11.68355	3.81627
5743.594	7.67445	3.59808	11.64101	3.68308
5747.629	8.02555	3.28135	12.44150	1.83296
5751.626	7.65780	3.16197	12.62346	4.01459
5755.526	8.34966	3.16522	12.81429	4.81429
5759.629	8.32568	3.41050	12.80084	3.57800
5763.629	8.05961	4.18054	11.55869	3.67110
5767.629	8.23853	3.75171	11.71537	3.56895
5771.531	8.30843	3.63899	12.86433	2.24307
5775.627	8.28714	3.52476	12.87419	1.44636
5779.630	8.51297	3.42110	13.08712	1.72828
5783.628	8.53809	3.40652	13.02754	4.56482
5787.631	8.65555	3.18736	13.07665	4.40668
5791.628	8.57913	3.14234	13.08416	5.52836
5795.640	8.49954	3.06206	12.59670	5.50904
5799.627	8.63728	3.18097	13.18494	4.01811
5803.529	8.66814	3.12855	13.15562	4.42319
5807.628	8.62433	3.17665	13.22874	4.48126
5811.625	8.78183	3.15470	13.19569	4.56935
5815.625	8.76762	3.17228	12.84123	0.84391
5819.528	8.93975	3.17927	13.01703	1.37449
5823.629	8.82919	3.50200	13.02787	1.81770
5827.628	8.38253	3.52042	11.64392	1.16431
5831.628	6.93848	3.78428	10.85392	1.50444
5835.528	5.47407	4.22793	8.89015	1.07576
5839.627	3.96802	4.39666	5.47205	2.01314
5843.631	2.34461	5.66579	5.50995	1.24330
5847.627	2.02983	4.61135	2.67831	1.80488
5851.528	1.30275	4.63780	2.89171	0.92906
5855.603	-1.92304	4.85085	0.68516	1.14551
5859.632	-1.36938	4.29379	-0.87505	1.15919
5863.629	-1.78248	4.02916	-1.23099	1.61725
5867.632	-1.77700	3.66759	-1.12524	4.02071
5871.628	-1.95220	4.69875	-0.97963	3.80730
5875.626	-1.91682	5.22356	-0.29778	2.72317
5879.628	-1.96231	5.43498	-1.13824	2.71107
5883.632	-2.07157	5.77117	-0.83803	1.34370
5887.631	-2.76240	5.39905	-0.68121	0.95122
5891.629	-2.31282	5.31524	-0.66848	0.62094
5895.618	-2.47952	5.48404	-0.82315	0.75711
5899.531	-2.37188	5.21975	-0.74734	0.17030
5903.629	-2.32426	4.38150	-0.93542	2.11834
5907.592	-2.53038	4.90165	-0.96673	2.20877
5911.631	-2.27907	4.98943	-0.69429	1.96828
5915.632	-2.40441	5.16336	-1.32148	1.77029
5919.628	-2.38202	5.03383	-1.27403	2.09353
5923.628	-2.43545	5.02977	-1.30258	2.10552
5927.629	-2.38851	5.19159	-1.28184	0.81991
5931.627	-2.45659	5.24407	-1.15151	0.19361
5935.630	-2.46910	5.63813	-1.18589	0.80752
5939.630	-2.43622	4.60909	-0.97306	0.94606
5943.635	-2.38980	3.49166	-1.06905	1.36710
5947.632	-2.32580	3.90157	-1.16900	1.69588
5951.631	-2.33143	4.49128	-0.95710	1.25493
5955.630	-2.40147	4.76502	-1.29333	1.99710
5959.632	-2.34785	4.73120	-1.37788	2.20890
5963.633	-2.33876	5.00992	-1.03528	2.04989
5967.629	-2.38276	5.43407	-1.41727	1.95095
5971.593	-2.32050	4.72229	-1.31999	2.06000
5975.632	-1.87309	4.13301	-1.82743	1.98305
5979.634	-2.13817	4.15694	-0.74776	2.00059
5983.627	-2.09098	4.34827	-1.13715	2.01769
5987.632	-2.20094	4.18399	-1.19703	2.06990
5991.633	-2.23727	4.16401	-1.36266	2.11859
5995.635	-2.17145	4.25564	-1.22065	2.20120
5999.630	-2.30581	4.01549	-0.98730	2.04052
6003.646	-2.17757	4.03467	-1.04987	2.10732
6007.631	-1.95111	3.95463	-1.22176	1.92152
6011.637	-2.15673	3.95400	-0.90212	0.94650
6015.630	-2.12568	3.83855	-1.01429	1.61965
6019.627	-2.22027	3.78778	-0.97492	1.53844
6023.627	-2.34220	3.84565	-0.96735	1.34482
6027.637	-2.35952	3.78899	-1.13476	1.02894
6031.631	-2.27632	3.51901	-1.24270	0.88624
6035.629	-1.85708	3.71630	-1.29447	2.07786
6039.633	-2.10401	3.61912	-1.12459	1.82874
6043.598	-2.22245	3.71602	-1.27361	1.76441
6047.631	-2.23677	3.74472	-1.24334	2.23623
6051.630	-2.21663	3.72469	-1.30588	1.71364
6055.631	-2.19782	3.80813	-1.74635	2.16464
6059.599	-2.38194	3.96771	-0.91899	2.00296
6063.573	-2.19821	3.77659	-1.57250	2.12186
6067.633	-1.97347	3.46786	-1.05498	2.51939
6071.635	-2.02837	3.97444	-1.04568	2.51689
6075.636	-2.40694	4.03843	-1.32644	2.84952
6079.631	-2.11428	3.90188	-1.33326	2.27330
6083.631	-2.20922	4.26324	-0.80781	2.39807
6087.505	-2.13363	4.52520	-1.13218	2.39667
6091.507	-2.26903	4.82060	-0.51443	2.85465
6095.507	-2.19881	4.78064	-1.48778	2.62326
6099.508	-2.43142	5.17195	-1.33820	2.72658
6103.509	-2.41487	5.66356	-1.31674	2.44923
6107.511	-2.48700	6.12383	-1.08830	2.41866
6111.512	-2.41588	6.03467	-1.13524	1.61413
6115.468	-2.69413	5.61315	-1.05225	1.95682
6119.507	-2.52312	5.67134	-1.06587	2.41900
6123.507	-2.41014	5.53861	-1.17781	1.90567
6127.508	-2.31681	5.71735	-1.35325	2.23970
6131.507	-2.52567	5.60042	-1.10207	2.09776
6135.506	-2.51641	6.68744	-1.57610	2.21001
6139.531	-2.52701	6.21225	-1.25872	2.50104
6143.509	-2.28274	6.54689	-0.91294	2.38979
6147.472	-2.16037	6.12106	-0.76560	3.18203
6151.490	-2.22926	4.62864	-0.73513	3.91826
6155.500	-2.36899	3.41255	-0.57640	4.83113
6159.508	-2.18696	3.80188	-1.08423	4.03809
6163.509	-2.20998	4.39824	-1.05369	1.62681
6167.509	-2.26661	5.14027	-1.00692	1.17904
6171.530	-2.48391	5.39383	-0.91832	2.21555
6175.507	-2.87561	5.78197	-0.69082	1.77599
6179.502	-2.27498	5.87972	-0.94033	2.79748
6183.508	-2.28110	5.61059	-0.68719	3.02476
6187.537	-3.30896	5.20988	-1.06609	3.92831
6191.510	-2.22681	5.39718	-0.85327	4.40124
6195.510	-2.29309	5.63002	-0.89954	4.65293
6199.508	-2.26078	5.18666	-0.88078	4.76917
6203.531	-2.28363	5.28901	-1.67987	4.92974
6207.511	-2.60892	5.53775	-0.55175	4.74984
6211.513	-2.70057	5.57887	-0.09252	4.64476
6215.508	-2.60641	5.70776	-0.04614	4.58151
6219.503	-2.58618	5.70112	-0.22490	4.85470
6223.507	-2.54962	5.62999	0.59875	4.47570
6227.508	-2.34736	5.64775	-0.30066	4.66541
6231.508	-2.18089	5.84754	-0.50758	4.74753
6235.535	-2.12895	5.68093	-0.41460	4.93739
6239.509	-2.15420	5.58832	-0.42199	5.18379
6243.511	-2.26039	5.45267	-0.20241	4.52410
6247.511	-1.79495	3.59121	-0.40663	4.38652
6251.531	-2.10072	3.21805	-0.64082	2.12407
6255.509	-2.19328	3.25313	-0.88741	1.59590
6259.510	-2.14250	3.37968	-0.80947	1.71356
6263.509	-2.08557	4.93537	-1.21889	2.32854
6267.534	-2.04423	4.83778	-1.06882	2.03148
6271.512	-2.59383	5.22119	-1.24967	2.79449
6275.497	-2.18659	4.13500	-1.73899	2.27429
6279.511	-2.79134	4.09829	-1.67888	2.07041
6283.502	-3.49876	3.77597	-2.42976	2.41137
6287.489	-5.10817	3.97155	-2.89591	1.71462
6291.512	-4.86446	4.06501	-3.25392	2.00671
6295.510	-3.53686	2.91462	-3.51270	-0.90955
6299.534	-5.20755	2.86226	-3.59861	-0.72447
6303.509	-5.01130	2.36338	-3.76695	-0.38023
6307.514	-5.13720	2.85097	-3.66679	1.16848
6311.514	-5.08394	3.31563	-3.70813	1.97634
6315.507	-5.20292	3.43711	-3.82146	2.06337
6319.479	-5.06038	3.33068	-3.63003	2.40679
6323.512	-5.14444	3.87040	-3.72375	2.91588
6327.516	-5.19731	3.50413	-3.82959	1.01512
6331.536	-5.19030	3.78382	-3.86044	1.34927
6335.510	-5.35623	3.05626	-2.86623	0.78152
6339.510	-5.21186	2.77944	-2.34691	0.92207
6343.510	-5.15399	1.47064	-3.96886	0.70654
6347.471	-5.17629	2.17562	-3.85429	0.67632
6351.510	-4.96489	1.47584	-3.97968	0.34402
6355.512	-4.98494	1.73285	-3.85763	0.27599
6359.491	-5.01519	1.41861	-3.94787	0.33134
6363.492	-5.06981	1.39457	-3.82324	0.49668
6367.475	-5.03947	1.81056	-3.97429	0.63679
6371.510	-4.99787	1.96755	-3.52885	1.36155
6375.475	-5.03775	2.47304	-3.47675	1.59435
6379.471	-5.02305	2.71375	-3.82887	1.98793
6383.511	-5.15763	3.08489	-3.69296	1.21584
6387.511	-5.22045	1.36748	-3.83132	0.28542
6391.512	-5.13161	1.66750	-3.83954	0.20576
6395.503	-5.37640	2.50623	-3.85202	1.28684
6399.507	-5.42181	2.75608	-3.76178	1.73432
6403.503	-5.27919	2.57989	-3.53486	2.21740
6407.510	0.64228	1.88771	-3.56727	-0.78716
6411.515	-5.28834	1.51736	-3.78612	-0.41404
6415.512	-5.28903	1.51810	-3.66891	-0.08079
6419.512	-5.09219	2.15942	-3.83030	1.03544
6423.513	-5.21242	2.47471	-3.69375	1.45332
6427.512	-5.12442	2.72135	-4.23589	-0.82930
6431.516	-5.03548	3.56452	-4.74050	-0.16966
6435.515	-4.98667	3.56323	-3.55659	-0.82602
6439.513	-4.79940	2.83218	-3.40366	-0.81758
6443.471	-4.63878	1.42192	-3.41061	-0.73136
6447.511	-4.77621	1.44691	-3.11143	-0.71714
6451.476	-4.75346	1.37566	-3.44236	-0.38575
6455.512	-4.72842	1.52692	-3.27937	-0.36890
6459.534	-4.77582	1.72332	-3.38261	0.28655
6463.512	-4.83925	1.84821	-3.21241	-0.21828
6467.512	-5.00893	1.60680	-3.28130	-0.09814
6471.477	-4.80172	1.68746	-3.41224	-0.37363
6475.538	-4.96504	1.73009	-3.57196	-0.09124
6479.513	-4.88710	1.53072	-3.47792	-0.23742
6483.496	-5.11876	1.66014	-3.29312	-0.12669
6487.470	-4.91415	1.84743	-3.26072	-0.08445
6491.478	-4.95773	1.95629	-3.17314	-0.47075
6495.512	-4.77190	1.92188	-3.27381	-0.36309
6499.513	-5.02430	2.27975	-3.02022	-0.12149
6503.506	-5.57921	2.76347	-3.05516	0.29667
6507.512	-9.05175	2.41000	0.34509	0.27381
6511.513	NaN	NaN	8.50020	0.17186
6515.518	NaN	NaN	-4.63543	2.89876
6519.517	NaN	NaN	-3.29730	12.60283
6523.515	NaN	NaN	NaN	NaN
6527.479	NaN	NaN	NaN	NaN
6531.514	NaN	NaN	NaN	NaN
6535.510	NaN	NaN	NaN	NaN
6539.514	NaN	NaN	NaN	NaN
6543.515	NaN	NaN	NaN	NaN
6547.513	NaN	NaN	NaN	NaN
6551.512	NaN	NaN	NaN	NaN
6555.515	NaN	NaN	NaN	NaN
6559.513	NaN	NaN	NaN	NaN
6563.516	NaN	NaN	NaN	NaN
6567.495	NaN	NaN	NaN	NaN
6571.511	NaN	NaN	NaN	NaN
6575.514	NaN	NaN	NaN	NaN
6579.515	NaN	NaN	NaN	NaN
6583.511	NaN	NaN	NaN	NaN
6587.514	NaN	NaN	NaN	NaN
6591.478	NaN	NaN	NaN	NaN
6595.513	NaN	NaN	NaN	NaN
6599.515	NaN	NaN	NaN	NaN
6603.519	NaN	NaN	NaN	NaN
6607.515	NaN	NaN	NaN	NaN
6611.506	NaN	NaN	NaN	NaN
6615.514	NaN	NaN	3.91931	11.31673
6619.515	NaN	NaN	1.43788	7.37579
6623.483	NaN	NaN	9.35641	7.74276
6627.517	NaN	NaN	9.58856	8.44451
6631.516	NaN	NaN	10.16812	8.43785
6635.515	7.97274	1.92331	9.68954	4.63316
6639.521	14.25804	10.58505	8.81760	3.43737
6643.516	12.04165	14.31272	12.70655	6.42625
6647.517	12.36902	13.82199	10.82897	7.21189
6651.490	NaN	NaN	10.66862	4.37767
6655.522	3.61340	10.77427	9.28676	6.85179
6659.515	12.74105	10.61739	12.68947	3.43582
6663.517	-0.59037	0.11162	7.64062	3.27429
6667.515	1.34192	0.00152	8.58444	3.26438
6671.511	-4.59282	2.23344	6.81177	2.82296
6675.515	0.57493	14.46413	7.73297	2.72572
6679.519	9.83510	13.94851	4.06268	2.27457
6683.516	12.94594	12.89446	6.54252	3.50084
6687.519	10.05671	5.32399	4.19079	2.54519
6691.501	5.94082	5.98179	0.15434	-4.79725
6695.514	5.47702	4.84191	0.40904	-4.91441
6699.516	4.97499	3.80051	-0.14903	-5.05247
6703.517	1.65773	5.43564	6.72494	3.11637
6707.515	5.15539	4.68265	6.64462	3.61072
6711.480	4.96103	4.37777	6.47688	2.74940
6715.520	4.63617	3.77623	5.99294	3.12637
6719.518	4.56355	4.26216	5.88704	3.02705
6723.481	3.76364	4.67423	6.14643	3.28968
6727.519	3.77036	4.49010	6.13164	3.03924
6731.518	3.23272	4.53069	5.94494	3.13749
6735.516	3.22450	4.55065	5.75468	3.32408
6739.516	3.46805	4.39752	5.79202	3.12437
6743.477	3.60769	4.37227	5.65985	3.64308
6747.518	3.39829	4.47484	5.53021	3.90183
6751.520	3.60042	4.57438	5.24656	4.17744
6755.518	3.45719	4.57388	5.18235	3.84388
6759.517	3.26248	4.63811	5.29400	3.51308
6763.516	3.03925	4.86112	5.33620	3.61394
6767.416	2.85876	4.91593	5.27097	2.70502
6771.521	3.02539	5.08618	4.96243	3.69421
6775.516	2.99757	5.04674	5.49239	3.54392
6779.519	2.83737	5.40884	5.38031	3.97140
6783.520	2.79914	5.40740	5.12612	3.79189
6787.529	3.04350	5.71374	5.40958	4.02113
6791.481	3.05434	5.43610	5.26701	3.44852
6795.516	2.89755	5.23592	5.35559	2.57439
6799.417	2.62360	5.29929	4.77431	1.53924
6803.516	2.83707	4.56083	4.98305	0.90003
6807.517	2.98356	3.55257	5.89947	0.53828
6811.516	3.24793	2.06239	5.99195	0.56424
6815.512	3.13613	4.33398	5.43071	4.99953
6819.519	3.26708	5.03366	5.36577	3.52125
6823.519	2.98077	4.95154	4.88599	2.94781
6827.518	2.80323	4.98231	5.26145	2.05133
6831.520	3.16545	4.66734	4.39624	1.93878
6835.518	3.29881	3.73033	4.50414	0.82387
6839.517	3.57548	3.41306	4.62160	0.42757
6843.517	3.25562	3.94914	4.88651	-0.53438
6847.418	2.97896	3.74365	4.95923	-0.26759
6851.518	3.00042	3.62904	4.72970	3.33486
6855.518	3.43506	3.77649	5.09650	3.07818
6859.481	2.24817	4.73022	1.64166	3.42303
6863.411	0.46182	4.68085	2.41502	3.52378
6867.521	-0.40613	6.27064	1.51439	3.64640
6871.522	-0.46683	4.69277	1.57421	3.36863
6875.518	-0.70432	4.79629	0.03323	3.41358
6879.417	-1.01809	4.93884	0.36213	3.35696
6883.518	-0.85280	5.01746	0.43668	2.95908
6887.520	-0.87729	5.09482	1.42747	2.20629
6891.522	-0.78183	5.24180	1.56821	1.65330
6895.416	-0.63139	5.12269	1.03617	1.23652
6899.501	-1.09368	4.67709	1.23684	1.51770
6903.517	-1.00849	5.01068	0.23311	1.68966
6907.520	-1.02794	3.83641	-0.09855	2.46376
6911.522	-0.94323	3.98081	-0.19030	2.25200
6915.523	-1.42692	4.88983	-0.21758	2.24557
6919.518	-1.18329	4.63386	0.22003	2.35145
6923.519	-1.06274	4.17236	0.14183	2.04841
6927.417	-1.32421	4.08742	0.50083	2.04173
6931.519	-1.22206	3.50915	0.25793	2.03027
6935.519	-1.11683	3.45542	0.28227	2.13197
6939.521	-1.02290	3.13259	0.09657	2.27225
6943.420	-1.39301	2.76193	0.31471	2.13640
6947.522	-1.17366	2.59779	0.66672	1.91518
6951.519	-1.08721	2.57176	0.77756	1.65943
6955.520	-0.70677	2.73247	0.59290	1.40841
6959.523	-1.09455	3.00914	1.18155	1.19767
6963.524	-1.08517	3.23957	0.57843	0.84511
6967.519	-1.36437	3.38796	0.05152	1.32403
6971.524	-1.30824	3.54425	-0.39924	1.13858
6975.521	-0.88694	3.56467	-0.16479	1.13183
6979.523	-1.30672	3.50149	-0.38988	0.96254
6983.522	-1.24746	2.95745	-0.11441	1.18633
6987.522	-1.21827	3.14979	-0.06661	0.94749
6991.424	-0.95661	3.15638	-0.33129	0.88631
6995.533	-1.09194	3.22629	0.21663	0.62013
6999.522	-0.82047	2.95881	-0.31099	0.44928
7003.518	-1.03017	2.95641	-0.12806	0.28256
7007.526	-0.67965	2.60100	-0.11314	-0.09741
7011.522	-0.66429	2.58150	-0.06879	-0.22118
7015.525	-0.59652	2.50143	0.05512	-0.00649
7019.522	-0.45686	2.53340	-0.06798	-0.84041
7023.417	-0.16779	2.70098	0.08671	-1.30520
7027.512	-1.03156	2.60054	0.02142	-1.81872
7031.520	0.12950	0.18023	1.11338	-1.72999
7035.522	1.05714	2.61621	1.49733	-0.11362
7039.423	0.96651	2.56561	0.03881	0.19303
7043.521	3.20068	2.40378	2.00034	1.17463
7047.523	3.12878	2.49514	5.54186	0.31252
7051.522	4.15287	2.48961	6.35415	1.72722
7055.423	5.43922	2.44790	8.82933	0.45622
7059.484	5.38681	2.35760	3.61092	1.38259
7063.523	5.39352	2.46692	3.18282	0.27356
7067.496	4.66615	2.42745	5.40850	0.32706
7071.412	5.36794	2.31304	4.60772	1.25652
7075.523	5.27474	2.57144	5.55275	0.99679
7079.521	5.12248	2.55643	6.79183	0.66678
7083.524	5.21474	2.89937	6.89852	0.53716
7087.421	4.83683	3.10916	7.00934	0.91866
7091.522	5.05503	3.67165	6.99930	1.69247
7095.523	4.90829	4.18674	7.00196	0.96759
7099.526	4.87076	1.48597	7.02049	0.49828
7103.528	4.76115	2.08428	7.15775	-2.37297
7107.505	4.74999	2.48240	7.12134	-0.84709
7111.521	4.63787	2.43158	7.02778	-1.20678
7115.489	4.62922	2.56310	7.15381	-0.64240
7119.524	4.92748	2.69979	7.10345	0.09474
7123.523	4.48855	2.96540	7.12180	0.23249
7127.396	4.39802	2.83842	7.14362	1.03148
7131.491	4.78412	2.84627	7.16329	1.21919
7135.422	4.38973	2.75962	7.13993	0.92493
7139.399	4.96679	2.81050	7.04988	0.88966
7143.397	4.98320	2.64124	7.19180	-0.09396
7147.396	5.21528	2.65945	7.05283	-0.09897
7151.525	4.51894	2.48559	7.30612	0.04143
7155.378	4.79233	2.31743	6.78855	-0.51762
7159.399	4.94452	2.26922	7.49454	-0.34994
7163.398	5.03684	2.29888	7.67392	-0.50722
7167.422	4.75428	2.85511	7.54652	-0.94482
7171.400	4.68772	2.79775	6.92332	-1.00124
7175.398	4.67069	3.17095	7.42903	-0.90165
7179.424	5.42929	3.20695	7.65069	-0.58263
7183.422	4.83735	3.16562	7.75346	-0.27712
7187.402	5.69526	2.41153	7.73757	0.16441
7191.402	5.15020	2.59408	7.10519	-0.20094
7195.389	4.38132	3.05838	5.98589	-0.72882
7199.392	4.47111	3.06199	6.81561	0.09514
7203.401	4.12485	3.27867	6.99086	0.21192
7207.399	4.60853	3.57874	6.67383	0.83758
7211.401	4.28328	3.93993	6.48480	2.79286
7215.422	4.92083	3.92377	6.78887	3.44013
7219.402	5.18402	3.89028	6.66440	0.62486
7223.399	5.00758	4.24821	6.86530	-2.07190
7227.398	5.17272	3.63872	7.00475	-1.67409
7231.423	5.15537	2.35576	6.93315	-1.73879
7235.400	5.00034	2.43453	7.20226	-1.45614
7239.370	4.40127	3.73719	7.01431	-0.57503
7243.400	5.17452	3.13278	7.25484	-1.17343
7247.400	5.08119	3.40772	5.77853	-0.56530
7251.402	5.16470	3.24809	6.82718	-0.42659
7255.398	5.19788	3.62302	6.77396	0.12960
7259.398	5.07801	3.75321	6.41074	0.97252
7263.392	4.60303	3.78881	6.97103	0.36374
7267.363	4.97090	3.88605	7.24507	1.79906
7271.379	5.08589	3.77012	7.66307	0.59574
7275.403	4.33974	4.03400	7.15626	0.10927
7279.393	4.83383	4.04576	7.52605	-0.22277
7283.397	4.87350	4.06735	7.30339	0.17670
7287.404	4.32153	4.10592	6.69899	0.54755
7291.403	4.03297	4.22158	5.20433	0.71895
7295.426	3.63092	4.15765	4.25840	1.37929
7299.400	1.84027	4.19097	3.64442	0.89281
7303.362	0.93465	4.08901	1.90016	0.74348
7307.403	1.43042	4.04194	1.08001	0.65674
7311.393	0.83568	3.86064	1.26785	0.73748
7315.418	1.19028	3.87434	1.38193	0.46635
7319.404	1.42513	3.92331	3.41276	0.53171
7323.400	1.22715	3.74488	2.67382	-0.23921
7327.426	1.12273	3.73589	1.43962	-0.33943
7331.401	0.71546	3.97421	1.64947	0.24903
7335.365	0.90346	4.08123	2.72682	0.14791
7339.400	1.28482	3.73505	2.96913	-0.35352
7343.399	0.78496	3.63985	2.12174	0.05376
7347.401	1.13439	3.36818	0.77737	0.54110
7351.400	0.92569	2.19352	0.66811	0.74379
7355.401	0.78493	1.61995	1.35732	0.82354
7359.402	0.87545	1.95318	1.48042	0.42865
7363.382	0.79769	1.87931	1.62324	0.34541
7367.403	1.04188	1.70573	2.01080	0.13952
7371.399	0.87051	1.72312	1.98452	-0.00340
7375.427	0.83575	1.79467	2.82957	0.23153
7379.405	0.76062	1.82566	2.14188	-0.16565
7383.404	0.64094	1.73314	2.00128	0.06782
7387.402	0.67074	1.80249	1.71548	0.00184
7391.424	0.86843	1.69167	2.02346	0.12578
7395.402	0.72136	1.83841	2.09509	0.25567
7399.404	0.90875	1.78749	2.10139	0.23707
7403.391	0.87880	1.89691	2.08704	0.20604
7407.404	0.90708	2.08198	2.56109	0.28180
7411.403	0.77067	2.36059	2.37644	0.49987
7415.405	0.72737	2.49628	2.09727	0.63348
7419.405	0.66283	3.19230	2.14015	2.54555
7423.429	0.60136	3.18897	2.17822	0.86212
7427.404	0.67891	3.71469	2.11143	1.40232
7431.400	0.69667	3.27699	-1.03044	0.17401
7435.401	0.49897	3.68240	-0.75752	0.28069
7439.401	0.46654	4.02427	2.10285	-2.64744
7443.404	0.46435	4.39076	2.39037	-0.94143
7447.403	1.13710	2.87795	2.21296	-1.59079
7451.403	0.94113	2.61108	2.24376	-0.69690
7455.427	1.04074	2.14238	2.33313	-0.86062
7459.403	1.12464	1.49753	2.22265	-0.70634
7463.401	1.01322	1.96457	2.50605	-0.78389
7467.402	1.02099	2.45946	2.22986	-0.35646
7471.404	1.24498	4.16711	2.39990	-0.30247
7475.403	0.87803	4.10776	2.31703	-0.30576
7479.405	0.89850	3.40633	1.98960	-0.34335
7483.407	0.83002	4.03839	2.02279	-0.48849
7487.362	0.21867	3.83190	1.38545	-0.30662
7491.403	0.30213	3.93839	1.00752	-0.36082
7495.403	0.14992	3.82093	2.60322	0.10768
7499.404	0.58883	3.36408	2.64740	1.22853
7503.402	0.72744	2.69249	2.44668	0.68270
7507.405	0.88083	2.33507	2.53246	0.46486
7511.406	0.74245	1.89822	1.43453	0.26081
7515.406	0.62898	1.92001	2.28906	0.16588
7519.395	0.47478	1.90556	2.40199	0.36332
7523.405	0.83002	1.73043	2.00901	0.46185
7527.407	0.48386	1.74860	2.18040	0.95263
7531.403	0.62699	1.86212	2.14074	1.34224
7535.398	0.64900	1.71625	3.06296	0.60414
7539.402	0.82987	1.66934	2.45478	0.91574
7543.407	0.68238	1.61292	1.59593	1.31289
7547.405	0.60828	1.61192	1.94863	1.73346
7551.397	0.67821	1.61418	1.66819	0.47056
7555.369	0.55198	1.78408	1.33445	-0.03550
7559.380	0.44606	2.37524	1.64171	-0.64956
7563.402	0.59935	2.42194	1.74271	-1.00634
7567.431	0.48192	2.85068	2.16944	-0.73536
7571.386	0.46239	3.14869	1.51077	-0.34987
7575.407	0.30707	2.95287	1.63546	0.34578
7579.406	0.45500	3.38619	2.02259	1.08686
7583.427	1.39344	2.75556	3.06541	1.75878
7587.404	1.81228	3.79295	1.93316	-0.11941
7591.405	2.38898	3.03221	1.95539	1.26793
7595.406	2.70723	3.27850	2.69599	-0.74500
7599.400	2.98398	3.32068	3.25975	0.03027
7603.406	2.86207	4.12051	3.52717	-0.55550
7607.408	2.72734	3.91566	3.65717	-0.53700
7611.395	3.11814	3.70650	4.16917	-0.70624
7615.405	3.34089	3.42527	5.14877	-0.88653
7619.410	3.03851	3.30550	4.90789	-0.02991
7623.406	2.82724	3.49629	4.54210	0.38704
7627.407	2.80479	3.33041	4.53149	0.35046
7631.418	2.94891	3.06404	3.74567	-0.14017
7635.407	3.32669	3.07427	3.91603	-0.05702
7639.404	3.27952	2.64476	4.21799	0.07705
7643.408	3.09443	2.92753	5.69133	-0.45719
7647.409	3.23576	2.96185	2.05197	1.21692
7651.405	3.11062	2.99339	5.29125	-0.48223
7655.380	3.14219	2.91233	5.53299	0.52414
7659.405	3.13801	2.88957	4.78321	0.74162
7663.408	2.95866	2.98240	4.48480	0.43528
7667.404	3.04135	2.98005	4.06014	0.91872
7671.408	4.17761	2.84153	4.05658	1.34083
7675.368	3.48486	3.08484	3.95328	1.26832
7679.408	3.14357	3.34071	5.10354	1.77890
7683.370	3.04006	3.39675	4.58797	1.84630
7687.407	2.91087	3.64903	5.36762	2.52436
7691.408	3.05803	3.91356	4.96879	2.59170
7695.398	3.43778	4.42860	5.04339	2.35211
7699.405	3.22386	4.61980	4.98869	2.04368
7703.406	3.44762	4.09518	4.38906	0.00686
7707.407	3.59416	3.95735	4.30309	0.35902
7711.410	3.56838	3.87052	4.53879	-0.84991
7715.408	3.32496	4.24210	4.22083	-1.22354
7719.414	3.32172	3.82396	4.45616	0.39769
7723.408	3.49854	3.99826	2.56872	1.97254
7727.406	3.31192	3.94964	2.82618	1.71785
7731.410	3.53362	4.20810	4.50927	3.59833
7735.408	3.81051	4.12018	4.33382	3.30944
