time (ms)	lx (deg)	ly (deg)	rx (deg)	ry (deg)
0.000	-1.65391	2.96953	0.78789	2.05958
4.026	-1.36226	3.41287	0.92793	2.13610
8.002	-1.93916	3.77762	0.86746	2.48801
12.005	-3.02017	5.03812	0.94033	2.33206
16.004	-2.55468	3.69169	1.26612	2.78619
19.997	-2.69165	5.04800	1.32986	2.81212
23.974	-2.75470	4.11121	1.12779	2.76340
28.002	-2.60656	4.40696	1.31419	2.80934
32.002	-2.66491	4.30818	1.15258	2.87166
36.001	-2.23704	4.39137	1.28551	2.79494
40.002	-2.69106	4.33919	1.44021	2.98402
43.965	-2.74227	4.67572	1.33683	2.85035
48.003	-2.79614	4.70156	1.36181	2.93410
51.995	-2.63690	4.46180	1.14221	2.87281
56.003	-2.69136	4.68215	1.35387	2.86059
60.002	-2.68262	4.56046	1.41080	2.69132
64.003	-2.55884	4.49731	1.44165	2.60423
67.996	-2.48317	4.40084	1.53996	2.26308
72.005	-2.36656	4.29584	1.71055	2.11532
75.992	-2.31448	4.26683	1.59755	2.09331
80.000	-2.31416	4.33083	1.74997	1.83757
84.001	-2.18746	4.28896	1.66872	2.03330
88.006	-2.02825	4.23129	1.84245	1.80309
92.004	-1.98455	4.23992	1.90222	1.79345
96.004	-2.26016	4.35590	1.82614	1.81445
100.029	-2.05583	4.31004	2.04470	1.77311
104.006	-2.22604	4.30791	1.97525	1.77147
108.001	-2.82392	4.31635	2.06780	1.70091
111.966	-2.33016	4.38361	2.19217	1.79087
116.003	-2.18243	4.46686	2.01905	1.78427
119.970	-2.43828	4.52225	2.06773	1.80987
124.005	-2.33658	4.57812	1.85829	1.83712
128.005	-2.33499	4.52828	1.88640	1.78491
132.026	-2.31391	4.71997	2.21509	1.89899
136.002	-2.39663	4.71274	1.98950	1.94774
140.005	-2.57558	4.69252	1.98313	2.35582
144.003	-2.64886	4.75613	1.92292	2.27145
147.998	-2.55242	4.63988	1.54445	2.22791
151.966	-2.52030	4.64064	1.36223	2.22355
156.004	-2.61298	4.69298	1.28866	2.11453
159.973	-3.00341	4.50731	1.24994	2.17634
164.006	-3.16426	4.55977	1.16843	2.32013
168.016	-3.20038	4.72184	1.11271	2.36445
172.003	-3.20533	4.58658	1.20460	2.31544
176.004	-3.23314	4.33619	0.66856	2.36530
180.029	-2.85730	4.50546	0.62521	2.33141
184.005	-2.75200	4.48568	0.64821	2.29561
188.000	-2.31316	4.45200	0.50220	2.33970
192.005	-3.03145	4.27045	0.10200	2.28458
196.032	-3.23116	4.17116	0.20085	2.17987
200.006	-1.97726	4.02451	0.60660	1.20700
204.001	-2.53840	3.98667	0.96418	0.23879
208.003	-2.31116	3.54831	1.17535	-0.36272
212.008	-2.25615	3.59645	1.57867	-0.54517
215.973	-2.29882	3.49802	1.19130	-0.76780
220.006	-2.16515	3.30254	1.88688	-0.78344
224.006	-2.07080	3.24472	1.81691	-0.48197
228.004	-2.07279	3.32727	1.84842	-0.34902
232.004	-1.93303	3.45438	1.31213	-0.47513
236.009	-1.92721	3.35813	1.65384	-0.55178
240.005	-1.87560	3.34783	1.39607	-0.26730
244.007	-1.78726	3.32079	1.65751	-0.32548
248.008	-1.80685	3.23797	1.52136	-0.26147
252.007	-1.81510	3.36958	1.46311	-0.08048
256.005	-1.68798	3.35216	1.65661	-0.37066
260.007	-1.70236	3.41847	1.35122	-0.41719
264.007	-1.79229	3.52728	1.77499	-0.25654
268.007	-1.73028	3.44284	1.87061	-0.56463
272.004	-1.69845	3.52479	1.65550	-0.48059
276.011	-1.84495	3.68800	1.67454	-0.47587
280.007	-2.00725	3.59619	1.91152	-0.78629
283.995	-1.97912	3.57515	1.63343	-0.90581
287.970	-2.16431	3.56409	1.58329	-0.72093
292.004	-2.54583	3.72353	2.05568	-0.91887
296.008	-2.57967	3.84346	1.54604	-0.78666
300.005	-2.51618	3.79199	1.40668	-0.89423
304.011	-2.65221	4.00168	0.90401	-0.99086
308.007	-2.70572	3.86807	1.39646	-0.95446
312.004	-2.71956	3.93730	1.91838	-0.84468
315.969	-2.74658	3.99630	1.94635	-0.71933
320.007	-2.76361	4.01672	1.77816	-0.82652
324.000	-2.79832	3.93922	2.58001	-0.76153
327.971	-2.78661	3.94294	1.94630	-0.52775
332.006	-2.76222	3.95611	1.94126	-0.47307
335.968	-2.70631	3.92129	2.15787	-0.33356
340.001	-2.52518	3.93517	2.04193	-0.40090
344.007	-2.25179	3.94322	2.07891	-0.36044
348.007	-2.37719	3.91329	2.22547	-0.19849
352.010	-2.15817	3.92767	2.23932	-0.29113
356.008	-2.11507	3.91728	2.22535	-0.11355
360.007	-2.62006	3.90113	2.59007	-0.13320
364.005	-2.58063	3.84501	2.37354	-0.23020
367.990	-2.78206	3.87674	2.42872	-0.16465
371.984	-2.72828	3.88495	2.63702	-0.21874
376.008	-2.06198	3.89694	2.69626	-0.32114
380.009	-1.99292	3.86727	3.04083	-0.38022
383.972	-1.94094	3.82385	3.01903	-0.36410
387.974	-1.78183	3.71301	2.94577	-0.24288
392.006	-1.40993	3.66072	2.82066	0.08878
396.009	-1.98065	3.54900	3.76772	-0.08941
400.006	-1.65540	3.51539	3.65114	-0.18413
404.014	-1.61146	3.39746	4.16228	-0.24303
408.007	-1.46313	3.33474	2.65486	0.82936
412.000	-1.63033	3.29685	2.82979	0.44904
416.009	-1.43200	3.00987	3.47252	2.32148
420.010	-1.20661	2.99676	1.35318	2.60334
424.009	-1.40938	2.76209	0.69196	2.64293
428.008	-1.58128	2.44862	1.84473	2.73639
432.006	-1.45242	2.31937	1.43912	2.83682
436.013	-1.55135	2.41632	1.48062	2.84155
440.006	-1.49646	2.37314	0.97839	2.80322
444.008	-1.52012	2.36986	0.66660	2.85492
448.009	-1.55388	2.25686	0.46028	2.20085
451.974	-1.84761	2.27951	0.65523	2.59417
456.007	-5.89974	2.65045	0.98442	2.97344
460.006	-6.79024	3.47875	1.51678	3.58921
464.008	6.97543	8.88858	10.50580	2.56810
468.009	NaN	NaN	4.71829	2.14857
472.009	NaN	NaN	0.12918	8.86653
476.012	NaN	NaN	NaN	NaN
480.009	NaN	NaN	NaN	NaN
484.006	NaN	NaN	NaN	NaN
487.978	NaN	NaN	NaN	NaN
491.999	NaN	NaN	NaN	NaN
496.000	NaN	NaN	NaN	NaN
500.010	NaN	NaN	NaN	NaN
504.013	NaN	NaN	NaN	NaN
508.009	NaN	NaN	NaN	NaN
512.013	NaN	NaN	NaN	NaN
516.005	NaN	NaN	NaN	NaN
520.004	NaN	NaN	NaN	NaN
524.011	NaN	NaN	NaN	NaN
528.009	NaN	NaN	NaN	NaN
531.910	NaN	NaN	NaN	NaN
536.013	NaN	NaN	NaN	NaN
539.973	NaN	NaN	NaN	NaN
544.010	NaN	NaN	NaN	NaN
548.008	NaN	NaN	NaN	NaN
552.012	NaN	NaN	NaN	NaN
555.972	NaN	NaN	NaN	NaN
560.011	NaN	NaN	NaN	NaN
564.009	NaN	NaN	1.73266	5.88829
567.910	NaN	NaN	1.85460	5.88377
572.010	NaN	NaN	1.28164	3.73923
575.994	NaN	NaN	0.93425	1.53508
580.007	23.02289	13.51819	1.01124	1.82591
584.015	8.76789	11.62669	0.92155	1.70609
588.012	-20.86883	3.02865	0.89108	1.70687
592.008	-4.05989	1.30081	2.33095	2.25796
596.009	-3.99800	-1.28238	1.49693	1.75864
600.012	3.80115	1.20496	1.02987	1.69474
604.013	-5.60135	-1.27870	0.61573	1.88653
608.015	-6.18377	-0.93778	0.68456	1.62836
612.013	7.63308	3.12527	2.04096	1.86981
616.010	-0.17846	1.34692	1.04831	1.88009
620.005	6.99585	3.71797	2.06828	1.98852
624.013	3.92149	4.43022	-4.78688	2.66848
628.012	6.21230	4.12020	3.58811	2.07915
631.911	-0.20919	4.32718	0.72950	1.88256
636.011	2.21611	3.57995	4.28229	2.12726
640.012	0.19447	3.91932	4.10599	2.01368
643.973	-2.40308	3.78653	3.99615	2.20001
647.915	-2.13661	3.81115	2.23219	2.98518
652.014	-1.60397	3.91020	1.96437	3.47906
656.014	-1.92262	3.89673	1.25758	3.33337
659.992	-1.83285	4.05225	0.53682	3.42376
663.890	-2.07873	3.87970	3.66056	3.29785
668.014	-2.05420	4.31555	0.36323	0.61655
672.013	-2.02066	3.90955	1.00377	0.18669
676.011	-1.96196	4.05239	2.40649	0.39360
679.914	-2.04475	3.92502	0.79828	0.30728
684.013	-1.94498	3.97716	0.71332	2.55585
688.014	-1.94900	4.10503	0.33230	0.30708
692.015	-2.03097	4.07256	0.34953	0.18776
696.015	-2.04803	4.15686	0.51863	0.24908
700.012	-2.13998	4.19377	0.49552	0.55984
704.008	-2.21546	4.13868	0.44055	0.37928
708.012	-2.25952	4.17066	0.51433	0.45640
712.016	-2.31155	4.19071	0.51696	0.69313
716.013	-2.26710	4.23065	0.93855	0.15094
720.012	-2.33239	4.23374	0.54664	-1.39035
724.014	-2.37704	4.22941	0.71154	-0.71715
728.016	-2.29599	4.19743	0.28937	0.31508
732.015	-2.38781	4.16821	0.23743	0.60736
736.014	-2.41920	4.05553	0.01896	0.86272
740.011	-2.41234	4.00446	0.24654	0.70612
744.018	-2.34921	3.68687	0.44242	0.68293
748.013	-2.23043	3.81771	0.35174	0.06525
752.010	-1.86280	3.31132	0.30315	0.25276
756.012	-2.01142	2.94659	0.69623	-0.46041
759.880	-1.83080	2.84410	0.10607	0.27259
764.011	-2.01717	2.52698	0.60421	1.02648
767.889	-1.88655	2.41496	0.65749	1.03891
771.977	-1.71647	2.22759	1.40502	3.34941
775.904	-1.56952	2.32073	1.07346	3.58501
779.890	-1.47697	2.24558	1.58182	3.45622
783.890	-1.24320	1.82440	1.89315	2.88232
787.884	-1.29062	2.00921	1.47067	2.92995
791.855	-1.18840	1.85849	2.01233	2.13661
795.890	-1.17723	1.72874	1.42035	2.65393
799.888	-1.13347	1.58898	1.41854	2.37734
803.888	-1.03230	1.69352	1.38862	2.28273
807.883	-1.00439	1.52144	1.24709	2.72816
811.892	-1.00759	1.47206	1.29397	2.65754
815.890	-0.96400	1.62432	1.11589	2.92718
819.888	-0.91671	1.64611	1.28316	3.00686
823.915	-0.91053	1.53323	1.20475	2.94461
827.895	-0.92440	1.63772	1.06580	2.60250
831.861	-0.92540	1.63035	1.47352	3.11521
835.889	-0.88557	1.74262	2.07286	2.75683
839.914	-0.88736	1.87427	1.46640	2.99424
843.892	-0.84233	1.87350	0.90289	2.80040
847.888	-0.86257	2.01681	1.39954	3.58190
851.890	-0.74345	2.12367	0.90542	2.71317
855.913	-0.76903	1.96291	1.26272	2.10679
859.853	-0.67096	2.11624	1.22918	1.00558
863.853	-0.76240	1.91156	1.21253	2.22980
867.892	-0.64332	2.02548	1.00062	-1.07153
871.889	-0.76047	2.16672	1.06123	-1.24615
875.886	-0.59114	2.12481	0.84079	-1.40928
879.891	-0.60518	2.12795	1.06265	-1.49584
883.888	-0.68216	2.14293	1.08594	-1.29521
887.890	-0.64672	1.92355	0.92334	-0.79760
891.892	-0.52868	2.01098	1.22280	1.88380
895.852	-0.59957	1.87050	1.12268	1.84125
899.891	-0.48267	1.86458	0.74273	1.59976
903.882	-0.60853	1.75944	1.06900	1.97741
907.896	-0.55446	1.93755	1.03436	1.84446
911.891	-0.52461	1.73096	1.09507	1.67686
915.858	-0.51426	1.84627	1.05126	-0.12405
919.887	-0.51458	1.73127	1.22603	-0.33394
923.889	-0.50540	1.69251	1.22950	-0.38077
927.854	-0.49778	1.62717	1.33093	-1.13230
931.890	-0.50106	1.90156	1.33582	-0.29366
935.883	-0.24210	1.64812	1.37975	-1.07911
939.890	-0.47654	1.77693	1.12159	-0.75719
943.891	-0.48071	1.78336	1.24888	-0.47924
947.893	-0.38603	1.75771	0.94596	-0.22103
951.890	-0.44835	1.75415	1.09653	-0.43480
955.878	-0.50282	1.72543	0.41720	-0.98895
959.853	-0.45673	1.69066	1.21157	-0.45331
963.890	-0.53277	1.64300	1.11668	-0.41283
967.883	-0.84669	1.73234	0.62997	-0.25730
971.889	-0.71429	1.90813	1.05302	-0.20693
975.893	-0.84424	2.02486	0.75049	-0.10731
979.894	-0.75538	1.95381	0.98700	-0.63649
983.915	-0.91949	1.98700	0.95844	-0.67788
987.891	-1.02235	2.05910	1.17689	-1.35205
991.893	-1.04749	2.15583	1.29804	-1.32706
995.855	-1.19849	2.31199	1.20254	-1.06768
999.915	-1.13442	2.01419	1.44512	-0.98046
1003.891	-1.01913	2.18584	1.57840	-1.44966
1007.898	-1.23761	2.26389	1.26421	-1.23325
1011.893	-1.09438	2.29221	1.23372	-1.26159
1015.853	-0.96060	2.14038	1.30670	-1.25637
1019.891	-1.08430	2.17409	1.21921	-1.22328
1023.916	-1.12186	2.27929	1.35412	-1.20196
1027.891	-0.84863	2.17917	1.00072	-1.17994
1031.916	-0.84270	2.12737	1.25741	-1.18140
1035.894	-0.78675	2.21642	1.07408	-1.24130
1039.864	-0.74422	2.09908	0.97328	-1.22078
1043.892	-0.80444	2.05958	0.99834	-1.13732
1047.886	-0.73662	2.11388	0.73275	-1.06795
1051.907	-0.83285	2.19442	1.13248	-0.82393
1055.893	-0.76747	2.15513	0.99472	-0.71193
1059.890	-0.78178	2.17807	1.05567	-0.51353
1063.862	-0.69655	2.23880	1.18646	0.06216
1067.892	-0.78960	1.88512	1.01764	-0.11093
1071.892	-0.97043	2.29793	1.18773	-0.00815
1075.895	-0.97732	2.00586	1.21623	0.02291
1079.908	-0.87213	2.33629	1.18091	-0.03893
1083.890	-0.90574	2.34198	1.24017	-0.11912
1087.889	-1.14030	2.03719	0.92349	0.02268
1091.893	-1.02233	2.36196	1.30593	0.01376
1095.894	-1.00248	2.28312	1.32247	-0.12993
1099.894	-1.09192	2.42158	1.26175	-0.24098
1103.893	-0.81280	2.45206	1.29365	-0.40580
1107.901	-1.09202	2.48469	1.21521	-0.38137
1111.887	-1.08324	2.68239	1.33396	-0.55976
1115.893	-0.90374	2.44119	1.41385	-0.71654
1119.896	-1.00531	2.70910	1.41712	-0.79448
1123.860	-0.83367	2.41053	1.30680	-0.98693
1127.888	-0.93676	2.55363	1.72894	-0.87311
1131.894	-0.82235	2.54902	1.54807	-0.79409
1135.893	-0.78451	2.58765	1.95626	-0.85859
1139.893	-0.89250	2.42103	1.71454	-0.78766
1143.894	-0.75943	2.45095	2.01248	-0.41082
1147.894	-0.78667	2.56652	2.29349	-0.80896
1151.897	-0.71687	2.43011	1.89890	-0.85055
1155.896	-0.61002	2.53594	2.18743	-0.74606
1159.920	-0.60677	2.70386	2.38375	-0.11076
1163.898	-0.75831	2.55070	1.95820	0.19493
1167.894	-1.87508	2.61888	2.85205	-0.14184
1171.894	-1.86828	2.68620	2.21340	0.03029
1175.897	-1.12928	2.77862	2.07172	-0.27549
1179.893	-1.72500	2.64552	2.12761	-0.40868
1183.895	-2.23011	2.88671	2.54006	-0.25150
1187.893	-1.05756	3.11677	2.24426	-0.05249
1191.897	-1.29851	3.55013	2.46815	-0.00129
1195.897	-1.62101	2.94676	2.54635	0.12010
1199.893	-1.50512	4.03715	1.95584	-0.01249
1203.894	-1.55100	3.17080	2.44962	0.48535
1207.865	-1.48716	2.92940	1.94047	0.55661
1211.895	-1.31081	2.65566	2.32511	0.24076
1215.897	-1.14578	2.42560	2.03868	0.25452
1219.894	-1.27661	2.73418	2.14441	0.78012
1223.898	-1.24858	2.67697	2.34803	0.68781
1227.894	-1.24724	2.21030	2.32018	0.91583
1231.894	-1.22978	2.10265	2.29498	0.96093
1235.893	-1.23551	2.10882	2.66959	0.95663
1239.894	-1.21869	2.10256	2.19294	1.07128
1243.898	-1.11814	1.68615	2.22589	1.14468
1247.896	-1.16543	1.83956	2.46875	1.00099
1251.896	-1.12722	1.98442	2.54110	0.98120
1255.903	-1.23275	4.20214	2.48611	0.98097
1259.907	-1.30853	3.33100	2.39091	0.88329
1263.895	-1.17815	2.67052	2.50308	1.04504
1267.898	-1.40410	3.19461	2.47177	0.97341
1271.890	-1.17307	1.89949	2.25285	1.08822
1275.881	-1.12730	2.25130	2.40310	0.82255
1279.895	-1.49314	2.54822	2.45294	0.90505
1283.860	-1.37848	2.67393	2.55995	0.89154
1287.857	-1.42985	2.71237	2.39250	0.73855
1291.896	-1.20179	2.67365	2.54001	0.68714
1295.896	-1.43682	2.89919	2.29475	0.46718
1299.896	-1.30139	2.82578	2.38806	0.45637
1303.887	-1.30037	2.87809	2.50910	0.73675
1307.896	-1.41469	2.76394	2.59411	0.72980
1311.899	-1.28886	2.65197	2.28437	0.60671
1315.894	-1.29241	2.68251	2.51916	0.84223
1319.888	-1.42526	2.61716	2.16848	0.61058
1323.898	-1.33577	2.19559	2.07246	1.03028
1327.896	-1.52538	2.57738	2.11859	0.95895
1331.896	-1.09457	1.87942	2.76534	1.02055
1335.902	-1.11787	2.00194	2.25798	1.25738
1339.890	-1.11509	2.01939	1.72718	1.45519
1343.893	-0.78503	1.66799	2.01627	1.42814
1347.894	-0.87731	1.82975	1.57900	1.90217
1351.892	-1.00442	2.08150	1.31617	1.92301
1355.895	-0.85848	2.33117	1.51045	2.38805
1359.902	-0.92842	3.15977	0.98407	2.46650
1363.896	-0.98608	3.49428	0.55136	2.58882
1367.898	-1.00124	3.44438	0.18683	2.22898
1371.895	-0.82736	3.25552	0.44515	2.98408
1375.897	-0.96951	2.78672	0.99246	2.24478
1379.896	-1.00315	2.98121	0.96338	2.35580
1383.920	-1.04121	3.14382	0.90450	2.43650
1387.897	-1.18512	2.91817	1.40281	2.15624
1391.898	-1.20271	3.03589	1.45113	1.92020
1395.895	-1.27507	3.30430	1.55762	2.16571
1399.898	-1.34180	3.73840	1.56593	2.12609
1403.898	-1.39793	4.00978	1.81381	2.02980
1407.899	-1.23997	3.39442	2.14535	2.09174
1411.890	-0.84349	3.39049	1.95785	1.97548
1415.899	-1.06133	3.65793	1.98509	2.07060
1419.896	-1.30325	4.12831	2.03729	1.99754
1423.864	-0.95869	3.86973	1.99815	2.23944
1427.900	-0.95380	3.99373	2.05997	2.19784
1431.900	-0.78474	4.06422	2.03365	2.41356
1435.900	-0.99241	4.15622	2.04592	2.62766
1439.898	-0.82709	4.18886	2.25043	2.71615
1443.900	-0.88056	4.21028	1.72537	2.49919
1447.796	-0.91301	4.31125	1.92493	2.72554
1451.898	-0.83332	3.98674	2.18979	1.46593
1455.870	-0.93721	4.39135	2.30380	1.79103
1459.898	-0.98459	4.37645	2.22361	1.97835
1463.904	-0.93525	4.39168	2.01714	1.50833
1467.901	-1.12797	4.40003	2.06607	1.14917
1471.862	-1.19621	4.48806	1.97166	0.97344
1475.899	-1.25081	4.50360	2.09685	1.07937
1479.902	-1.33768	4.54569	2.08173	1.29789
1483.897	-2.31076	4.45223	2.20042	1.31662
1487.863	-1.38319	4.55135	2.18746	1.11564
1491.902	-2.04475	4.37009	2.23794	1.03503
1495.904	-2.37129	4.42201	1.85842	1.20060
1499.896	-2.51678	4.46118	2.06485	1.12482
1503.899	-2.29426	4.39818	1.86846	1.10956
1507.901	-2.20835	4.12881	1.84133	1.06523
1511.892	-2.30016	4.16271	1.75255	1.13714
1515.899	-2.46387	4.07820	1.77231	1.32570
1519.898	-2.49927	3.92514	1.80905	1.36467
1523.902	-2.54955	4.07628	1.78376	1.31594
1527.903	-2.55993	4.10687	1.64399	1.40895
1531.904	-2.55975	3.91317	1.62822	1.53310
1535.902	-2.60347	3.87521	1.62644	0.90089
1539.901	-1.79572	3.89043	1.74328	1.57642
1543.800	-1.44984	3.94277	1.74104	0.83128
1547.898	-1.39872	3.95089	1.64089	1.64659
1551.898	-1.46950	3.97789	1.82834	2.15278
1555.900	-1.83080	3.74778	1.78548	0.89687
1559.801	-1.50767	3.10293	2.07254	1.03557
1563.899	-1.86196	3.37446	1.83350	0.30332
1567.902	-1.87227	3.27514	2.13551	0.06436
1571.901	-1.41211	3.56431	1.68136	0.13236
1575.800	-1.44059	3.35916	2.07787	-0.34276
1579.883	-1.44785	3.25814	1.93244	-0.72149
1583.889	-1.42437	3.04721	1.68196	-0.53419
1587.863	-1.43386	2.98185	1.33086	-0.99866
1591.799	-1.55112	2.34664	1.18019	-1.19981
1595.898	-1.50058	2.67436	0.84429	-1.26083
1599.899	-1.31121	1.87917	1.23479	-1.03397
1603.900	-1.38379	1.94820	1.28209	-1.03301
1607.901	-0.83260	1.69637	1.25533	-1.03197
1611.901	-1.16364	1.53489	1.36442	-1.07896
1615.900	-1.23962	1.46593	1.41144	-1.10132
1619.891	-1.33110	1.37079	1.50276	-1.08963
1623.901	-1.40363	1.46760	1.64818	-1.08928
1627.900	-1.19502	1.47519	1.62800	-1.13376
1631.900	-1.31709	1.48292	1.24426	-1.10010
1635.902	-1.05235	1.43750	1.54021	-0.99830
1639.905	-1.01082	1.38788	1.62552	-0.95667
1643.864	-1.17150	1.70464	1.69470	-1.04913
1647.900	-0.77218	1.46587	1.58279	-1.05236
1651.902	-1.06681	1.87737	1.66614	-0.88103
1655.905	-1.06642	1.69124	1.74997	-0.76513
1659.903	-1.25647	1.85777	1.67794	-0.91172
1663.869	-1.19425	2.41529	1.61887	-0.50782
1667.902	-1.38381	1.90785	1.69562	-0.66290
1671.905	-1.50968	2.05232	1.76366	-0.62858
1675.866	-1.08599	1.80807	2.25573	-0.63490
1679.901	-1.05481	2.01710	1.21390	-1.15591
1683.904	-0.96752	2.16687	1.29913	-1.45622
1687.905	-0.73965	1.86645	1.60337	-1.67090
1691.901	-1.49974	2.13352	1.52622	-1.77909
1695.905	-1.52481	1.87001	1.88876	-1.80830
1699.904	-2.01429	2.10094	1.36824	-2.58317
1703.802	-1.15796	1.82202	1.75066	-1.99303
1707.900	-1.21454	1.79039	1.79081	-1.46638
1711.869	-0.68280	1.83324	1.48153	-1.43647
1715.893	-0.99544	1.75955	1.38280	1.26033
1719.906	0.87962	1.81066	1.39103	-1.90608
1723.902	-0.20422	1.89812	1.36293	-1.59157
1727.904	-0.34206	1.97581	1.60977	-1.47938
1731.906	-0.68427	1.91797	1.86836	-1.06556
1735.905	-0.77091	2.31799	1.54071	-0.19196
1739.903	-0.93353	2.18329	1.58654	-0.29847
1743.903	-0.90192	2.12905	1.52508	-1.14757
1747.871	-1.05327	2.40561	1.41616	-0.63281
1751.801	-0.60389	2.31857	1.09306	-0.49671
1755.903	-0.79024	2.74474	1.08135	-0.26082
1759.903	-0.93909	2.81763	1.32188	-0.23511
1763.904	-1.20864	2.91276	1.15409	-0.33159
1767.906	-1.13578	2.97627	1.26125	-0.08171
1771.917	-0.95569	3.06524	1.14424	0.02512
1775.904	-0.98020	3.14908	1.24987	0.07493
1779.905	-1.03744	2.95761	1.15808	0.06368
1783.908	-0.86696	3.27911	1.15290	0.12817
1787.906	-0.77531	3.16733	1.14908	0.19878
1791.904	-0.85317	3.18506	1.48409	-0.00097
1795.910	-0.84280	3.25885	1.66901	0.21369
1799.773	-0.88260	3.05445	1.26971	0.16670
1803.776	-1.19696	3.30613	2.28021	0.08636
1807.775	-0.97169	3.24050	1.48587	0.21669
1811.748	-0.93584	3.06603	1.58584	0.24450
1815.773	-0.91391	3.23115	1.37771	0.16684
1819.781	-1.15362	3.20740	1.41586	0.17667
1823.781	-1.00266	3.32618	0.93860	0.10761
1827.779	-1.05518	3.26454	1.11455	0.12032
1831.744	-0.94041	3.20058	1.57677	0.04297
1835.746	-1.07545	3.46430	1.28467	0.07334
1839.781	-0.93894	3.41731	1.41742	0.07090
1843.782	-1.80824	3.41817	1.77819	0.13554
1847.777	-0.97889	3.31209	1.28301	0.11982
1851.780	-2.17742	3.27383	1.45517	0.09728
1855.779	-0.83729	3.39450	1.45130	0.00445
1859.781	-0.56627	3.39116	1.51566	1.50042
1863.802	-0.72794	3.60703	1.72830	1.71089
1867.780	-1.97661	3.90375	1.44108	2.28741
1871.781	-3.21931	3.51759	3.03700	2.48899
1875.762	0.06788	5.53393	-0.88557	-0.23107
1879.751	-0.37380	6.80945	-1.42027	0.91811
1883.779	NaN	NaN	NaN	NaN
1887.782	NaN	NaN	NaN	NaN
1891.777	NaN	NaN	NaN	NaN
1895.780	NaN	NaN	NaN	NaN
1899.781	NaN	NaN	NaN	NaN
1903.785	NaN	NaN	NaN	NaN
1907.780	NaN	NaN	NaN	NaN
1911.785	NaN	NaN	NaN	NaN
1915.783	NaN	NaN	NaN	NaN
1919.779	NaN	NaN	NaN	NaN
1923.778	NaN	NaN	NaN	NaN
1927.780	NaN	NaN	NaN	NaN
1931.781	NaN	NaN	NaN	NaN
1935.778	NaN	NaN	NaN	NaN
1939.782	NaN	NaN	NaN	NaN
1943.783	NaN	NaN	NaN	NaN
1947.749	NaN	NaN	NaN	NaN
1951.780	NaN	NaN	NaN	NaN
1955.781	NaN	NaN	NaN	NaN
1959.764	NaN	NaN	NaN	NaN
1963.742	NaN	NaN	NaN	NaN
1967.773	NaN	NaN	NaN	NaN
1971.783	NaN	NaN	NaN	NaN
1975.784	NaN	NaN	NaN	NaN
1979.780	NaN	NaN	NaN	NaN
1983.783	NaN	NaN	NaN	NaN
1987.744	NaN	NaN	NaN	NaN
1991.785	NaN	NaN	NaN	NaN
1995.786	NaN	NaN	NaN	NaN
1999.742	NaN	NaN	NaN	NaN
2003.772	NaN	NaN	NaN	NaN
2007.781	NaN	NaN	NaN	NaN
2011.786	NaN	NaN	-0.59997	4.56640
2015.808	NaN	NaN	NaN	NaN
2019.783	NaN	NaN	-0.62461	2.52696
2023.782	NaN	NaN	2.42810	7.19653
2027.783	19.39063	9.58747	-0.55612	4.94523
2031.806	21.09551	9.71881	-1.54656	8.15121
2035.789	-22.97536	3.90846	-5.11959	4.00842
2039.786	8.97472	2.44812	-0.64819	3.15372
2043.748	-4.03660	-2.46142	-0.34677	2.72149
2047.780	-5.70755	-1.36027	-0.05346	3.36718
2051.786	-5.63100	-0.56163	-0.08222	0.27279
2055.787	8.79523	7.63726	0.01452	2.30267
2059.784	7.05540	4.56459	0.20643	1.64944
2063.807	7.90190	5.53389	-1.94161	2.42589
2067.784	-2.87250	2.70622	-2.28400	4.11877
2071.780	-5.84662	2.09894	-1.63254	2.14420
2075.785	-6.00420	2.04353	-1.66797	3.40343
2079.778	-5.71072	1.49849	-1.61528	4.01781
2083.764	-3.52932	1.34154	-1.64231	4.25514
2087.781	2.26490	1.73313	-1.65289	4.35441
2091.746	6.37793	4.76364	-1.49510	4.26209
2095.775	1.51980	4.44149	0.61796	2.02323
2099.782	5.29829	4.09409	-1.52012	4.35931
2103.787	1.83008	2.17111	-1.32322	4.44550
2107.785	4.56812	2.33246	-0.94914	4.38344
2111.776	1.77682	2.14917	0.99710	2.43958
2115.788	4.28676	2.21645	-1.07756	4.54827
2119.783	-0.31665	2.39140	-0.90197	4.82120
2123.783	0.53801	2.59956	-0.13652	4.65665
2127.785	0.54108	2.27270	-0.53143	5.58415
2131.748	0.80761	2.30984	1.28901	2.38091
2135.786	0.56818	2.24925	0.89443	3.32250
2139.783	0.70891	2.03726	1.59246	4.21291
2143.807	1.15498	1.90966	1.22365	4.16187
2147.822	1.19502	1.87523	1.17498	4.27045
2151.788	0.70501	2.01131	1.36032	4.54118
2155.788	0.93453	1.89415	1.45931	4.40875
2159.776	1.14915	1.98160	1.37325	4.10590
2163.787	0.91043	1.80546	1.43689	3.36904
2167.757	0.72734	2.09964	1.27314	2.96631
2171.784	0.40422	2.13797	0.93095	2.71444
2175.809	-0.03944	1.97450	0.56560	2.37552
2179.787	-0.09567	1.90969	0.45132	2.17828
2183.785	-0.12565	1.79627	0.69161	1.91348
2187.749	0.07790	2.46379	0.52922	1.77997
2191.777	0.17769	2.71494	0.44713	1.70199
2195.783	-0.15610	3.00715	0.51555	1.38164
2199.787	0.07108	2.99586	1.33671	2.35557
2203.785	0.15365	3.09824	0.30017	1.46385
2207.750	-0.03643	2.70870	0.36375	1.29986
2211.778	-0.03658	2.98712	0.28188	1.28698
2215.791	0.10019	2.80414	1.38957	1.17883
2219.788	-0.24455	3.01732	0.52394	1.25811
2223.787	-0.23033	3.04508	0.32546	1.15901
2227.783	-0.89056	3.05556	0.35990	1.01799
2231.788	-0.80843	3.22319	0.54833	1.00552
2235.784	-0.75603	3.27794	0.48490	0.85151
2239.788	-0.95552	3.11905	0.84667	0.76458
2243.790	-1.05533	3.07335	0.37539	0.75237
2247.788	-1.14833	3.20032	0.79151	0.46535
2251.752	-1.60702	3.18505	0.96204	0.58388
2255.781	-1.28147	3.27161	0.73409	0.15989
2259.787	-1.92005	3.23477	0.86515	0.08825
2263.788	-1.20740	3.46763	1.32733	0.07271
2267.784	0.11374	3.35127	0.87389	0.08212
2271.751	-0.16305	3.41045	0.74489	0.13621
2275.787	0.32620	3.42720	0.86880	0.00773
2279.788	-0.00946	3.40200	0.88530	0.09357
2283.784	-0.14513	3.39129	0.59148	0.04232
2287.780	0.43452	3.34913	0.21720	0.11975
2291.768	0.11111	3.32792	-0.13225	0.25865
2295.787	0.21648	3.33709	-0.10294	0.20811
2299.787	0.03653	3.31810	0.88632	0.25365
2303.780	0.03527	3.34757	0.91626	0.25064
2307.786	-0.11069	3.34890	1.02578	0.36060
2311.783	-0.14146	3.34483	1.09165	0.40004
2315.789	-0.44562	3.37547	1.30342	0.49582
2319.789	-0.22172	3.26740	0.96182	0.57138
2323.787	-0.40085	3.29667	1.40556	0.65383
2327.785	-0.56672	3.15052	1.25587	0.80154
2331.784	-0.62585	3.24578	1.25505	0.82183
2335.783	-0.73523	3.04019	1.03987	0.83178
2339.751	-0.76682	3.16536	1.36682	0.84646
2343.786	-0.95770	3.07986	1.30685	0.78682
2347.785	-0.99494	3.13663	1.01906	0.79174
2351.789	-1.00171	2.94528	1.38272	0.82258
2355.750	-1.05101	2.83758	1.00216	0.75220
2359.789	-1.12812	2.92283	1.08391	0.80094
2363.786	-1.15421	2.93763	1.20174	0.73528
2367.793	-1.22429	3.08499	1.06607	0.81215
2371.788	-1.21588	2.97478	1.18971	0.92371
2375.762	-1.09132	2.92555	1.61305	1.19840
2379.786	-1.18051	3.00635	1.36320	1.61275
2383.788	-0.69034	2.76845	1.40147	1.49392
2387.751	-0.96212	2.87766	1.40715	1.91910
2391.789	-0.80414	2.69710	1.43771	1.86686
2395.788	-0.70270	2.66295	1.45403	1.89069
2399.788	-0.48470	2.58674	1.49118	2.09724
2403.788	-0.45408	2.77523	1.32180	2.29306
2407.789	-0.54014	2.35070	1.23632	2.34649
2411.792	0.00494	1.65027	1.27093	2.70194
2415.784	0.73074	2.03035	0.89227	2.28084
2419.789	-0.18032	1.66206	0.47525	2.19502
2423.751	0.29883	2.40418	1.16664	1.06611
2427.788	0.83486	4.64344	1.03923	2.80768
2431.779	0.31151	4.76063	1.33961	2.95900
2435.788	0.02735	4.80798	1.30737	3.08189
2439.789	-0.00576	4.86315	1.28306	3.20076
2443.788	0.62099	4.24307	1.98023	3.32562
2447.787	0.77915	4.39929	1.18654	3.51491
2451.790	0.68516	4.49420	1.31637	3.43454
2455.750	0.90319	4.66831	1.47826	3.58675
2459.755	1.11231	4.68773	1.53270	3.60562
2463.781	1.00668	4.78689	1.71226	3.72035
2467.791	1.28407	4.71754	1.98631	3.68941
2471.792	0.26686	5.00608	1.91714	3.90655
2475.792	-0.02263	4.70537	1.75498	3.93764
2479.793	0.13528	5.12814	2.01771	4.02028
2483.791	0.12126	5.10901	2.08436	4.11704
2487.754	0.11295	5.15799	1.97111	4.18672
2491.791	-0.00273	5.23746	1.99627	4.30289
2495.686	-0.07550	5.39347	2.01402	4.21139
2499.772	-0.10265	5.46663	2.00519	4.27012
2503.787	-0.11649	5.52479	2.09844	4.34605
2507.788	-0.09140	5.56713	2.13817	4.49965
2511.690	-0.05075	5.63539	2.20196	4.53186
2515.796	-0.04132	5.59938	2.16233	4.73076
2519.791	0.62962	5.63879	1.58344	4.76071
2523.792	0.33159	5.71329	1.77204	4.99468
2527.795	0.67980	5.72099	1.56568	4.89290
2531.789	0.57106	5.74192	1.20948	4.97267
2535.791	0.96053	5.68243	1.22318	5.07922
2539.788	1.27170	5.60938	1.29338	5.12111
2543.793	1.09172	5.60482	1.32121	4.74940
2547.790	1.27165	5.52748	1.01563	4.85610
2551.748	1.03841	5.29703	0.77121	4.24350
2555.791	1.15724	5.33931	1.07761	4.03724
2559.783	1.16823	5.10969	1.16337	3.32781
2563.791	1.06185	5.34815	1.38299	2.98362
2567.792	1.18865	5.03390	1.58465	3.32663
2571.792	1.07004	4.91528	1.70893	2.68378
2575.785	0.97378	4.77489	1.36385	2.54948
2579.800	0.99472	4.66103	1.61466	2.37154
2583.754	0.96102	4.49614	1.90458	2.15696
2587.792	0.95728	4.29501	1.79698	3.18800
2591.690	0.88374	4.26824	1.76368	4.62269
2595.789	0.84471	3.82781	1.79884	4.41307
2599.790	0.89145	3.92295	1.65004	4.59586
2603.789	0.84126	4.17866	2.04609	4.75528
2607.796	0.77833	4.02475	1.92379	5.39314
2611.788	0.75377	3.97534	1.81121	4.83992
2615.793	0.77508	4.07345	1.82814	4.54523
2619.794	0.79335	4.06693	1.91702	4.77913
2623.783	0.88394	4.12145	1.98950	4.90631
2627.782	0.81863	4.17906	1.94677	6.66455
2631.793	0.69744	4.25991	1.92842	6.66136
2635.792	0.68585	4.33305	1.57243	6.47949
2639.691	0.79560	4.43064	1.92612	6.28588
2643.794	0.68739	4.51375	1.77380	6.74825
2647.794	0.66881	4.61374	1.61094	7.22006
2651.792	0.66883	4.62986	1.03746	7.52250
2655.794	0.60049	4.71266	1.47181	6.69998
2659.792	0.42291	4.76926	1.27800	6.79812
2663.794	0.54151	4.80991	1.13814	6.98178
2667.759	0.41805	4.82648	1.15280	6.66590
2671.795	0.60895	4.79187	1.19864	6.50452
2675.792	0.61632	4.77624	1.03888	6.49633
2679.794	0.55257	4.77459	1.05806	6.71407
2683.793	0.56362	4.78808	1.06257	6.48981
2687.760	0.60595	4.63641	0.99432	6.67499
2691.792	0.52734	4.51050	0.98092	6.57277
2695.793	0.63265	4.46980	1.02469	6.50715
2699.795	0.63950	4.47839	0.99571	6.57352
2703.796	0.70536	4.37274	0.94636	6.58811
2707.752	0.62570	4.36525	0.90019	6.66485
2711.789	0.63340	4.27701	1.08463	5.32183
2715.795	0.28915	4.18655	0.92219	2.58934
2719.693	-0.12756	3.71145	-0.90381	4.89843
2723.793	-2.46332	3.17814	-2.99366	3.78766
2727.795	-2.47254	3.10183	-1.23389	4.24617
2731.794	-1.76524	3.21104	-1.43156	3.66288
2735.692	-3.52665	2.65601	-0.09721	2.97782
2739.795	-3.84720	2.63776	-0.35494	3.13241
2743.794	-3.57026	2.38301	-0.42713	3.11756
2747.795	-3.32901	2.66609	-0.23388	2.97371
2751.694	-2.93693	2.52910	-0.57952	3.02646
2755.794	-3.11482	2.64801	-0.15687	2.98341
2759.795	-2.97604	2.56296	-0.37884	3.05093
2763.792	-2.98260	2.70259	-0.25855	3.06279
2767.696	-2.98916	2.89136	-0.12821	3.07540
2771.831	-3.14763	2.85539	-0.14953	3.05637
2775.797	-3.05400	2.72801	-0.12128	3.03285
2779.794	-3.05429	2.88339	-0.22333	3.02689
2783.801	-3.06315	2.81894	-0.16561	3.07225
2787.793	-3.07261	2.96491	-0.16571	3.11073
2791.767	-3.02836	2.99013	-0.11935	3.24765
2795.794	-3.12507	3.07520	-0.08160	3.24111
2799.803	-3.18329	3.13840	-0.10503	3.29612
2803.790	-3.19917	3.19477	-0.08746	3.25816
2807.794	-3.13835	3.27154	-0.08917	3.32713
2811.791	-3.32199	3.39521	-0.10361	3.31368
2815.693	-3.28034	3.32409	-0.13302	3.44928
2819.797	-3.68915	3.71382	-0.08592	3.39741
2823.796	-3.67598	4.18238	-0.04264	3.42255
2827.796	-4.63353	4.49020	-0.03996	3.41165
2831.694	-4.66095	4.32325	0.02822	3.72436
2835.671	-4.36900	3.63426	0.05167	3.73000
2839.637	-4.27812	3.64570	0.04785	3.98246
2843.670	-4.67204	3.32107	-0.68183	4.45644
2847.800	-4.61943	3.56462	-1.96799	3.45971
2851.672	-4.77380	3.39047	-1.73214	-0.53146
2855.671	-4.80416	3.30195	-1.89015	1.50526
2859.671	-4.87478	3.53662	-1.51390	-0.54806
2863.692	-4.83735	3.17603	-1.71377	-0.42827
2867.671	-4.87636	3.13349	-2.15916	0.65033
2871.671	-4.75245	3.21203	-1.97451	0.20578
2875.675	-4.81379	3.21690	-2.49681	0.51921
2879.669	-4.83573	3.13751	-2.34275	-0.19009
2883.673	-4.83301	3.16011	-2.08282	0.46786
2887.635	-4.78654	3.16064	-1.85720	0.32140
2891.673	-4.78437	3.26579	-1.95277	0.60190
2895.696	-4.77527	3.28582	-1.87051	0.54873
2899.675	-4.72704	3.38880	-2.14426	0.34590
2903.674	-4.67929	3.21274	-2.08223	0.37380
2907.671	-4.22014	3.26407	-2.02894	2.09767
2911.692	-3.92410	5.44938	-1.56397	2.78541
2915.670	-2.16285	3.25547	-0.24587	0.01715
2919.664	-2.05611	2.71623	2.37600	-0.47348
2923.660	0.38708	-0.28337	2.57801	0.54701
2927.672	0.98970	-0.52219	3.30955	0.27072
2931.673	0.90029	0.18056	5.21678	-2.20400
2935.671	1.46219	0.07167	5.47075	-4.78338
2939.670	2.97257	-0.46112	5.92726	-5.26481
2943.671	2.48720	-1.11195	6.10392	-5.03000
2947.673	3.10408	-1.44841	6.29440	-4.39182
2951.673	2.92025	-1.59735	6.13947	-4.26959
2955.674	3.11655	-1.76276	5.89355	-4.15452
2959.672	3.29679	-2.05112	6.23486	-3.88662
2963.646	2.75930	-1.83149	5.94025	-4.32481
2967.671	2.53654	-1.38173	6.19574	-4.12746
2971.636	3.25881	-1.82736	6.28788	-5.28825
2975.672	2.76591	-1.35632	6.33630	-4.39947
2979.673	3.06333	-1.44154	6.58810	-4.82854
2983.675	2.87363	-1.23505	6.72939	-4.22529
2987.636	2.51916	-0.98236	7.21623	-4.29010
2991.666	2.50675	-1.13365	7.22597	-4.50858
2995.671	2.68205	-0.63246	7.37211	-4.50626
2999.673	2.85549	-0.89760	7.19012	-5.19970
3003.672	2.47630	-0.76730	7.30256	-4.94249
3007.666	2.52379	-0.82699	7.46138	-4.89912
3011.673	2.55450	-0.71503	8.37308	-5.01240
3015.677	2.62271	-0.78148	7.73382	-4.54055
3019.677	2.66999	-0.88732	7.83955	-5.03822
3023.638	2.62373	-1.00265	7.81717	-3.98100
3027.672	2.73776	-1.02157	7.28891	-4.28622
3031.674	2.79466	-1.16852	7.64759	-4.32971
3035.668	2.90621	-1.26711	7.60714	-4.09012
3039.666	2.83479	-0.83159	7.41770	-3.92756
3043.670	2.76978	-0.84608	7.68391	-4.37161
3047.670	2.87688	-1.04144	7.95326	-4.84911
3051.674	2.91188	-0.87421	7.77812	-4.32902
3055.675	3.01334	-1.03990	8.00990	-4.62786
3059.672	3.00982	-1.21423	8.00382	-4.79061
3063.674	2.89827	-1.16613	8.01105	-5.12722
3067.673	2.92693	-1.20100	7.05723	-5.08552
3071.673	2.79152	-0.73549	6.47671	-4.61530
3075.675	2.76220	-1.17374	7.71204	-5.63408
3079.672	2.85541	-1.61509	7.54418	-5.21082
3083.672	3.05865	-4.90237	8.40288	-4.95932
3087.683	3.47386	-5.02137	8.27343	-6.05396
3091.675	4.07762	-4.87129	8.31392	-6.43949
3095.673	4.41364	-5.07566	8.71642	-8.88085
3099.674	4.61213	-5.06713	9.83558	-9.16639
3103.634	4.03488	-5.03919	11.53241	-5.52424
3107.676	4.55909	-5.63504	11.78395	-5.76525
3111.661	4.92243	-6.19464	11.99633	-8.12281
3115.676	4.61667	-5.85199	11.50229	-6.20030
3119.699	4.86384	-5.91549	11.47579	-6.45275
3123.673	5.25210	-6.52465	11.96410	-7.55387
3127.670	5.46625	-6.70737	11.91087	-7.36743
3131.673	6.08774	-7.74242	11.31397	-7.01288
3135.697	6.38807	-7.29750	10.74266	-7.32588
3139.675	5.94322	-6.90255	11.20686	-7.19399
3143.674	5.49763	-6.71888	11.57479	-7.07693
3147.639	5.67777	-6.62150	11.14875	-7.49699
3151.698	5.03149	-6.53004	11.24435	-7.78629
3155.675	5.23044	-6.57511	11.31498	-7.59222
3159.636	5.00965	-6.67045	12.55382	-8.14104
3163.680	5.50825	-6.61069	10.86325	-7.90159
3167.700	5.44161	-6.64998	11.07981	-7.85168
3171.637	5.72721	-6.71769	11.39446	-8.25383
3175.675	5.51066	-6.97765	11.06781	-9.21463
3179.677	5.76377	-6.80806	11.92731	-8.69447
3183.697	5.94990	-6.63391	10.06092	-8.44154
3187.639	5.65405	-6.55100	10.45627	-8.16259
3191.675	5.38149	-6.52444	10.34477	-8.26628
3195.677	5.50149	-6.57102	10.07868	-8.42918
3199.698	5.32314	-6.41471	10.48617	-8.46466
3203.679	5.29602	-6.85984	11.07436	-8.97140
3207.676	5.17912	-6.79133	11.39921	-9.31362
3211.661	5.19898	-6.65729	11.14490	-9.23183
3215.700	5.35515	-7.18332	11.62199	-9.74773
3219.690	5.44389	-6.85424	11.29939	-10.29773
3223.677	5.54083	-6.87939	11.39747	-10.68582
3227.675	5.61079	-6.85050	11.33330	-10.69344
3231.698	5.35069	-6.74339	11.27935	-11.02028
3235.678	5.26221	-6.85874	11.11196	-10.94588
3239.677	5.22754	-6.69327	10.41278	-9.27693
3243.675	5.34545	-7.11323	7.65795	-8.76029
3247.682	5.34112	-7.42100	11.60018	-10.18955
3251.673	5.80010	-6.75980	12.81726	-9.04089
3255.673	6.40025	-7.75628	12.22172	-8.56307
3259.675	5.85308	-8.05189	11.95885	-8.89497
3263.699	6.03054	-7.33833	12.93257	-10.40553
3267.677	6.43699	-7.56228	12.89253	-11.27041
3271.674	6.19393	-7.11968	13.10014	-10.54677
3275.677	6.15767	-6.79947	12.73257	-11.00660
3279.701	6.45314	-7.92635	11.72034	-10.65974
3283.678	6.66185	-7.77915	13.13868	-10.97913
3287.679	6.51738	-7.85968	12.85829	-11.49695
3291.680	6.69118	-8.12350	13.63447	-12.66958
3295.686	6.95937	-8.06053	13.50823	-12.28147
3299.676	6.43981	-7.71929	13.86404	-12.15688
3303.675	6.88181	-7.73190	12.72105	-12.18041
3307.640	6.81013	-8.66739	12.74244	-12.39960
3311.701	6.54955	-8.27241	13.32909	-12.60049
3315.676	9.73778	-2.88345	13.55032	-12.77744
3319.677	6.93660	-8.26184	13.47538	-12.53862
3323.679	6.44008	-8.15665	13.91802	-12.04349
3327.675	6.93724	-8.19792	13.42794	-12.11349
3331.677	7.01096	-8.61661	12.95586	-12.88412
3335.667	6.98771	-8.51751	13.06381	-12.44496
3339.640	7.10069	-8.34989	13.61164	-11.48629
3343.680	6.74814	-8.21232	13.79639	-11.74378
3347.678	6.52466	-8.32071	11.74416	-10.61825
3351.676	6.65627	-7.80271	12.37368	-10.47761
3355.676	7.25179	-8.31649	12.47863	-12.82273
3359.678	7.16617	-8.23863	13.18245	-12.40250
3363.676	6.65128	-8.16174	12.21127	-11.90136
3367.678	6.80306	-7.66769	14.25422	-11.74278
3371.678	6.63450	-7.38862	12.32516	-10.38204
3375.679	6.79376	-8.04257	12.15493	-12.53801
3379.649	7.11557	-8.17010	13.55935	-12.88814
3383.677	6.78887	-8.32359	13.09181	-12.89315
3387.641	6.88820	-7.97868	13.56380	-12.69724
3391.683	6.60473	-7.79603	13.41488	-12.22901
3395.642	6.54330	-7.65442	13.84315	-12.10149
3399.716	6.64927	-7.67695	13.05894	-9.46838
3403.677	5.70077	-6.90245	12.06264	-9.95961
3407.681	3.91370	-2.87290	11.70354	-6.48775
3411.682	3.16179	-2.63345	9.57199	-5.90345
3415.683	1.10385	0.86790	7.08669	-5.83344
3419.678	0.27739	2.28719	5.81425	-0.22573
3423.690	-0.78905	1.75659	4.09710	-1.66840
3427.681	-2.19182	5.98163	3.64798	3.16389
3431.679	-2.62103	5.84466	2.77864	2.62461
3435.683	-3.17203	6.78527	0.58937	6.20690
3439.682	-3.73843	6.66812	0.59307	9.06075
3443.680	-4.20521	8.69327	1.44361	5.52411
3447.679	-3.98496	8.99255	1.00578	5.84055
3451.679	-4.02198	7.28193	1.10351	5.89237
3455.675	-3.68302	7.28205	0.66010	8.71001
3459.679	-3.84569	7.56075	1.24228	5.68330
3463.676	-3.90212	8.68347	1.04855	5.97113
3467.680	-3.85192	6.63494	1.01754	8.23667
3471.683	-3.96461	7.10116	0.68037	9.27179
3475.681	-3.87215	8.70740	1.29407	4.46501
3479.680	-3.93722	7.29868	0.72608	6.85469
3483.681	-4.10866	7.28096	1.18527	7.35891
3487.647	-3.97242	8.89915	0.84359	5.24059
3491.681	-4.33093	8.95703	1.18445	5.86494
3495.680	-4.65294	7.06714	0.94902	7.46487
3499.679	-4.53845	8.05768	0.72067	9.68667
3503.671	-4.39799	7.23935	0.86907	6.15949
3507.681	-4.18349	8.61763	0.81585	5.65451
3511.679	-4.13219	8.25240	0.74387	7.72377
3515.683	-4.01206	7.33314	0.95931	7.55574
3519.683	-4.11441	7.07272	0.43514	9.89963
3523.681	-4.13436	7.08702	0.17804	6.96967
3527.684	-4.05290	7.29339	0.80084	5.54624
3531.676	-4.01290	7.46857	0.71784	6.37370
3535.682	-3.79470	8.32067	0.89165	6.35151
3539.677	-3.85558	8.66786	0.72754	6.83174
3543.677	-3.83092	9.07804	1.10966	7.85221
3547.672	-3.85745	8.33320	0.77332	7.85757
3551.684	-3.88903	8.28714	0.95435	7.87699
3555.680	-4.14633	7.44648	0.58238	9.67597
3559.680	-4.23187	7.23416	0.84260	9.10312
3563.682	-4.52335	7.36688	0.82449	9.09434
3567.685	-4.18341	7.31310	0.52746	9.80160
3571.682	-3.64578	7.02053	0.76724	7.59359
3575.682	-3.85676	7.05096	0.87605	7.75055
3579.680	-3.80152	6.97333	0.58957	7.76987
3583.685	-3.74965	7.11444	0.36097	8.42302
3587.643	-3.89402	7.50567	1.60690	8.42687
3591.680	-3.98859	7.87786	0.84282	9.01327
3595.647	-4.23345	8.18624	1.19467	7.57049
3599.684	-4.20550	8.11074	0.66938	7.76156
3603.681	-4.28204	9.07946	0.55766	7.57155
3607.681	-4.11619	8.73311	0.96360	7.14721
3611.676	-4.29246	8.93547	0.72623	4.18446
3615.686	-4.29219	9.41604	0.48026	5.29949
3619.685	-4.25277	9.47972	0.48924	7.89898
3623.689	-3.93492	8.98961	0.31337	8.90795
3627.666	-5.30515	8.63299	-0.65136	7.91234
3631.686	-5.46436	8.70624	-3.49948	7.77094
3635.681	-7.44164	8.66674	-3.64943	5.95796
3639.685	-8.38597	8.31384	-4.91873	6.50075
3643.682	-9.72320	6.03030	-5.49908	5.52678
3647.684	-9.80720	5.65020	-7.09006	4.81394
3651.682	-10.15788	5.91240	-8.28262	4.43903
3655.685	-11.47262	4.57416	-8.54841	5.72758
3659.683	-11.81161	3.58333	-8.94900	4.66268
3663.684	-11.54273	3.83208	-9.18487	6.14595
3667.683	-11.60673	6.00796	-9.01234	5.69685
3671.679	-11.22064	4.99271	-8.85785	5.03968
3675.683	-11.40593	5.41354	-9.04720	4.82120
3679.647	-11.60654	5.55278	-9.41965	7.21553
3683.684	-11.77663	5.58065	-9.30261	7.48543
3687.646	-12.11901	6.14624	-9.23553	7.66379
3691.681	-12.15313	5.90692	-9.30590	6.72702
3695.684	-11.81249	5.96366	-9.53069	6.77389
3699.683	-11.93173	5.94700	-9.38409	5.94841
3703.681	-12.23843	6.07976	-9.18059	6.09066
3707.684	-11.68557	6.05019	-9.19953	6.51275
3711.667	-11.65663	5.74476	-9.36631	6.34628
3715.684	-11.88107	5.89111	-9.45257	6.59279
3719.682	-11.98241	5.18864	-9.37977	5.02786
3723.688	-12.07531	4.96718	-9.31801	5.26262
3727.688	-12.25550	3.78799	-9.23529	4.82133
3731.686	-11.76359	3.58497	-9.16492	4.55023
3735.683	-9.86488	11.13994	-9.16583	5.45405
3739.686	-12.11235	6.09631	-9.03616	4.88935
3743.685	-12.01378	6.37431	-8.84431	5.03514
3747.687	-12.05058	6.28655	-9.09367	4.16731
3751.675	-12.03432	5.57541	-9.03413	4.26446
3755.675	-11.54973	5.73936	-9.10497	4.12398
3759.688	-12.11413	5.18609	-8.91977	4.53210
3763.686	-12.04752	4.21894	-8.76901	3.38924
3767.684	-11.63116	3.54314	-8.82943	4.05703
3771.683	-11.74356	7.50438	-9.07167	4.88091
3775.689	-11.78471	7.60674	-8.90187	6.58868
3779.687	-12.02525	4.94381	-8.99566	5.40652
3783.684	-12.10995	4.49674	-8.91032	7.32001
3787.688	-11.67275	4.79504	-9.23899	7.15817
3791.690	-11.47927	4.68590	-9.08522	5.62614
3795.661	-11.74316	5.51550	-9.00014	5.48732
3799.684	-11.86785	6.29340	-8.73339	4.38759
3803.682	-11.65561	6.45583	-8.88671	3.84966
3807.688	-11.80000	4.67221	-8.75994	4.16244
3811.686	-11.68236	4.65996	-8.95111	6.09173
3815.682	-11.95850	5.34333	-8.87021	7.15430
3819.686	-11.73521	6.46835	-8.94234	7.04442
3823.584	-11.65454	6.07736	-8.83238	6.59898
3827.685	-11.91750	5.61639	-8.74013	5.44056
3831.690	-11.94458	5.01530	-8.74314	4.94335
3835.649	-11.65080	4.31931	-8.74522	4.32523
3839.689	-11.95855	5.60538	-8.76913	3.95974
3843.685	-12.05765	6.90751	-8.78425	4.93025
3847.686	-11.89286	6.08146	-8.93103	7.36849
3851.688	-12.19192	5.48039	-8.96428	7.14991
3855.700	-11.85780	6.05309	-9.06765	7.10416
3859.684	-11.79667	5.51306	-9.04115	7.36126
3863.686	-12.87107	6.94937	-6.99932	7.86279
3867.688	-18.13672	7.74540	-14.66471	12.11831
3871.583	-7.67886	-2.40320	NaN	NaN
3875.560	-19.95757	-12.08011	NaN	NaN
3879.560	-19.97564	-12.07877	NaN	NaN
3883.535	-19.98178	-12.07831	NaN	NaN
3887.525	-19.98489	-12.07808	NaN	NaN
3891.557	-19.98680	-12.07794	NaN	NaN
3895.559	-19.98807	-12.07784	NaN	NaN
3899.552	-19.98899	-12.07778	NaN	NaN
3903.562	-19.98969	-12.07772	NaN	NaN
3907.524	-19.99026	-12.07768	NaN	NaN
3911.560	NaN	NaN	NaN	NaN
3915.558	NaN	NaN	NaN	NaN
3919.565	NaN	NaN	NaN	NaN
3923.528	NaN	NaN	NaN	NaN
3927.553	NaN	NaN	NaN	NaN
3931.559	NaN	NaN	NaN	NaN
3935.560	NaN	NaN	NaN	NaN
3939.528	NaN	NaN	NaN	NaN
3943.563	NaN	NaN	NaN	NaN
3947.561	NaN	NaN	NaN	NaN
3951.563	NaN	NaN	NaN	NaN
3955.565	NaN	NaN	NaN	NaN
3959.566	NaN	NaN	NaN	NaN
3963.557	-21.29157	-7.96711	NaN	NaN
3967.529	-16.36443	3.85430	NaN	NaN
3971.593	-20.03682	5.19548	NaN	NaN
3975.566	-20.66985	5.76996	NaN	NaN
3979.562	-20.31030	6.63169	NaN	NaN
3983.561	-21.02557	5.67888	NaN	NaN
3987.556	-16.32842	6.68114	-20.02620	14.24464
3991.561	-17.68025	5.91532	-19.96810	14.20805
3995.560	-17.79214	6.23739	-17.76064	13.43558
3999.563	-17.47545	6.57954	-17.16049	10.65709
4003.588	-17.64947	5.84828	-15.29494	10.70799
4007.543	-18.06784	6.13978	-15.30044	10.76315
4011.564	-17.23077	6.73590	-15.41268	8.17783
4015.560	-17.10963	6.91423	-15.38323	10.51198
4019.588	-17.10610	7.08775	-15.31833	8.11450
4023.525	-17.21497	6.89710	-15.31754	7.32382
4027.567	-17.01210	6.43256	-14.95132	7.20685
4031.565	-16.98001	6.95202	-15.17429	7.50389
4035.591	-17.16040	6.48406	-15.04554	7.59852
4039.564	-17.17816	6.54126	-14.98604	6.94221
4043.563	-17.23727	6.30414	-14.96626	6.70503
4047.561	-17.05709	6.21832	-15.04427	8.22403
4051.555	-16.94225	6.34594	-15.12166	7.40673
4055.566	-17.06723	6.42655	-15.17411	7.06116
4059.563	-17.07340	5.81055	-15.06304	8.43753
4063.563	-17.10335	6.05008	-15.10788	7.25916
4067.556	-17.02399	5.93313	-14.97069	7.16067
4071.563	-17.02418	5.98669	-15.17115	7.18460
4075.562	-17.20686	5.34473	-15.07230	6.92938
4079.565	-17.21542	5.39227	-15.12657	6.96169
4083.588	-17.34856	5.77563	-15.28677	7.30161
4087.564	-17.22246	5.19340	-14.97701	7.55520
4091.547	-17.20681	5.07867	-15.21663	8.21947
4095.579	-17.33049	4.89488	-15.35494	7.79931
4099.585	-17.23647	5.49909	-15.13727	8.39249
4103.564	-17.28276	5.22489	-14.83928	8.61286
4107.563	-17.23310	5.52666	-14.95741	8.20453
4111.555	-17.19309	5.85772	-15.18331	8.04849
4115.588	-17.56146	5.72186	-15.28055	7.97548
4119.563	-17.30493	6.15133	-14.93277	7.98330
4123.564	-17.24634	6.14698	-15.27333	7.83194
4127.566	-17.31391	6.16362	-15.19785	7.83808
4131.579	-17.29197	6.29772	-15.29323	7.87556
4135.555	-17.32183	6.18995	-15.07375	8.17843
4139.567	-17.40227	6.14042	-14.95431	9.22250
4143.527	-17.11614	6.34783	-14.90737	9.04239
4147.588	-17.17553	5.70505	-15.09081	9.19365
4151.565	-16.89178	6.24643	-15.00144	8.10174
4155.564	-17.01651	6.38790	-14.32717	7.26868
4159.564	-16.50936	6.10011	-14.09135	7.36391
4163.592	-15.77439	5.65467	-12.34517	6.47871
4167.566	-15.33470	4.76329	-12.03662	4.68489
4171.564	-14.86377	4.42355	-11.23220	7.27939
4175.532	-14.70850	4.11463	-10.93210	6.53938
4179.591	-14.63704	3.93012	-11.16519	6.51691
4183.566	-14.49539	4.15024	-11.24956	6.18784
4187.566	-14.35437	4.24811	-11.37650	6.31112
4191.568	-14.26872	3.94589	-11.66082	6.56247
4195.589	-14.44902	3.91044	-11.06559	4.54909
4199.565	-14.49009	4.03583	-11.11884	4.44251
4203.565	-14.54853	4.20894	-11.08141	4.23941
4207.564	-14.72239	4.14004	-10.78513	4.78029
4211.592	-14.62663	4.45496	-10.59390	4.22579
4215.569	-14.64076	4.15883	-10.77179	5.28976
4219.566	-14.75159	4.83340	-10.68619	5.34667
4223.567	-14.73425	4.19521	-10.62538	4.55925
4227.592	-14.86200	3.48367	-10.48979	4.14466
4231.567	-14.88292	3.91953	-10.58908	4.10855
4235.566	-14.89288	3.23385	-10.64523	4.03371
4239.567	-14.87179	3.32587	-10.81183	4.15552
4243.588	-14.82581	3.50515	-10.83553	4.40876
4247.568	-14.78171	3.68351	-10.98327	4.58029
4251.568	-14.72587	3.90021	-11.19449	5.46109
4255.563	-14.77846	3.97369	-11.28515	5.66131
4259.589	-14.71259	4.19734	-10.96734	5.57098
4263.566	-14.49297	4.21241	-10.98805	6.05683
4267.567	-14.56244	4.52526	-11.14027	5.93755
4271.569	-14.57225	4.58163	-11.00266	5.95868
4275.570	-14.55672	4.97540	-10.92088	5.11095
4279.570	-14.55249	4.99254	-11.05450	5.84956
4283.569	-14.57559	3.54861	-11.00154	4.66790
4287.531	-14.61824	3.41056	-10.91093	4.36229
4291.573	-14.59540	3.01821	-11.16973	4.46461
4295.568	-14.65049	3.05529	-11.15061	4.16997
4299.544	-14.46549	3.84553	-10.97011	4.10645
4303.584	-14.55741	4.32274	-11.25977	4.27731
4307.568	-14.61775	4.72770	-11.61432	4.55341
4311.568	-14.69817	5.10136	-11.24956	5.11593
4315.570	-14.55621	4.61952	-11.07083	4.28370
4319.566	-14.53235	3.04357	-11.14321	4.42154
4323.594	-14.34990	3.59847	-11.26598	4.88658
4327.572	-14.17376	4.51983	-11.10249	4.18970
4331.567	-14.31135	4.69768	-10.66335	4.63274
4335.573	-14.65040	4.70131	-10.81020	5.14916
4339.534	-14.33266	4.91964	-10.89595	5.58887
4343.560	-14.64315	2.60911	-11.25634	4.36925
4347.569	-14.37082	3.40393	-11.06296	4.62131
4351.568	-14.38337	4.55411	-10.76242	4.01498
4355.569	-14.39625	4.47946	-11.06148	4.20249
4359.567	-14.50725	4.97228	-11.22463	5.39180
4363.567	-14.49886	5.08868	-11.73566	5.69510
4367.571	-14.64173	4.86029	-11.60096	5.93077
4371.570	-14.45919	2.77102	-11.05878	4.89499
4375.567	-14.48036	2.68162	-11.12742	5.02847
4379.568	-14.39727	3.14191	-11.29209	5.72625
4383.535	-14.46217	3.10168	-10.94083	5.43173
4387.571	-14.42937	3.79332	-10.72834	4.24889
4391.569	-14.47522	4.33465	-10.57896	3.80269
4395.532	-14.70542	3.99702	-10.66929	4.68490
4399.571	-14.57866	4.34822	-10.76657	5.07044
4403.571	-14.39364	4.55108	-11.02787	4.58859
4407.569	-14.49323	4.34607	-10.82426	4.55118
4411.567	-14.44062	4.48208	-10.78685	4.87389
4415.569	-14.54974	4.64482	-11.09107	4.94115
4419.576	-14.42858	4.71297	-11.17797	4.88027
4423.630	-14.40540	5.04341	-11.14273	5.06829
4427.574	-14.42423	4.90935	-11.52969	4.95801
4431.571	-14.41760	4.96701	-11.43522	4.98245
4435.573	-14.38204	5.24798	-11.44854	5.05272
4439.569	-14.32931	5.15215	-11.45996	5.26457
4443.571	-14.26949	5.30999	-11.57960	5.27161
4447.571	-14.26732	5.54460	-11.49076	5.18930
4451.571	-14.18442	5.70417	-11.46866	5.34000
4455.571	-14.27049	5.60073	-11.44344	5.30597
4459.569	-14.32861	5.63854	-11.36913	5.35962
4463.568	-14.35053	5.67652	-11.35616	5.37486
4467.573	-14.32752	5.61577	-11.19937	5.35368
4471.569	-14.35358	5.57490	-10.64125	5.28457
4475.569	-14.24200	5.52888	-10.48207	5.12258
4479.570	-12.64737	5.67410	-9.84857	4.01713
4483.575	-10.50712	5.56838	-8.73936	5.38059
4487.570	-9.43240	5.80769	-7.10829	7.00917
4491.573	-8.63806	5.64815	-5.07929	7.26888
4495.572	-6.80788	5.44777	-4.39506	6.29216
4499.572	-6.17322	5.14092	-1.19827	5.86124
4503.574	-4.29268	4.92071	-0.42569	5.74443
4507.551	-3.22943	5.15793	0.55503	5.80962
4511.571	-2.24267	5.11895	2.08627	5.79658
4515.572	-1.04910	4.11351	2.96047	6.39701
4519.567	-1.40053	4.89909	3.51659	5.29988
4523.569	-1.27544	4.73902	4.71006	3.11030
4527.540	-1.20723	4.93951	3.50076	4.54486
4531.570	-1.02548	4.77381	3.72598	3.91178
4535.571	-0.93986	4.61477	3.78304	4.29849
4539.569	-0.87557	4.76357	3.85812	4.84277
4543.571	-1.19413	5.17288	4.77333	4.63512
4547.568	-1.37722	5.17584	4.58229	4.65570
4551.563	-0.92445	5.56885	1.99964	6.28630
4555.570	-1.10770	5.62679	2.85418	4.55250
4559.571	-1.04176	5.13327	4.24014	3.33657
4563.573	-1.10571	5.32347	3.70037	4.57045
4567.571	-1.24307	5.42442	4.17768	4.77496
4571.570	-0.99849	5.61335	4.15623	8.13135
4575.573	-1.09519	4.85146	1.63611	5.16931
4579.575	-0.96651	4.76836	2.88675	4.48322
4583.572	-1.04265	3.35610	4.25366	4.58183
4587.534	-1.12596	4.53778	4.01038	5.26944
4591.534	-1.00615	4.37973	3.89767	5.94219
4595.573	-0.91743	4.53723	1.59395	6.60866
4599.535	-0.92346	4.36109	4.14912	7.69713
4603.572	-0.94515	4.58988	4.06488	7.57003
4607.572	-1.10844	4.93638	4.32873	5.90105
4611.565	-0.87801	4.89659	3.91225	5.89936
4615.572	-0.95271	5.02100	4.10994	6.09399
4619.572	-0.76444	4.88193	4.35590	6.34110
4623.576	-1.03784	5.26819	3.88473	6.74440
4627.580	-0.85188	4.95212	4.05698	6.01936
4631.571	-1.57034	5.38996	3.49448	5.37502
4635.574	-1.38619	5.83645	1.95125	5.87998
4639.573	-1.14479	5.79303	3.36977	4.69369
4643.575	-1.14533	5.80168	4.12115	4.91020
4647.573	-1.27906	5.53106	4.34226	5.74540
4651.575	-1.20698	5.75075	4.89614	4.97995
4655.573	-1.02625	5.81088	4.43122	1.98234
4659.575	-1.43944	6.06891	4.51041	2.83536
4663.573	-1.22047	6.02719	5.92282	1.14501
4667.573	-1.19304	6.14403	3.26688	4.05029
4671.570	-1.23627	5.99394	4.38771	3.35252
4675.570	-1.35038	6.12362	4.41373	5.74407
4679.575	-1.14471	5.99050	4.03648	6.31735
4683.574	-1.35596	5.73765	4.04347	6.37288
4687.537	-1.52275	5.65289	4.33841	5.32233
4691.574	-1.34686	5.47176	4.81919	4.45143
4695.573	-1.48481	5.29716	3.76102	4.36807
4699.575	-1.37191	5.01493	3.67727	3.60844
4703.572	-1.17520	4.58127	4.10318	3.69608
4707.579	-1.25525	5.07879	4.05466	4.10238
4711.575	-1.15853	5.39876	3.97454	4.34995
4715.545	-1.35807	5.82106	4.21876	6.83767
4719.575	-1.35137	5.93196	3.80013	6.87521
4723.476	-1.39815	6.28431	4.16547	6.09641
4727.572	-3.14261	12.26891	4.49716	6.99153
4731.578	NaN	NaN	17.68606	7.15923
4735.573	NaN	NaN	NaN	NaN
4739.577	NaN	NaN	NaN	NaN
4743.573	NaN	NaN	NaN	NaN
4747.569	NaN	NaN	NaN	NaN
4751.575	NaN	NaN	NaN	NaN
4755.560	NaN	NaN	NaN	NaN
4759.571	NaN	NaN	NaN	NaN
4763.571	NaN	NaN	NaN	NaN
4767.571	NaN	NaN	NaN	NaN
4771.572	NaN	NaN	NaN	NaN
4775.573	NaN	NaN	NaN	NaN
4779.576	NaN	NaN	NaN	NaN
4783.573	NaN	NaN	NaN	NaN
4787.574	NaN	NaN	NaN	NaN
4791.573	NaN	NaN	NaN	NaN
4795.571	NaN	NaN	NaN	NaN
4799.839	NaN	NaN	NaN	NaN
4807.576	NaN	NaN	NaN	NaN
4811.531	NaN	NaN	NaN	NaN
4815.574	NaN	NaN	NaN	NaN
4819.577	NaN	NaN	NaN	NaN
4823.576	NaN	NaN	NaN	NaN
4827.539	NaN	NaN	NaN	NaN
4831.575	NaN	NaN	NaN	NaN
4835.574	NaN	NaN	NaN	NaN
4839.558	NaN	NaN	NaN	NaN
4843.576	NaN	NaN	NaN	NaN
4847.576	NaN	NaN	NaN	NaN
4851.575	NaN	NaN	NaN	NaN
4855.475	NaN	NaN	-8.22650	10.22056
4859.576	NaN	NaN	-2.51542	5.88798
4863.578	NaN	NaN	-0.39968	6.78604
4867.574	NaN	NaN	0.95762	5.51662
4871.574	NaN	NaN	0.28746	5.77292
4875.576	NaN	NaN	-0.20544	6.12871
4879.573	NaN	NaN	-2.15167	6.17620
4883.478	-2.39349	10.49435	-1.93717	6.53757
4887.578	-9.69851	8.08977	-1.80861	6.04109
4891.579	-0.27580	7.59811	-1.85752	6.55782
4895.578	-0.04557	7.71740	-1.83290	6.51398
4899.447	0.05703	7.14368	-2.04552	6.32709
4903.454	-1.68821	6.14089	-2.00460	5.76061
4907.454	-1.38170	6.08090	-1.95363	6.55332
4911.449	-1.02546	6.25964	-2.24909	6.34330
4915.476	-0.62345	6.21759	-2.28871	6.31230
4919.451	-0.47306	6.10992	-2.22337	6.09284
4923.453	-9.59764	5.75844	-0.83141	6.17340
4927.437	-8.98375	5.68877	-0.88761	6.73188
4931.458	-8.76978	5.34671	-1.87094	6.51301
4935.453	-6.98832	5.26179	-1.63197	6.42766
4939.451	-6.86033	5.51838	-2.13395	6.38269
4943.455	-7.24339	5.87819	-2.88869	6.80560
4947.444	-1.26478	7.81993	-3.05773	6.89603
4951.451	-7.38410	5.87710	-2.98185	6.95434
4955.453	-7.27753	5.28046	-2.87264	6.57844
4959.452	-7.38849	6.24264	-2.55715	7.15957
4963.452	-2.58526	8.84536	-2.56456	6.11848
4967.454	-7.55749	8.75927	-2.98034	6.75117
4971.418	-7.69378	8.33305	-2.76282	6.80570
4975.455	-7.28366	8.73987	-3.00772	6.49036
4979.446	-7.44679	5.73090	-3.08263	6.48281
4983.465	-7.40452	5.96294	-3.06221	5.80089
4987.452	-7.37785	5.83963	-2.72085	-0.98168
4991.453	-7.23384	5.35136	-2.39319	-0.93810
4995.444	-6.92687	5.43810	-6.22804	-1.04724
4999.454	-6.50114	5.42974	-3.14659	4.68339
5003.453	-7.44708	5.37616	-4.89454	5.26420
5007.457	-6.33919	5.28552	-2.84088	4.84273
5011.466	-2.95634	5.01379	-1.63455	4.92467
5015.454	-3.04147	4.87424	-0.90989	4.89899
5019.457	-3.46155	4.82297	0.49565	3.61360
5023.416	-3.07300	4.65372	0.71967	2.23685
5027.475	-2.98668	4.47423	0.84195	2.40923
5031.458	-3.06110	3.48534	1.00908	2.34429
5035.452	-2.97002	3.36202	1.43954	2.29738
5039.453	-2.71134	2.29061	1.90230	2.42327
5043.478	-2.66669	3.31048	1.78595	2.53647
5047.454	-2.66253	3.05534	2.04651	2.47657
5051.452	-2.89688	3.00845	2.03318	2.53256
5055.444	-3.18937	3.15637	1.81344	2.09905
5059.477	-2.90849	3.43581	1.89221	2.12714
5063.454	-2.92792	2.69628	2.12156	1.77657
5067.455	-2.82130	2.64799	2.32602	1.76124
5071.455	-2.61536	2.61480	2.34654	1.30552
5075.447	-2.55329	2.35135	2.26259	1.43491
5079.457	-2.26130	2.55201	1.81778	1.37132
5083.419	-2.26626	2.22025	1.79547	1.27961
5087.418	-2.05690	1.97053	1.05364	1.50995
5091.473	-2.64515	2.76318	1.33927	1.28885
5095.427	-2.32523	3.00999	1.12100	1.08545
5099.454	-2.62397	3.55185	1.18123	1.02664
5103.455	-2.37389	3.05675	1.36737	0.61594
5107.453	-2.47655	2.26582	1.10177	0.76954
5111.445	-2.56590	2.94169	1.11214	0.92096
5115.453	0.66506	2.08607	1.00089	0.69521
5119.454	0.70816	2.40375	0.94983	0.94823
5123.478	0.79039	7.72319	0.94586	1.26271
5127.453	1.35779	7.61374	1.07230	0.96386
5131.462	1.53644	7.72820	1.29360	1.13648
5135.437	1.59219	7.61072	1.29529	1.14140
5139.481	-2.80998	2.00076	1.39703	0.68359
5143.418	-2.73838	1.32681	1.66386	0.84453
5147.454	-2.76408	1.47400	2.09938	0.91929
5151.458	-2.71523	1.64153	1.97089	1.09318
5155.476	-2.75707	1.31639	1.08428	1.25170
5159.455	-2.51524	1.56333	1.38317	1.16781
5163.459	-3.33139	2.65195	1.83935	1.19520
5167.456	-3.37331	2.43382	1.43434	1.29359
5171.416	-3.21864	1.92351	1.59100	1.29132
5175.456	-2.99549	2.52896	1.27428	1.17166
5179.423	-3.21807	2.67520	1.47062	1.54076
5183.458	-3.22354	2.84969	1.08745	1.42169
5187.482	-3.48573	2.74809	1.16749	1.60125
5191.468	-3.42431	3.04786	1.00672	1.75172
5195.455	-3.50168	2.77178	1.05615	2.16364
5199.454	-3.32709	2.88706	1.22392	1.92427
5203.451	-3.34282	2.96408	1.18004	1.89204
5207.457	-3.17453	2.89078	1.19033	1.85598
5211.457	-3.23692	2.97442	1.23684	1.97010
5215.458	-3.21535	3.05256	1.37478	2.08906
5219.482	-2.93369	3.05144	1.37335	1.56776
5223.457	-3.04152	3.08338	1.35385	1.85365
5227.459	-2.91195	3.06563	1.46990	2.01060
5231.464	-2.92948	3.00490	1.64471	1.92782
5235.479	-2.97775	3.01581	1.69284	1.88053
5239.454	-2.93450	2.98665	1.50909	1.91015
5243.457	-3.10386	2.42734	1.33051	1.93978
5247.461	-3.14333	2.01121	1.23226	1.94077
5251.456	-3.16005	2.60266	1.68488	1.90731
5255.455	-3.15424	1.82177	1.50410	1.11334
5259.449	-3.12227	2.28744	1.31277	1.29445
5263.455	-3.08983	2.44580	1.51360	0.87337
5267.481	-3.17148	2.41284	1.23811	0.29305
5271.419	-3.02992	2.26363	1.01156	-0.11961
5275.460	-2.81501	2.30842	1.01109	-0.33889
5279.457	-2.67370	2.19040	1.16553	-0.24936
5283.484	-2.84383	2.19487	1.63886	-0.04551
5287.460	-2.99816	2.11119	1.41373	0.11921
5291.423	-2.52077	2.14595	1.18150	0.01200
5295.460	-2.92344	2.19021	1.37488	-0.16391
5299.492	-2.88925	2.24031	1.53471	-0.23166
5303.456	-2.76064	2.33537	1.87344	0.02933
5307.457	-3.14298	2.42715	1.57543	-0.19859
5311.459	-2.82160	3.20966	1.50958	-0.29138
5315.459	-2.48609	2.59445	1.96638	-0.71619
5319.458	-1.52580	2.65123	2.46999	0.54231
5323.456	1.31354	2.95935	4.40762	1.67176
5327.457	1.72346	2.73246	7.27726	2.17029
5331.481	1.90596	3.00303	6.89693	2.48309
5335.459	2.33011	2.61452	6.94853	2.94804
5339.457	2.20711	2.66039	6.91038	2.26311
5343.457	2.61459	2.69516	7.25619	1.37741
5347.458	2.86542	2.98819	7.37826	1.56324
5351.460	2.53238	2.93050	7.60236	1.53083
5355.460	2.84237	2.51209	7.33344	2.07748
5359.459	3.15506	2.57259	7.62358	1.69473
5363.456	2.84875	2.30912	7.44084	2.67761
5367.459	3.18311	2.12653	7.52237	0.74692
5371.457	3.02351	1.85315	7.57683	0.12264
5375.460	2.93205	1.87891	7.61312	-0.23527
5379.462	3.03997	1.77276	7.87652	0.39696
5383.460	3.21807	1.44904	8.06786	0.02859
5387.426	3.17354	1.17804	8.21563	0.31015
5391.422	3.10171	1.28801	8.15800	-0.25301
5395.464	3.09854	1.40894	8.91786	-1.07491
5399.460	3.00336	1.35539	7.65829	-1.72675
5403.459	2.90225	1.35413	7.82260	-2.04107
5407.462	2.88921	1.56602	7.54269	-1.92891
5411.459	2.91859	1.57183	7.87492	-2.03757
5415.458	2.90643	1.76843	8.11887	-1.30911
5419.461	2.85650	2.46759	8.12695	-1.48652
5423.460	2.78986	2.81096	8.32716	-1.43881
5427.454	2.73137	3.20139	8.23461	-1.23334
5431.458	2.65924	2.32832	8.60664	-1.35526
5435.462	2.66892	2.80889	8.48639	-1.26124
5439.458	2.57645	2.80174	6.71542	-1.26258
5443.461	2.77772	2.39913	6.82263	-1.08569
5447.459	2.97393	1.70235	7.13514	0.20374
5451.460	2.73234	1.87968	6.90407	1.07076
5455.458	2.78793	2.39916	8.05905	-0.05135
5459.461	2.60490	1.21882	8.11933	0.41842
5463.458	2.66578	1.37226	8.61390	-0.03648
5467.451	2.69557	1.57751	8.20768	-0.14604
5471.452	2.64599	1.33475	8.39853	0.27781
5475.455	2.52862	1.68637	8.45261	1.19976
5479.460	2.76039	1.48124	7.78304	0.17406
5483.424	3.31932	1.61196	7.49986	0.43648
5487.462	2.65916	1.86787	7.39059	-1.40731
5491.465	2.59222	2.79814	7.64462	-1.46041
5495.459	2.49984	3.74851	8.38204	-1.36448
5499.458	2.65996	3.32096	8.08197	-0.30224
5503.463	2.51242	3.19396	8.21981	-1.12424
5507.457	2.55383	3.06421	8.03258	-1.88136
5511.436	2.73885	3.17631	8.55806	-1.85951
5515.473	2.88257	2.67390	9.41252	-2.10912
5519.462	3.11386	0.92540	8.50496	-2.32515
5523.466	2.81679	1.66633	7.99330	-1.76207
5527.460	2.91349	1.59555	6.69948	-1.65484
5531.459	2.99123	1.20909	6.57869	-1.73173
5535.465	3.07095	1.01219	7.28964	-1.13907
5539.460	2.89861	0.86197	6.66866	-0.39111
5543.460	2.83294	0.08352	6.29423	-0.51541
5547.462	3.00235	0.93733	6.91493	0.04818
5551.424	2.99460	0.60743	6.68430	0.41242
5555.462	3.07184	0.99182	7.16823	0.49356
5559.460	2.93143	1.07538	7.74052	0.59075
5563.461	2.87618	1.42016	7.19542	0.64094
5567.464	2.94423	1.51136	7.42222	0.87412
5571.453	2.40825	2.22541	7.78940	1.29921
5575.461	2.46080	2.45780	8.19394	1.07197
5579.460	2.61976	2.30959	8.52945	1.23494
5583.461	2.90888	1.60101	7.57634	0.58965
5587.457	1.38617	2.31795	7.28613	-0.71312
5591.464	0.33027	2.08300	5.08387	0.38045
5595.458	-0.34466	2.25770	2.60835	0.85957
5599.462	-2.07697	2.48285	2.50729	-1.58231
5603.468	-2.72325	2.47711	2.28745	-1.26120
5607.461	-2.99423	2.97339	0.87270	-1.82357
5611.463	-3.36940	2.58152	-0.70652	-0.68888
5615.463	-3.56771	2.94359	-0.60776	-0.84625
5619.429	-3.71362	2.98029	-0.35782	-0.36569
5623.461	-3.73831	3.21258	-0.53352	-0.03066
5627.461	-3.67114	3.38895	-0.46425	-0.27303
5631.464	-3.73282	3.44285	-0.47999	0.41138
5635.473	-3.86961	3.30726	-0.40296	0.78526
5639.462	-3.96886	3.59149	-0.62841	0.81666
5643.461	-4.05283	3.55784	-0.20584	0.28380
5647.426	-4.06624	3.74633	-0.54143	0.72190
5651.465	-4.02954	3.67733	-0.49969	0.73537
5655.462	-4.07792	3.90607	-0.25696	0.14708
5659.462	-3.98025	3.93869	-0.42966	0.28913
5663.462	-3.99450	4.17659	-0.32067	0.54690
5667.468	-4.06093	3.61987	-0.18489	0.46772
5671.463	-4.09589	3.35909	-0.11148	0.94848
5675.457	-4.10034	2.62345	-0.17199	1.00365
5679.454	-4.03078	1.42086	-0.17923	0.06115
5683.465	-3.92729	1.45416	-0.03303	-0.89542
5687.427	-3.83517	1.94671	0.01219	-2.91715
5691.444	-3.87601	2.11227	0.23080	-1.57297
5695.467	-3.91882	1.98893	-0.05969	-2.65368
5699.468	-3.96647	2.53202	0.12337	-1.50774
5703.462	-3.95056	1.96219	0.10163	-1.05120
5707.463	-3.91077	2.39580	0.17648	-0.54495
5711.463	-3.75541	2.30373	0.13523	-0.75433
5715.468	-3.78691	2.55859	0.15769	1.50933
5719.440	-3.79579	2.62998	0.26795	1.78367
5723.468	-3.82650	1.72825	0.26656	-0.61287
5727.476	-4.08624	1.68635	0.24455	-2.54455
5731.466	-3.99689	1.53903	0.22016	-2.72509
5735.466	-3.85286	1.80002	0.12565	-1.36681
5739.462	-3.86178	2.16182	0.08326	-1.27030
5743.462	-3.91049	2.95540	0.05318	-0.73197
5747.467	-3.78990	2.99054	0.11607	-0.54351
5751.463	-3.98225	3.09593	0.14449	-0.05362
5755.467	-3.97491	3.33350	0.12811	0.07614
5759.450	-3.92215	3.32116	0.16387	-0.22955
5763.466	-3.89209	1.44699	0.29329	0.35807
5767.464	-3.96876	1.34714	1.07674	0.76252
5771.466	-3.90214	1.48654	0.44520	0.97379
5775.461	-3.82506	1.99324	0.14082	-1.32144
5779.467	-3.85019	1.61640	0.39596	-1.69656
5783.464	-4.05115	2.98723	0.49396	-1.84539
5787.468	-3.99645	3.13047	0.26915	-2.57321
5791.465	-4.06021	3.28286	0.09662	-2.59545
5795.469	-4.00648	3.13261	0.05403	-1.73675
5799.465	-3.96061	3.55446	0.07212	-1.48443
5803.432	-3.97150	3.30125	-0.04234	-1.55326
5807.467	-4.08350	3.18717	-0.01566	-1.36729
5811.468	-4.12194	2.56995	0.08947	-1.05127
5815.463	-4.13228	2.96241	-0.08326	-0.94222
5819.468	-4.09742	2.57095	-0.17444	-0.49096
5823.466	-4.16260	2.69835	-0.04718	-0.38697
5827.468	-4.08298	1.89319	-0.06264	-0.53347
5831.467	-3.97993	1.60265	-0.05455	-0.37619
5835.472	-3.93589	2.39793	0.02705	-0.18229
5839.465	-3.84421	1.92710	0.10262	0.11796
5843.450	-3.87727	2.17896	0.42291	0.11048
5847.466	-3.84090	2.27110	0.25808	0.16838
5851.466	-3.76650	2.23997	0.54218	0.52304
5855.464	-3.77407	2.09404	0.43552	0.74094
5859.470	-3.82361	2.82844	-0.02067	1.01337
5863.464	-3.86815	2.24248	0.09200	0.55017
5867.465	-3.83621	2.76770	0.42705	0.64355
5871.465	-3.83675	2.60103	0.26773	0.39000
5875.469	-3.94624	2.99426	0.13689	-0.03375
5879.466	-4.02270	2.38706	0.10476	-1.21405
5883.455	-3.92670	1.51697	0.09274	-1.79017
5887.467	-3.99326	2.42689	-0.01693	-0.99300
5891.438	-3.92339	2.34607	-0.17524	-0.50067
5895.467	-4.00902	2.88078	-0.24738	0.41191
5899.433	-4.06382	3.38084	-0.21164	0.77452
5903.466	-3.96824	3.52719	-0.13213	0.70752
5907.468	-3.75474	3.81635	-0.21931	2.11682
5911.467	-3.63072	3.06912	-0.21192	2.41342
5915.465	-3.67729	2.59841	-0.08225	1.22093
5919.467	-5.30764	3.07120	-0.02703	1.26037
5923.334	-7.67711	3.84679	0.44778	4.62256
5927.469	NaN	NaN	0.45641	6.23217
5931.344	NaN	NaN	11.49100	4.71475
5935.344	NaN	NaN	NaN	NaN
5939.370	NaN	NaN	NaN	NaN
5943.304	NaN	NaN	NaN	NaN
5947.343	NaN	NaN	NaN	NaN
5951.342	NaN	NaN	NaN	NaN
5955.470	NaN	NaN	NaN	NaN
5959.346	NaN	NaN	NaN	NaN
5963.343	NaN	NaN	NaN	NaN
5967.343	NaN	NaN	NaN	NaN
5971.339	NaN	NaN	NaN	NaN
5975.337	NaN	NaN	NaN	NaN
5979.304	NaN	NaN	NaN	NaN
5983.340	NaN	NaN	NaN	NaN
5987.343	NaN	NaN	NaN	NaN
5991.306	NaN	NaN	NaN	NaN
5995.344	NaN	NaN	NaN	NaN
5999.342	NaN	NaN	NaN	NaN
6003.344	NaN	NaN	NaN	NaN
6007.344	NaN	NaN	-19.89372	5.72202
6011.371	NaN	NaN	21.07490	5.97185
6015.317	NaN	NaN	-19.94887	-12.08076
6019.344	NaN	NaN	17.90950	1.71543
6023.341	NaN	NaN	16.57828	0.04859
6027.367	NaN	NaN	8.24952	0.44518
6031.345	NaN	NaN	18.57887	1.75355
6035.345	11.65254	-0.11258	18.56812	0.09799
6039.346	10.94021	2.13541	18.23338	-2.01556
6043.346	-4.30786	-1.15908	16.38465	-1.73833
6047.344	-4.07913	-0.36339	10.73655	1.34329
6051.347	-4.50461	-0.15671	8.94280	0.22387
6055.343	7.92953	2.28677	8.82768	0.94400
6059.345	0.70605	2.92491	8.44239	0.21289
6063.317	0.73719	2.18598	6.06944	0.90297
6067.343	0.73717	1.63353	6.67062	0.04504
6071.340	1.30422	1.49336	7.33015	-0.93344
6075.344	1.87312	1.37266	8.44047	-2.37609
6079.339	1.62892	1.23503	6.79995	-2.02793
6083.343	1.87488	1.50893	7.67523	-1.73980
6087.345	2.09727	3.70936	7.78099	-2.12539
6091.345	1.87242	3.67177	8.27054	-1.70078
6095.312	1.90373	3.04338	7.70784	-1.94192
6099.343	2.00953	3.23722	7.89323	-1.89690
6103.348	1.62582	3.42523	7.67314	-1.69311
6107.344	1.82105	3.54363	7.76879	-1.81542
6111.367	1.88787	3.73955	7.71240	-1.84284
6115.346	1.78448	3.16856	7.14519	-1.62214
6119.346	1.79810	3.59551	6.61342	-1.77935
6123.346	1.78575	3.61458	7.37221	-1.66227
6127.344	1.66847	3.56995	6.70754	-1.81518
6131.347	1.59980	3.68501	6.40638	-1.66124
6135.346	1.53964	3.33371	5.94637	-1.66911
6139.331	1.53409	3.31495	5.94573	-1.69802
6143.323	1.39763	3.39737	5.97686	-1.72687
6147.343	1.36536	3.43027	6.15625	-3.81779
6151.357	1.36997	3.49711	5.93215	-2.82229
6155.348	1.35827	2.60596	6.19922	-2.60984
6159.368	1.28807	2.46250	5.94197	-2.07777
6163.348	1.23590	1.79330	5.92174	-2.55989
6167.348	1.36417	1.23610	5.78482	-2.52186
6171.345	1.51673	1.31246	5.87437	-2.29553
6175.337	1.44741	1.53750	5.93475	-2.30814
6179.342	1.68339	1.68991	5.77679	-1.88911
6183.341	1.68456	1.68542	5.99146	-2.33610
6187.347	1.74486	1.86058	6.01301	-2.07410
6191.369	1.79589	1.87998	5.84353	-1.58230
6195.345	1.86856	1.76282	5.81914	-1.77327
6199.345	1.73569	2.21333	5.82803	-1.34488
6203.345	1.63355	2.47177	6.23288	-1.68759
6207.348	1.77655	2.31010	6.29516	-1.64196
6211.344	1.65964	2.54846	7.07063	-1.88410
6215.344	1.49884	2.52431	6.97286	-2.29068
6219.346	1.44994	2.73371	7.53152	-2.05157
6223.349	1.45485	2.67836	7.48766	-1.85429
6227.348	1.34152	2.42656	7.21049	-2.41180
6231.312	1.45217	2.36666	7.24583	3.13997
6235.350	1.48957	2.24009	7.30234	2.28033
6239.350	1.45056	1.84789	7.29267	2.14627
6243.348	1.54961	2.77896	7.48239	0.33701
6247.347	1.59631	2.55402	7.70918	0.74377
6251.348	1.68349	2.68307	7.54266	-0.44333
6255.341	1.36280	3.10659	7.67967	-0.71898
6259.347	1.19066	3.12092	7.58349	-1.02243
6263.335	1.56923	3.06997	7.67104	-1.40852
6267.336	1.65280	3.35182	7.59063	3.46285
6271.339	0.14129	3.85678	3.09250	1.64852
6275.348	9.31071	3.59060	1.01680	3.27394
6279.346	0.83267	4.09344	13.03465	5.49308
6283.349	NaN	NaN	13.01249	3.80830
6287.369	NaN	NaN	NaN	NaN
6291.350	NaN	NaN	NaN	NaN
6295.345	NaN	NaN	NaN	NaN
6299.309	NaN	NaN	NaN	NaN
6303.348	NaN	NaN	NaN	NaN
6307.313	NaN	NaN	NaN	NaN
6311.344	NaN	NaN	NaN	NaN
6315.345	NaN	NaN	NaN	NaN
6319.348	NaN	NaN	NaN	NaN
6323.346	NaN	NaN	NaN	NaN
6327.345	NaN	NaN	NaN	NaN
6331.309	NaN	NaN	NaN	NaN
6335.348	NaN	NaN	NaN	NaN
6339.351	NaN	NaN	NaN	NaN
6343.351	NaN	NaN	NaN	NaN
6347.330	NaN	NaN	NaN	NaN
6351.347	NaN	NaN	NaN	NaN
6355.346	NaN	NaN	NaN	NaN
6359.347	NaN	NaN	NaN	NaN
6363.323	NaN	NaN	NaN	NaN
6367.324	NaN	NaN	NaN	NaN
6371.352	NaN	NaN	NaN	NaN
6375.349	NaN	NaN	NaN	NaN
6379.312	NaN	NaN	NaN	NaN
6383.351	NaN	NaN	NaN	NaN
6387.371	NaN	NaN	-9.01343	14.23952
6391.349	NaN	NaN	9.51701	8.14718
6395.351	NaN	NaN	20.22169	10.64666
6399.349	NaN	NaN	NaN	NaN
6403.351	NaN	NaN	10.04769	0.72899
6407.373	10.28378	-0.03922	17.14943	3.12945
6411.350	10.07740	2.64632	4.80204	0.50694
6415.350	10.10211	1.09463	17.26011	0.68797
6419.351	-4.27711	0.72584	2.43315	-0.24397
6423.352	-4.27812	1.87987	12.09261	1.48351
6427.352	-7.54396	1.48390	11.70371	0.84671
6431.351	-2.53053	3.40371	9.70131	0.65388
6435.313	4.68674	3.80397	1.13769	0.82969
6439.351	4.86074	4.06213	0.74962	2.03114
6443.348	-0.74838	3.92895	2.56684	3.68825
6447.349	-0.40365	4.20580	3.22074	1.74298
6451.350	-0.20896	4.39413	3.19145	1.73430
6455.315	-0.18539	4.47316	4.21182	1.84203
6459.349	-0.17603	4.31805	3.83028	-0.81496
6463.350	-0.15992	4.30441	3.98437	-0.07139
6467.354	-0.15665	4.16577	4.18010	1.63469
6471.354	-1.99151	4.11184	3.59308	-0.45959
6475.344	-1.54988	4.07607	4.32999	-0.77187
6479.347	-0.69456	3.94139	4.19069	-0.75464
6483.349	-0.67479	3.80792	3.92477	0.94405
6487.347	-0.28567	3.69459	4.20632	-0.37678
6491.353	-0.35323	3.77884	3.79628	0.27323
6495.355	-0.41529	3.92540	4.07216	-0.73537
6499.352	-0.35707	3.71800	3.73045	-2.48370
6503.327	-0.38928	3.73882	3.37630	-1.08154
6507.351	-0.14575	3.66562	3.26290	-1.02266
6511.353	-1.19993	3.49435	3.97457	0.32466
6515.317	-0.27046	3.46727	3.66244	0.34928
6519.346	-0.37871	3.41722	3.74392	0.66342
6523.351	-0.24406	3.72252	3.14922	-0.95198
6527.353	-0.16635	3.57533	3.09310	-0.24453
6531.352	0.00973	3.26517	3.14152	1.32181
6535.350	-0.87076	3.44146	3.44540	1.99460
6539.358	-0.24837	3.54551	3.65873	1.48773
6543.352	-0.20847	3.71332	3.11401	1.84972
6547.353	0.02643	3.05298	2.64079	2.24977
6551.355	-0.00563	2.71160	3.52269	1.83565
6555.354	-0.08098	2.93666	3.64373	1.61616
6559.349	0.03477	2.96370	3.85367	0.76670
6563.353	0.06073	2.98370	2.90997	1.85047
6567.353	0.04368	2.81079	2.87782	1.55582
6571.356	-0.06093	2.68681	3.82084	1.72756
6575.352	-0.01591	2.69417	3.96096	1.46394
6579.353	0.06373	2.83987	3.61028	1.27130
6583.343	0.13759	2.70944	2.95173	1.00790
6587.354	0.11570	2.71901	3.34586	0.44049
6591.353	0.09537	2.73535	3.97469	-0.22013
6595.316	0.17893	2.66877	2.93032	-1.27899
6599.346	0.18626	2.77659	2.53278	-1.08030
6603.351	-0.11409	2.56976	2.42854	-1.88229
6607.351	-1.69902	2.27572	0.48448	-1.79778
6611.339	-1.92622	2.78795	-0.78342	-1.44774
6615.354	-2.12178	2.89720	-0.61297	0.18907
6619.351	-3.38474	3.82808	-0.76111	0.57511
6623.352	-2.80196	3.88661	-1.21965	0.45080
6627.352	-3.58648	4.34232	-1.52486	-0.21760
6631.352	-2.91277	4.12939	-0.87190	0.67502
6635.355	-3.01658	4.47946	-0.84084	0.14562
6639.335	-3.16710	3.16368	-2.08084	0.70616
6643.353	-3.08847	2.84729	-0.96189	1.44104
6647.317	-3.44733	1.32406	-1.24054	0.33968
6651.353	-3.12667	3.24308	-1.34425	0.38396
6655.355	-3.14674	0.98974	-1.09003	0.59168
6659.351	-3.11977	1.56343	-1.43972	-0.06029
6663.253	-3.25971	2.77249	-1.47506	-0.52157
6667.353	-3.07946	1.36876	-1.11777	0.36481
6671.355	-3.21250	2.02005	-1.43625	-0.08205
6675.355	-3.16478	2.29632	-1.32810	-0.29967
6679.256	-3.15617	2.38226	-1.44989	0.01637
6683.356	-3.08102	2.26194	-0.98469	-0.15143
6687.353	-3.30594	2.74125	-1.95500	-0.58970
6691.354	-2.92817	2.46979	-1.67809	-0.24389
6695.255	-3.21755	2.62680	-1.36310	-0.42613
6699.364	-3.34942	2.95914	-1.65463	0.50573
6703.355	NaN	NaN	NaN	NaN
6711.357	-3.05261	2.87540	-3.94036	-12.04349
6715.260	-3.52858	3.01216	-2.13086	-12.00824
6719.351	-3.19006	3.22416	-5.90079	-11.84947
6723.355	-3.31702	3.24613	-1.45212	-3.21309
6727.356	-3.08406	3.14021	-1.27061	-2.80448
6731.255	-3.38246	3.36140	-1.16183	-2.45426
6735.357	-3.01274	3.27261	-1.64270	-1.21424
6739.355	-3.30401	3.33910	-1.60628	1.52972
6743.359	-3.54732	3.36747	-1.06136	-1.39779
6747.254	-3.33114	3.37982	-1.31587	0.19834
6751.354	-2.87334	3.38242	-1.44835	0.59195
6755.355	-3.22638	3.40463	-1.36734	0.61966
6759.358	-3.25921	3.40837	-1.04647	0.88705
6763.259	-3.28578	3.62941	-1.57052	0.84864
6767.354	-2.97200	3.52328	-1.54768	0.78532
6771.357	-3.03860	3.44727	-1.52684	1.20815
6775.318	-3.17651	3.28972	-1.03652	1.07514
6779.228	-3.51985	3.47322	-1.40628	0.80608
6783.357	-3.25956	3.49074	-1.68808	0.23892
6787.354	-3.21911	3.58717	-1.54782	0.72725
6791.357	-3.22985	3.51590	-1.28586	1.34189
6795.324	-3.14236	3.50698	-1.33234	1.01719
6799.358	-3.19667	3.34393	-1.11973	0.17813
6803.362	-3.28387	3.51035	-1.31776	0.28216
6807.348	-3.32793	3.36414	-1.32379	0.37502
6811.252	-3.27588	3.57587	-1.29787	-0.10916
6815.356	-3.43986	3.41835	-1.18743	0.20981
6819.357	-3.39082	3.66501	-1.48205	0.56839
6823.354	-3.19845	3.34585	-1.18500	0.75412
6827.252	-3.09817	3.01564	-0.98658	0.50460
6831.317	-3.24382	3.23272	-1.17136	-0.32811
6835.356	-3.43600	2.99116	-1.32575	-0.54759
6839.358	-3.51780	2.86261	-1.74952	-1.54311
6843.260	-3.17054	2.67094	-2.01206	-1.18604
6847.337	-2.93767	2.52377	-1.84907	-1.53590
6851.355	-3.01138	1.92119	-1.30327	-1.27012
6855.355	-2.90636	1.82632	-1.72808	-1.96706
6859.358	-3.10111	1.27207	-1.40849	-2.07079
6863.356	-2.85982	0.86403	-1.89741	0.61644
6867.357	-3.04452	0.77318	-1.85132	-0.73047
6871.359	-3.14291	0.56477	-1.46348	0.33741
6875.257	-2.90926	0.60346	-1.29995	0.99043
6879.356	-3.13623	0.93721	-1.30945	0.62874
6883.360	-3.28142	2.16777	-1.29511	1.67587
6887.358	-3.16389	2.54235	-1.24196	1.31949
6891.260	-3.35338	2.54524	-1.21072	1.54103
6895.320	-3.20907	2.29837	-1.04359	0.71177
6899.359	-3.33401	2.18635	-0.75260	1.11624
6903.359	-3.20483	2.25858	-0.37635	1.31756
6907.255	-3.21315	2.53218	-1.11966	1.55078
6911.321	-2.89757	1.83145	-0.81808	1.43241
6915.358	-2.85111	2.60627	-0.99013	1.52838
6919.356	-2.97314	2.33805	-1.14816	1.76363
6923.359	-3.56358	2.59007	-1.15970	1.71797
6927.361	-3.21372	4.26213	-1.25736	1.80781
6931.326	-3.26233	4.87695	-1.11943	1.86399
6935.356	-3.14251	2.99228	-0.98797	1.92520
6939.359	-3.27692	3.11390	-1.09145	1.19649
6943.362	-3.34316	3.02724	-0.86101	0.44278
6947.356	-3.26107	2.89771	-1.10782	0.23398
6951.358	-3.55768	3.04731	-0.92636	0.95993
6955.257	-3.54667	3.76901	-1.04441	0.86047
6959.359	-3.43726	3.65315	-1.01528	0.77165
6963.321	-3.42752	3.57173	-0.96633	0.42637
6967.358	-3.22614	3.31465	-1.05081	0.37764
6971.344	-3.28758	3.92921	-1.16763	0.26998
6975.228	-3.20417	3.66911	-1.14734	0.20601
6979.226	-3.08119	3.42070	-1.28430	0.32432
6983.233	-3.01311	3.75270	-1.36613	0.31907
6987.256	-3.19353	3.50421	-1.46117	0.28922
6991.234	-3.54331	3.50876	-1.29524	0.33629
6995.236	-3.32642	3.70592	-1.44438	0.47322
6999.234	-3.23766	3.70402	-1.34016	-0.04410
7003.227	-3.19966	3.63446	-1.26979	-0.13363
7007.237	-3.26911	3.58966	-1.15585	-0.12223
7011.234	-3.22809	3.55928	-0.53208	-0.09318
7015.237	-3.34118	3.58784	-0.23865	-0.16348
7019.234	-3.20375	3.64932	-0.39127	-0.50496
7023.235	-3.28286	3.75272	-0.34893	-0.70157
7027.233	-3.24066	3.52076	-0.65563	-0.75189
7031.234	-3.41691	3.62060	-0.05874	-0.88938
7035.234	-3.30166	3.66441	-0.54461	-0.82534
7039.235	-3.20488	3.72351	-0.31002	-0.91304
7043.238	-3.20723	3.76916	-0.42410	-0.77011
7047.197	-3.36164	3.80056	-0.24093	-0.77743
7051.226	-3.24847	2.85155	-0.26155	-0.54176
7055.239	-3.24058	2.61300	-0.03192	-0.28643
7059.223	-3.29686	3.34157	-0.11555	-0.69723
7063.229	-3.44342	3.64238	-0.22204	-0.07790
7067.206	-3.42900	2.78780	-0.10260	-0.15128
7071.233	-3.46968	2.76091	0.02385	0.02823
7075.233	-3.51809	2.72543	-0.09068	0.34453
7079.234	-3.54297	2.48966	0.21847	0.01921
7083.201	-3.64602	3.58749	-0.04269	0.05733
7087.236	-3.68080	2.70990	0.12669	0.12089
7091.233	-3.54012	2.33359	-0.29833	0.16373
7095.237	-3.54435	3.15203	-0.05443	0.28422
7099.228	-3.64217	3.65753	-0.51145	0.23789
7103.202	-3.30601	3.44000	-0.64871	0.19687
7107.234	-3.35681	4.04289	-0.51997	0.02234
7111.227	-3.14931	3.60822	-0.72699	0.08289
7115.228	-3.12648	3.44179	-0.85394	0.03401
7119.234	-3.19031	3.33651	-1.01576	0.07660
7123.234	-3.10982	3.70419	-0.85575	0.12465
7127.235	-3.23756	3.70669	-0.69278	0.20367
7131.227	-3.12182	3.87191	-0.50438	0.20604
7135.235	-3.38939	4.00299	-0.44227	0.20224
7139.234	-3.51901	3.67714	-0.65186	0.33425
7143.219	-3.06949	4.00652	-0.42914	0.76129
7147.259	-3.09587	4.26792	-0.52543	1.48464
7151.236	-3.08288	4.22856	-0.38923	1.24931
7155.236	-3.45079	4.08347	-0.38938	2.33611
7159.234	-3.71557	7.96869	-0.33489	3.28000
7163.228	4.71055	3.94068	1.51640	4.25916
7167.238	-0.17052	-1.08612	11.30324	0.91169
7171.238	NaN	NaN	1.64494	-1.36010
7175.232	NaN	NaN	6.41290	0.27993
7179.237	NaN	NaN	NaN	NaN
7183.238	NaN	NaN	NaN	NaN
7187.230	NaN	NaN	NaN	NaN
7191.231	NaN	NaN	NaN	NaN
7195.238	NaN	NaN	NaN	NaN
7199.232	NaN	NaN	NaN	NaN
7203.209	NaN	NaN	NaN	NaN
7207.239	NaN	NaN	NaN	NaN
7211.241	NaN	NaN	NaN	NaN
7215.237	NaN	NaN	NaN	NaN
7219.239	NaN	NaN	NaN	NaN
7223.240	NaN	NaN	NaN	NaN
7227.234	NaN	NaN	NaN	NaN
7231.234	NaN	NaN	NaN	NaN
7235.201	NaN	NaN	NaN	NaN
7239.237	NaN	NaN	NaN	NaN
7243.241	NaN	NaN	NaN	NaN
7247.255	NaN	NaN	NaN	NaN
7251.206	NaN	NaN	NaN	NaN
7255.247	NaN	NaN	NaN	NaN
7259.239	NaN	NaN	NaN	NaN
7263.241	NaN	NaN	NaN	NaN
7267.197	NaN	NaN	NaN	NaN
7271.197	NaN	NaN	NaN	NaN
7275.239	NaN	NaN	NaN	NaN
7279.202	NaN	NaN	NaN	NaN
7283.266	NaN	NaN	14.38111	4.20758
7287.238	NaN	NaN	NaN	NaN
7291.238	NaN	NaN	NaN	NaN
7295.202	NaN	NaN	12.50250	-0.71519
7299.238	NaN	NaN	13.72608	-0.48548
7303.237	NaN	NaN	13.44439	-0.32293
7307.239	-4.73648	-1.38576	13.92489	-1.42480
7311.264	-1.40470	-2.99524	2.12079	-1.06736
7315.238	-4.68715	3.29735	10.38010	-4.07136
7319.237	-3.43679	5.04315	4.06574	-1.24724
7323.237	-3.88619	5.63337	4.10347	-1.07522
7327.232	-2.40469	5.22026	4.10236	-0.50103
7331.237	1.71154	4.29743	3.48185	-0.45082
7335.240	-2.96245	4.64645	1.08038	-0.10914
7339.202	-1.46963	4.64904	1.77429	-0.70763
7343.235	-0.76677	3.62499	1.68101	-0.73525
7347.241	-1.29618	2.76747	1.12038	-0.93533
7351.240	-2.03935	3.04454	1.38696	-0.64293
7355.240	-2.05925	2.97655	1.24116	-0.96328
7359.266	-2.39904	2.72466	0.79647	-0.92869
7363.236	-1.79026	2.59536	1.32071	-0.27702
7367.240	-1.74112	2.88856	1.05818	-0.20149
7371.239	-1.84295	2.95176	1.28710	-0.76268
7375.231	-2.16498	2.91587	1.22630	-0.41900
7379.237	-2.35818	3.18586	1.43887	0.17553
7383.241	-2.51886	3.17147	1.28571	0.45693
7387.240	-2.71659	3.11032	1.47501	0.35373
7391.231	-3.09436	3.90441	1.35802	0.76701
7395.232	-3.20617	4.07426	1.53443	0.94387
7399.241	-2.25404	3.64765	1.53128	0.91161
7403.243	-1.77360	4.28669	1.44912	1.29279
7407.265	-1.98385	4.26524	1.39239	1.94055
7411.240	-2.00884	3.57820	1.36127	1.56482
7415.239	-2.01620	4.26846	1.37064	1.89523
7419.239	-1.80705	4.18620	1.17632	2.15514
7423.261	-1.70636	3.09908	1.27244	1.61375
7427.239	-1.71878	3.40968	1.02454	2.17874
7431.241	-1.58063	3.16047	0.94142	2.21591
7435.214	-1.51816	2.91167	0.74853	2.19885
7439.266	-1.61615	3.68681	0.62962	2.20151
7443.241	-1.81322	3.12035	0.70940	2.22356
7447.244	-1.65756	3.50816	0.62000	2.26362
7451.238	-1.60270	3.17579	0.66124	1.99065
7455.233	-1.83181	2.96511	0.53121	2.16545
7459.242	-1.76824	2.87757	0.64689	1.42961
7463.245	-1.83166	3.30450	0.58726	1.87840
7467.241	-2.02569	3.08235	0.60516	1.71078
7471.238	-1.80600	2.87855	0.55962	2.03203
7475.238	-1.99045	2.38429	0.71709	1.75905
7479.236	-1.96320	2.20881	0.80297	1.82738
7483.240	-1.73678	1.54461	1.22516	1.75075
7487.244	-1.58006	1.46378	3.14771	-0.47583
7491.241	0.59669	2.68956	2.20832	1.70110
7495.244	1.11536	2.74324	4.73707	1.77023
7499.242	1.27512	2.98009	5.58589	-0.79281
7503.235	3.17487	2.84089	5.88034	-0.65696
7507.241	2.34666	3.05218	7.75371	-0.75167
7511.242	3.12578	3.10216	9.18690	-0.75709
7515.241	2.98906	3.34411	7.98408	-0.73206
7519.235	3.08998	3.50574	8.59944	-0.62061
7523.204	3.13989	3.69758	7.52252	-0.63162
7527.241	3.01086	3.73712	7.87606	-0.81297
7531.239	3.01876	3.43811	7.83251	-0.64797
7535.236	3.10505	3.73099	7.50673	-0.50831
7539.243	3.07177	3.87817	8.10479	-0.10266
7543.242	3.22111	3.96789	8.01265	-0.52172
7547.245	3.05657	3.95259	8.16566	-0.27999
7551.241	3.15998	4.01376	8.40752	-0.52673
7555.242	3.39184	3.79276	8.24621	-0.38184
7559.244	3.55906	3.62534	8.89780	-0.12513
7563.243	3.19019	3.75751	8.64980	-0.36319
7567.236	3.16453	3.64429	8.69983	-0.26548
7571.243	3.17901	3.97317	8.31465	-0.11330
7575.244	3.35726	4.08998	7.83098	0.63678
7579.242	3.59135	4.19984	5.40914	0.24310
7583.271	3.35667	4.53950	7.05359	0.50852
7587.242	3.51221	3.74702	5.86710	0.45435
7591.206	3.24222	3.15086	6.00953	0.65873
7595.245	3.11440	3.37453	5.81729	0.82415
7599.243	3.03133	3.46270	6.56853	0.56591
7603.231	2.98336	2.33102	6.28339	1.01274
7607.242	2.98297	1.86284	6.49232	0.80476
7611.247	3.15587	1.59784	6.34064	0.76223
7615.246	3.21382	1.44788	6.92951	0.71042
7619.243	3.22327	1.41539	6.77780	0.77568
7623.242	3.37388	1.50318	6.86608	0.65272
7627.241	3.45504	1.93090	7.03748	0.95223
7631.244	3.16733	1.89124	6.90994	0.67774
7635.243	3.38580	1.63379	6.91239	0.72941
7639.241	3.43679	1.62455	7.04088	0.63810
7643.215	3.60321	1.49585	6.92848	0.74542
7647.135	3.58917	1.43292	7.77744	0.44713
7651.245	3.64899	1.72215	7.43644	0.13407
7655.242	3.76122	1.74966	7.88181	0.04049
7659.207	3.83754	2.42088	7.69076	-0.70268
7663.144	3.76433	2.96323	8.13981	0.02268
7667.246	3.51016	3.72902	8.46951	-0.99210
7671.243	3.46595	3.56316	8.52421	-0.21881
7675.245	3.75963	3.75258	7.47019	2.89310
7679.254	3.58015	3.91046	7.56810	2.63483
7683.228	3.59745	3.86467	8.33134	3.29918
7687.244	3.49962	3.77562	8.35862	2.70941
7691.244	3.68063	3.79761	8.20646	2.62689
7695.211	3.70705	3.53268	8.30600	2.40403
7699.246	3.43261	3.84616	8.17841	2.29156
7703.242	3.45039	3.82599	8.17624	2.36310
7707.244	3.46080	3.88316	8.18091	2.38019
7711.146	3.45880	3.78711	7.88911	1.95084
7715.245	3.46184	3.72788	7.63967	2.48745
7719.243	3.33646	3.81555	7.66097	2.18691
7723.245	2.69740	3.79762	8.09786	2.15203
7727.211	3.14377	3.77450	7.87146	2.24023
7731.246	3.24976	3.78073	7.96887	1.74211
7735.244	3.63144	3.89257	7.88059	-1.31728
7739.246	3.34076	3.94713	7.71179	-0.93518
7743.145	2.89656	4.01937	7.38185	0.22783
7747.249	3.65636	3.59385	7.54164	-1.16016
7751.245	3.10369	3.76837	6.84551	-0.36299
7755.209	3.23499	3.73032	7.35732	0.19378
7759.244	3.18578	3.59447	6.89769	0.00770
7763.247	3.46417	3.67521	6.44059	0.47132
7767.226	3.37319	3.80400	7.85643	-0.07961
7771.247	2.51150	3.99075	6.16152	0.88518
7775.152	1.20487	3.97535	5.88699	-0.02590
7779.210	-1.32828	3.98646	2.55668	0.36792
7783.246	-2.23457	6.74573	0.75962	-0.31143
7787.245	5.74335	2.95952	0.98866	3.83203
7791.155	NaN	NaN	0.93150	0.62646
7795.207	NaN	NaN	-1.19140	14.48531
7799.246	NaN	NaN	NaN	NaN
7803.248	NaN	NaN	NaN	NaN
7807.245	NaN	NaN	NaN	NaN
7811.247	NaN	NaN	NaN	NaN
7815.209	NaN	NaN	NaN	NaN
7819.245	NaN	NaN	NaN	NaN
7823.245	NaN	NaN	NaN	NaN
7827.147	NaN	NaN	14.55604	9.96547
7831.245	NaN	NaN	14.13694	7.48550
7835.246	-21.55252	9.96254	14.40325	7.93584
7839.246	-19.99754	-12.07714	14.43671	1.47567
7843.248	-19.99751	-12.07714	13.12684	3.02862
7847.251	-19.99747	-12.07714	12.86468	-1.56757
7851.218	-3.18737	-3.17168	4.79992	-1.47873
7855.248	-2.22309	0.66694	3.93290	-1.60505
7859.246	-1.73175	2.04844	1.54653	-1.72480
7863.248	5.59981	2.86023	0.78947	-2.32776
7867.148	-1.57399	2.81846	3.15065	-1.29455
7871.246	0.19100	3.17895	-1.04622	2.06599
7875.249	-1.73247	3.10454	0.72789	0.83682
7879.248	0.99757	2.73333	0.56612	0.48847
7883.146	1.09996	2.44553	0.73092	0.60255
7887.253	-0.66186	2.43890	1.46673	-1.51763
7891.247	-1.09549	2.08203	1.25146	-1.75639
7895.216	-1.29772	1.27065	-0.41001	-0.03774
7899.118	-1.75282	1.36861	0.08815	0.68546
7903.267	1.54386	0.91878	1.54363	0.58673
7907.250	0.36449	0.29242	1.25307	-0.06904
7911.249	-2.65803	3.61436	1.39961	0.13154
7915.250	-3.55958	4.17897	1.08631	-0.43664
7919.251	-4.09508	4.02861	0.70156	-1.72507
7923.247	-4.54528	4.10529	2.00564	-0.56555
7927.245	-1.15022	4.00060	-0.40656	0.87691
7931.250	-3.19016	4.07985	1.16984	0.01968
7935.245	-2.76074	4.06328	0.46331	0.62372
7939.246	-2.81531	4.08520	1.36149	-0.41039
7943.249	-3.16582	4.16468	1.20160	0.09776
7947.148	-4.04816	4.30391	0.14198	-0.20560
7951.249	-2.88574	4.15559	0.00330	0.51687
7955.246	-3.19835	4.26901	0.77543	0.57302
7959.252	-3.16436	4.11903	0.79608	1.33766
7963.146	-2.83058	3.81454	1.11316	1.39961
7967.248	-3.12554	3.94411	1.06203	2.19372
7971.249	-3.24595	4.03557	0.95790	0.14783
7975.229	-3.31717	4.11977	0.71905	-1.17421
7979.252	-3.51955	3.71125	1.06364	-1.28397
7983.249	-3.72269	3.43995	0.79191	-1.59736
7987.248	-2.68702	3.15959	0.78245	-0.11452
7991.249	-2.39879	3.12495	0.88282	-1.49424
7995.152	-2.48601	3.28709	0.93567	-0.99654
7999.213	-2.83643	3.17132	0.91845	-0.63963
8003.249	-2.75455	3.29629	1.09467	-0.36722
8007.249	-2.90678	3.35843	1.54071	-0.23556
8011.119	-2.79409	3.79173	0.99429	-0.80802
8015.124	-2.83593	4.58680	1.12412	-0.32407
8019.210	-3.69939	4.70216	0.88113	-0.93610
8023.123	-3.07909	5.17240	1.49279	-1.67997
8027.094	-3.25718	5.27522	1.17413	-0.32404
8031.124	-3.21438	5.86927	0.32203	0.28258
8035.088	-2.70161	5.38717	-0.73074	3.45792
8039.123	-3.02539	4.46954	1.30605	4.99737
8043.123	-3.07523	5.12026	1.27383	5.35305
8047.122	-3.31724	5.55723	1.13114	5.50972
8051.125	4.87650	4.92005	-3.61038	3.36204
8055.125	7.24947	4.82546	-1.57632	7.49095
8059.128	6.18382	3.91117	-3.69842	3.40689
8063.104	NaN	NaN	-4.25524	1.13107
8067.086	NaN	NaN	-0.74970	0.52667
8071.123	NaN	NaN	0.67384	0.67296
8075.121	NaN	NaN	NaN	NaN
8079.127	NaN	NaN	NaN	NaN
8083.124	NaN	NaN	NaN	NaN
8087.082	NaN	NaN	NaN	NaN
8091.118	NaN	NaN	NaN	NaN
8095.126	NaN	NaN	NaN	NaN
8099.128	NaN	NaN	NaN	NaN
8103.088	NaN	NaN	NaN	NaN
8107.119	NaN	NaN	NaN	NaN
8111.111	NaN	NaN	NaN	NaN
8115.125	NaN	NaN	NaN	NaN
8119.124	NaN	NaN	NaN	NaN
8123.127	NaN	NaN	NaN	NaN
8127.124	NaN	NaN	NaN	NaN
8131.126	NaN	NaN	NaN	NaN
8135.088	NaN	NaN	NaN	NaN
8139.124	NaN	NaN	NaN	NaN
8143.126	NaN	NaN	NaN	NaN
8147.100	NaN	NaN	NaN	NaN
8151.155	NaN	NaN	NaN	NaN
8155.127	NaN	NaN	NaN	NaN
8159.125	NaN	NaN	NaN	NaN
8163.125	NaN	NaN	NaN	NaN
8167.088	NaN	NaN	NaN	NaN
8171.124	NaN	NaN	NaN	NaN
8175.126	NaN	NaN	NaN	NaN
8179.090	NaN	NaN	NaN	NaN
8183.128	NaN	NaN	NaN	NaN
8187.115	NaN	NaN	NaN	NaN
8191.119	NaN	NaN	NaN	NaN
8195.090	NaN	NaN	-1.74873	8.48965
8199.152	NaN	NaN	1.43520	4.68080
8203.089	NaN	NaN	1.04270	5.96158
8207.126	NaN	NaN	1.42159	2.37346
8211.126	-2.50263	-0.54274	11.33232	5.89783
8215.130	NaN	NaN	1.11338	4.97254
8219.124	-2.25674	0.22292	0.74603	6.13152
8223.130	-6.99301	-0.63158	0.81664	5.15827
8227.127	-5.21365	7.62181	0.82955	5.49717
8231.093	-4.88286	5.19073	0.69198	5.12396
8235.128	0.21686	5.11288	0.66975	4.84288
8239.130	2.46929	3.20765	0.61833	5.20206
8243.129	-1.94102	4.81630	0.73977	4.33239
8247.129	-1.48148	4.89322	0.77761	4.26801
8251.133	-1.87413	4.77121	0.62402	4.42033
8255.122	-1.96972	4.53452	0.58637	4.70729
8259.128	-2.15737	4.79887	0.55307	4.36459
8263.130	-2.22617	4.33949	0.53113	4.44513
8267.131	-2.29215	4.29735	0.70377	4.33247
8271.096	-2.65211	4.22627	0.30128	4.24749
8275.126	-2.60763	4.25657	0.27982	4.18227
8279.128	-2.66909	4.02803	0.52493	3.55898
8283.126	-2.68928	3.90983	0.61223	3.71034
8287.154	-2.75430	3.74614	0.44311	3.86583
8291.128	-2.83128	3.51326	0.31873	4.11043
8295.092	-2.99339	3.39133	0.35206	4.01814
8299.126	-3.10151	3.41952	0.01238	3.52908
8303.089	-3.25644	3.42907	0.17725	3.71023
8307.130	-3.31764	3.40538	-0.00452	3.62047
8311.128	-3.41384	3.42346	-0.11066	0.08886
8315.123	-3.67615	3.44851	-0.10461	0.33071
8319.130	-3.71184	3.34451	-0.41323	0.30578
8323.132	-3.63107	3.39948	-0.53409	0.21876
8327.129	-3.76087	3.47938	-0.70563	0.75668
8331.128	-3.81113	3.50077	-0.91031	0.37348
8335.127	-3.79766	3.43872	-1.14997	0.55162
8339.130	-3.86600	3.35042	-1.11755	0.54666
8343.129	-3.86089	3.17940	-0.75551	0.58711
8347.131	-3.72546	3.19871	-0.98665	0.49692
8351.124	-3.69892	2.98046	-1.11762	0.59172
8355.104	-3.50257	2.74656	-0.37911	0.28782
8359.131	-3.62689	2.83525	-0.76394	0.69829
8363.129	-3.44270	2.81587	-0.65568	0.48556
8367.126	-3.37012	2.73484	-1.49845	0.81454
8371.130	-3.40329	2.45309	-1.63554	0.70194
8375.132	-3.40309	2.49971	-1.86642	0.79105
8379.129	-3.34517	2.39296	-1.00705	0.85558
8383.154	-3.37888	2.46756	-1.78104	1.09893
8387.130	-3.37999	2.43933	-1.63898	0.71749
8391.130	-3.31412	2.44888	-2.02289	0.72518
8395.117	-3.28175	2.19073	-1.61962	0.53681
8399.098	-3.30594	2.60800	-1.39490	0.75701
8403.095	-3.29857	2.53853	-1.08949	0.49691
8407.129	-3.26572	2.77554	-1.45589	0.56735
8411.131	-3.31541	2.77756	-1.29067	0.73563
8415.122	-3.23658	3.36536	-1.15526	0.84933
8419.130	-3.23474	2.87225	-1.08765	1.16508
8423.130	-3.22230	1.61725	-0.92291	2.77783
8427.129	-3.15142	2.40932	-0.89880	2.71861
8431.125	-3.12853	2.35696	-0.72072	2.99278
8435.129	-3.16903	3.20780	-0.90766	1.90926
8439.097	-3.24998	3.10745	-0.86017	0.46405
8443.130	-3.21342	3.42076	-1.05094	0.67354
8447.126	-3.50244	3.67486	-0.72595	1.23273
8451.137	-3.41966	3.53848	-0.90133	1.32277
8455.130	-3.18497	2.33942	-0.62603	2.54568
8459.131	-3.21233	1.59582	-0.62014	3.03890
8463.123	-3.19439	2.09960	-0.62372	2.88806
8467.133	-3.06026	1.96319	-0.46746	2.81372
8471.132	-3.23178	2.70039	-0.69243	2.82804
8475.136	-3.13546	2.76689	-0.84808	2.90395
8479.131	-3.19934	2.96926	-0.75556	2.92530
8483.139	-3.40922	2.71228	-0.83195	2.94559
8487.131	-3.26752	2.53108	-0.80029	2.93293
8491.131	-3.14226	2.27841	-0.90354	2.97297
8495.133	-2.92488	2.39179	-0.84632	2.97116
8499.131	-3.07412	1.94257	-0.90287	3.07272
8503.133	-3.18524	2.63711	-0.84009	2.53792
8507.132	-2.47687	2.66327	-0.30493	1.71505
8511.123	-1.16424	2.95350	0.12029	2.58005
8515.132	-0.59667	3.10700	1.53354	2.41421
8519.136	0.44108	3.59987	4.59147	1.62983
8523.094	0.44924	3.67277	4.11140	1.19509
8527.131	1.16096	3.45309	4.60163	0.92450
8531.133	1.13516	3.32624	5.13737	0.32456
8535.131	1.13930	3.50527	4.13994	0.32551
8539.131	1.28693	3.35613	4.66884	-0.33051
8543.133	1.35085	3.35236	4.09095	0.22424
8547.133	1.44713	3.29226	4.05725	0.35341
8551.135	1.41998	3.42071	4.04861	-0.15784
8555.132	1.47189	3.21762	4.09772	-0.33663
8559.131	1.49912	3.32412	4.11157	-0.58471
8563.113	1.30521	3.28745	4.23145	-0.43711
8567.133	1.21422	3.21330	3.90234	-0.33525
8571.131	1.26135	3.27376	3.99060	-0.38578
8575.126	1.36948	3.18083	3.97197	-0.48730
8579.136	1.29010	3.05449	4.16428	-0.55759
8583.134	1.49138	3.10426	4.16603	-0.20025
8587.135	1.48890	2.94664	4.13678	-0.43211
8591.124	1.39763	3.11353	4.39212	-0.52534
8595.133	1.55725	3.09550	2.29498	-0.07692
8599.134	1.51385	3.11845	4.53921	-0.32430
8603.121	1.28916	3.14656	1.31019	0.58912
8607.127	1.32974	3.17323	1.87869	1.08951
8611.097	1.42166	3.08504	1.66998	0.60882
8615.134	1.29008	3.03125	3.71827	1.98043
8619.132	1.13809	3.02146	4.51388	4.61078
8623.133	1.09242	2.98692	4.43951	3.12813
8627.131	1.14427	2.73711	4.69356	2.98277
8631.133	0.97502	2.76475	2.42924	3.47459
8635.131	1.02501	2.30402	3.28469	2.97108
8639.134	-2.11628	2.93533	4.80142	3.37498
8643.139	-6.68509	4.52828	-2.01248	1.94637
8647.097	NaN	NaN	2.66979	1.33207
8651.145	NaN	NaN	5.39482	4.84652
8655.135	NaN	NaN	NaN	NaN
8659.135	NaN	NaN	NaN	NaN
8663.133	NaN	NaN	NaN	NaN
8667.134	NaN	NaN	NaN	NaN
8671.131	NaN	NaN	NaN	NaN
8675.134	NaN	NaN	NaN	NaN
8679.135	NaN	NaN	NaN	NaN
8683.137	NaN	NaN	NaN	NaN
8687.134	NaN	NaN	NaN	NaN
8691.131	NaN	NaN	NaN	NaN
8695.135	NaN	NaN	NaN	NaN
8699.093	NaN	NaN	NaN	NaN
8703.038	NaN	NaN	NaN	NaN
8707.137	NaN	NaN	NaN	NaN
8711.136	NaN	NaN	NaN	NaN
8715.113	NaN	NaN	NaN	NaN
8719.134	NaN	NaN	NaN	NaN
8723.136	NaN	NaN	NaN	NaN
8727.136	NaN	NaN	NaN	NaN
8731.129	NaN	NaN	NaN	NaN
8735.102	NaN	NaN	NaN	NaN
8739.098	NaN	NaN	NaN	NaN
8743.136	NaN	NaN	NaN	NaN
8747.100	NaN	NaN	0.33806	7.75829
8751.040	NaN	NaN	0.59545	3.97001
8755.140	NaN	NaN	11.48778	10.08333
8759.137	NaN	NaN	NaN	NaN
8763.135	NaN	NaN	0.72707	-0.44244
8767.135	NaN	NaN	1.73351	-1.91284
8771.095	9.92906	-1.66602	5.31839	-4.56999
8775.135	6.34976	-1.53624	2.43702	-4.61977
8779.139	-3.45826	-1.67176	1.58748	-1.79266
8783.136	-3.45791	-0.98167	13.83468	2.11675
8787.140	5.01228	0.98027	2.04245	1.58444
8791.139	0.64429	2.78967	3.73796	-0.05778
8795.138	1.19004	1.30159	1.38473	-0.16950
8799.135	1.30437	1.13631	1.91652	0.02233
8803.139	0.58955	3.38275	1.91625	0.31992
8807.139	1.03593	3.28757	1.94226	-0.78478
8811.038	0.85917	3.28179	3.37282	-1.70893
8815.128	0.60101	2.45599	1.96868	-1.35008
8819.137	0.62069	2.70237	2.64921	-2.14258
8823.136	0.37752	2.23963	3.23761	-0.70914
8827.034	0.23783	1.75878	1.59539	-0.19099
8831.136	0.03182	2.05246	2.92730	0.45927
8835.175	-0.16486	1.73967	3.16485	0.29391
8839.138	-0.43001	1.50977	2.80845	1.00543
8843.037	-0.23850	1.18565	3.02722	0.85566
8847.141	-0.29138	1.24674	2.96658	1.06019
8851.136	-0.42125	1.15870	3.08473	1.15534
8855.107	-0.42725	1.20008	3.08337	1.43685
8859.015	-0.40167	1.28140	3.07545	1.26689
8863.135	-0.51947	1.05103	3.09174	0.93735
8867.136	-0.50269	1.16293	2.94124	0.74852
8871.139	-0.49039	1.16500	2.96500	-1.57122
8875.035	-0.47222	1.10186	3.01069	-1.89829
8879.136	-0.44175	1.50795	2.61828	-2.24240
8883.140	-0.38578	1.16901	2.86190	-1.87838
8887.137	-0.48706	1.69597	3.12336	-2.04911
8891.036	-0.66360	1.85767	3.07060	-1.74871
8895.118	-0.46882	2.03107	4.14270	-1.61261
8899.131	-0.53682	2.06009	3.09725	-0.90674
8903.138	-0.52823	2.25797	3.00200	-0.30686
8907.142	-0.61861	2.81933	2.95985	-0.49199
8911.141	-0.53227	2.31766	3.04437	-0.57495
8915.140	-0.36903	2.31146	2.80038	0.66876
8919.140	-0.31339	2.45388	2.84180	0.64079
8923.040	-0.58449	2.54905	3.48064	0.35835
8927.138	-0.60238	2.64377	3.61812	-0.40691
8931.142	-0.42475	2.48890	3.88794	0.80083
8935.139	-0.49093	2.51075	3.28635	1.19338
8939.034	-0.61022	2.52384	2.90750	0.30748
8943.139	-0.41489	2.53255	2.97381	0.62478
8947.135	-0.48746	2.67982	2.27119	0.34659
8951.100	-0.44284	2.15106	2.61924	0.42291
8955.038	-0.34878	1.88774	2.88730	-1.11891
8959.138	-0.38355	1.71945	2.98896	0.58599
8963.145	-0.58153	1.66575	3.76455	0.28899
8967.141	-0.38412	1.25915	3.42304	0.50551
8971.141	-0.45080	1.46057	3.61179	0.53437
8975.141	-0.37680	1.50347	3.34057	1.04351
8979.113	-0.46979	1.67291	3.34200	0.55196
8983.138	-0.23706	1.56259	3.62328	1.16353
8987.142	-0.19489	1.45912	2.84841	1.26449
8991.141	-0.17953	1.94429	2.99839	0.87060
8995.140	0.07331	1.78836	3.34052	1.61993
8999.138	-0.14342	1.69590	3.67343	1.48582
9003.039	-0.39107	1.26903	3.77214	0.86683
9007.138	-0.00382	1.73248	3.95513	1.02991
9011.138	-0.13486	1.77284	3.73591	0.76063
9015.140	-0.75503	2.54842	3.91242	0.97034
9019.010	0.10478	2.86391	3.80345	1.53874
9023.139	0.06324	3.02580	3.32009	0.68641
9027.142	0.00333	2.94132	3.02940	0.69417
9031.139	0.06803	1.86335	3.33782	1.05743
9035.041	-0.03405	2.29012	3.93186	0.89306
9039.142	-0.15799	1.93076	3.52739	0.30997
9043.139	-0.13292	1.87343	2.51237	0.20203
9047.016	-0.34558	2.05924	4.31995	-2.67904
9051.012	-0.14794	1.64490	4.03492	-2.14097
9055.019	-0.11572	1.51112	3.98442	-2.29687
9059.014	-0.20370	1.54240	3.91464	-1.56634
9063.016	-0.32878	1.73620	3.25938	-1.12995
9067.006	-0.15576	1.83755	2.83613	-0.59615
9071.016	-0.15442	1.85563	2.93032	-0.58461
9075.014	-0.27252	1.98086	3.10918	-1.41336
9079.017	-0.33615	1.88147	2.81551	-0.51908
9083.013	-0.37752	1.81111	2.60790	-0.53893
9086.981	-0.46482	1.85634	2.80238	-0.10077
9091.016	-0.31607	1.98313	2.75930	-0.34239
9095.029	-0.28736	1.81043	2.70604	-0.84211
9099.038	-0.12491	1.71768	2.83437	-1.19185
9103.015	-0.06482	1.84642	2.97542	-0.27580
9107.018	0.02941	1.82820	2.91591	-0.59092
9110.974	0.03154	1.41790	2.94223	-0.89324
9115.042	0.09197	1.57995	2.89869	-0.50214
9119.015	0.03286	1.57966	3.20597	-0.89771
9123.018	0.02440	1.45254	3.01782	-0.77152
9127.017	0.08979	1.60188	3.14281	-0.50642
9131.008	0.17650	1.79418	2.88745	-0.49488
9135.014	0.17578	2.01817	3.81827	-0.73389
9139.015	0.29863	1.96142	3.99376	-0.49894
9143.021	0.39373	2.14440	4.28718	-0.31968
9147.015	0.19293	2.77959	3.56240	0.05350
9150.991	0.13012	2.16184	3.92405	-0.13461
9154.982	0.10113	2.37920	4.24724	0.61888
9158.984	0.01918	2.29243	4.16542	0.65255
9163.014	-0.07078	2.61725	4.27271	0.03469
9167.019	-0.28146	2.01332	4.24537	0.07667
9171.017	-0.25222	1.92785	3.84644	-0.58951
9175.017	-0.33312	2.06376	3.95333	-0.51294
9179.008	-0.56848	2.39305	3.62096	-0.03646
9183.016	-0.56183	2.25634	2.75160	-0.74616
9187.020	-0.65404	2.04014	3.37885	-1.22825
9191.003	-0.64583	1.91260	3.58502	-1.80907
9195.009	-0.72025	1.82501	3.54754	-2.04647
9199.017	-0.88617	1.99370	3.31143	-2.34443
9203.017	-1.10177	1.86512	3.23514	-2.31110
9207.017	0.17732	1.89442	3.28548	-2.14834
9211.018	-0.16102	1.99070	3.07563	-2.18046
9215.051	1.68037	7.61669	2.92512	-2.42058
9219.018	1.51095	7.88022	2.70901	-2.16181
9222.982	0.29970	1.96442	2.79622	-2.26955
9227.013	0.20090	1.92053	3.13044	-1.65577
9231.020	0.08304	1.95556	2.79260	-2.19011
9234.985	0.16643	2.00189	2.78089	-2.21670
9239.020	0.20685	2.14265	2.86282	-0.57551
9243.011	0.04867	2.51305	2.85742	1.59726
9247.020	0.18842	2.32556	2.82056	0.74341
9251.030	0.13846	2.62707	2.86695	0.82192
9255.024	-0.33084	2.78826	2.70555	1.15255
9259.012	-2.25456	3.07063	1.20455	1.31308
9263.020	-2.41180	2.85447	0.96911	1.01392
9267.017	-2.91995	2.52512	0.35206	0.05499
9271.019	-3.42203	2.40466	-0.39663	-0.88029
9275.012	-3.15647	2.38665	-1.11149	-0.79140
9279.019	-2.94225	2.05672	0.09287	-1.14283
9283.017	-2.94765	2.04697	-0.17645	-1.63922
9287.020	-0.08006	2.26166	-0.63843	-1.84601
9290.984	-4.14100	7.33709	-0.89691	-1.65149
9295.006	-3.23853	3.68944	-0.84285	-1.90708
9299.021	-3.04618	3.83928	-0.98886	-3.15600
9303.023	-3.00626	3.48174	-0.55873	-1.32275
9307.017	-3.00707	4.00362	-1.04250	-1.48016
9311.018	-2.90099	2.17922	-0.54950	0.22656
9315.013	-2.91990	2.53894	-1.06346	0.01878
9319.021	-2.88765	3.00046	-1.04803	-0.03923
9323.012	-2.76366	2.96132	-0.55252	0.42241
9327.020	-2.81189	2.64051	-0.89150	0.06179
9331.019	-2.76208	2.53993	-0.37310	0.39248
9335.017	-2.84455	2.57478	-0.65662	0.16389
9339.012	-2.77394	2.51496	-0.85230	-0.54904
9343.021	-2.75683	2.65755	-0.48163	-0.37068
9347.018	-2.74368	2.46501	-0.15516	-0.24464
9351.020	-2.84920	2.51009	-0.31399	-0.12474
9355.016	-2.87953	2.43873	-0.49458	-0.42634
9358.984	-2.89252	2.36654	-0.30382	-0.27256
9363.016	-2.83251	2.45652	-0.38918	-0.24503
9367.019	-2.92968	2.68397	-0.36481	-0.17948
9371.011	-2.90094	2.63451	0.16161	-0.04373
9375.021	-3.00453	2.61163	-1.14992	-0.16337
9379.020	-3.37823	2.78599	-0.30516	0.21912
9383.028	-3.51226	2.99623	-0.96747	0.35139
9387.012	-3.61995	3.50103	-1.37724	-1.19120
9391.021	-3.42507	2.95950	-1.44217	-2.94539
9394.986	-3.09181	1.67083	-1.68622	-3.69584
9399.009	-3.03388	0.75401	-0.71295	-2.69049
9402.988	-2.85687	0.49146	-0.84176	-2.63098
9407.020	-3.06088	0.43455	-0.90212	-2.31191
9410.983	-2.93238	0.65984	-0.84880	-1.55885
9415.023	-2.98245	0.65999	-0.30860	-1.96827
9419.015	-2.85890	0.89800	-1.03563	-1.52361
9423.021	-2.98121	0.91834	-1.32872	-1.28643
9427.022	-2.90275	0.98334	-1.23784	-1.09054
9431.023	-2.91042	1.17927	-1.32989	-0.87009
9435.016	-2.81325	1.31419	-1.47260	-0.68826
9439.024	-2.75544	1.04678	-0.98901	-0.70734
9442.993	-2.78577	1.36610	-1.00603	-0.60911
9447.023	-2.82900	1.19741	-1.39609	-0.59377
9451.014	-2.89861	1.33526	-1.32776	-0.69094
9455.023	-2.94745	1.24556	-1.38570	-0.91430
9459.026	-3.17064	1.34261	0.23825	-0.49113
9462.987	-2.16595	4.10450	-0.10113	0.99334
9467.032	-10.27198	6.64960	0.83315	-0.14476
9471.020	NaN	NaN	4.55566	-0.16017
9475.021	NaN	NaN	-0.24172	3.33389
9479.024	NaN	NaN	NaN	NaN
9483.002	NaN	NaN	NaN	NaN
9486.992	NaN	NaN	NaN	NaN
9491.020	NaN	NaN	NaN	NaN
9495.022	NaN	NaN	NaN	NaN
9499.022	NaN	NaN	NaN	NaN
9503.021	NaN	NaN	NaN	NaN
9507.020	NaN	NaN	NaN	NaN
9511.018	NaN	NaN	NaN	NaN
9515.014	NaN	NaN	NaN	NaN
9519.019	NaN	NaN	NaN	NaN
9523.016	NaN	NaN	NaN	NaN
9527.012	NaN	NaN	NaN	NaN
9530.984	NaN	NaN	NaN	NaN
9535.020	NaN	NaN	NaN	NaN
9539.022	NaN	NaN	NaN	NaN
9543.022	NaN	NaN	NaN	NaN
9546.985	NaN	NaN	NaN	NaN
9551.026	NaN	NaN	NaN	NaN
9555.022	NaN	NaN	NaN	NaN
9559.025	NaN	NaN	NaN	NaN
9562.989	NaN	NaN	-2.49560	8.00402
9567.024	NaN	NaN	-0.27274	6.53730
9571.023	NaN	NaN	-0.08391	4.77548
9575.025	-22.82506	13.92623	0.53215	3.81203
9579.025	-19.99374	-12.07742	1.13231	4.83633
9582.990	-19.99374	-12.07742	NaN	NaN
9587.021	7.32824	0.88611	-0.69436	0.83392
9591.024	-0.18794	-2.75535	-2.63623	-0.08144
9594.988	-6.82256	-3.69784	-1.56742	0.40769
9599.024	-5.54238	-0.56459	0.97760	0.29054
9602.983	-7.35598	-0.32304	0.78955	0.36743
9607.006	-0.30168	3.77221	-0.85595	-1.36694
9611.009	-5.15576	1.94642	-1.46068	0.09092
9615.022	0.86863	3.46427	-1.21003	0.07605
9619.025	-0.37933	3.28516	-0.95862	1.67474
9623.025	-0.53878	3.52516	-0.28354	1.02928
9627.023	-4.08016	3.55791	0.88813	0.35594
9631.023	-3.13830	3.32374	-0.50547	-1.36711
9635.024	-2.81038	3.33541	-1.55348	0.31641
9639.025	-2.41640	3.54581	-0.46934	0.62362
9643.025	-1.38634	3.40843	-0.16258	0.46452
9646.989	-1.72441	3.21007	-0.16653	0.33441
9651.025	-2.00623	3.56240	0.03666	2.15018
9655.024	-1.71288	3.99913	0.40586	1.46366
9659.023	-1.73894	3.95186	1.47707	-6.08198
9663.023	-2.68987	3.84739	-2.46632	-6.98256
9667.023	-1.97508	3.60843	-2.69039	-7.38481
9671.025	-2.12322	3.32978	-3.29476	-7.71250
9675.022	-1.93936	3.30583	0.77126	2.18688
9679.022	-1.81922	3.39452	0.59942	2.95850
9683.024	-1.78711	3.25811	0.68923	1.94728
9687.024	-1.92344	3.15958	0.46616	2.02973
9691.026	-1.90036	2.66677	0.46296	2.06118
9695.026	-1.85013	2.90206	0.36710	2.17865
9698.992	-1.89280	2.90288	0.45264	1.94937
9703.026	-2.10010	2.69036	0.30228	2.10114
9707.026	-2.04743	2.77085	0.14997	1.93200
9711.026	-2.00864	2.74314	0.36548	2.15654
9715.018	-1.95168	2.85401	0.28830	2.37888
9719.025	-1.92334	2.95725	-3.32963	-0.89358
9723.027	-2.07985	2.86902	-2.78305	-1.70497
9727.024	-2.08414	3.29437	0.62709	0.03441
9730.926	-1.97369	3.27242	0.19512	-0.76334
9735.019	0.49173	1.79376	0.17298	-0.87683
9739.025	-1.70380	2.67645	0.46537	-0.95963
9743.025	-1.70782	0.30558	0.62548	-0.50303
9746.924	-1.73539	0.10914	0.40849	-0.49273
9751.026	-1.78245	0.33393	0.32838	-0.80532
9755.026	-1.53634	0.09929	0.18186	-0.43830
9759.030	-1.76822	0.50992	0.17325	-0.54112
9763.028	-1.59440	0.61078	0.23204	-1.20728
9766.990	-1.48359	0.44206	-0.04678	-1.14713
9771.026	-1.45827	0.54418	0.18854	-1.26545
9774.988	-1.33368	0.38356	0.41306	-1.61674
9779.023	-1.05451	0.39617	0.72491	-1.98914
9783.029	-1.63725	0.20862	1.08403	-2.00281
9787.027	-1.56640	0.48531	1.00345	-2.41647
9791.028	-1.60166	2.90985	0.15429	-0.79641
9795.030	-1.66832	3.40756	0.63913	2.51371
9799.027	-1.65272	3.37041	0.86835	2.26329
9803.030	-1.74174	3.39676	0.80292	2.35008
9807.027	-1.74645	3.39267	0.58240	1.21562
9810.928	-1.82430	3.23794	0.26215	1.64363
9815.009	-2.00633	3.47551	-0.95825	0.96184
9819.024	-1.97825	3.33288	0.14114	1.01043
9823.029	-2.04726	3.51085	-0.21316	0.36485
9826.925	-2.04307	3.38605	-0.40844	0.32407
9831.025	-1.96536	3.33550	0.30786	0.38450
9834.988	-1.98529	3.18932	0.23321	0.56833
9839.025	-2.03695	3.09164	0.02402	-0.36379
9842.901	-2.01332	3.11380	0.04363	-0.25239
9847.029	-1.87636	3.11940	0.03075	-0.93159
9851.026	-1.81763	2.94125	-0.06577	-0.86208
9855.029	-1.89659	3.08526	0.08001	-1.03605
9859.036	-1.81557	2.98356	0.08560	-0.76310
9863.027	-1.79787	2.94577	0.07465	-0.70640
9867.027	-1.69197	2.99481	0.10664	-0.63119
9871.028	-1.70869	2.99040	0.25006	-0.94544
9874.926	-1.71647	2.96931	0.07497	-1.34553
9879.029	-1.72173	2.79699	0.41929	-1.33417
9883.030	-1.70219	2.88948	0.22048	-1.67866
9887.028	-1.75964	2.92339	0.15593	-1.57389
9890.928	-1.83057	2.73188	0.27272	-1.50276
9895.038	-1.92733	2.80819	0.26517	-1.96391
9898.990	-1.96881	2.69501	0.15548	-2.15161
9903.030	-1.20532	2.29366	0.13560	-2.16834
9907.030	-0.98911	2.28586	0.68747	-2.11847
9911.027	-1.91771	2.11823	0.35846	-2.15002
9915.032	-1.57300	1.99274	0.49086	-2.07993
9919.029	-1.69287	2.25381	0.30970	-1.91620
9922.928	-1.74759	2.38807	-0.00727	-1.49598
9927.031	-2.10550	2.84521	-0.91324	-1.51155
9931.025	-2.08136	2.47124	-0.46272	-1.22665
9935.024	-1.82852	2.40061	-0.55699	-1.11096
9938.927	-1.76165	1.76039	0.19157	-0.56224
9943.028	-1.63410	1.41231	-0.06257	-0.30186
9947.029	-1.52555	1.76462	0.06058	-0.35432
9951.030	-1.64543	1.06894	0.23621	0.07007
9955.030	-1.55827	1.82569	1.21648	0.49102
9959.034	-1.79599	1.28341	1.26475	0.28229
9963.029	-1.83878	1.82615	0.81761	0.54750
9967.030	-1.69862	1.93352	1.04818	1.12146
9970.912	-1.61776	1.89484	1.02940	1.78462
9975.032	-1.51536	2.13169	-0.19881	-0.67715
9979.029	-1.38833	1.91524	-1.54693	-0.31621
9983.004	-1.33252	2.17098	0.52647	-1.71433
9986.920	-1.29382	2.30640	-1.21556	-0.70421
9991.029	-1.29439	2.42609	0.04393	-0.62950
9995.030	-1.47742	2.38881	-0.85379	-0.69698
9999.033	-1.57667	2.52087	-0.75578	-1.04547
10002.927	-1.81096	2.84965	-1.02059	-1.03221
10006.993	-1.70596	2.59009	0.29424	1.82788
10011.028	-1.91001	2.62807	-0.75439	2.08397
10015.031	-2.00747	2.37871	-0.48704	1.39942
10018.930	-1.89332	2.28151	-0.73528	-0.48404
10022.995	-1.58564	2.45172	-0.57855	-0.69859
10027.026	-1.56412	1.77955	-0.08721	-0.86565
10031.029	-1.56407	1.01510	0.37658	-1.13514
10034.926	-1.62877	1.54157	-0.07827	-3.76708
10039.031	-1.63712	2.37266	-0.68881	-0.63490
10043.030	-2.38923	2.02990	-0.95896	0.75762
10047.030	-1.53170	2.31572	1.46226	1.58448
10050.926	-1.69346	2.19109	0.31642	2.06141
10055.028	-1.49192	2.14670	0.45276	1.92609
10059.031	-1.36526	2.11474	0.23723	1.80202
10063.031	-1.29524	2.30276	0.41256	1.85097
10067.032	-1.45328	2.30593	-0.43646	1.83689
10071.030	-1.52399	2.44512	-0.30565	1.85126
10075.030	-1.68600	2.62626	0.07341	1.62860
10079.030	-1.54775	2.54067	0.30630	1.37390
10082.929	-1.54185	2.53601	0.24170	1.18383
10086.908	-1.48952	2.76491	0.26733	1.28502
10090.906	-1.40430	2.47788	0.29513	1.23432
10094.870	-1.37149	2.27848	0.25239	1.15192
10098.901	-1.52694	2.43862	0.31032	1.29100
10102.905	-1.60804	2.74726	-0.10736	1.26382
10106.869	-1.55016	2.88043	-0.42584	1.30313
10110.898	-1.28474	3.12913	0.55672	1.23411
10114.900	-0.97693	3.21043	3.65893	1.17387
10118.907	1.59159	3.05151	0.98675	2.07679
10122.908	-0.36735	3.23781	0.80344	2.17059
10126.907	0.60873	2.70302	1.71977	1.52553
10130.897	-0.04534	2.76709	2.84536	1.40968
10134.907	0.31861	2.91706	2.40251	1.37467
10138.905	1.03414	2.88337	2.45535	1.30594
10142.910	0.64876	2.77226	2.93213	0.56436
10146.929	0.70283	2.97059	2.98918	0.88700
10150.904	0.73819	2.81735	3.25491	0.11199
10154.903	0.65791	2.70986	2.61251	0.03495
10158.908	0.47267	2.52132	2.49897	-1.76000
10162.912	0.57257	2.59558	2.72496	-1.48590
10166.907	0.62220	2.49807	2.65164	-2.11201
10170.909	0.62002	2.56949	1.17939	-1.08945
10174.870	0.73037	2.50682	2.04664	-0.99825
10178.899	0.83153	2.38855	1.10693	-0.99564
10182.905	0.48555	2.35595	1.66247	-1.08031
10186.907	0.66459	2.28198	2.17921	-1.37670
10190.912	0.52091	2.17344	2.41435	-1.60316
10194.878	0.74757	2.03049	2.47048	-1.53088
10198.903	0.79769	1.80449	2.62682	-2.03605
10202.907	0.89709	1.42642	2.58254	-1.44579
10206.870	0.82669	1.33439	3.09433	-1.57222
10210.899	1.06456	1.48390	3.06310	-1.27189
10214.908	0.75082	1.46680	2.16206	1.45776
10218.910	0.56138	1.39355	2.39589	0.88264
10222.909	0.60397	1.45621	2.30266	0.17522
10226.909	0.69379	1.40573	2.24525	0.09642
10230.908	0.72866	1.29973	2.67125	-0.02599
10234.906	0.73697	1.27137	2.63522	-0.09520
10238.904	0.59662	1.21296	2.36054	-0.52031
10242.936	0.65305	1.43966	2.86259	0.06269
10246.910	0.62134	1.54652	2.62207	0.00653
10250.907	0.61357	1.48884	2.60537	0.17168
10254.909	0.58171	1.39866	2.59123	0.06854
10258.900	0.57166	1.77891	2.56555	-0.03113
10262.910	0.65518	1.63368	2.82063	-0.18071
10266.910	0.62243	1.95706	2.87252	-0.04266
10270.906	0.60818	1.76478	2.81405	-0.10908
10274.901	0.63821	2.17022	3.17797	-0.06721
10278.889	0.56498	2.48155	2.97391	0.01943
10282.907	0.60684	2.40348	3.10789	0.50205
10286.909	0.57697	2.23247	3.16394	0.64512
10290.904	0.59205	2.20061	3.15748	-0.33125
10294.909	0.68987	0.30505	2.94703	-0.93787
10298.909	0.73977	2.02908	3.15741	-0.07128
10302.910	-1.74075	3.48103	3.14125	0.40217
10306.909	-7.59419	5.38265	3.48739	0.85949
10310.912	NaN	NaN	2.86452	-0.09724
10314.907	NaN	NaN	3.10074	0.81085
10318.899	NaN	NaN	NaN	NaN
10322.900	NaN	NaN	NaN	NaN
10326.937	NaN	NaN	NaN	NaN
10330.910	NaN	NaN	NaN	NaN
10334.912	NaN	NaN	NaN	NaN
10338.868	NaN	NaN	NaN	NaN
10342.908	NaN	NaN	NaN	NaN
10346.913	NaN	NaN	NaN	NaN
10350.911	NaN	NaN	NaN	NaN
10354.873	NaN	NaN	NaN	NaN
10358.902	NaN	NaN	NaN	NaN
10362.884	NaN	NaN	NaN	NaN
10366.910	NaN	NaN	NaN	NaN
10370.874	NaN	NaN	NaN	NaN
10374.912	NaN	NaN	1.85594	5.06158
10378.904	-20.00321	3.16450	1.44356	5.47745
10382.911	-20.00301	-12.07673	1.61396	2.82170
10386.907	0.44572	-5.79857	NaN	NaN
10390.911	-4.03749	-1.26287	1.63512	2.83696
10394.910	-4.45362	-0.86534	-2.32662	5.58739
10398.913	-8.11749	2.73528	-0.68789	2.58369
10402.904	-0.26374	4.42722	1.47739	2.44571
10406.911	4.07448	3.87607	1.06170	2.14627
10410.913	-0.85302	4.97476	-1.79329	1.79664
10414.910	-1.11529	4.32951	-0.82367	-3.21049
10418.906	-2.22456	4.65204	-0.76191	-1.79572
10422.913	-1.72024	4.52859	-0.24527	-2.07249
10426.911	-2.15252	3.64972	-0.21033	-0.22926
10430.911	-2.17940	2.92619	-0.94683	-0.72797
10434.907	-2.21489	3.01956	-0.98918	-0.33782
10438.915	-2.35053	2.83870	-0.75044	-0.75113
10442.908	-2.17432	3.20456	-1.04776	-0.47940
10446.915	-1.83261	2.82469	-1.09445	-0.53996
10450.903	-1.56454	2.74472	-0.79084	-0.52490
10454.874	-1.58949	2.76635	-0.75905	-0.57251
10458.912	-1.84656	2.73817	-1.00025	-0.25695
10462.917	-2.19816	2.76949	-1.18034	-0.30647
10466.936	-2.06513	2.63424	-0.35283	-0.27873
10470.913	-1.91102	2.65201	-0.21177	-0.43597
10474.912	-1.88829	2.71784	0.05519	-0.40021
10478.910	-2.03258	2.77407	0.25006	0.01717
10482.903	-1.99748	2.74839	0.19643	-0.03317
10486.912	-2.26495	3.00356	0.70067	-0.08990
10490.913	-2.15799	2.97678	0.10324	0.47853
10494.912	-2.18912	2.99163	-0.14153	0.43753
10498.912	-2.30276	2.96646	-0.88937	0.55718
10502.912	-2.08354	3.11349	-0.99226	0.64578
10506.911	-1.75223	2.87008	-0.26778	0.98007
10510.913	-1.67588	3.09287	-0.00171	1.01699
10514.934	-1.14017	3.05510	-1.81505	0.57391
10518.872	-1.69339	3.14749	-1.50641	-2.74836
10522.911	-2.52733	3.13428	-1.10609	-1.32919
10526.901	-2.77758	3.52524	-0.12890	-2.75297
10530.907	-1.65927	3.49982	-0.42584	-3.04747
10534.913	-2.47036	2.62820	-0.46790	-3.03611
10538.912	-1.11581	2.40879	-0.84739	-2.66871
10542.914	-1.35167	2.10389	-1.01724	-2.14595
10546.914	-1.38483	2.30262	-0.72201	-0.48819
10550.913	-1.80045	2.63074	-0.24927	-0.56301
10554.912	-2.10739	2.66316	-0.46966	-0.14849
10558.912	-1.98157	2.55257	-0.51547	0.32720
10562.917	-2.17435	2.98547	-0.65541	0.73582
10566.877	-2.06959	3.36756	-0.71677	0.97901
10570.887	-2.15775	3.05612	-0.25634	-0.97403
10574.913	-2.17844	2.98778	-0.39246	-1.00716
10578.907	-2.15864	3.24711	-0.56563	-1.73996
10582.912	-2.20074	3.12932	-0.32014	-1.77897
10586.913	-2.18349	3.18770	-0.78064	-2.18918
10590.915	-2.18813	3.02414	-0.40829	-1.35749
10594.906	-2.15864	3.17823	-1.08001	-2.24680
10598.912	-2.10260	3.23171	-1.14193	-2.15571
10602.917	-2.01104	3.28079	-1.01541	-2.30725
10606.915	-1.88100	3.29304	-0.75039	-2.39135
10610.897	-1.87188	3.19146	-1.34673	-2.23872
10614.911	-1.80764	2.97471	-1.13236	-2.34501
10618.914	-1.86888	2.66942	-0.89014	-2.26504
10622.916	-1.84257	3.01894	-0.55089	-2.36540
10626.905	-1.86900	2.87978	-0.03517	-2.23685
10630.916	-1.78205	2.80996	-0.67707	-2.16226
10634.914	-1.76936	2.90818	-0.41462	-2.12285
10638.917	-1.73904	2.84379	-1.81552	-2.09513
10642.911	-1.31354	2.55320	0.02502	-3.23294
10646.877	-1.34021	1.88724	0.29769	-2.38538
10650.878	-0.45681	2.13322	-0.11997	-2.68202
10654.906	-1.97498	2.43434	-0.65990	-2.14513
10658.884	-2.02031	1.39590	-0.55471	-1.83715
10662.923	-1.87738	2.20448	-0.65811	-1.55867
10666.914	-1.40914	1.67378	-0.52562	-1.18407
10670.918	-1.70492	1.70474	-0.77814	-0.66842
10674.908	-1.27954	2.02453	-0.87897	-0.82931
10678.914	-1.62914	2.20569	-0.52270	-0.60177
10682.914	-1.79165	2.00998	-0.55898	0.09462
10686.915	-1.90344	2.67492	-1.59271	0.19221
10690.915	-4.04631	1.98436	-3.51901	0.88297
10694.895	-5.16081	2.46587	-2.70201	0.83422
10698.917	-5.82012	1.74926	-5.40720	0.41709
10702.914	-6.13760	2.19222	-6.18743	0.71523
10706.881	-8.61780	1.78443	-7.77018	1.20881
10710.915	-8.60800	1.91242	-9.13318	-1.31546
10714.917	-8.69554	1.31596	-9.18731	-1.66735
10718.879	-10.07403	1.69285	-10.09239	-0.27114
10722.919	-11.40872	1.51477	-9.69419	-1.90701
10726.914	-11.10785	1.59535	-10.03635	-1.86316
10730.916	-11.05285	1.46839	-12.25652	-2.91445
10734.904	-10.06633	1.73447	-9.76905	-3.79067
10738.917	-10.10324	1.85156	-9.88049	-3.59293
10742.914	-10.09417	1.50796	-9.93044	-3.83766
10746.918	-10.28143	1.56572	-9.80826	-3.88627
10750.915	-10.46407	1.52739	-9.89976	-3.88297
10754.909	-10.36427	1.64163	-9.88338	-3.50410
10758.918	-10.32311	1.38059	-9.79170	-2.13757
10762.917	-10.26326	1.01962	-9.77888	-2.10278
10766.923	-9.82450	1.39518	-9.97358	-1.87836
10770.882	-10.57361	0.69399	-9.81322	-1.42154
10774.928	-10.34708	0.16491	-9.82614	-1.27823
10778.883	-10.36804	-0.03552	-10.01996	-1.03948
10782.916	-10.30355	0.38506	-9.89692	-0.57143
10786.876	-10.23430	0.97884	-10.06845	-0.38798
10790.919	-10.04129	0.66402	-9.97310	-0.58705
10794.917	-10.18351	0.12503	-9.92131	-0.16527
10798.916	-10.41138	0.49629	-9.76490	1.43785
10802.814	-10.42826	0.25050	-10.10615	-0.87531
10806.916	-10.56179	0.30904	-9.94007	-0.90124
10810.917	-10.55987	0.55600	-9.98933	-0.49372
10814.918	-10.64218	0.50039	-9.96768	-1.16649
10818.826	-10.51477	0.77921	-9.69077	-0.95302
10822.916	-10.59061	1.08780	-9.77816	-1.22173
10826.920	-10.63995	1.10723	-9.79705	-1.26845
10830.919	-10.71681	1.16176	-9.75490	-1.24462
10834.887	-10.69259	1.14741	-9.76707	-1.88490
10838.917	-10.66440	1.13919	-9.72023	-1.83209
10842.918	-10.69127	1.29951	-9.68775	-1.54657
10846.882	-10.72227	1.07937	-9.55854	-1.65423
10850.815	-10.61991	0.97331	-11.78483	-1.97118
10854.881	-10.54231	0.99590	-9.62755	-2.74907
10858.914	-10.46273	1.19282	-9.69942	-2.36032
10862.917	-10.40087	0.85952	-9.58383	-2.63965
10866.807	-10.47468	1.20005	-9.59479	-2.93394
10870.922	-10.44182	0.83720	-9.89128	-2.48605
10874.918	-10.28371	0.81100	-9.53933	-1.86727
10878.916	-7.73699	1.25655	-9.14738	0.33880
10882.820	-5.55998	0.89969	-7.36359	1.91665
10886.917	-3.76836	0.83101	-5.04152	0.96478
10890.920	-1.85851	0.75631	-2.51012	0.14977
10894.920	-1.19132	0.37129	-2.09266	1.11564
10898.824	1.44237	-1.01565	0.38775	-0.74631
10902.881	2.80937	1.31586	2.68611	-1.41404
10906.881	4.56042	0.40519	5.21934	-2.32777
10910.915	5.09987	1.16276	5.80720	-0.09980
10914.921	5.28320	1.30475	6.51018	1.83724
10918.915	5.24230	0.41109	6.68594	-0.29621
10922.881	5.64619	-0.78874	4.75265	-0.00357
10926.918	5.62586	-1.86241	6.20045	-0.59872
10930.818	5.37608	1.02986	7.96836	-0.45600
10934.919	5.68010	0.75072	7.78689	0.98136
10938.924	5.05471	0.51855	8.00686	0.14712
10942.906	4.78479	0.78327	5.77283	-0.12784
10946.818	4.82446	-0.20094	5.72912	-1.03592
10950.918	5.09938	0.43962	6.36962	-2.19561
10954.920	4.92974	1.40952	6.78013	-4.69800
10958.917	5.09795	0.91286	4.29576	-0.91559
10962.818	5.41780	0.40867	7.45299	1.40305
10966.923	5.03093	0.70326	6.29256	1.21389
10970.922	5.15593	-0.12577	5.52195	-0.04576
10974.919	4.95482	-0.03273	7.07004	-0.02123
10978.815	5.03900	-1.14218	6.79481	-0.96602
10982.920	4.86157	0.62046	7.02629	-1.70917
10986.922	4.89276	1.50792	7.21393	-2.89309
10990.921	5.10586	1.04020	7.11667	-1.28209
10994.818	4.94556	1.15920	7.12598	-0.17188
10998.919	4.88991	0.93797	7.07156	0.12456
11002.921	5.08234	0.70808	7.00778	0.09535
11006.921	4.79780	0.97533	7.01396	0.06923
11010.818	4.84989	0.67285	7.26779	-0.22256
11014.921	4.95376	0.22125	7.06569	-0.17188
11018.879	4.82875	0.25261	6.75177	-0.09320
11022.917	4.80315	0.08335	6.17653	-0.87086
11026.822	5.18166	-0.70426	6.17747	-1.64428
11030.918	4.85788	-0.12174	5.88643	-0.99572
11034.921	4.70483	1.15839	6.27812	-2.42374
11038.921	4.72623	0.97868	5.68568	-2.27067
11042.819	4.66317	1.24969	6.77267	-3.46766
11046.922	4.98354	1.27436	4.76505	-2.05783
11050.920	4.64857	1.56909	5.24912	-2.29829
11054.920	4.70554	1.61641	5.02034	-2.24262
11058.818	4.65503	1.69470	5.61600	-2.13609
11062.921	4.68585	1.47729	5.96650	1.35205
11066.923	4.75852	1.51359	6.24303	1.41927
11070.915	4.70663	1.32211	6.34508	1.20071
11074.782	4.69825	1.42440	8.97746	0.78963
11078.920	4.65077	1.17346	6.59175	-0.03063
11082.919	4.10903	1.21779	5.54570	0.34339
11086.923	1.91107	1.16253	2.97022	0.31382
11090.819	-0.06803	0.26094	1.07942	-0.32417
11094.922	-1.51305	1.05538	-2.72300	0.02159
11098.921	-2.63992	0.47621	-2.42929	-0.06192
11102.936	-4.57684	-0.09304	-5.36326	-1.20856
11106.926	-5.25335	-0.14362	-6.25078	-0.27967
11110.902	-7.02944	-0.18704	-7.45206	-1.55234
11114.794	-7.62567	-0.39566	-8.15988	-0.97377
11118.796	-7.96933	-0.29550	-8.19800	-1.91098
11122.924	-8.21247	0.00723	-8.32215	-3.77224
11126.796	-7.70024	-0.09067	-9.14479	-4.41541
11130.795	-7.93688	0.16069	-8.33003	-3.40436
11134.796	-7.99878	-0.01570	-8.85184	-3.47044
11138.793	-8.11610	-1.08895	-8.65118	-3.04857
11142.794	-8.17811	-0.84888	-8.64699	-2.34636
11146.792	-8.03217	-0.28257	-8.62037	-4.69659
11150.799	-8.31015	0.08458	-8.67776	-3.68644
11154.802	-8.37757	0.31000	-8.76045	-3.28956
11158.764	-8.31764	0.26456	-8.68014	-2.77956
11162.802	-8.20517	-1.24270	-8.61327	-2.83605
11166.806	-8.12452	-0.35704	-8.61892	-2.85344
11170.797	-8.30366	0.31158	-8.51205	-3.79956
11174.798	-8.33472	0.62797	-8.53858	-4.52186
11178.798	-8.45677	1.37314	-8.45992	-3.05556
11182.798	-8.41119	-1.23232	-8.32923	-2.95731
11186.820	-8.31154	-0.34494	-8.14830	-2.77633
11190.799	-8.29985	0.80560	-8.29372	-1.68088
11194.801	-8.36217	0.37066	-8.27516	-3.19232
11198.779	-8.21181	0.93785	-8.23099	-3.78572
11202.823	-8.23374	1.15313	-8.26928	-2.99273
11206.800	-8.19781	-1.57729	-8.36348	-2.81425
11210.800	-8.11437	-0.20039	-8.24055	-2.92278
11214.800	-7.75870	-0.15778	-8.27353	-1.77231
11218.789	-8.14563	-0.64526	-8.25090	-3.34932
11222.797	-7.84983	0.23415	-8.10197	-3.48863
11226.799	-7.81851	0.81234	-8.27951	-3.71297
11230.798	-7.98717	0.64660	-8.29844	-3.91833
11234.800	-8.17111	0.39738	-8.19151	-3.16930
11238.793	-8.18388	0.35526	-8.20926	-3.05114
11242.790	-8.32019	0.31366	-8.24016	-3.04166
11246.800	-8.45094	0.45699	-8.05845	-3.10216
11250.797	-8.35007	0.66546	-8.07540	-2.34397
11254.801	-8.37179	0.46874	-8.14297	-2.14999
11258.799	-8.44895	0.54938	-8.12233	-2.55512
11262.761	-8.52205	0.50787	-7.99450	-2.60612
11266.824	-8.49156	0.50039	-8.02024	-2.70645
11270.762	-8.49814	0.44283	-8.14764	-2.69728
11274.762	-8.37949	0.45582	-8.13030	-2.52197
11278.799	-8.30519	0.61693	-8.10574	-2.63442
11282.801	-8.21587	0.67913	-8.14035	-2.77707
11286.798	-8.25112	0.33027	-8.03312	-2.91373
11290.800	-8.24222	-0.27224	-8.17067	-3.50361
11294.764	-8.26291	-0.58127	-8.12748	-2.82521
11298.800	-8.19873	-0.64724	-8.13828	-2.35623
11302.802	-8.16724	-0.72206	-8.12225	-2.34584
11306.799	-8.12880	0.77309	-8.14820	-2.06529
11310.812	-8.21157	1.04045	-8.17648	-1.95813
11314.792	-8.46097	1.11785	-7.75410	-2.38537
11318.802	-8.57651	1.33978	-7.88604	-1.60346
11322.788	-14.47862	1.49189	-7.98121	0.80801
11326.802	NaN	NaN	-13.45785	5.22177
11330.761	NaN	NaN	-10.87915	5.23719
11334.799	NaN	NaN	NaN	NaN
11338.802	NaN	NaN	NaN	NaN
11342.801	NaN	NaN	NaN	NaN
11346.797	NaN	NaN	NaN	NaN
11350.800	NaN	NaN	NaN	NaN
11354.801	NaN	NaN	NaN	NaN
11358.802	NaN	NaN	NaN	NaN
11362.803	NaN	NaN	NaN	NaN
11366.772	NaN	NaN	NaN	NaN
11370.798	NaN	NaN	NaN	NaN
11374.797	NaN	NaN	NaN	NaN
11378.801	NaN	NaN	NaN	NaN
11382.767	NaN	NaN	NaN	NaN
11386.800	NaN	NaN	NaN	NaN
11390.801	NaN	NaN	NaN	NaN
11394.795	NaN	NaN	NaN	NaN
11398.800	NaN	NaN	NaN	NaN
11402.803	NaN	NaN	NaN	NaN
11406.779	NaN	NaN	NaN	NaN
11410.800	NaN	NaN	NaN	NaN
11414.829	NaN	NaN	NaN	NaN
11418.764	NaN	NaN	NaN	NaN
11422.803	NaN	NaN	NaN	NaN
11426.803	NaN	NaN	NaN	NaN
11430.829	NaN	NaN	NaN	NaN
11434.801	NaN	NaN	-12.49855	8.68415
11438.802	NaN	NaN	-13.68480	13.27641
11442.804	NaN	NaN	-12.73236	6.88116
11446.824	-19.88266	-0.52960	-12.39892	4.88980
11450.793	-17.44707	1.99405	-12.88796	4.99883
11454.809	-17.35749	-1.54039	-12.46737	5.15539
11458.801	-15.15348	-3.40657	-12.37555	4.41948
11462.801	-6.89311	-0.19141	-11.22322	0.84725
11466.804	-0.40939	-0.59401	-7.36498	-0.55135
11470.802	-0.34509	-1.66114	-7.83958	-2.68259
11474.801	-2.90228	-0.85904	-7.39310	-2.54912
11478.793	-5.27698	-0.70603	-7.74813	-2.29979
11482.801	-8.19151	-0.33381	-7.80472	-2.29061
11486.802	-8.38687	-0.10099	-7.80004	-1.09099
11490.777	-8.82366	0.55844	-8.04528	-3.10565
11494.773	-7.98155	-0.46502	-7.84647	-0.93549
11498.800	-8.60608	-0.38652	-7.89593	-4.67707
11502.802	-9.23534	-1.31940	-7.88492	-3.71679
11506.805	-9.35264	-1.38477	-7.54747	-2.62898
11510.797	-9.01634	-1.19275	-7.78280	-1.80441
11514.804	-8.92091	-0.24602	-7.76867	-1.07532
11518.805	-8.70507	-0.53902	-7.12488	-1.34823
11522.803	-8.84964	-0.15783	-7.52925	-3.89289
11526.804	-8.93113	-0.09635	-7.17270	-4.29284
11530.788	-8.90509	-0.86992	-7.51705	-4.17072
11534.768	-7.76684	4.19400	-7.49298	-4.14259
11538.803	-9.04546	-1.27416	-7.48597	-3.92452
11542.798	-8.87367	-1.72149	-7.54730	-3.28448
11546.803	-8.90996	-1.39405	-7.70263	-3.51783
11550.807	-8.96409	-1.84642	-7.36664	-3.87174
11554.804	-8.86604	-2.35821	-7.54696	-3.77092
11558.806	-8.92328	-2.71939	-7.37441	-3.20857
11562.803	-8.91926	4.04520	-7.58564	-3.09285
11566.802	-8.77621	-2.03698	-7.73716	-3.27429
11570.808	-8.91425	-2.05902	-7.90499	-2.88295
11574.798	-9.25514	-2.58240	-7.91110	-3.18403
11578.803	-9.24068	-2.36834	-7.78319	-3.09336
11582.802	-8.95293	-1.88738	-8.08496	-3.16424
11586.803	-8.99690	-1.38543	-7.65851	-3.21934
11590.806	-8.80153	-1.03939	-7.64247	-3.35651
11594.803	-8.91040	-1.36515	-7.80969	-3.32841
11598.806	-9.00951	-1.22900	-8.06779	-3.11202
11602.806	-8.83350	-1.54601	-7.95068	-3.46731
11606.798	-9.21154	-1.35466	-7.87277	-3.45656
11610.805	-7.64874	-0.95499	-7.42832	-3.47825
11614.786	-5.44168	-1.19481	-5.27757	-3.50183
11618.804	-4.78237	-1.27581	-3.90212	-3.57281
11622.796	-3.24264	-1.24293	-2.91668	-3.55859
11626.805	-2.54105	3.84963	-0.82468	-3.50169
11630.806	-0.28093	3.06164	-0.34506	-3.69982
11634.803	-0.64225	-3.01156	-0.14647	-3.59890
11638.799	-0.37184	-3.98339	-0.06083	-3.24273
11642.800	-0.73605	-3.59465	-0.41189	-2.83578
11646.769	-0.70069	-3.72759	-1.06967	-2.84661
11650.807	-0.72387	-3.51432	0.18645	-2.90170
11654.796	-1.00030	-2.50361	1.53017	-2.37228
11658.797	-0.72273	-2.40915	1.56997	-2.58385
11662.806	-0.72409	-2.28971	1.32158	-2.91170
11666.806	-0.93611	-2.52496	-0.93510	-10.68448
11670.808	-0.69841	-2.29404	-0.91237	-10.58944
11674.805	-0.81136	-1.81474	-1.01010	-10.41777
11678.806	-0.74536	-2.27177	-1.15726	-10.34771
11682.805	-0.83252	-1.87244	-1.16560	-10.45420
11686.807	-0.81803	-1.65524	1.43835	-3.47741
11690.807	-0.78479	-2.02544	1.78399	-3.90064
11694.807	-0.81630	-1.68072	-1.39607	-10.46202
11698.780	-0.84401	-1.49653	1.39264	-3.76954
11702.809	-0.82689	-1.55129	1.22040	-4.67548
11706.808	-0.98201	-1.08815	-1.56466	-10.42305
11710.769	-0.99772	-1.29599	-1.80191	-10.48932
11714.805	-0.93482	-1.25618	-1.89538	-10.45742
11718.808	-1.02347	-1.39394	-4.79871	-10.59072
11722.799	-1.03856	-0.84167	-4.49376	-10.54490
11726.806	-1.04538	-1.36987	-4.68013	-10.65738
11730.806	-0.99310	-0.99945	-4.82695	-10.69516
11734.810	-1.08748	-1.07043	-4.86078	-10.63070
11738.789	-1.07339	-1.12677	-4.98098	-10.82399
11742.808	-1.12241	-1.10191	-5.01874	-10.74704
11746.809	-1.23191	-1.29608	1.03756	-0.07175
11750.801	-1.20197	-1.09691	1.14491	-0.75447
11754.805	-1.34437	-1.51607	1.21839	-0.75619
11758.807	-1.27577	-1.50052	1.14890	-0.61229
11762.807	-1.25676	-1.54058	0.56652	-1.15309
11766.810	-1.28323	-1.57596	0.38921	-1.03831
11770.777	-1.31119	-1.65697	0.28689	-1.31959
11774.809	-1.37664	-1.63485	0.47366	-1.48915
11778.809	-1.34537	-1.81445	0.37020	-1.93157
11782.779	-1.27170	-1.54144	0.24331	-2.33778
11786.807	-1.09162	-1.73720	0.16265	-2.46125
11790.806	-0.79434	-1.24570	-0.16965	-2.66860
11794.770	-0.92148	-1.31397	0.01291	-2.70610
11798.809	-0.80342	-1.28416	0.08773	-3.56846
11802.807	-0.69963	-1.14727	0.03765	-3.82530
11806.806	-0.62687	-1.07963	-0.08274	-4.39287
11810.806	-0.65967	-0.90090	0.00995	-4.14965
11814.807	-0.56595	-0.86849	-0.02045	-4.17365
11818.810	-0.72972	-0.86804	-0.02139	-3.87522
11822.787	-0.89116	-1.15484	-0.13332	-3.85982
11826.808	-0.94170	-0.86174	0.22415	-3.95241
11830.776	-1.66316	1.82423	1.64893	-3.58745
11834.806	-2.47809	-0.24133	0.06257	-2.63498
11838.807	-3.18143	4.09255	1.12315	-6.84759
11842.807	-2.69435	2.13380	-0.22373	0.81847
11846.717	-2.88713	4.97587	-0.39313	-2.27404
11850.809	-3.16560	5.90662	-2.32374	3.34170
11854.810	-3.18596	5.70828	-2.26752	4.23495
11858.810	-3.39208	6.43370	4.32219	-1.96035
11862.814	-3.14748	6.16671	-0.65225	-1.90369
11866.768	-3.31640	6.37551	-0.99998	-2.15363
11870.814	-3.20355	6.37434	-1.28983	-2.33902
11874.810	-3.20008	7.16608	-1.52064	-2.17299
11878.716	-3.29985	7.54786	-2.05970	-1.91779
11882.808	-3.35271	7.52381	-1.72170	-1.79450
11886.804	-3.35649	7.82196	-2.07517	-1.52626
11890.807	-3.34841	7.89768	-1.65017	3.77226
11894.686	-3.52650	7.83406	-1.71717	4.02846
11898.808	-3.53594	7.83272	-1.59293	3.54556
11902.772	-3.67072	8.05130	-1.74970	3.73796
11906.808	-3.93883	8.02214	-2.43104	-1.50205
11910.697	-3.81778	7.96652	-1.95549	3.86803
11914.809	-3.87959	8.11060	-2.14669	-1.50791
11918.808	-3.76979	10.92819	-2.32642	3.59133
11922.809	-3.94354	8.03201	-2.55792	-1.52951
11926.713	1.09142	10.97418	-2.25954	8.32982
11930.809	1.34713	10.74489	-2.35489	8.68291
11934.811	1.33118	10.83730	-2.24631	8.89766
11938.810	1.22496	10.91599	-2.19123	7.32451
11942.707	1.28415	10.77091	-1.59601	3.91855
11946.794	1.22858	10.90665	-1.82817	4.66375
11950.808	1.28849	10.81847	-1.59040	4.28351
11954.809	1.32639	10.74143	-1.64397	3.92187
11958.705	1.33530	10.76324	-1.60099	4.38957
11962.810	1.24659	10.95257	-1.74776	3.78282
11966.813	1.32126	10.75450	-1.81523	3.92787
11970.816	1.32503	10.50846	-1.89793	3.74208
11974.815	1.32312	10.72790	-1.98494	3.99370
11978.813	1.30347	10.65544	-2.03541	3.81896
11982.810	1.21139	5.60705	-1.88750	3.82004
11986.812	1.14007	5.67948	-2.10612	4.04553
11990.710	1.19830	5.85714	-2.22508	4.15833
11994.768	0.97539	6.15358	-2.23127	4.42007
11998.808	1.07577	6.17259	-2.31009	4.78663
12002.808	-4.19052	5.92648	-2.09799	4.81271
12006.712	-4.25001	5.56332	-2.32090	5.52002
12010.811	-4.15011	5.62959	-1.85348	5.10636
12014.810	-4.10350	5.75184	-1.66571	5.29619
12018.809	-4.07443	5.86468	-1.86585	5.21933
12022.673	-4.05717	6.06890	-1.85088	5.53256
12026.815	-4.08769	6.01840	-1.41070	5.71558
12030.792	-3.95901	5.60170	-1.39036	6.03897
12034.809	-4.07239	6.37410	-1.37144	6.61017
12038.708	-3.95765	6.46125	-1.56635	6.92512
12042.810	-3.98924	6.56403	-1.57138	8.01488
12046.809	-4.04347	6.61462	-6.16324	-3.40394
12050.809	-3.94925	6.73207	-6.06085	-3.41080
12054.711	-3.98445	6.78650	-5.74052	-3.17491
12058.811	-3.93604	6.93591	-5.46271	-2.86847
12062.810	-4.03969	6.94672	-5.51509	-3.09799
12066.810	-4.03016	6.98592	-5.61507	-3.29528
12070.711	-4.04572	7.05989	-5.54270	-3.26433
12074.800	-4.02273	7.05404	-5.63513	-3.33091
12078.776	-4.08505	7.06910	-5.60165	-3.42507
12082.812	-4.04305	6.97411	-5.58636	-3.45231
12086.679	-3.92393	6.79410	-2.65706	7.28355
12090.812	-3.65055	6.65520	-2.69500	7.82786
12094.816	-3.34108	6.22475	-2.43828	6.92377
12098.813	-3.82983	5.51750	-2.50573	7.02483
12102.710	-3.68505	5.03390	-2.30087	5.59581
12106.811	-3.58784	4.89758	-2.44328	5.68313
12110.809	-3.55570	4.37536	-2.43186	3.57545
12114.776	-0.19234	11.29241	-2.44851	3.91449
12118.702	-0.03924	10.27395	-1.66306	4.10679
12122.811	-3.61322	5.50968	-1.97542	3.39939
12126.808	-3.75610	6.23903	-3.67252	3.70216
12130.813	-4.14073	7.27580	-2.34523	-1.77622
12134.711	-4.07026	6.69578	-2.19281	-1.98350
12138.813	-4.14463	6.99136	-2.00058	-2.27122
12142.812	-4.17198	7.00584	-1.90242	-2.35660
12146.810	-3.96790	6.69089	-1.54936	-2.43076
12150.710	-4.20296	7.18633	-1.22171	-2.79630
12154.688	-4.15922	6.98837	-0.96395	-2.70983
12158.687	-4.07039	7.10518	-1.90103	3.60346
12162.683	-4.05285	7.12613	-1.81451	2.99647
12166.691	-4.00909	6.76674	-1.59936	3.04332
12170.691	-3.85405	5.11076	-1.32151	2.96507
12174.690	-4.06303	6.87836	-0.87810	3.73330
12178.688	-3.93515	10.40295	-1.75394	2.72986
12182.816	-3.87564	10.74566	-0.94224	3.20175
12186.688	-3.79924	5.66873	-1.66661	3.37984
12190.690	-3.77389	5.91533	-1.51501	3.92332
12194.699	-3.75049	6.12418	-2.21130	4.20046
12198.815	-3.80026	5.82557	-2.54873	4.51000
12202.661	-3.70979	5.54862	-2.16481	4.66093
12206.687	-3.56561	5.72735	-2.22728	6.12015
12210.688	-3.47858	5.68807	-2.74034	4.84734
12214.655	-3.54146	5.88978	-2.37077	4.87411
12218.686	-3.57454	5.94213	-2.18310	4.44727
12222.690	-3.53557	5.73836	-2.27689	4.72243
12226.690	-3.60778	5.86637	-2.05799	4.53986
12230.687	-3.71416	5.80867	-2.07906	4.61826
12234.688	-3.49465	5.86689	-2.39438	4.39264
12238.687	-3.51159	5.73692	-2.10374	3.54247
12242.676	-3.43637	5.56569	-1.72034	3.67358
12246.689	-3.17740	5.86435	-0.58138	4.11174
12250.688	-1.49088	5.93038	-0.35380	3.91113
12254.691	0.69218	6.13135	2.66815	4.81139
12258.687	2.54965	5.98012	2.92846	4.57943
12262.682	3.33171	5.95891	5.62264	4.30925
12266.692	5.81715	6.19752	7.24901	5.40293
12270.690	7.27936	5.94415	8.13660	3.67300
12274.665	6.42751	6.04231	9.14866	8.56863
12278.683	7.27265	6.58637	8.01905	8.32409
12282.655	9.95052	6.59051	12.15813	7.62091
12286.658	10.99408	6.95804	13.96220	10.59312
12290.689	11.09819	7.17913	12.76156	11.20833
12294.683	10.40166	7.01406	12.31883	11.49890
12298.692	9.96097	7.44443	12.66084	10.49355
12302.689	7.91373	7.42396	12.28533	9.93268
12306.690	9.82908	7.62581	12.17395	6.89850
12310.682	9.16550	7.88820	11.93066	10.74296
12314.688	10.07148	7.75365	12.86591	10.16530
12318.689	10.20125	7.81023	12.66556	11.91679
12322.691	8.44752	7.68530	12.72652	10.37251
12326.685	9.34466	7.61131	13.52989	10.45411
12330.687	9.94886	6.92486	12.51487	11.09893
12334.690	10.09672	7.21466	9.66672	7.47852
12338.689	7.66061	7.89015	10.73294	7.68881
12342.690	7.44030	7.41101	11.76312	9.20718
12346.690	8.83801	7.86987	12.32542	7.86513
12350.692	9.11465	7.63919	12.45665	7.87401
12354.690	9.52842	7.45260	12.76116	8.54684
12358.690	9.85004	7.69483	13.04450	9.67281
12362.691	9.37317	7.56461	13.89066	9.47571
12366.692	9.79375	7.37297	8.68928	8.52689
12370.688	9.57172	6.95416	9.45435	8.97602
12374.694	9.37571	7.52774	10.77143	8.15178
12378.690	9.45290	7.60641	12.46550	8.21297
12382.683	9.64000	7.69469	12.43828	8.56445
12386.693	9.71360	7.59736	12.84265	9.15902
12390.691	9.24012	7.73198	13.79887	9.21389
12394.656	9.18937	7.86708	8.99690	9.12001
12398.693	9.30232	7.91475	9.36080	8.76563
12402.650	9.23618	7.83878	10.65088	8.66894
12406.689	9.75234	7.92240	12.31462	10.20171
12410.671	9.48891	7.97329	13.08343	10.91829
12414.693	9.21757	8.11282	12.70978	11.85777
12418.691	9.45703	8.12685	12.50806	11.37565
12422.684	9.56412	8.16535	12.44633	11.04809
12426.694	9.30953	8.24116	11.55259	11.31730
12430.692	9.11581	8.27556	12.52345	9.11342
12434.693	9.21000	8.33937	11.69593	8.99449
12438.653	9.18598	8.29146	12.03327	8.80039
12442.691	9.34365	8.27658	11.36422	9.08666
12446.696	9.31175	8.31452	11.51001	8.57287
12450.679	9.27129	8.29126	12.79220	8.76956
12454.686	9.43863	8.26616	12.97825	8.35909
12458.692	9.25925	8.24439	12.11408	6.98172
12462.653	9.54008	8.22940	11.09814	8.56377
12466.694	9.41777	8.20117	12.60992	9.16000
12470.692	9.49714	8.11174	12.87169	11.67952
12474.696	9.16937	8.15024	12.01457	10.37746
12478.693	9.34010	8.11981	10.69848	9.93724
12482.694	9.38175	8.16762	12.73762	10.64342
12486.691	9.77288	8.19980	13.16925	11.53942
12490.694	10.94789	8.28469	13.63147	10.89928
12494.657	11.93805	8.17812	13.61937	7.95920
12498.694	12.61618	8.03745	17.71480	10.18194
12502.688	13.53251	8.07410	14.29536	9.42844
12506.692	14.23247	8.03870	18.13936	8.08844
12510.694	12.32177	8.75184	15.68799	7.82978
12514.694	14.03197	8.66428	16.48611	9.19758
12518.686	13.74549	8.20196	16.91463	9.44706
12522.675	13.41446	8.37537	17.04555	9.21608
12526.694	13.46317	8.03313	16.69983	8.70033
12530.698	14.17754	7.74253	16.20437	10.22951
12534.659	13.89309	8.07039	16.83666	9.73859
12538.691	13.64504	8.34123	17.51990	9.28514
12542.693	13.33624	8.65065	16.37807	9.88842
12546.696	13.77572	8.89488	15.97248	11.58079
12550.686	13.67206	9.06298	16.39388	11.48661
12554.695	13.28296	8.41004	16.67200	11.28947
12558.693	13.46975	8.25331	17.25474	11.42846
12562.694	13.33452	7.63485	16.66961	12.58870
12566.691	13.94474	7.42314	16.78160	10.46841
12570.694	13.61832	8.11042	16.15305	11.07739
12574.692	13.17659	8.16575	16.96843	11.14177
12578.659	13.34535	8.38571	17.25397	12.39657
12582.687	12.91116	8.60955	17.43968	11.22028
12586.694	13.43456	8.23969	16.51224	11.28432
12590.692	13.41523	8.44779	16.15124	7.76546
12594.693	13.75430	8.40027	15.65417	7.78289
12598.695	12.86520	8.89619	16.02254	11.32739
12602.694	13.60819	8.78262	16.88982	10.50819
12606.693	13.91785	8.80779	16.95890	11.36179
12610.697	13.22152	8.62219	17.55059	10.35187
12614.687	13.42131	8.88288	17.63015	11.01291
12618.678	13.31499	8.93644	18.26371	10.69792
12622.697	13.26347	8.96826	16.43978	11.35560
12626.697	13.51025	8.91498	16.91772	11.41872
12630.693	13.51051	8.98759	17.41094	11.25389
12634.695	13.30611	8.93447	17.46500	10.29234
12638.697	13.06909	8.80243	16.79502	8.62586
12642.696	10.78357	8.51835	15.97016	6.76401
12646.694	9.66038	8.62896	11.55793	11.65222
12650.693	9.28748	6.04117	11.29400	6.34667
12654.697	7.36601	4.47595	9.69754	5.36719
12658.696	6.52338	6.58821	10.61495	3.87047
12662.688	5.55799	6.15120	8.26539	3.69572
12666.695	2.53939	4.64432	6.45633	4.49133
12670.696	2.65439	3.74684	6.90123	1.53196
12674.703	2.41046	3.10324	4.03260	1.40443
12678.666	2.06265	2.83885	3.73574	0.27668
12682.695	2.25268	2.36899	3.34586	0.52316
12686.697	2.12461	2.58696	3.52801	1.56963
12690.659	2.17571	2.68874	3.89995	1.55963
12694.695	1.61426	2.84729	6.16574	1.59511
12698.699	0.93343	3.23239	5.04861	1.25808
12702.699	1.24501	3.20494	6.08438	1.17720
12706.696	1.40172	3.39984	5.69096	1.19242
12710.699	1.03126	3.51859	5.66054	1.28641
12714.699	1.47516	3.83403	5.68816	1.50455
12718.699	0.87418	3.88511	5.43221	1.67984
12722.698	1.53860	4.02560	5.32412	1.24494
12726.698	1.43039	3.95195	5.27550	1.04106
12730.698	1.59150	3.97994	5.12888	0.39698
12734.695	1.45095	3.90074	5.05196	0.23644
12738.701	1.68816	3.74463	4.87633	-0.86062
12742.687	1.59316	3.33959	4.61386	-0.63507
12746.692	1.65275	3.40373	4.97063	0.56763
12750.698	1.63581	2.81079	4.59519	2.32364
12754.696	1.56880	2.86133	4.34620	2.48686
12758.699	1.56774	2.60388	5.11891	1.44290
12762.697	1.57627	2.48532	4.92100	2.05912
12766.699	1.40338	2.62425	4.91122	0.84052
12770.696	1.28683	3.17926	4.52123	-0.28331
12774.691	1.22878	2.76254	4.38660	-0.59924
12778.701	1.33892	4.32398	5.27565	-0.79264
12782.695	1.18453	5.00191	5.16760	-0.54674
12786.691	1.13849	3.96810	5.12543	-0.75198
12790.690	1.30962	4.09622	5.33608	-1.12871
12794.699	1.33631	4.15801	5.58663	-2.29851
12798.698	1.30754	3.93304	5.52418	-0.92180
12802.698	1.22409	4.18451	5.40439	-0.44939
12806.697	1.34294	3.80672	5.34299	0.89991
12810.694	1.07805	3.62765	5.18444	0.39689
12814.694	1.34852	3.51675	5.14274	0.35680
12818.702	1.33475	3.54448	5.13917	1.03522
12822.699	1.30881	3.10599	4.81687	0.80444
12826.699	1.41851	3.64091	4.64865	0.87308
12830.697	1.51893	3.27430	4.41965	-1.25184
12834.702	1.45316	3.01916	4.88200	0.92724
12838.599	1.37709	3.02230	4.26679	0.69030
12842.699	1.30422	2.85212	5.08180	1.35343
12846.696	1.44078	2.76250	5.24619	1.44176
12850.700	1.38982	2.53366	4.10918	2.61242
12854.703	1.32029	2.62764	5.24513	2.62942
12858.700	0.91309	2.95695	4.99361	2.65457
12862.703	1.20621	3.10829	5.45491	1.56672
12866.689	1.15625	2.80204	4.84218	1.56702
12870.599	1.32260	2.55108	5.12006	-1.21586
12874.700	1.30310	2.50003	5.35588	-1.71644
12878.699	1.27914	2.62535	4.92903	-1.89233
12882.701	1.25538	2.25179	5.10433	-2.03958
12886.598	1.23367	2.35991	5.08261	-1.83474
12890.702	1.16887	2.58691	5.04107	-2.00811
12894.699	1.07118	2.53190	5.66179	-1.76050
12898.663	1.38907	2.62675	5.24383	-1.53883
12902.704	1.25609	2.54996	5.99576	-1.56766
12906.700	1.14020	2.70028	5.83982	-1.70598
12910.665	0.97854	2.79881	5.44785	-1.13748
12914.699	0.97837	2.57519	5.59354	-1.21929
12918.598	1.07708	2.69699	5.81513	-0.81088
12922.701	1.23776	3.34045	5.41763	-1.30345
12926.700	0.97053	6.13350	5.16819	-0.33009
12930.702	0.96683	5.14029	4.77035	-0.80361
12934.705	1.07245	4.43941	5.15145	0.92110
12938.701	1.07947	4.63926	5.24132	1.94342
12942.698	1.15372	5.00892	5.96731	2.29966
12946.703	1.14883	4.11350	5.87847	2.36888
12950.701	1.14412	4.89827	5.39330	2.60109
12954.695	0.96053	4.79374	5.92857	2.30355
12958.702	1.03091	4.66500	5.70409	2.39839
12962.664	1.15503	4.44430	5.63513	2.06826
12966.739	1.15818	4.34007	5.40853	1.98791
12970.700	1.18996	4.32986	5.79858	2.26082
12974.699	1.21062	3.83612	4.76988	2.31557
12978.704	1.07284	4.01309	5.73502	2.02819
12982.598	1.26594	3.90244	5.78838	1.97234
12986.700	1.05761	3.82886	5.13284	1.68273
12990.698	1.13141	4.07531	5.80236	2.07743
12994.696	1.31426	4.49181	11.76312	2.14153
12998.601	13.75622	4.29929	19.47423	1.48516
13002.701	16.14268	9.71110	11.44084	5.88588
13006.699	NaN	NaN	NaN	NaN
13010.703	NaN	NaN	NaN	NaN
13014.600	NaN	NaN	NaN	NaN
13018.698	NaN	NaN	NaN	NaN
13022.702	NaN	NaN	NaN	NaN
13026.701	NaN	NaN	NaN	NaN
13030.669	NaN	NaN	NaN	NaN
13034.682	NaN	NaN	NaN	NaN
13038.701	NaN	NaN	NaN	NaN
13042.704	NaN	NaN	NaN	NaN
13046.571	NaN	NaN	NaN	NaN
13050.699	NaN	NaN	NaN	NaN
13054.700	NaN	NaN	NaN	NaN
13058.701	NaN	NaN	NaN	NaN
13062.601	NaN	NaN	23.45082	8.55223
13066.702	20.98846	2.31962	NaN	NaN
13070.701	21.21050	2.31726	NaN	NaN
13074.700	21.21753	2.90015	17.20729	0.61866
13078.582	20.86205	3.44116	NaN	NaN
13082.701	19.15638	1.48425	20.84068	-1.46020
13086.702	17.15000	1.71717	23.30175	-1.49927
13090.703	14.16644	1.79828	23.41668	-2.03917
13094.705	9.31803	2.08111	21.98471	-1.79201
13098.703	9.01697	1.85601	20.50634	-3.30228
13102.703	9.13889	1.73981	19.76232	-2.45285
13106.702	9.13352	1.67331	18.48599	-2.33368
13110.604	9.23137	1.58308	17.09156	-2.16280
13114.702	9.06869	1.38630	16.42339	-1.96214
13118.669	9.08379	1.16223	16.23318	-1.93462
13122.701	9.06347	0.99024	16.25601	-1.90947
13126.601	8.88663	0.92595	15.34824	-0.45974
13130.705	8.85504	0.92012	15.20094	-1.00822
13134.702	8.73145	0.53534	14.85403	-1.25360
13138.705	8.74704	0.55281	14.88574	-0.93493
13142.605	8.27436	0.41744	16.07723	-1.62270
13146.667	8.16073	0.37604	15.67312	-1.63967
13150.667	8.31885	0.71490	15.33594	-1.15521
13154.706	8.00046	0.91335	15.50352	-1.28867
13158.566	8.11941	0.62607	15.02918	-1.33529
13162.700	8.02720	0.62612	15.07155	-1.22540
13166.666	8.11807	0.71834	14.83237	-1.11864
13170.703	8.20019	0.43375	14.93696	-1.11721
13174.600	8.24781	0.40417	15.19509	-1.55048
13178.706	8.16104	0.42949	14.84128	-1.36865
13182.704	8.27654	1.54936	15.92744	-2.65656
13186.579	8.40261	1.35517	11.34428	-1.23071
13190.577	7.19608	0.92612	14.70296	-2.26080
13194.578	6.25124	-0.11106	10.49414	-0.99561
13198.578	4.15070	-1.68468	9.26527	-3.01873
13202.578	0.50436	-0.08958	7.60792	-3.51699
13206.602	3.05994	-0.62952	6.78162	-6.93542
13210.579	1.19718	-0.39883	7.05907	-4.77969
13214.577	0.93262	-1.54807	5.74637	-4.53395
13218.582	0.32600	-1.95424	4.61179	-4.69650
13222.580	0.36037	-2.30407	3.85558	-5.01917
13226.580	-0.17586	-2.68027	3.84770	-3.96103
13230.578	-0.20492	-2.62681	3.65818	-3.83627
13234.543	-0.36948	-2.74105	3.74310	-5.46716
13238.609	-0.48922	-2.77747	3.12813	-4.50911
13242.582	-0.35097	-2.94808	3.61206	-4.20515
13246.565	-0.38921	-3.04260	3.23722	-4.80990
13250.576	-0.47892	-3.13543	3.28281	-5.02487
13254.607	-0.60737	-3.11225	3.51144	-4.69995
13258.580	-0.56682	-2.95748	3.51115	-5.24662
13262.581	-0.67863	-3.13564	3.71362	-4.88858
13266.581	-0.68104	-3.22657	3.48068	-4.28734
13270.602	-0.84185	-3.22417	3.74090	-4.61363
13274.579	-1.28752	-3.19028	3.77982	-4.06803
13278.580	-1.00893	-2.98831	3.61878	-3.59551
13282.577	-1.16773	-2.93238	3.62808	-4.21672
13286.606	-1.10971	-3.06393	3.71916	-4.03211
13290.546	-1.18101	-2.64672	3.84280	-5.17922
13294.582	-1.24347	-2.60650	3.57768	-4.15730
13298.581	-1.34316	-2.45089	3.73314	-4.05097
13302.605	-1.22323	-2.71954	3.84641	-5.34822
13306.583	-1.20422	-2.73983	3.67736	-4.00082
13310.579	-1.29975	-2.62099	3.78170	-5.12304
13314.577	-1.27728	-2.37088	3.71075	-3.75576
13318.601	-1.16230	-2.46695	3.75679	-4.00890
13322.581	-1.12050	-2.39202	3.83114	-3.89526
13326.582	-1.00340	-2.36004	3.92428	-3.98764
13330.559	-0.90545	-2.44054	3.93813	-4.46067
13334.602	-0.91510	-2.49192	3.80500	-4.31194
13338.582	-0.83089	-2.92961	4.02087	-4.41340
13342.581	-0.76871	-2.63718	3.90298	-4.32330
13346.583	-0.81471	-2.74321	3.81923	-4.58274
13350.602	-0.78387	-2.94052	3.91926	-4.46786
13354.582	-0.76141	-3.02301	3.91788	-4.32034
13358.580	-0.70141	-2.98174	4.01860	-4.49201
13362.582	-0.75749	-3.42777	3.89179	-4.44378
13366.584	-0.77622	-3.20949	3.90370	-4.53920
13370.583	-0.74496	-3.50178	3.85807	-4.46166
13374.573	-0.79930	-3.87799	3.85669	-4.59015
13378.586	-0.78893	-3.45669	3.93660	-4.74927
13382.580	0.57563	-4.83791	3.89078	-6.18293
13386.581	1.99456	-4.62642	4.14818	-9.33133
13390.580	3.30463	-5.06279	8.51054	-10.19655
13394.585	4.33929	-6.57935	7.30964	-10.49055
13398.581	4.66968	-9.17802	8.61264	-9.80149
13402.583	4.86487	-9.17765	10.20664	-9.71266
13406.581	6.26745	-8.37600	10.26165	-9.57578
13410.585	6.27277	-7.89204	11.29627	-9.37806
13414.605	5.62385	-7.88853	10.46553	-10.19886
13418.582	5.78622	-7.95416	10.34756	-10.06511
13422.583	6.17877	-8.09675	10.57366	-12.82625
13426.585	5.89927	-7.91766	10.86787	-12.70682
13430.573	5.99313	-7.64235	11.35675	-12.26287
13434.583	5.81452	-7.38893	11.12813	-12.72963
13438.545	5.54789	-7.62110	10.93536	-12.32956
13442.583	5.55652	-7.48301	11.00357	-11.45784
13446.607	5.31270	-7.80740	11.04778	-11.26206
13450.586	5.28923	-7.77080	10.59773	-11.83634
13454.569	5.04346	-7.91795	10.98179	-11.77893
13458.581	5.11802	-7.97009	11.09915	-11.35155
13462.607	5.20538	-7.99136	10.60143	-11.14079
13466.583	5.00627	-7.66695	10.69551	-10.40763
13470.582	5.08606	-8.01905	9.67271	-10.59820
13474.582	5.09665	-7.50448	10.20611	-10.39404
13478.605	5.18815	-8.23356	9.77956	-9.77021
13482.585	5.36663	-7.86531	9.40260	-9.73270
13486.581	5.33704	-8.08568	10.05315	-10.49596
13490.583	5.50424	-8.16695	9.88952	-10.58454
13494.607	5.60143	-7.82983	9.21101	-10.27988
13498.549	5.61411	-8.07313	9.86278	-10.84527
13502.583	5.61251	-8.47964	9.77201	-10.77994
13506.581	5.60529	-8.09955	9.60478	-11.04924
13510.606	5.66519	-8.55364	9.69938	-10.72729
13514.582	5.56905	-7.94526	9.43262	-11.06017
13518.586	5.70409	-8.27573	9.70376	-10.99097
13522.547	5.60340	-7.98150	9.63698	-11.05848
13526.580	5.43337	-7.99817	9.46078	-10.97212
13530.584	5.49487	-7.74887	9.67529	-10.97219
13534.589	5.61994	-7.81000	9.58077	-11.26340
13538.564	5.65000	-7.82749	9.69342	-11.40136
13542.609	5.73642	-7.86098	9.63462	-11.15942
13546.581	5.71507	-7.73829	9.63971	-11.31617
13550.585	5.77580	-7.60011	9.75958	-11.62863
13554.588	5.91116	-7.64095	11.28063	-11.61906
13558.605	5.24309	-7.68322	9.74656	-11.57056
13562.582	5.73996	-7.75949	10.06431	-11.51675
13566.584	5.93573	-8.33011	11.41891	-11.81036
13570.583	6.22108	-9.16947	13.32660	-11.76652
13574.556	7.08033	-9.33728	11.25230	-11.28645
13578.583	8.03402	-8.97615	9.44762	-10.25568
13582.578	7.56464	-8.41191	10.99494	-11.09498
13586.586	6.96577	-8.25066	11.28667	-10.52148
13590.576	7.91750	-8.98817	11.23962	-10.51141
13594.586	7.82579	-9.16196	11.19631	-10.43639
13598.584	7.05958	-8.61387	11.17682	-10.85121
13602.583	7.55171	-8.43451	11.19552	-10.71317
13606.608	7.71720	-9.05938	11.96360	-11.45300
13610.584	7.37131	-8.76995	11.26641	-11.28249
13614.585	7.31196	-9.13916	11.43245	-11.54359
13618.584	7.60875	-9.52205	11.33108	-11.45109
13622.584	7.19632	-8.83385	12.40240	-12.78382
13626.583	7.07774	-8.88091	11.91971	-11.53843
13630.586	7.37677	-9.60735	11.78457	-11.25545
13634.588	7.22390	-8.84504	11.94598	-11.98128
13638.609	7.19781	-8.67974	12.28439	-11.11987
13642.586	7.20678	-9.27854	12.22032	-10.09784
13646.588	6.91156	-8.80013	12.46020	-10.87371
13650.579	7.01277	-9.10445	12.67296	-10.74366
13654.585	6.45912	-9.22987	12.61209	-11.18532
13658.594	6.50185	-8.74515	12.72190	-11.30435
13662.589	6.76026	-9.11776	12.72730	-12.17905
13666.576	6.66949	-8.96236	12.70161	-10.93044
13670.590	6.78238	-9.07736	12.89022	-11.00715
13674.585	6.99895	-8.92237	13.49535	-11.07094
13678.587	6.93349	-9.19567	13.42669	-11.12489
13682.588	6.81030	-9.01425	14.02496	-11.32037
13686.590	6.84928	-9.11549	14.67655	-10.90854
13690.586	7.25050	-9.21897	14.81126	-11.11984
13694.586	7.00754	-9.06463	13.05328	-11.06706
13698.585	6.93186	-9.03862	14.01386	-11.40076
13702.591	7.06662	-8.94747	13.64476	-11.07863
13706.551	6.97851	-7.81843	13.14694	-11.33814
13710.586	7.16214	-7.73590	13.13155	-11.23424
13714.589	7.35078	-7.52540	13.05533	-11.10541
13718.588	7.23692	-7.52003	13.04711	-11.17151
13722.586	7.17866	-7.42815	14.03842	-11.35550
13726.588	6.95494	-7.26956	12.76758	-11.46102
13730.585	6.99822	-7.17408	14.27797	-11.56642
13734.586	6.50371	-7.10647	14.62438	-12.00479
13738.587	7.10445	-7.18039	14.52514	-12.02543
13742.587	6.54989	-7.35007	13.26678	-12.05642
13746.568	6.56792	-7.36518	14.57348	-12.24950
13750.588	6.99536	-7.25448	13.39614	-11.67745
13754.590	7.07055	-7.71028	13.88263	-12.04235
13758.587	7.11655	-7.93466	14.33655	-12.31396
13762.587	7.02438	-8.23818	13.48632	-12.07188
13766.591	6.54680	-7.64457	13.01491	-11.69724
13770.590	6.69951	-7.68587	12.48487	-10.21204
13774.587	6.67845	-7.99342	12.91079	-10.02589
13778.587	6.70340	-7.86795	13.48610	-11.24310
13782.598	6.78108	-8.09764	11.76514	-11.57386
13786.579	6.75974	-8.22252	11.79696	-11.20137
13790.580	7.14313	-8.63744	13.08209	-12.19239
13794.584	7.08473	-8.59176	11.09186	-11.61358
13798.590	6.94535	-8.51303	13.33391	-12.20777
13802.585	7.10470	-8.39442	13.15256	-12.08164
13806.585	7.02768	-8.72373	12.46185	-11.45254
13810.588	7.08150	-8.86983	13.09489	-11.86890
13814.589	7.18574	-8.83251	11.13532	-11.69538
13818.587	7.29057	-8.58238	13.23116	-11.39392
13822.590	7.39854	-8.61232	13.73650	-11.67709
13826.590	7.54142	-8.40725	13.03701	-11.73410
13830.582	7.53091	-8.26912	14.21973	-12.02213
13834.587	7.35764	-8.07557	14.06854	-11.98345
13838.589	7.39010	-8.01420	12.72164	-11.93649
13842.588	7.40726	-8.20778	13.82061	-11.50250
13846.588	7.40406	-8.14361	13.22606	-11.71658
13850.587	7.37250	-8.18360	13.08234	-11.07069
13854.590	7.37787	-7.88362	13.01901	-11.27915
13858.589	7.19593	-7.97450	13.09857	-10.76436
13862.592	6.34155	-7.59340	13.34890	-10.72146
13866.598	6.82917	-7.92584	12.84595	-11.00188
13870.576	6.98472	-8.02278	12.62974	-10.90264
13874.593	6.96475	-7.64377	12.79550	-10.42138
13878.590	7.03166	-7.98370	12.37896	-10.38639
13882.593	7.05232	-7.63711	13.73161	-10.75279
13886.591	6.97758	-7.93178	13.34174	-10.54941
13890.587	6.99507	-7.77680	12.81809	-10.62106
13894.591	7.10267	-7.71846	12.58831	-10.82511
13898.553	7.04166	-7.63654	12.76220	-11.07226
13902.553	6.87648	-7.90086	12.80903	-11.52278
13906.589	6.77881	-7.34789	12.55420	-10.91300
13910.593	6.89008	-7.74417	12.27668	-11.37555
13914.558	7.02580	-7.94002	12.14338	-11.62142
13918.589	7.10567	-8.14481	13.06709	-11.56431
13922.591	7.01470	-8.21579	13.08371	-11.73990
13926.490	5.83009	-7.33949	11.21778	-8.97787
13930.589	4.12332	-3.87477	9.72486	-11.10764
13934.591	3.58128	-5.01348	9.63899	-7.59243
13938.591	3.01668	-1.94274	5.81850	-7.34642
13942.558	1.96851	-1.30999	5.92815	-5.71047
13946.589	0.51399	-0.00373	5.84844	-2.95917
13950.593	-0.59406	0.29683	3.30186	-4.01606
13954.571	-1.52893	3.51548	2.22413	-0.38680
13958.592	-1.86818	3.49190	2.57967	2.40309
13962.591	-2.79748	3.44872	-1.16910	0.76239
13966.590	-3.10119	3.60020	3.52158	0.97280
13970.592	-3.49260	3.46897	2.34329	1.42451
13974.488	-3.58475	3.35534	2.11574	0.90575
13978.592	-3.42970	3.31884	1.98388	-0.34872
13982.596	-3.58531	3.48303	1.80774	-0.00335
13986.590	-1.45859	4.17583	1.35164	0.40199
13990.488	-3.71834	3.63583	1.17493	0.02778
13994.581	-3.72998	3.61425	0.57540	0.43304
13998.590	-4.10369	3.50954	1.06545	0.16959
14002.589	-0.79744	3.98648	0.83066	0.54653
14006.489	-0.38534	4.57966	0.67930	0.35820
14010.590	-4.32076	3.67353	0.26091	1.63620
14014.593	-0.31746	3.95948	-0.10364	0.94726
14018.554	-0.56893	3.98479	-0.42964	1.60226
14022.595	-0.55870	4.27700	1.10199	2.08359
14026.591	-0.64074	4.00622	1.86367	0.46879
14030.589	3.49636	3.80363	1.32406	0.56547
14034.591	0.02119	3.94104	1.39542	0.80807
14038.594	0.58826	3.61592	1.76899	0.41423
14042.592	0.16462	3.68198	1.52984	0.38658
14046.591	0.31253	3.43062	1.37295	0.68235
14050.554	3.08990	3.21574	0.99635	0.55105
14054.491	2.47066	2.99252	0.24842	0.62182
14058.589	-1.35735	3.74741	-0.96385	2.19005
14062.590	-1.50140	5.23522	0.71824	2.20619
14066.588	-1.40745	4.85727	2.48141	4.93548
14070.490	-1.71779	5.28895	1.52575	4.90429
14074.595	-1.61530	4.59868	1.56568	4.83095
14078.577	-1.95958	5.41084	1.42518	4.64319
14082.562	-2.03405	5.02714	1.08525	5.14316
14086.494	-1.95150	4.90585	2.03206	4.67363
14090.592	-1.94915	4.99110	1.83422	3.92192
14094.592	-2.10605	4.72655	2.18045	0.82186
14098.593	-2.09824	4.95177	2.00098	1.09331
14102.596	-2.35281	5.12870	1.81535	1.37268
14106.594	-3.06860	4.83867	1.74457	1.04118
14110.591	-2.72394	5.37915	1.58745	1.18774
14114.591	-1.76244	4.49314	1.57458	0.91147
14118.494	-1.58202	4.28143	1.46142	0.86577
14122.561	-1.49049	4.42385	1.25867	1.05783
14126.592	-1.40805	4.38731	1.70663	0.80341
14130.592	-1.45098	4.86108	1.88065	0.92046
14134.491	-1.60288	4.45351	1.47489	1.31001
14138.591	-1.60843	4.45106	1.37518	1.68864
14142.592	-2.15502	4.22951	1.67246	1.60232
14146.592	-2.32989	4.55416	1.69108	1.89237
14150.598	-2.36799	4.36695	1.69262	2.48250
14154.594	-2.00066	4.29703	1.49557	2.37946
14158.592	-2.04914	4.24916	1.70854	2.79356
14162.574	-1.98581	4.13451	1.69815	3.04045
14166.487	-2.19933	3.90777	1.37297	2.68343
14170.592	-2.37835	3.99409	1.42662	2.74509
14174.593	-2.42616	3.41924	1.44872	3.04269
14178.596	-2.50323	3.26124	1.06002	3.03988
14182.491	-2.58613	3.23683	0.87404	2.98853
14186.592	-2.67420	2.94406	0.67136	3.09682
14190.591	-2.62063	6.26797	1.29965	2.97944
14194.596	-4.35625	6.05071	0.75990	2.79257
14198.492	-2.74640	5.48059	1.12296	2.50165
14202.584	-2.89119	5.18889	0.80064	2.74594
14206.595	-3.00740	4.97189	0.71238	2.57815
14210.594	-2.90138	4.81835	0.90334	2.40247
14214.497	-2.64019	4.96278	1.06728	1.46056
14218.595	-2.55656	4.95717	1.56513	2.25197
14222.471	-2.58474	4.95147	0.85634	2.14855
14226.468	-2.66231	5.21020	1.00794	1.94385
14230.463	-2.48953	4.71880	0.98057	1.91994
14234.468	-2.35172	4.58118	1.75979	1.93214
14238.470	-2.58100	4.35406	1.23930	1.89697
14242.469	-2.37349	4.72473	1.47437	2.51742
14246.596	-2.32818	4.35974	1.16605	2.96470
14250.453	-2.27885	4.99182	1.42821	3.37515
14254.467	-2.33896	4.55324	1.52590	3.28045
14258.468	-2.38477	5.06659	1.50966	3.32804
14262.598	-2.38861	5.12106	1.40418	3.25916
14266.469	-2.40164	5.38712	1.23424	3.46965
14270.467	-2.37694	5.79205	1.52521	3.21140
14274.474	-2.47722	5.68183	1.48644	3.40204
14278.466	-2.39299	5.64543	1.35303	3.51352
14282.468	-2.79766	5.29497	1.44344	3.27213
14286.472	-2.44378	5.41242	1.66016	2.60342
14290.467	-2.41876	5.27383	1.90854	2.46205
14294.465	-2.51529	4.82070	1.59152	2.20360
14298.468	-2.30063	4.56111	1.82200	2.48845
14302.470	-2.16379	4.44935	1.60479	2.33850
14306.468	-1.99605	4.81361	1.90098	2.08211
14310.492	-1.91712	4.49609	1.83766	1.99683
14314.470	-1.77595	4.41880	1.68032	2.25541
14318.472	-1.86124	4.41200	1.62822	2.36297
14322.472	-2.02825	4.61641	1.54825	2.24306
14326.470	-1.67424	4.92465	1.44832	4.40899
14330.469	-1.62996	4.95767	2.21705	6.46436
14334.470	-0.52689	4.40010	3.98099	3.12571
14338.471	0.39728	6.39098	6.22799	5.03111
14342.470	2.15866	6.99215	4.62234	6.40256
14346.469	4.03278	7.00048	6.98128	8.19847
14350.473	4.68659	5.54952	8.37504	6.62755
14354.471	4.95524	5.23355	8.56605	9.71430
14358.465	4.93896	5.24466	9.95926	9.91918
14362.471	5.66710	5.34938	10.09063	5.70241
14366.436	5.64506	5.38975	9.52985	5.36816
14370.476	5.31184	5.30410	9.26858	5.27313
14374.433	5.61600	5.32376	8.75252	5.18895
14378.462	5.45186	5.37094	8.50996	5.90737
14382.473	5.38390	5.44701	8.27156	5.71402
14386.476	5.58956	5.42757	8.02465	6.07064
14390.469	5.42505	5.66678	9.11353	2.52422
14394.471	5.44525	6.20295	9.16833	3.56471
14398.510	5.35296	6.44213	10.11199	6.34258
14402.471	5.37045	6.21149	10.34263	7.34622
14406.464	5.22168	6.19106	10.02974	7.88087
14410.473	5.03573	6.45051	9.31665	10.73720
14414.474	4.99435	6.90407	8.75873	10.76758
14418.438	5.10733	7.53846	9.73986	6.66688
14422.463	5.04656	7.61184	9.61209	6.74660
14426.475	4.92930	7.76743	9.26529	6.76439
14430.471	4.72344	8.05312	9.17737	6.47640
14434.474	4.55867	8.20424	9.61783	5.58048
14438.474	4.46285	8.04541	9.46029	5.55029
14442.471	4.39326	7.98758	9.17099	5.28976
14446.474	4.28604	8.06594	9.11252	5.51226
14450.475	4.18418	7.97195	8.75727	5.73133
14454.469	4.06036	7.03301	8.30325	6.18261
14458.459	5.98660	6.07248	8.11357	5.99572
14462.472	6.19758	6.07033	9.16637	5.91227
14466.475	5.19089	6.30380	7.96624	6.15501
14470.465	4.43919	5.94766	7.96407	6.35024
14474.475	4.19726	6.06948	8.04137	6.27884
14478.473	5.95786	6.18568	9.27612	6.43893
14482.474	4.49247	6.27166	9.37310	6.72970
14486.473	4.20296	6.25515	9.43218	6.75975
14490.474	4.20558	6.33705	8.97303	7.34286
14494.475	4.27163	6.40029	9.63416	6.84583
14498.475	4.60848	6.51471	9.46372	8.03888
14502.475	4.65932	6.18403	9.28040	9.17979
14506.437	4.87012	6.37411	9.64352	8.31370
14510.473	4.84876	6.53190	9.70003	8.94966
14514.475	5.23679	6.34279	8.77727	8.94316
14518.434	4.93620	6.47414	9.25727	8.67579
14522.474	5.14296	6.19341	8.39406	8.54950
14526.478	5.73743	6.33183	8.63119	8.89504
14530.470	5.49723	6.23529	8.05988	8.92925
14534.501	5.14833	6.61980	8.32636	8.58542
14538.475	5.29368	6.23204	8.08380	8.48147
14542.454	4.98275	6.64219	7.95784	8.58882
14546.475	4.83048	6.61071	8.23420	8.41420
14550.496	5.06671	6.44121	8.10836	8.31722
14554.476	5.21946	6.40620	8.05129	8.23957
14558.472	4.85320	6.50583	8.16311	8.12780
14562.473	4.78708	6.46700	8.07171	7.73015
14566.477	4.85137	6.52520	8.06231	7.86180
14570.473	4.63437	6.55985	8.09418	7.53346
14574.475	4.63156	6.88167	8.18473	7.70670
14578.476	4.95204	6.74751	8.06171	7.82161
14582.436	4.47945	6.68237	8.22351	7.40368
14586.441	4.48039	6.67332	8.15185	7.68795
14590.474	4.66031	6.64832	8.25810	6.93005
14594.478	4.48700	6.63560	8.07450	7.15513
14598.477	4.39012	6.63922	8.00859	7.73264
14602.477	4.64053	6.70541	7.87350	7.65947
14606.475	4.57532	6.66021	7.62909	7.74583
14610.473	4.87128	6.72255	7.63457	7.83910
14614.469	4.83176	6.76184	7.43742	7.59532
14618.474	4.75916	6.67206	7.72215	8.04417
14622.476	4.57142	6.69086	8.19088	7.96710
14626.446	4.43826	6.97666	8.20612	9.37417
14630.474	1.95014	8.03587	7.24935	11.40733
14634.477	2.50665	8.75651	4.91595	6.34986
14638.474	2.48487	9.17548	6.08289	6.58395
14642.476	2.03734	9.62786	5.36026	7.29876
14646.474	1.90173	9.77630	5.63137	6.03364
14650.476	1.95765	9.60485	4.98440	5.96037
14654.475	1.72480	9.70484	4.82981	5.98962
14658.474	1.71265	9.69467	5.07183	6.05133
14662.480	1.71012	9.56034	5.73600	7.60425
14666.463	1.56484	9.87086	5.25827	6.53575
14670.474	1.45341	9.66773	5.01551	7.13068
14674.477	1.87949	9.59121	5.07919	6.51058
14678.502	1.70172	9.60144	5.10522	6.25539
14682.474	1.62750	9.58562	4.82375	6.34627
14686.482	1.80221	9.39659	5.35487	5.83787
14690.477	1.66328	9.32496	5.66464	5.60337
14694.477	1.77167	9.41806	3.45672	9.06182
14698.474	1.62321	9.32589	3.31177	9.38817
14702.478	1.94055	9.38525	3.14419	9.05594
14706.477	1.77023	9.24121	3.89940	13.83462
14710.478	1.88799	9.09274	4.12498	13.57397
14714.475	1.79202	9.11848	3.74090	13.58601
14718.478	1.78096	9.27527	3.49268	13.07426
14722.476	1.66886	9.18963	3.51513	13.52670
14726.479	1.38324	9.27467	3.69417	13.01217
14730.476	1.02712	9.21344	3.52675	13.01244
14734.479	1.41338	9.07346	3.47705	12.27735
14738.474	1.35313	8.99516	3.73828	13.54931
14742.470	1.19738	9.07108	3.73848	12.54190
14746.477	1.12541	9.19359	3.94137	12.37658
14750.459	1.28943	9.28578	3.77829	13.33755
14754.479	1.05538	9.36399	3.89071	12.25136
14758.481	1.16823	9.31201	3.95817	12.32373
14762.476	1.09606	9.32238	3.93092	13.49962
14766.475	1.18991	9.51797	4.06085	12.34479
14770.477	1.10899	9.41734	4.05947	13.01413
14774.477	1.16553	9.56275	4.24174	13.03875
14778.478	1.16250	9.60544	4.18524	12.51852
14782.478	1.34854	9.57354	3.63001	11.55665
14786.484	1.24555	9.71779	3.38382	10.27547
14790.468	1.17649	9.70734	6.12112	12.76821
14794.471	1.64300	9.60170	7.12938	10.79792
14798.441	1.40053	9.65622	7.43786	10.19336
14802.477	1.29487	9.64808	6.84130	11.79435
14806.472	1.91843	9.48629	6.81003	10.76649
14810.477	1.50606	9.55437	7.24881	8.91413
14814.477	1.86746	9.62659	5.38917	9.90801
14818.477	1.78369	9.67797	5.27511	9.83546
14822.478	1.77620	9.71703	5.68450	10.44574
14826.480	1.86984	9.45323	5.75893	10.18206
14830.480	1.98710	9.42274	5.47550	9.92213
14834.446	2.09683	9.28293	5.20457	9.89710
14838.476	2.10389	9.06193	5.39615	9.52335
14842.480	2.14959	9.06997	4.94652	9.52477
14846.479	2.32776	8.69098	4.75822	9.31780
14850.479	2.11051	8.73742	4.72191	9.79254
14854.473	2.23595	8.81431	5.30121	10.93427
14858.478	1.88544	8.91844	5.22552	11.73776
14862.478	2.28477	8.62686	4.98810	11.21550
14866.479	2.34676	8.20950	4.41882	12.44225
14870.485	2.34637	8.37778	3.96980	11.73962
14874.463	2.28189	8.08461	3.97467	9.93423
14878.479	2.15031	8.41413	3.66923	10.03718
14882.479	2.05266	9.11123	3.85330	9.62671
14886.481	2.01226	9.28273	3.87579	9.79596
14890.482	1.74037	9.54657	3.60956	9.82731
14894.479	1.96846	10.20804	3.94779	8.82373
14898.480	1.94798	10.03037	3.41439	9.50525
14902.456	1.78005	10.49898	3.67341	8.56545
14906.480	1.85566	10.46231	3.68624	8.64415
14910.480	1.87151	10.29846	3.70930	8.05820
14914.479	1.75141	10.46993	3.62946	8.02990
14918.482	1.79492	10.50264	3.49391	7.54532
14922.480	1.80819	10.50076	3.14184	7.39591
14926.438	1.66433	10.57429	4.16645	7.08705
14930.481	1.84701	10.59502	5.41812	7.35981
14934.373	1.94932	10.55133	4.95856	7.89424
14938.482	1.99206	10.48771	5.05326	7.03208
14942.479	1.96397	10.42698	4.29071	7.25375
14946.479	2.46087	10.19412	5.21629	7.26419
14950.485	2.10776	10.24724	5.50710	6.60072
14954.480	2.18885	10.61122	2.63227	10.47817
14958.480	4.27851	12.51449	6.50501	13.96465
14962.482	2.42396	14.66134	NaN	NaN
14966.383	NaN	NaN	NaN	NaN
14970.482	NaN	NaN	NaN	NaN
14974.480	NaN	NaN	NaN	NaN
14978.480	NaN	NaN	NaN	NaN
14982.482	NaN	NaN	NaN	NaN
14986.482	NaN	NaN	NaN	NaN
14990.482	NaN	NaN	NaN	NaN
14994.482	NaN	NaN	NaN	NaN
14998.479	NaN	NaN	NaN	NaN
15002.443	NaN	NaN	NaN	NaN
15006.481	NaN	NaN	NaN	NaN
15010.478	NaN	NaN	NaN	NaN
15014.480	NaN	NaN	NaN	NaN
15018.481	NaN	NaN	NaN	NaN
15022.522	NaN	NaN	NaN	NaN
15026.484	NaN	NaN	NaN	NaN
15030.483	NaN	NaN	NaN	NaN
15034.485	NaN	NaN	NaN	NaN
15038.380	NaN	NaN	NaN	NaN
15042.449	NaN	NaN	NaN	NaN
15046.481	NaN	NaN	NaN	NaN
15050.481	NaN	NaN	NaN	NaN
15054.484	NaN	NaN	NaN	NaN
15058.445	NaN	NaN	NaN	NaN
15062.480	NaN	NaN	-0.25140	7.62225
15066.446	NaN	NaN	3.14489	12.43128
15070.380	NaN	NaN	0.63930	5.37721
15074.482	0.04492	10.12337	1.07341	5.25586
15078.486	NaN	NaN	0.88485	4.88060
15082.464	-3.94683	1.26204	1.10348	3.21020
15086.384	-3.94248	2.06006	NaN	NaN
15090.486	-5.48553	3.81687	-0.12518	8.09882
15094.482	6.19606	8.15537	1.49746	4.04095
15098.482	3.54724	7.96996	1.02680	7.97227
15102.484	3.00321	7.58866	1.00323	4.81936
15106.381	-3.76087	7.43404	1.23853	4.42362
15110.482	-0.82664	7.37571	1.17302	5.18369
15114.483	-0.53912	6.66839	1.25205	5.38702
15118.487	-0.46758	5.85537	1.30208	5.56377
15122.486	-0.31382	5.99157	0.05420	3.76513
15126.479	-0.21631	5.96556	1.04019	1.23242
15130.485	-0.63930	5.25788	0.38561	3.46870
15134.485	-1.05324	5.34001	0.60109	3.32940
15138.379	-0.74692	4.97957	0.36700	2.04616
15142.483	-1.57195	5.08241	1.55278	0.26430
15146.483	-2.49240	5.55071	1.52588	-0.16340
15150.484	-2.20785	5.30150	1.57590	-0.20378
15154.388	-1.97329	4.99093	1.96025	-0.19130
15158.482	-2.08116	5.44071	1.45309	1.55649
15162.486	-2.23159	5.46464	1.62443	1.00303
15166.466	-1.94925	5.33424	1.70246	1.38674
15170.382	-2.06334	5.28604	1.82787	1.34674
15174.482	-2.15455	5.55518	0.51912	2.68816
15178.485	-1.99463	5.48272	1.80893	2.54692
15182.485	-2.10585	5.58505	1.52270	2.76051
15186.383	-2.00036	5.58618	1.09703	2.32244
15190.491	-1.96258	5.45331	1.23928	2.42473
15194.484	-1.94816	5.46397	1.35923	2.22402
15198.488	-1.84247	5.55955	1.27450	2.67819
15202.386	-1.76338	5.31530	1.19768	2.66517
15206.486	-1.67576	5.39534	1.07716	2.73765
15210.484	-1.64774	5.31791	1.12479	2.78908
15214.486	-1.57042	5.30909	1.29452	2.70898
15218.387	-1.47635	5.21080	1.25069	1.25751
15222.484	-1.40614	5.18450	1.38054	1.76868
15226.487	-1.45120	4.95069	1.76871	1.09417
15230.486	-1.37659	4.74421	1.80717	0.98123
15234.385	-1.48218	4.81397	1.72676	0.93998
15238.487	-1.48778	4.78991	2.00190	0.76243
15242.486	-1.42972	4.43831	2.12701	0.63001
15246.485	-1.48905	4.46879	2.18424	0.32933
15250.379	-1.62889	4.31097	2.33138	-0.68032
15254.484	-1.63053	4.28187	2.25300	0.20447
15258.360	-1.62651	4.16577	2.47036	-0.15765
15262.361	-1.69232	4.05542	2.40233	-0.59159
15266.361	-1.67291	4.04016	2.40924	-0.87060
15270.321	-1.71295	3.96590	2.39909	-0.39274
15274.360	-1.72121	3.84663	2.53528	-0.34936
15278.362	-1.77216	3.92376	2.66952	-0.58921
15282.355	-1.73266	3.83624	2.62167	-0.49320
15286.362	-1.77010	3.87078	2.55869	-0.54999
15290.365	-1.77169	3.92007	2.58199	-0.15907
15294.357	-1.79066	4.01176	2.37005	0.04097
15298.352	-1.73450	4.47961	2.48235	0.39783
15302.362	-1.20018	4.10435	2.41945	1.93508
15306.362	-1.63769	4.49632	2.15529	1.78062
15310.362	-1.60449	4.55966	1.75488	1.60716
15314.352	-1.65220	4.16960	1.69450	2.46599
15318.362	-1.75535	4.43586	1.44736	2.49345
15322.361	-1.66390	4.29909	1.35990	3.03112
15326.362	-1.67469	4.56229	1.26914	3.38844
15330.363	-1.65706	4.72566	1.49815	3.00661
15334.325	-1.61872	4.54156	1.31109	2.75655
15338.324	-1.69250	4.72804	1.37952	3.04831
15342.363	-1.68766	4.76293	1.29199	3.16020
15346.354	-1.77020	4.95396	1.29434	3.25706
15350.362	-1.88229	5.21248	1.29938	3.53265
15354.362	-1.83018	4.64687	1.32803	3.48690
15358.362	-1.88499	4.74662	1.34906	3.54981
15362.352	-1.83400	4.88942	1.45252	3.62901
15366.360	-1.92689	4.93795	1.44242	3.53655
15370.361	-1.86439	4.68878	1.54497	3.56212
15374.365	-1.79334	5.04690	1.68768	3.47274
15378.361	-1.83340	4.93772	1.55110	3.43590
15382.358	-1.81347	4.77352	1.61669	3.58979
15386.362	-1.75719	4.64879	1.55053	3.53791
15390.368	-1.71980	4.70101	1.79110	3.42274
15394.365	-1.66167	4.50424	1.84180	3.23435
15398.361	-1.66748	4.57684	1.77045	2.83081
15402.364	-1.50685	4.22802	1.79596	2.91344
15406.362	-1.53835	3.71001	1.61238	2.67149
15410.389	-1.45733	4.04129	1.72297	2.07567
15414.365	-1.38136	3.83903	1.85197	2.24404
15418.363	-1.32984	3.37591	1.83603	1.81771
15422.330	-1.31186	3.39163	1.86637	1.71106
15426.359	-1.24406	2.71657	1.99344	1.69977
15430.362	-1.32867	2.95740	2.02210	0.80962
15434.360	-1.17056	2.74187	2.06433	0.24336
15438.365	-1.25086	2.48855	2.11259	1.13727
15442.355	-1.04637	2.47885	2.11261	0.40252
15446.365	-1.16161	2.45704	2.25357	0.68788
15450.365	-1.09214	2.30399	2.34557	-0.21412
15454.365	-1.06312	2.24098	2.19368	0.02543
15458.389	-1.03925	2.23381	2.24738	-0.22933
15462.346	-1.04424	2.13491	2.32129	-0.65294
15466.363	-1.05595	2.05933	2.31634	0.00057
15470.362	-1.07535	2.03674	2.36510	-0.38294
15474.359	-1.02181	2.09084	2.27711	-0.58911
15478.366	-1.10261	2.02104	2.20795	-0.16478
15482.365	-1.03225	1.97991	2.19700	-0.04777
15486.365	-1.07696	2.00344	2.21680	0.15658
15490.366	-1.05793	2.33113	2.30246	-0.03722
15494.366	-1.04684	2.30227	2.17975	0.53510
15498.363	-1.10227	2.35545	2.17378	0.54394
15502.359	-1.12162	2.34842	2.16102	0.50315
15506.356	-1.14320	2.41179	2.31153	0.48542
15510.364	-1.09507	2.28018	1.52684	0.79616
15514.363	-1.11948	2.42267	2.17085	1.02743
15518.364	-1.12536	2.16547	2.28583	1.02112
15522.323	-1.11077	2.26337	2.16766	1.38133
15526.364	-1.12608	2.26976	2.30474	1.54816
15530.366	-1.19678	2.30426	2.23714	1.33086
15534.366	-1.20616	2.22428	2.18999	1.35120
15538.389	-1.23278	2.13760	2.16010	1.44588
15542.363	-1.19467	2.11600	2.16260	1.17449
15546.339	-1.13561	1.97146	2.08984	1.38693
15550.364	-1.13653	1.87408	2.08436	1.12441
15554.356	-1.21182	1.97523	2.12882	1.39871
15558.367	-1.13084	1.95682	2.18424	1.14930
15562.364	-1.09651	1.97198	2.21070	0.78984
15566.365	-1.08552	1.99911	2.38863	0.28189
15570.356	-1.13206	2.05680	2.32605	-0.13400
15574.365	-1.04662	2.00750	2.73278	-1.69182
15578.364	-1.02126	2.08022	2.67789	-0.84987
15582.326	-1.06391	2.01838	1.64699	0.67656
15586.356	-1.07311	2.05128	0.24904	2.22728
15590.363	-1.09232	2.00268	0.43765	3.58064
15594.367	-1.05394	1.96134	0.30781	3.93077
15598.364	-0.98963	2.04724	1.68900	6.44785
15602.358	-1.03206	1.86310	2.10711	6.33001
15606.363	-1.03843	1.77938	0.84679	5.62882
15610.365	-1.02201	1.66222	1.25250	5.38126
15614.328	-1.04473	1.93209	0.49450	5.63058
15618.364	-1.01069	1.89649	0.34447	5.54333
15622.364	-1.04406	1.95184	0.47222	5.56565
15626.367	-1.01469	2.14652	1.03476	5.02697
15630.329	-1.23811	1.43994	1.98546	6.00572
15634.391	-1.07862	2.48728	1.87936	6.34827
15638.366	-1.34239	2.19407	0.81501	2.79321
15642.364	-1.60851	2.03165	0.46468	2.97773
15646.364	-1.77229	2.44010	2.78557	1.82508
15650.363	-1.96504	2.51217	2.99292	3.33972
15654.367	-2.19118	2.59108	2.57947	2.43062
15658.364	-2.18947	2.73653	2.28683	1.63636
15662.366	-2.29049	2.80325	2.58296	2.75712
15666.369	-1.51732	3.02073	2.55993	2.33200
15670.347	-1.63246	3.26823	2.52966	1.98007
15674.365	-1.43007	3.70573	2.38767	2.41784
15678.367	-1.61148	3.25744	2.33868	3.07320
15682.361	-1.53247	3.97909	2.53739	4.36734
15686.365	-1.65232	4.27782	2.32528	3.75485
15690.368	-1.21504	3.96461	2.32806	4.51543
15694.369	-1.56742	4.16349	2.30722	4.44598
15698.358	-1.56184	4.35628	2.33695	5.02554
15702.367	-1.76522	4.33732	2.30613	5.21903
15706.367	-1.27358	4.47687	2.35947	4.49783
15710.362	-1.47930	4.51162	2.18334	4.20859
15714.365	-1.67283	4.52976	2.29976	4.24364
15718.369	-1.80057	4.35931	2.34414	2.64849
15722.369	-1.44024	3.73219	2.58507	1.74039
15726.364	0.28731	2.52931	3.83374	1.77604
15730.363	-0.32928	2.47102	2.23786	1.66147
15734.365	0.58885	4.21413	6.21607	1.74814
15738.364	1.07929	3.98388	5.89959	1.93282
15742.369	0.83908	2.71290	4.66852	1.91554
15746.366	0.67747	2.85187	5.33490	1.74359
15750.330	0.65441	2.75783	4.99349	1.37905
15754.342	0.86404	2.34433	5.35913	1.53488
15758.367	0.94296	1.91480	5.74072	-0.09823
15762.370	1.14441	1.95929	6.44721	-0.90271
15766.369	1.15101	1.83481	5.80106	-0.74948
15770.330	1.27284	1.61864	5.87690	-0.88303
15774.372	1.19770	1.37687	6.37601	-1.28627
15778.371	1.31451	1.50107	5.40095	-1.14038
15782.370	1.31498	1.55189	6.22591	-1.32165
15786.373	1.43692	1.51288	6.01675	-1.19704
15790.368	1.42595	1.55415	6.11157	-1.05222
15794.331	1.50554	1.49328	6.33108	-1.06876
15798.364	1.26537	2.68303	5.95368	-0.53240
15802.369	1.14350	2.89365	5.81761	0.00064
15806.367	1.06478	2.76428	5.29661	1.45893
15810.370	1.07098	3.45240	5.51467	2.43043
15814.370	1.20338	3.29449	5.70224	2.54522
15818.332	1.25041	3.98705	6.06676	2.47282
15822.369	1.27646	2.96594	4.68402	2.37278
15826.359	1.08115	2.37501	5.63287	3.24648
15830.369	1.14094	2.90731	6.60181	3.59552
15834.332	1.13109	2.54864	4.52787	0.13027
15838.335	1.20671	1.90803	5.72426	-1.55222
15842.367	1.40946	1.56046	5.42584	-4.43610
15846.371	1.48022	0.75534	6.10301	-3.56082
15850.371	1.50088	1.69155	6.11950	2.81602
15854.371	1.51258	1.80898	6.07373	2.39529
15858.368	1.42424	2.80378	6.26039	3.50929
15862.371	1.32076	2.53713	6.28707	3.54509
15866.369	1.46134	2.03475	5.95697	2.84534
15870.372	1.50497	2.82831	6.43123	3.37899
15874.370	1.43014	2.88433	5.92324	2.96577
15878.350	1.32684	3.34038	6.16199	2.72677
15882.372	1.22596	3.34831	6.06252	2.53766
15886.333	1.21673	3.65165	6.19822	1.42078
15890.362	1.16999	3.56421	6.22613	1.19077
15894.375	1.09743	3.49987	5.97045	1.87157
15898.335	1.14312	3.38528	5.96493	1.61440
15902.369	1.08964	3.80628	5.97617	1.05950
15906.364	1.16121	3.58565	6.13419	1.48346
15910.368	1.22159	3.66255	6.01012	0.97247
15914.373	1.15119	3.72145	6.00919	0.73009
15918.370	1.23531	3.69566	6.12718	1.04329
15922.363	1.35469	3.49085	6.22417	1.01821
15926.373	1.43553	3.66988	6.28567	0.91421
15930.372	1.35876	3.51349	6.37386	0.83907
15934.370	1.40772	3.43129	5.97381	1.28772
15938.365	1.46762	2.93689	6.33623	0.86684
15942.369	1.45678	3.16898	6.15058	0.76693
15946.369	1.72642	2.94504	5.70888	1.06999
15950.373	1.60355	3.13307	6.24558	0.95999
15954.337	1.68101	3.09628	5.82051	0.99094
15958.374	2.00514	3.14449	5.64523	0.96517
15962.346	1.76638	2.83114	5.76775	1.08794
15966.371	1.77970	2.90185	5.60175	1.20491
15970.370	1.72991	2.75242	5.73699	1.11729
15974.372	1.84503	2.88267	5.93301	1.32580
15978.369	2.12017	2.66921	6.44998	1.46949
15982.373	1.85968	2.53981	6.08014	1.32164
15986.374	2.00688	2.34178	6.06554	1.28737
15990.375	1.82043	2.68040	6.42525	1.37479
15994.375	1.87344	2.28944	6.57553	1.88590
15998.376	1.80457	2.78747	6.51929	1.58995
16002.365	1.76212	2.34620	6.64121	1.88027
16006.369	1.89870	2.82176	6.52833	2.39574
16010.370	1.99870	1.86438	6.46721	2.92204
16014.370	1.93244	1.74238	6.41464	2.85444
16018.274	1.91184	1.06904	6.35356	3.21569
16022.369	1.95711	0.79771	6.37275	3.74410
16026.373	1.81743	1.09745	2.48510	0.94312
16030.375	1.77181	0.79852	6.16844	2.35225
16034.274	1.93898	0.93955	5.83996	-1.54185
16038.374	1.71940	0.86593	6.41089	-1.98999
16042.374	1.85256	0.81979	5.91700	-1.78872
16046.337	1.85499	0.99747	5.95734	0.61800
16050.270	2.19120	0.82711	3.71021	1.05076
16054.373	1.78148	0.97203	5.93124	4.06665
16058.373	1.60980	2.13763	5.73996	2.94105
16062.371	1.51712	2.91871	5.98768	3.43603
16066.271	1.52226	3.26810	7.04592	2.96261
16070.372	1.66448	3.28226	6.07624	2.24117
16074.375	1.58651	2.85464	6.18556	1.84368
16078.372	1.42826	3.43681	6.52054	1.24247
16082.271	1.47213	3.33171	5.64756	1.55532
16086.352	1.33887	3.49676	6.37393	1.84432
16090.373	1.28633	3.36054	6.38827	0.89546
16094.342	1.16729	3.16560	5.23740	2.31239
16098.274	0.34191	3.56276	3.83186	1.62756
16102.374	-0.96886	3.25958	3.49708	0.73693
16106.374	-1.90279	3.57655	3.20147	1.06194
16110.372	-2.86452	2.52606	1.69582	1.83301
16114.271	-3.42230	3.10857	-0.51920	1.29347
16118.374	-3.74968	3.32645	1.19309	0.76080
16122.373	-3.86585	2.68337	0.64111	1.03221
16126.365	-2.87604	3.33829	1.37640	0.97548
16130.270	-2.98020	2.98385	0.91708	0.81658
16134.372	-3.37084	3.17959	0.93334	1.39700
16138.376	-3.38357	3.27381	0.49776	1.73956
16142.372	-3.53241	2.73254	-0.26026	1.69348
16146.274	-3.46607	3.01755	-0.08500	0.96984
16150.373	-3.74515	3.02706	-0.03747	-1.05676
16154.374	-3.98440	3.16253	0.90862	-0.23479
16158.373	-4.06364	3.84930	-0.13660	-1.63162
16162.271	-4.15411	4.18718	0.07723	-0.90096
16166.375	-3.75931	3.19446	-0.23157	-0.62860
16170.350	-3.82857	2.73824	-0.31464	-0.72843
16174.373	-3.75669	2.54789	-0.29826	-0.62925
16178.275	-3.84033	2.32845	-0.23165	0.68692
16182.374	-3.21500	2.35607	-0.38981	0.84484
16186.375	-2.66384	2.56134	0.02345	-0.44024
16190.372	-2.71681	2.26943	-0.06100	-0.15889
16194.274	-3.42653	2.19142	0.06897	-0.57146
16198.378	-2.93188	2.07671	-0.19469	-0.85854
16202.376	-3.25008	3.34667	-0.19231	-0.92870
16206.377	-3.39730	2.53023	-0.56610	-0.88613
16210.360	-3.42401	3.68947	-0.51875	-0.59459
16214.373	-3.91178	4.32875	0.03931	-0.90195
16218.376	-4.13996	3.37514	-0.03822	-1.60672
16222.375	-4.31970	4.23870	0.15161	-1.61931
16226.275	-2.92861	4.06791	0.01789	-1.95323
16230.374	-3.26381	4.12927	0.13349	-1.61221
16234.375	-3.26990	4.15570	-0.40718	-2.11422
16238.374	-3.30448	3.63104	-0.38276	-1.50684
16242.271	-3.32825	3.33649	-0.12396	-0.81134
16246.376	-3.28360	3.35259	-0.27982	-1.38965
16250.377	-3.34383	3.21242	0.00879	-0.73711
16254.376	-3.22708	3.24796	0.18191	-0.91772
16258.380	-3.30883	3.28409	-0.21529	-0.94283
16262.374	-3.20731	3.24884	0.16933	-0.77358
16266.376	-3.22948	3.10079	0.08867	-0.45895
16270.375	-3.30228	3.07555	0.13104	-0.45776
16274.378	-3.31425	3.14618	0.26570	-0.36826
16278.377	-3.32154	3.07319	-0.12146	-0.40777
16282.376	-3.32417	3.20536	-0.12074	-0.43038
16286.376	-3.36468	3.26796	0.03591	-0.30703
16290.274	-3.43266	3.21264	-0.02678	-0.29978
16294.254	-3.37987	3.47385	-0.12942	-0.26166
16298.240	-3.48276	3.56038	-0.23805	-0.22481
16302.241	-3.46409	3.40714	-0.10595	-0.21161
16306.252	-3.49883	3.65897	-0.00412	-0.00417
16310.252	-3.57043	3.82239	0.10798	-0.12231
16314.253	-3.56764	3.83285	-0.16702	-0.04023
16318.251	-3.66545	3.66890	-0.13637	1.45284
16322.250	-3.70139	3.68577	0.13451	0.66173
16326.250	-3.71066	3.84540	-0.00534	3.48497
16330.253	-3.81938	3.60457	0.09081	3.56690
16334.253	-3.70717	3.80268	-0.02030	3.56069
16338.246	-3.54655	3.58670	0.08100	3.21023
16342.224	-3.49906	3.26473	0.04775	2.10643
16346.252	-3.40079	3.31906	0.06331	2.28930
16350.254	-3.42089	3.65509	-0.02680	2.13331
16354.244	-3.47853	3.02048	-0.01695	1.59833
16358.250	-3.44211	3.01414	-0.56503	1.49854
16362.215	-3.49453	2.81057	-1.04277	1.17083
16366.252	-3.52954	3.23444	-0.28634	1.38408
16370.272	-3.48133	3.34044	-0.13111	1.21250
16374.253	-3.29070	6.73245	-0.27461	2.38573
16378.252	-5.29228	7.70378	3.46879	2.02190
16382.234	NaN	NaN	2.65775	2.22615
16386.253	NaN	NaN	-0.07279	4.64141
16390.251	NaN	NaN	NaN	NaN
16394.252	NaN	NaN	NaN	NaN
16398.219	NaN	NaN	NaN	NaN
16402.249	NaN	NaN	NaN	NaN
16406.254	NaN	NaN	NaN	NaN
16410.251	NaN	NaN	NaN	NaN
16414.268	NaN	NaN	NaN	NaN
16418.254	NaN	NaN	NaN	NaN
16422.247	NaN	NaN	NaN	NaN
16426.218	NaN	NaN	NaN	NaN
16430.258	NaN	NaN	NaN	NaN
16434.249	NaN	NaN	NaN	NaN
16438.252	NaN	NaN	NaN	NaN
16442.259	NaN	NaN	NaN	NaN
16446.251	NaN	NaN	NaN	NaN
16450.216	NaN	NaN	NaN	NaN
16454.253	NaN	NaN	NaN	NaN
16458.253	NaN	NaN	NaN	NaN
16462.254	NaN	NaN	NaN	NaN
16466.219	NaN	NaN	NaN	NaN
16470.224	NaN	NaN	NaN	NaN
16474.253	NaN	NaN	NaN	NaN
16478.254	NaN	NaN	NaN	NaN
16482.216	NaN	NaN	NaN	NaN
16486.248	NaN	NaN	NaN	NaN
16490.253	NaN	NaN	NaN	NaN
16494.253	NaN	NaN	10.77895	9.64756
16498.220	NaN	NaN	9.76645	6.24926
16502.247	NaN	NaN	6.27152	1.00439
16506.255	NaN	NaN	11.25240	4.71317
16510.244	12.16923	-0.06872	7.88816	1.31726
16514.255	14.92948	0.60633	11.76633	3.52527
16518.219	8.55928	1.46722	7.74891	3.55779
16522.254	11.89274	2.42087	12.08205	3.57519
16526.255	-6.98807	2.77759	9.94305	6.63171
16530.254	-4.93568	1.54827	14.08514	2.01564
16534.258	-4.90939	3.20897	9.48905	3.17438
16538.258	-4.72613	3.68307	13.47524	0.95591
16542.255	8.36751	4.07718	11.98752	1.00605
16546.256	5.88832	4.94180	12.18772	0.64237
16550.247	1.89159	6.01996	12.03486	0.47242
16554.254	2.84789	4.65047	11.39031	-2.03226
16558.254	2.19457	5.14633	9.71780	-1.05292
16562.268	2.70802	5.56807	9.47048	0.28986
16566.227	3.28011	4.48368	9.45182	0.17173
16570.257	3.12677	4.47767	8.92694	-0.48138
16574.256	2.97094	4.83075	9.20538	-0.33406
16578.256	3.20392	2.65573	8.87367	0.16138
16582.247	3.39181	1.70213	8.93992	-0.24019
16586.217	2.93215	1.11316	8.77613	0.68519
16590.238	3.17896	1.08309	8.41320	0.34675
16594.258	3.31920	0.86916	8.86512	1.20451
16598.249	2.70265	1.54593	8.29739	1.52126
16602.258	2.52508	1.70855	8.12571	2.17190
16606.254	2.59371	2.62018	7.88439	2.61581
16610.255	2.37922	2.29189	8.26400	2.62086
16614.256	2.08600	2.89756	7.89043	-0.07716
16618.259	2.16196	2.83022	7.43015	0.14356
16622.256	2.03739	3.06619	8.10396	-0.18913
16626.259	2.24413	3.47406	7.57800	-1.00893
16630.247	2.01020	3.06961	7.65856	-1.06696
16634.219	1.91402	3.01770	7.56959	-0.68764
16638.256	2.07398	2.78916	7.46307	-0.44245
16642.258	1.91769	3.06400	7.29096	-0.21986
16646.250	1.89580	3.03665	7.30439	-0.13310
16650.223	1.80204	3.18453	7.49076	-0.31540
16654.256	1.70197	3.28477	7.84718	-0.77547
16658.259	1.91214	3.11042	7.67913	-0.68547
16662.249	1.76403	3.11311	7.55515	-0.30060
16666.258	1.80048	2.91334	7.50183	-0.60204
16670.257	1.75845	2.84944	7.37431	-0.78889
16674.237	1.90763	2.94242	7.42851	-1.07026
16678.226	1.86766	2.83707	7.15379	-1.08864
16682.254	1.82093	3.01640	7.01614	-1.13509
16686.260	1.95812	3.02099	5.86850	-1.13937
16690.258	1.45475	3.38447	7.06102	-1.16696
16694.251	-0.39462	3.22551	3.66530	-0.94349
16698.262	-2.46639	3.43581	2.24537	-0.64335
16702.220	-1.99206	3.20676	-0.24736	-0.49580
16706.256	-3.15070	3.13999	-3.65982	-0.82824
16710.250	-3.77977	3.06759	-3.09998	-0.27341
16714.246	-5.64213	3.20805	-0.42437	-1.54873
16718.250	-5.79968	3.27567	-1.91588	-0.14504
16722.221	-5.70868	3.29152	-2.59737	-0.25312
16726.257	-5.80135	3.02816	-2.23330	0.46871
16730.257	-5.89986	2.03727	-2.55232	0.04679
16734.257	-5.89345	3.25879	-0.86046	0.89025
16738.259	-5.93399	3.11076	-0.80682	1.58931
16742.282	-4.06056	3.93357	-1.27768	1.80792
16746.261	-4.04493	3.80610	-1.77305	1.45145
16750.261	-5.30643	4.15065	-2.28826	1.66461
16754.259	-5.31748	4.48753	-2.04748	1.39553
16758.260	-5.04304	4.23348	-1.73953	1.28811
16762.259	-5.40402	4.45377	-1.80375	1.24847
16766.260	-5.37037	4.49924	-1.93393	1.67425
16770.222	-5.43261	4.46640	-1.62046	1.60819
16774.263	-4.84363	4.40310	-1.68969	1.30312
16778.254	-4.96130	3.68754	-1.62949	1.28471
16782.257	-4.83075	3.68362	-1.72356	1.11128
16786.259	-4.91750	3.94831	-1.70430	1.31927
16790.260	-4.97425	3.38028	-1.83543	1.01853
16794.221	-4.94605	3.41778	-1.69359	1.23668
16798.249	-5.04203	3.15971	-1.63504	0.77977
16802.257	-4.99817	3.46615	-1.63760	0.82077
16806.261	-4.99253	3.37701	-2.35308	0.78048
16810.257	-4.91849	3.28074	-2.55393	0.66407
16814.257	-4.87355	3.12030	-2.89760	0.47700
16818.260	-4.83945	3.02750	-2.01104	0.38760
16822.255	-4.81488	2.86647	-1.92510	0.06782
16826.262	-4.66945	3.11683	-1.53275	-0.05276
16830.257	-4.51403	2.89522	-1.43734	-0.45670
16834.258	-4.51788	1.77781	-0.95626	-0.54609
16838.248	-4.62934	2.70682	-0.76203	-0.43422
16842.259	-4.76616	2.73399	-1.31818	-1.09845
16846.259	-4.97561	2.66664	-1.84595	-0.43038
16850.259	-6.27459	2.49569	-1.42657	-1.31932
16854.252	-5.72310	2.58054	-1.40827	-1.32420
16858.259	-4.66275	4.12771	-4.81628	-9.00614
16862.258	-4.61068	3.51120	-1.61270	2.98581
16866.260	-4.79750	3.32192	-1.44870	2.60593
16870.264	-4.97002	3.62366	-1.78394	1.65384
16874.263	-4.92585	3.35756	-1.80134	0.93063
16878.264	-5.04265	2.19177	-1.86236	0.96372
16882.234	-5.18749	2.66308	-1.96159	0.37100
16886.253	-4.78538	2.67748	-2.21013	0.29911
16890.259	-4.93260	3.18437	-1.95073	0.25530
16894.261	-5.00881	3.14972	-1.99481	-0.04473
16898.261	-4.91681	2.64200	-2.20131	-0.42681
16902.265	-4.97925	1.62255	-1.52151	-0.58480
16906.225	-5.01194	1.78200	-0.63357	-0.91968
16910.260	-5.09148	7.12690	-0.60223	-1.31243
16914.261	-5.16061	7.29309	-0.50803	-1.33954
16918.260	-4.82863	4.32238	-1.57079	-1.56077
16922.248	-4.97526	3.70018	-2.50903	-6.63002
16926.255	-5.08155	3.19070	-0.56568	2.72300
16930.262	-4.88902	3.05626	-1.56213	2.11915
16934.255	-5.00689	2.65187	-2.02351	1.58217
16938.258	-4.90765	3.30554	-1.09663	1.24852
16942.261	-5.02649	1.79590	-2.11289	-1.09534
16946.261	-4.63427	7.21674	-1.92823	-1.47739
16950.262	-4.66295	5.99892	-2.48916	-1.94031
16954.262	-4.29729	3.37877	-2.21544	-0.23827
16958.265	-4.54982	3.06976	-2.15509	1.60018
16962.263	-4.53618	2.93289	-0.84704	1.75927
16966.259	-4.66526	2.15261	-1.41583	1.70020
16970.264	-4.42276	2.36048	-1.85589	1.45422
16974.226	-4.59095	2.21319	-1.35777	1.62318
16978.219	-4.20170	1.92905	-0.91170	1.21399
16982.268	-3.90970	1.89267	-1.57858	1.55516
16986.262	-2.51190	2.83204	-0.12290	2.37243
16990.261	-1.34837	3.09990	1.11393	2.56990
16994.226	-1.31253	2.67763	3.17292	2.63107
16998.159	0.47862	2.85172	3.69946	2.43708
17002.265	0.45606	2.91580	3.97595	3.52439
17006.246	0.94686	3.13504	5.34193	3.40207
17010.259	0.77337	3.31918	4.38812	3.26876
17014.156	0.89063	3.42751	4.53115	3.31175
17018.262	0.85716	3.60101	4.43732	2.76592
17022.226	0.57069	3.72157	4.42064	3.96170
17026.264	0.87830	3.73686	4.77909	2.05571
17030.163	0.55555	3.93403	4.75403	-8.12103
17034.226	0.62804	3.82240	4.57342	-7.73543
17038.265	0.76193	3.95842	4.56686	3.22292
17042.262	0.76042	3.88223	4.59206	3.52859
17046.162	0.72801	3.90417	4.64367	2.89779
17050.262	0.66387	3.80313	4.62623	2.92444
17054.261	0.63270	3.55949	4.60530	2.11416
17058.261	0.60818	3.40743	4.60390	2.10464
17062.164	0.53915	3.10067	4.55778	1.62810
17066.264	0.59210	3.40320	4.53786	1.16614
17070.262	0.57865	3.08588	4.42804	0.36555
17074.265	0.57535	2.34729	4.23885	0.10876
17078.162	0.56962	2.45387	4.35800	-1.14837
17082.264	0.53299	1.79250	2.60161	0.52212
17086.266	0.41301	1.75475	2.17076	1.55287
17090.264	0.32905	2.99718	2.01791	0.85509
17094.267	0.16375	4.41307	2.27119	0.41413
17098.263	0.12754	4.77554	2.14134	0.23486
17102.268	0.14404	4.29048	2.00056	0.38606
17106.264	0.02338	4.53717	2.15361	0.25631
17110.142	-0.14379	4.32018	1.91643	-6.78805
17114.265	-0.14508	4.44713	1.97513	-6.13937
17118.261	-0.15104	4.44711	2.26341	-6.59662
17122.262	-0.03715	4.39913	2.30211	0.30949
17126.267	-0.17970	4.36035	2.27721	0.43148
17130.252	-0.21338	4.32770	2.19876	0.36883
17134.254	-0.12252	1.42627	2.31262	0.66732
17138.264	-0.04375	0.85445	2.36621	0.72730
17142.163	0.15183	1.06101	2.38687	1.23096
17146.263	0.25500	1.30779	2.50524	1.50110
17150.264	0.39665	1.28056	2.66461	0.70169
17154.264	0.71935	1.29285	3.04199	0.72858
17158.164	0.81712	1.34984	3.27663	1.01761
17162.269	0.56424	1.51840	3.67897	0.89489
17166.266	0.42040	1.96651	4.07387	1.08569
17170.265	0.71149	1.59324	3.51723	1.92961
17174.164	0.73908	1.97372	3.74802	1.46780
17178.228	0.78672	1.98725	3.86514	1.41837
17182.267	0.95872	2.72520	3.82081	1.80200
17186.268	0.85101	2.09253	3.88196	1.65754
17190.170	0.73464	2.23141	4.08224	1.89854
17194.266	0.31590	2.73749	4.17048	1.71833
17198.265	0.10560	3.19293	4.20982	1.65437
17202.268	0.38715	2.67534	4.37307	1.44401
17206.162	0.20946	2.70412	4.68969	1.08167
17210.267	0.54850	3.23161	4.58488	1.88075
17214.248	0.06800	3.33481	4.64233	1.48087
17218.263	0.68129	3.21969	7.10875	1.04376
17222.100	0.36491	3.21175	5.34181	1.13911
17226.264	-0.07473	3.41081	1.99915	1.21026
17230.266	0.13920	3.19845	1.87931	1.02233
17234.266	0.02415	3.48880	5.19337	2.09816
17238.168	-0.08607	3.54920	5.04063	2.90895
17242.268	-0.07996	3.63479	5.51998	3.36452
17246.229	0.10451	3.56982	5.43821	2.93415
17250.267	0.00211	3.18702	5.02942	3.41219
17254.163	0.05065	2.99547	1.82319	1.15360
17258.264	0.19993	2.97691	2.66979	1.33643
17262.267	0.27227	3.14665	2.08860	1.53181
17266.268	0.39179	3.27022	3.34786	2.85953
17270.173	0.19549	3.45655	3.18630	2.69241
17274.231	0.53771	3.18073	3.92761	1.59911
17278.268	0.47711	3.25309	3.73905	1.52652
17282.269	0.83111	3.43249	3.70435	1.65904
17286.165	0.64977	2.44458	3.98052	2.71066
17290.268	0.52724	2.58424	2.03117	3.04854
17294.269	0.53297	3.13345	4.00638	2.97686
17298.242	0.09187	3.58180	4.53253	3.11422
17302.157	0.31595	3.55836	4.30406	3.05800
17306.266	0.33491	4.02539	3.20474	1.94297
17310.267	0.47572	2.83962	2.02059	1.93830
17314.229	0.51480	1.98021	2.43684	1.98251
17318.135	0.58253	1.99560	4.73621	1.72622
17322.266	0.80022	1.83237	3.91328	1.75405
17326.142	0.66647	2.09723	4.42173	2.27891
17330.143	0.35516	2.68720	3.57787	2.99352
17334.134	0.48565	2.81186	4.21414	2.61919
17338.144	0.59813	3.43486	4.67397	2.23367
17342.143	0.72814	3.25963	4.35649	2.21026
17346.108	0.43589	3.55007	4.11935	2.71870
17350.273	0.22822	4.18911	4.25623	2.25689
17354.143	0.46214	4.34160	4.50826	2.58284
17358.142	0.66409	3.96340	4.28878	2.79903
17362.141	0.54823	3.76855	4.55204	2.96704
17366.142	0.61670	3.28289	4.12848	3.64040
17370.143	0.75920	3.56050	3.88493	4.15393
17374.141	0.82022	3.80717	4.38936	2.85721
17378.143	0.64280	3.86756	4.18057	3.26524
17382.119	0.69717	4.01668	4.07957	3.75249
17386.124	0.67290	4.10212	4.08281	3.32153
17390.146	0.51887	4.17135	4.05616	2.36823
17394.142	0.68025	4.10113	4.21318	2.80981
17398.110	0.76268	4.10320	4.42871	2.52182
17402.111	0.69285	3.34445	4.95401	2.41115
17406.155	0.61640	3.43443	4.35684	1.77629
17410.143	0.97388	2.55514	4.46384	2.43736
17414.140	0.90426	2.75184	4.49215	2.20454
17418.147	0.67888	2.35287	4.71203	2.26758
17422.140	0.86456	1.96738	5.30281	1.43993
17426.143	0.96581	2.13591	4.91412	1.95308
17430.165	0.93041	2.09186	4.88786	1.95385
17434.144	0.99792	2.21488	4.86022	2.19515
17438.144	1.16304	1.91389	4.72647	2.48415
17442.142	1.55509	1.82626	4.76024	2.70649
17446.134	1.13087	1.89632	1.28189	1.49267
17450.106	1.14828	1.96492	2.14981	1.80901
17454.145	1.07103	2.04049	1.98400	2.11187
17458.144	1.06021	1.93816	2.05390	2.13300
17462.136	0.89386	2.26635	2.88619	1.87180
17466.143	0.85166	2.73076	2.62858	1.74918
17470.117	0.77484	3.16803	2.67484	2.06683
17474.144	0.64506	3.21659	2.87462	2.22410
17478.146	0.80543	3.54579	3.47168	1.58090
17482.144	0.62747	3.55305	3.42784	1.99000
17486.143	0.61856	3.56766	3.18821	1.93745
17490.146	0.57635	3.75502	5.26219	1.01654
17494.143	0.60558	3.97527	5.12073	1.53163
17498.146	0.49262	3.55878	4.27178	1.87170
17502.144	0.47182	3.71354	4.03769	1.94901
17506.146	0.57880	1.51102	5.03890	2.00517
17510.126	0.64064	3.36756	5.18562	2.34077
17514.140	0.56359	2.87475	5.31270	2.77112
17518.108	0.63382	3.11964	5.42114	2.09571
17522.144	0.66360	3.46953	5.23935	1.82336
17526.120	0.70432	3.78321	5.62989	1.87418
17530.145	0.73675	3.21683	2.71092	1.87493
17534.144	0.71791	3.33874	3.72894	2.24856
17538.145	0.64898	3.15530	3.64800	2.13226
17542.167	0.70900	3.21751	3.41708	2.03665
17546.146	0.66263	3.41477	3.31175	2.15809
17550.144	0.56955	3.75834	3.22562	2.07641
17554.111	0.61496	3.64196	3.19714	2.11109
17558.168	0.62280	3.91066	3.21624	2.40323
17562.147	0.59841	3.89744	3.13952	2.07609
17566.146	0.64044	3.83345	3.13417	2.20990
17570.146	0.67062	3.37851	3.11114	2.20685
17574.145	0.62260	3.93482	2.92535	2.36776
17578.147	0.44502	3.84975	2.66751	4.03416
17582.146	0.16166	5.19764	3.85123	2.37342
17586.147	0.23917	4.83545	2.99371	4.19771
17590.108	-0.62295	6.40587	2.73781	4.60746
17594.127	-0.85183	6.37749	2.43915	4.34293
17598.147	-0.90374	6.84161	2.09425	4.17835
17602.146	-0.93267	6.45486	2.22111	3.76459
17606.171	-0.91150	6.96031	1.99121	4.50105
17610.148	-0.93966	6.61239	2.05452	4.53143
17614.145	-0.78833	5.05297	2.06860	4.56968
17618.147	-0.73230	5.91259	2.00200	4.44960
17622.105	-0.86034	3.67264	2.06565	4.95927
17626.145	-0.85086	4.41398	2.08981	6.45437
17630.145	-0.72786	3.79150	1.82333	6.08586
17634.145	-0.69012	4.39876	1.48193	4.19528
17638.140	-0.53436	4.76997	0.65355	3.95547
17642.143	-0.50867	5.87291	2.27575	2.89425
17646.109	-0.75732	6.28823	2.97030	3.40171
17650.146	-1.07369	6.83369	2.42882	4.54769
17654.146	-0.98179	6.63609	2.03833	5.05396
17658.145	-0.86210	6.26337	2.31549	5.85629
17662.146	-0.96559	4.56635	2.72451	5.81560
17666.146	-0.72866	4.23715	2.15170	6.27088
17670.141	-0.75156	4.64560	2.33316	6.79730
17674.145	-0.77593	4.74427	2.23722	6.85814
17678.119	-0.46269	4.61136	2.44977	6.28690
17682.148	-0.98199	4.64690	2.45785	6.36745
17686.174	-1.08574	4.58847	2.19113	6.21823
17690.147	-0.98303	4.59403	2.16275	6.08361
17694.149	-0.69173	4.47068	2.39715	5.91329
17698.148	-0.51701	4.45737	2.08577	5.93289
17702.147	-0.47488	4.35454	2.15286	5.92993
17706.147	-0.79667	4.52273	2.30506	5.83469
17710.147	-0.89014	4.47889	2.04250	5.97869
17714.112	-0.61431	4.38075	2.34750	5.83744
17718.108	-1.08611	4.50080	2.08763	5.72428
17722.167	-0.98167	4.49075	2.31153	5.75346
17726.151	-0.76149	4.36100	2.38338	5.70850
17730.149	-0.62496	4.30744	2.40417	5.65325
17734.140	-0.73809	4.55800	2.27359	5.52360
17738.148	-0.65690	4.00596	2.45740	5.54338
17742.150	-0.79873	3.93049	2.64398	5.47335
17746.147	-0.75007	3.77208	2.34228	5.53002
17750.172	-0.59612	3.41157	2.26430	5.25311
17754.150	-0.77285	3.39327	2.57417	5.55838
17758.152	-0.50304	3.38344	2.51282	5.18042
17762.116	-0.62059	3.36557	2.21028	4.64697
17766.144	-0.15613	3.42875	2.70929	4.85921
17770.149	-0.40390	3.42479	2.62591	4.66242
17774.112	-0.50334	3.34996	2.13522	3.76510
17778.147	-0.53538	3.40445	2.84044	4.19389
17782.153	-0.53195	3.52329	2.70054	4.25479
17786.148	-0.47190	3.61869	2.69631	4.53337
17790.149	-0.49977	3.86436	2.87321	4.52902
17794.149	-0.65910	4.75175	1.21482	4.75253
17798.144	-0.82734	5.06116	2.34327	4.65491
17802.128	-0.92463	5.24523	1.41296	4.68817
17806.155	-0.98462	5.16710	1.10844	4.86547
17810.148	-1.07374	5.00812	1.19792	4.99866
17814.152	-1.07805	5.18792	1.16198	5.55758
17818.151	-1.10276	5.33912	2.35766	7.06822
17822.152	-0.96929	5.39436	2.29015	5.63207
17826.149	-1.14352	5.50443	0.73781	4.34632
17830.142	-1.26006	5.65662	2.56471	0.45157
17834.150	-1.22841	5.90349	2.80454	0.80717
17838.151	-1.15493	5.73632	2.31445	0.61511
17842.151	-1.08825	5.66053	1.84714	2.63441
17846.152	-0.78144	5.48251	1.23992	2.75583
17850.152	-0.79171	5.61470	2.03588	2.90385
17854.152	-0.48046	3.36075	2.12520	3.03318
17858.148	-0.15737	4.69394	2.09802	3.01174
17862.151	-0.35772	3.79178	2.04483	3.02350
17866.150	0.06572	3.14582	2.10870	3.01833
17870.149	-0.34925	3.10612	1.91464	3.02280
17874.149	-0.25803	3.47136	2.15941	3.19993
17878.155	0.07267	2.99680	1.83573	3.28194
17882.150	-0.12223	2.77603	1.83471	3.48660
17886.152	-0.12853	2.78379	1.84054	3.57610
17890.150	-1.10060	3.54776	2.09130	3.61932
17894.116	-0.39450	3.83209	2.28665	2.64230
17898.153	-0.16119	3.92502	5.19726	2.51044
17902.115	0.48949	3.98966	4.85780	-0.20439
17906.158	1.15287	3.78038	3.03979	4.12201
17910.150	1.03697	3.74752	4.93551	3.90262
17914.153	-0.06202	3.83000	5.22549	3.83123
17918.154	0.79208	2.72761	5.53095	3.41133
17922.152	1.10393	3.38186	5.17868	1.87622
17926.111	0.75047	3.48167	5.26482	2.34836
17930.151	1.10403	2.98188	5.10096	1.76444
17934.153	1.43071	2.70017	4.69914	1.88500
17938.152	1.07629	2.36180	4.21866	1.21140
17942.145	1.31778	1.99515	4.47767	0.22162
17946.149	1.51491	2.37451	4.86677	1.24739
17950.152	1.34703	1.79546	4.98824	0.43207
17954.151	1.49723	1.75499	4.39812	0.24719
17958.154	1.83779	1.44629	4.90341	0.43613
17962.152	1.57409	1.54612	4.99073	0.47714
17966.157	1.73623	1.75985	5.08069	0.36011
17970.119	1.52379	1.87870	4.91134	1.13805
17974.149	1.63638	1.69427	4.94610	1.52564
17978.151	1.51447	1.79796	5.15768	1.14204
17982.151	1.58554	2.03900	4.88160	1.17972
17986.151	1.63209	2.15040	5.23745	1.71121
17990.146	1.62631	2.44433	5.31189	1.34480
17994.115	1.61024	2.78369	5.14709	2.40451
17998.155	1.63888	2.61120	5.32461	2.54931
18002.151	1.59068	2.81278	5.16211	2.67659
18006.055	1.66661	3.02717	5.13968	2.76682
18010.133	1.51859	3.28410	4.70241	3.20799
18014.155	1.82658	3.27290	4.96420	3.10902
18018.151	1.64694	3.45492	4.27466	2.14898
18022.052	1.73666	3.50242	3.78378	0.62171
18026.152	1.69411	3.52227	4.05382	0.41146
18030.154	1.71843	3.66387	4.45459	1.11937
18034.152	1.68362	3.73658	4.25921	0.40503
18038.156	1.65245	3.67641	4.09021	1.01388
18042.154	1.68714	3.77943	3.57602	0.74889
18046.155	1.65262	3.78360	4.09036	0.77887
18050.150	1.57443	3.78029	4.49758	2.32965
18054.147	1.61292	3.44575	4.78774	1.50390
18058.154	1.56620	3.69727	4.75879	3.26596
18062.116	1.56221	3.13529	4.58915	3.11180
18066.152	1.50180	2.73005	4.46241	3.36872
18070.153	1.45874	2.79695	4.89442	2.85430
18074.151	1.49235	2.11336	4.97600	2.76379
18078.152	1.53069	2.39472	4.63698	2.79531
18082.114	1.54118	1.95059	4.64396	2.51348
18086.054	1.42910	1.53188	4.20504	2.65750
18090.155	1.55363	1.40390	4.69278	1.73387
18094.130	1.47856	1.30990	4.05399	1.19585
18098.154	1.49212	1.11702	4.00774	1.15781
18102.054	1.40380	0.82571	3.91482	0.24481
18106.159	1.41330	1.02170	4.09298	0.79565
18110.152	1.28740	0.79557	3.96222	0.77483
18114.157	1.49068	0.64558	4.30114	0.47771
18118.055	1.38738	0.70893	4.06863	0.70214
18122.156	1.43064	0.55467	3.75531	1.45971
18126.155	1.41586	0.64225	3.77661	0.68305
18130.117	1.44574	0.39805	4.20180	0.42811
18134.054	1.44086	0.51115	4.47866	0.58369
18138.153	1.39448	0.59626	4.05957	0.56103
18142.153	1.41286	0.60105	4.13737	0.50717
18146.153	1.37255	0.69415	5.38024	0.70346
18150.055	1.39019	0.49568	4.71861	0.68997
18154.156	1.37622	0.84643	4.26235	-0.36206
18158.153	0.58764	1.91647	3.69738	-0.83683
18162.153	-0.69258	2.71252	1.31617	-1.17258
18166.159	-1.50802	2.35309	1.15516	-0.76441
18170.156	-1.43878	1.33359	0.89771	-1.04836
18174.156	-1.33976	0.76895	1.36290	1.23292
18178.122	-1.58324	0.63848	0.99663	1.29907
18182.052	-1.48505	0.43592	1.05860	1.44497
18186.154	-1.58259	0.38285	1.18765	1.74191
18190.154	-1.59504	0.24534	1.00184	1.25449
18194.155	-1.53741	0.51105	1.03684	1.64558
18198.049	-1.61037	0.31300	1.32580	1.40836
18202.156	-1.62847	0.21684	1.20157	1.57368
18206.154	-1.67504	0.30283	1.09108	0.09610
18210.159	-1.63978	0.14344	1.31049	0.97113
18214.161	-1.63179	0.03363	1.14660	0.48142
18218.135	-1.68863	0.04749	1.25371	0.58938
18222.156	-1.68954	-0.02772	1.25538	0.95625
18226.158	-1.67132	-0.09945	1.02831	0.35752
18230.058	-1.65989	-0.16689	1.04235	0.38318
18234.156	-1.67757	-0.05517	1.14719	0.43827
18238.156	-1.69378	0.02680	1.48002	0.33279
18242.156	-1.61694	-0.03559	1.36737	0.44178
18246.060	-1.66596	0.06739	1.10747	0.30807
18250.159	-1.66604	0.19473	1.18321	0.51932
18254.158	-1.75272	0.34179	1.02451	0.47359
18258.159	-1.73093	0.39961	1.20658	0.40882
18262.056	-1.72944	0.48736	1.34961	0.46864
18266.119	-1.71568	0.67149	1.12333	0.56705
18270.156	-1.69728	0.61741	1.34519	0.61465
18274.153	-1.64476	0.60669	1.07096	0.76254
18278.161	-1.69745	0.73167	1.44302	0.84559
18282.154	-1.68535	0.94161	1.46616	0.61487
18286.159	-1.72897	0.70017	1.51065	0.72533
18290.156	-1.72099	0.67700	1.28886	0.63926
18294.160	-1.62212	0.48115	0.72838	0.34284
18298.158	-1.63365	0.58901	1.25709	0.16801
18302.121	-1.63105	0.47966	1.12479	0.18586
18306.156	-1.58071	0.21461	0.81982	-0.57878
18310.054	-1.56045	-0.08056	0.52076	-0.44969
18314.158	-1.56228	0.28335	1.06334	-0.78972
18318.159	-1.53180	0.41172	0.62885	-0.50564
18322.159	-1.51732	0.16951	0.30910	-0.91731
18326.053	-1.46583	0.00303	0.50493	-0.98397
18330.160	-1.45207	-0.58069	0.43189	-0.86168
18334.121	-1.44326	-0.50069	0.85295	-1.16171
18338.120	-1.39016	-0.61737	1.19715	-0.64661
18342.064	-1.38629	-0.04290	1.23094	-0.83955
18346.157	-1.57627	-0.02904	0.53123	-0.49571
18350.159	-1.56027	0.50729	1.25609	-0.75397
18354.160	-1.70769	0.03887	0.65238	0.76419
18358.028	-1.73953	0.55101	1.50172	0.43344
18362.031	-1.82452	0.47119	0.24120	0.79069
18366.034	-1.86122	0.55643	0.24825	-1.31241
18370.034	-1.97327	1.10557	0.64551	-5.03925
18374.058	-2.02478	1.11328	0.58119	-4.45329
18378.030	-1.93246	1.09129	0.24994	-3.71586
18382.034	-1.90896	1.16732	0.12937	-4.17927
18386.036	-2.00678	1.32284	0.08547	-3.28518
18390.032	-1.92463	1.29292	0.27262	-3.44313
18394.033	-1.82805	1.38384	0.20643	-2.94546
18397.997	-1.88194	1.37561	0.42075	-3.35451
18401.997	-1.73799	1.38602	0.16395	-3.13882
18406.027	-1.66847	1.40097	0.28431	-3.24006
18410.035	-1.49393	1.35002	0.36620	-3.41592
18414.030	-1.47933	1.27810	0.40884	-3.34104
18418.034	-1.37947	1.30815	0.53664	-3.48206
18422.061	-1.26912	1.00458	0.31029	-4.27551
18426.036	-1.23360	0.69002	0.40961	-3.82369
18430.022	-1.12313	0.10261	0.46095	-0.80861
18434.025	-1.05508	0.16527	0.81766	1.73173
18438.006	-1.06510	-0.10189	1.04558	1.93295
18442.034	-1.11006	-0.57081	0.78424	2.00663
18446.036	-1.21405	-0.56281	0.53493	1.75638
18450.034	-1.18217	-0.70012	0.71109	1.47418
18454.037	-1.15005	-0.71028	0.85734	1.58015
18458.035	-1.08775	-0.80581	0.50123	1.26251
18462.035	-1.15994	-0.76269	0.87359	1.28953
18466.033	-1.15359	-0.79061	0.80404	1.46365
18470.032	-1.06714	-0.86126	1.08115	1.36225
18474.008	-1.10658	-0.92068	1.07646	1.44936
18478.032	-0.79342	-1.06372	1.20393	1.33332
