time (ms)	lx (deg)	ly (deg)	rx (deg)	ry (deg)
0.000	-0.86880	3.15740	1.16024	-1.79013
4.001	-0.72960	1.49166	0.69811	-1.63732
8.001	-0.79933	0.95959	0.54160	-0.97221
11.995	-1.32076	1.52557	0.75595	-1.03181
15.999	-0.62816	1.12826	0.60625	-0.51712
20.000	-0.64992	1.00053	0.72203	-0.49070
23.904	-0.72007	0.93261	0.43715	-0.43541
27.965	-0.55501	0.72508	0.63714	-1.05752
32.003	-0.63769	1.51595	0.88833	-1.07770
36.001	-0.64680	3.86703	1.27033	-1.50748
39.897	-0.74913	2.25527	1.04533	2.23502
44.003	-0.83848	1.63719	0.90046	0.15034
47.980	-0.96016	1.08324	1.19842	-0.42822
52.001	-1.06339	0.60868	0.90604	-0.88651
55.897	-1.09219	3.26049	1.02568	-0.65951
60.002	-1.09378	2.17907	1.12122	2.38909
64.001	-0.99951	1.45530	0.97852	0.24821
67.963	-1.14099	1.00780	1.14290	-0.90907
71.899	-1.01786	1.50354	1.35345	-0.96495
76.000	-1.16138	3.18049	1.12611	-1.75039
80.001	-1.13347	2.59133	1.02310	1.71219
84.003	-1.27557	2.62072	1.01275	0.19777
87.899	-1.25850	2.27990	2.05137	-0.22889
91.989	-1.24895	2.13546	0.98442	-0.43876
95.964	-0.46525	2.26871	1.00747	-0.41156
99.999	-1.25160	2.56801	0.96301	-0.44326
103.900	-1.17289	2.84143	1.42918	-0.36544
108.003	-1.22313	2.91716	1.22020	-0.52977
112.005	-1.12665	2.99754	2.03191	-1.16267
116.002	-0.83357	2.77956	1.97188	-1.18677
120.002	-1.18619	2.65443	2.22356	-1.34626
124.000	-1.01258	0.54581	1.52407	-1.06677
128.001	-1.16925	1.88756	1.85782	-0.55470
131.973	-1.16424	1.97526	1.16679	-0.89555
135.886	-0.81148	1.40579	1.87455	-0.87949
140.001	-1.31483	1.54705	2.30449	-1.60153
144.000	-0.85731	1.33118	1.90468	-1.89368
147.966	-0.80672	1.23159	1.15275	-0.53910
151.898	-1.11680	1.67749	2.11358	-0.57120
156.000	-0.81895	1.33335	1.80018	0.21779
160.001	-0.85007	0.83245	1.46941	0.34598
164.000	-0.92629	0.46004	1.42613	-1.63125
167.900	-0.96646	1.30750	1.80908	-1.84875
172.000	-1.03808	1.67535	1.41710	-2.30329
176.000	-0.86989	3.30739	1.71446	-0.01098
180.002	-0.82344	1.87200	2.11388	0.30149
183.903	-0.91274	3.60363	1.68062	0.44510
188.002	-0.94304	2.58978	0.94271	0.16334
191.998	-0.84136	2.82115	1.80645	-0.96179
196.002	-0.86252	3.29415	2.30097	-2.15547
199.904	-0.82942	3.44685	1.83722	-2.29380
204.001	-1.02374	3.74764	1.87510	-1.53235
207.966	-1.12234	-0.28770	1.24436	-1.27294
211.967	-1.20792	2.20659	1.77856	-0.84453
215.913	-1.02866	2.06917	1.88715	-0.59015
220.002	-1.13439	2.23173	1.61538	0.47216
223.999	-1.25729	2.76335	1.85276	-2.17093
228.000	-0.83635	1.00968	0.81225	-2.09349
231.898	-0.91093	1.67462	1.31052	-0.10310
236.002	-0.66064	2.58599	1.77876	1.02624
240.001	-1.00486	0.07327	1.88160	-2.64239
244.005	-0.60397	1.10939	1.81129	-1.27774
248.004	-0.47019	2.60053	1.78538	-0.06192
252.002	-0.99960	2.13120	1.62773	-1.36589
255.984	-1.00638	0.68565	1.85041	-1.43863
260.004	-1.73641	0.83292	0.50964	-1.07918
263.904	-1.40638	2.36966	0.58990	0.70214
268.004	-2.04277	2.44592	0.72325	0.51437
272.005	-1.81124	2.24997	1.10695	0.91917
276.005	-1.59859	2.55087	1.73162	-1.54134
279.900	-2.07202	2.72408	0.37817	-0.95810
284.004	-2.04574	2.61162	1.66854	-2.32362
287.882	-1.48339	2.64984	1.30055	-2.90691
291.882	-1.55774	2.66537	0.11240	-2.97403
295.878	-2.41559	2.88606	0.42763	-1.94501
299.842	-1.77732	2.77671	0.78409	-0.45600
303.853	-2.04574	2.72541	1.02193	-0.33846
307.880	-1.74310	2.79145	1.35705	0.55235
311.880	-2.14062	2.86437	1.58301	0.22383
315.881	-1.94798	2.82002	0.89188	0.24088
319.886	-1.89939	2.58196	0.29168	0.11647
323.878	-1.76983	2.50615	0.59749	0.31146
327.901	-1.92572	2.66926	0.51029	0.57129
331.881	-2.05534	2.58911	0.59426	0.75801
335.842	-1.73306	2.47481	1.17329	1.63409
339.842	-1.66410	2.58804	0.66690	0.62094
343.845	-2.00752	2.55220	0.58506	-2.52118
347.842	-1.65813	2.00097	0.60089	-2.53287
351.878	-1.81991	1.93716	1.36687	-1.31997
355.881	-1.94974	1.41336	1.29047	-1.56687
359.873	-1.92329	2.09969	0.71605	0.18270
363.880	-1.85601	2.22189	1.18180	0.15788
367.882	-1.79433	2.49642	0.89505	-2.25407
371.881	-2.00197	1.12349	0.77141	-1.75945
375.900	-1.85229	0.46331	0.73965	-0.19008
379.880	-1.87036	1.24267	0.55041	0.66942
383.876	-1.78674	1.98892	1.40839	-1.81983
387.873	-1.78047	2.18089	0.74144	-1.70887
391.876	-1.85849	1.88041	0.63114	-0.39373
395.882	-1.85207	2.19573	0.84630	0.48507
399.882	-1.77479	0.60914	0.65491	0.54149
403.882	-1.77293	1.07940	1.02233	0.68686
407.874	-1.74266	1.46828	1.30236	-1.59918
411.883	-1.79467	1.59549	0.91366	-2.15700
415.881	-1.85737	1.81047	0.90066	-1.57787
419.881	-1.91638	1.93646	1.09976	-0.94267
423.877	-2.13445	1.97685	0.85061	-1.00881
427.858	-2.34760	2.12316	0.75605	0.62008
431.879	-2.28762	2.13389	1.01729	0.82736
435.842	-1.86511	2.53326	0.42078	0.95235
439.879	-1.75681	3.01522	0.60285	2.39463
443.879	-2.12974	2.75965	0.54597	-0.33246
447.883	-2.19311	3.06028	0.54620	-0.79819
451.882	-1.59680	2.99807	0.42490	-0.51037
455.901	-1.70678	2.81302	0.34531	-0.54452
459.879	-2.26889	3.23390	0.49530	-1.88602
463.847	-1.62371	3.12225	0.40499	-1.34160
467.869	-1.60871	3.09517	0.31022	-2.05682
471.874	-1.50239	3.23671	0.58620	-2.25147
475.881	-1.55001	3.19583	0.57275	-2.31283
479.882	-1.47164	3.04633	0.56347	-2.43879
483.878	-1.75996	2.79762	0.79077	-2.39480
487.883	-1.81386	2.68596	1.04220	-2.00336
491.882	-1.60737	2.74436	0.88004	-2.09673
495.881	-1.59445	2.76949	0.81421	-2.33251
499.885	-1.63834	2.52826	0.60084	-2.12823
503.878	-1.71196	2.49978	0.47679	-1.79386
507.844	-1.56260	2.51343	1.05691	-1.17766
511.849	-1.65413	2.43353	0.33724	-1.60054
515.883	-1.75324	2.51866	0.39673	-0.70932
519.876	-1.91424	2.41936	0.41274	-0.13796
523.880	-1.79604	2.81744	0.55992	0.11522
527.883	-2.01261	2.23131	0.63833	0.35845
531.882	-1.79177	2.62495	0.96653	0.38654
535.879	-1.43999	1.84319	0.66305	0.69565
539.881	-1.95165	1.97398	0.65285	-1.19154
543.882	-1.72463	2.28519	0.50959	-1.54198
547.884	-1.92213	2.14270	0.43703	-0.75068
551.842	-1.64459	2.37833	0.63687	0.27034
555.881	-1.89731	2.49933	0.66121	0.59709
559.882	-1.72889	2.70043	0.79483	0.68845
563.884	-1.84361	1.99588	1.09827	0.67134
567.880	-1.60137	2.31847	0.64248	0.23123
571.884	-1.71613	1.95968	1.34286	-0.31423
575.882	-1.87899	1.11409	0.75992	-2.37386
579.885	-1.70043	1.84854	0.62193	-2.21561
583.873	-2.03962	1.81122	1.00191	-1.77883
587.884	-2.13058	1.81178	1.08602	-2.22963
591.881	-1.68783	1.57381	1.84299	-1.89166
595.883	-1.91652	1.73759	0.79332	-0.85139
599.882	-1.53220	1.85323	1.00273	-1.11934
603.882	-1.78986	1.62631	0.53843	-1.59724
607.845	-1.28946	1.89623	1.00496	-1.67800
611.882	-1.93167	1.85552	1.20323	-1.72182
615.874	-2.04978	2.12631	1.38019	-2.12641
619.884	-1.73115	1.62624	0.90326	-1.82706
623.886	-1.75833	2.15388	0.90520	-1.91152
627.883	-1.81967	2.23922	0.92445	-1.81967
631.851	-1.56471	2.12420	0.71841	-2.25695
635.883	-1.19291	2.09625	0.99060	-0.82958
639.884	-1.55177	2.18730	0.99623	-2.03761
643.885	-1.49708	2.40379	0.90572	-1.70860
647.908	-1.43657	2.76317	0.92497	-1.89227
651.883	-1.58009	2.94362	0.59047	-2.05185
655.883	-1.58215	3.00555	0.80635	-1.60152
659.887	-1.55782	3.53869	0.83146	-1.86551
663.877	-1.68052	3.86112	0.90723	-1.58405
667.883	-1.55360	3.13805	1.04657	-0.84556
671.883	-1.73911	2.96189	0.99921	-1.35114
675.870	-1.82386	1.99595	0.97112	-1.18854
679.880	-1.97718	2.93682	0.90574	-0.88882
683.885	-2.12642	3.12091	0.90614	-1.13892
687.884	-2.17388	2.96853	0.72017	-1.07208
691.886	-1.78805	3.09187	0.56627	-0.86174
695.878	-2.10149	2.89456	0.68340	-1.08968
699.886	-1.35117	2.58150	0.84121	-1.00759
703.883	-2.14367	2.74843	0.89473	-1.09143
707.847	-2.09886	2.49823	0.93879	-1.25166
711.876	-1.35105	2.52497	1.00293	-0.89632
715.846	-1.05476	1.38940	0.82707	-0.90548
719.856	-1.98125	1.96794	0.98286	-1.08445
723.883	-2.27245	1.55532	1.12817	-2.03442
727.878	-2.01994	1.57404	0.68876	-2.12090
731.886	-1.44331	1.41733	0.65729	-1.63584
735.885	-1.44984	1.55359	0.76312	-1.11859
739.884	-1.58515	1.68935	0.73764	-0.63842
743.886	-1.65198	1.97802	0.75930	-0.75309
747.887	-1.40276	2.11064	-0.70484	-0.41127
751.883	-1.14945	2.37186	0.65779	-0.46422
755.886	-1.43488	2.98806	0.56818	0.21106
759.847	-1.68146	3.29632	0.41973	0.96502
763.883	-2.29864	3.95821	-0.25177	1.93254
767.884	-1.75545	5.25693	0.35913	3.94974
771.849	-1.64370	3.78466	2.54546	6.41934
775.881	-1.24233	7.00303	5.81737	6.08136
779.886	-2.99549	5.36487	0.12113	6.34613
783.886	1.13263	7.31312	-1.81897	5.82687
787.888	NaN	NaN	NaN	NaN
791.886	NaN	NaN	NaN	NaN
795.886	NaN	NaN	NaN	NaN
799.886	NaN	NaN	NaN	NaN
803.882	NaN	NaN	NaN	NaN
807.881	NaN	NaN	NaN	NaN
811.850	NaN	NaN	NaN	NaN
815.886	NaN	NaN	NaN	NaN
819.885	NaN	NaN	NaN	NaN
823.886	NaN	NaN	NaN	NaN
827.849	NaN	NaN	NaN	NaN
831.888	NaN	NaN	NaN	NaN
835.885	NaN	NaN	NaN	NaN
839.889	NaN	NaN	NaN	NaN
843.884	NaN	NaN	NaN	NaN
847.848	NaN	NaN	NaN	NaN
851.890	NaN	NaN	NaN	NaN
855.887	NaN	NaN	NaN	NaN
859.887	NaN	NaN	0.59357	2.07749
863.890	-23.15559	2.21734	1.38061	7.30016
867.887	0.05864	-1.69735	1.72178	3.17028
871.886	6.35067	2.94963	-0.18886	2.58538
875.887	-2.35474	-1.31886	1.55836	1.63844
879.891	-4.91708	0.03729	-0.85347	0.69373
883.878	-3.25718	1.12249	-2.77287	0.62092
887.879	-1.80538	3.14047	-1.07031	1.58762
891.886	2.95866	4.68349	0.67379	2.63912
895.847	-1.94692	2.91681	0.84711	3.64457
899.887	4.11989	5.18639	1.35338	4.41529
903.887	6.43253	3.42908	-0.12116	3.23534
907.887	4.68962	3.50303	-0.98936	2.92026
911.851	3.51261	4.29682	-1.59876	1.53720
915.890	3.80335	4.39978	-1.77486	1.04292
919.890	3.27942	4.15050	-1.60008	2.53393
923.886	0.57391	4.25178	1.26671	2.65710
927.855	-2.16981	4.52203	-0.63429	2.99187
931.891	-2.76460	4.98886	-0.37271	3.19119
935.889	-0.85079	4.09118	-2.02852	-0.33326
939.892	0.08639	4.18832	-1.13270	1.80893
943.888	0.45748	3.91042	0.52696	3.02656
947.892	-1.22995	4.29023	1.34805	3.03242
951.888	-0.87143	4.02258	-0.01698	2.26774
955.892	-1.25982	4.44077	0.90274	3.24810
959.889	-1.11522	4.07244	1.44341	3.08632
963.854	-1.12516	3.84584	0.70657	2.43845
967.887	-1.39222	4.48631	1.49515	1.89267
971.886	-1.41043	4.29765	0.30535	1.96462
975.889	-1.37270	4.29433	1.13325	1.59459
979.881	-1.35442	4.14646	1.00846	1.07478
983.888	-1.57416	4.35557	1.22211	0.87241
987.886	-1.36275	3.82185	0.71548	-0.23172
991.888	-1.38366	3.69737	1.05493	-0.08440
995.890	-1.32396	3.87550	1.55653	0.10860
999.892	-1.82705	3.66852	1.73383	-0.41004
1003.889	-1.54596	3.86152	0.70288	-0.08098
1007.889	-1.59065	3.76782	1.46831	0.63558
1011.891	-2.00529	3.79752	0.92644	0.21295
1015.889	-1.95073	3.80739	1.31032	0.16168
1019.889	-2.06488	3.58688	1.31516	0.27078
1023.853	-1.83214	3.31277	1.59033	0.22020
1027.881	-1.37682	3.51675	1.29931	0.57119
1031.890	-1.84629	3.48794	1.25597	0.55754
1035.891	-1.30251	3.57381	1.04188	0.92761
1039.892	-1.76762	2.01524	1.40648	0.90371
1043.786	-1.54376	2.01812	1.22486	1.13455
1047.854	-1.85995	2.65246	1.21536	1.18710
1051.870	-1.87711	2.49004	1.15315	1.27114
1055.891	-1.87540	2.35460	1.06721	1.54289
1059.892	-1.66695	2.32675	1.02940	1.61858
1063.891	-1.49664	2.44190	1.40356	1.30170
1067.892	-1.40566	2.07189	1.35851	1.33438
1071.889	-1.35757	2.20056	1.48912	1.24309
1075.796	-1.40016	2.29192	1.32892	1.44274
1079.889	-1.40556	2.19359	1.37372	1.31721
1083.890	-1.36300	2.31626	1.33101	1.30887
1087.892	-1.44716	2.54676	1.41668	1.34989
1091.791	-1.30948	2.44480	1.27395	1.80172
1095.881	-1.29531	2.28936	1.39696	1.79361
1099.893	-1.30935	2.68164	1.62175	1.92960
1103.892	-1.25324	2.81295	1.65783	1.41170
1107.896	-1.26463	2.88854	1.64280	1.78862
1111.889	-1.37163	2.80052	1.72156	1.05634
1115.854	-1.88536	3.16460	1.76482	0.93539
1119.892	-1.80348	3.13438	1.55616	0.93489
1123.789	-2.44965	3.39855	1.84032	0.46118
1127.892	-1.68302	3.86403	1.56466	0.63669
1131.892	-1.24491	3.48461	1.74184	0.47136
1135.862	-1.02876	3.41219	1.58733	0.42500
1139.789	-1.23350	3.49000	1.82162	0.80994
1143.890	-1.75109	3.63345	0.69288	1.00733
1147.891	-2.29300	3.63321	0.39266	0.92439
1151.889	-1.58254	3.25048	1.46335	0.55150
1155.762	-1.53106	3.52280	1.24689	0.71371
1159.891	-1.62587	3.56621	0.82612	0.47928
1163.892	-1.46802	3.60986	1.83246	0.37115
1167.892	-1.73390	3.52297	1.38833	0.57885
1171.790	-1.89972	3.76329	0.72124	0.95765
1175.875	-2.46788	3.90213	1.56856	1.31298
1179.894	-2.07105	4.03411	0.68618	0.62417
1183.893	-1.60761	3.86267	1.23903	0.73815
1187.896	-1.61042	3.81259	1.23203	0.64523
1191.890	-2.32139	3.77014	0.57828	0.18850
1195.891	-1.50695	3.60140	1.15704	-0.02231
1199.891	-1.01387	3.01358	1.09400	-0.04475
1203.798	-1.30464	2.70664	0.31205	-0.42742
1207.892	-1.57468	3.14577	1.55583	-0.25925
1211.893	-1.31429	3.19408	1.13454	-0.36441
1215.887	-1.53726	3.07371	1.36382	-0.13005
1219.794	-1.38674	2.77490	0.87654	0.36769
1223.891	-1.59264	3.01128	0.90830	0.55450
1227.893	-1.44230	3.02774	0.45490	0.89839
1231.892	-1.33780	2.97097	0.60781	0.51684
1235.794	-1.32262	2.90661	1.16565	0.80288
1239.891	-1.11921	2.91791	0.90721	1.11835
1243.892	-1.25530	2.91487	1.46412	1.43983
1247.892	-1.16773	2.85400	1.56099	1.50967
1251.862	-1.51764	3.10489	1.80397	1.57602
1255.892	-1.92247	3.42300	1.94476	1.67962
1259.874	-2.12062	3.42922	1.28886	1.12027
1263.893	-1.84295	3.95087	1.65780	0.21379
1267.894	-1.24421	3.65517	1.01816	-1.33442
1271.890	-1.36910	3.57826	1.15116	-0.50477
1275.897	-1.48595	3.46085	1.41209	-0.76403
1279.894	-1.66361	3.57021	1.17800	-1.64881
1283.895	-1.40958	2.53046	1.70368	-1.43145
1287.893	-1.12288	3.74284	1.55777	-1.59474
1291.894	-1.50614	3.45666	1.24511	-1.23998
1295.894	-1.62500	2.95830	1.99322	-0.50996
1299.797	-1.93646	3.49102	1.86841	-1.16378
1303.884	-1.65024	3.38554	1.28450	-0.91576
1307.857	-1.81671	3.47933	1.32046	-1.12063
1311.895	-2.22619	3.38667	1.15176	-1.00032
1315.792	-1.90267	3.50015	0.76759	-1.37298
1319.767	-1.96234	3.46934	1.22801	-0.78947
1323.769	-1.96920	3.29399	0.38832	-0.59259
1327.770	-1.97007	3.27973	0.59975	-0.26147
1331.761	-1.93167	3.24715	1.33899	1.88605
1335.771	-1.96675	3.15739	0.97333	1.26366
1339.773	-1.72289	3.09566	1.01804	1.69897
1343.772	-0.78868	3.07155	0.62742	0.22094
1347.778	-1.23134	2.78033	0.13240	0.31190
1351.775	-0.78322	3.19140	1.43984	-0.22561
1355.771	-0.81714	3.04135	2.23462	0.25620
1359.771	-1.41559	3.14130	2.45676	-0.23900
1363.793	-0.68819	3.09446	2.29817	-0.44344
1367.768	-0.61310	3.14683	1.94317	0.54464
1371.771	-1.38039	3.20615	1.83876	-0.42489
1375.770	-1.76279	3.31381	1.60109	-0.57181
1379.771	-1.40891	3.41439	1.90081	-0.46397
1383.770	-1.35633	3.31110	1.00266	-0.52519
1387.765	-1.66653	3.31370	1.38969	-0.70195
1391.762	-1.89283	3.45417	1.83238	-0.48067
1395.764	-2.12186	3.57330	1.48126	-0.44288
1399.771	-1.89860	3.53366	1.64489	-0.41232
1403.772	-2.12315	3.68830	1.27477	-0.50124
1407.771	-2.21573	3.61287	1.36050	-0.61303
1411.762	-2.26334	3.72813	1.01598	-0.30443
1415.770	-2.38928	3.94190	1.54782	-0.81485
1419.769	-2.62863	3.91368	1.24436	-0.66962
1423.772	-2.72481	4.02436	1.33143	-0.71413
1427.798	-2.54866	4.03481	1.21794	-0.83754
1431.741	-2.85470	4.05195	1.57788	-0.60748
1435.770	-2.93007	4.10084	1.43354	-0.70886
1439.769	-0.87838	3.87239	1.22630	-0.91458
1443.764	-2.46211	4.14442	1.48689	-0.73490
1447.772	-2.21668	3.88496	0.65955	-0.80439
1451.777	-1.80985	3.88615	0.78774	-0.93535
1455.734	-1.36030	3.70362	0.76052	-1.03178
1459.767	-1.53376	3.29676	1.24292	-0.82792
1463.734	-1.37860	3.38819	0.69846	-1.16081
1467.775	-1.48161	3.23219	0.54662	-1.02236
1471.766	-1.09103	2.96529	1.33510	-1.28424
1475.798	-1.47437	2.98251	0.83109	-1.07665
1479.771	-1.40743	3.09660	1.07311	-1.19928
1483.773	-1.35502	2.87570	0.79010	-1.29152
1487.771	-1.69597	3.00174	1.18646	-1.35168
1491.769	-1.57716	2.89554	0.72260	-1.41662
1495.770	-1.44108	2.75038	1.16875	-1.62746
1499.773	-1.61605	2.73930	1.29630	-1.67931
1503.770	-1.66594	2.73621	0.70302	-1.59742
1507.738	-1.73090	2.89080	1.26612	-1.79326
1511.774	-1.67643	2.81747	1.07056	-1.52653
1515.770	-1.77476	2.78132	1.09090	-1.50934
1519.771	-1.81729	2.84786	1.19698	-1.52254
1523.731	-1.90026	2.74721	1.08366	-1.38068
1527.773	-1.86119	2.78290	1.01672	-1.16237
1531.773	-1.75352	2.67313	1.39674	-1.36877
1535.773	-1.66296	2.69856	1.24292	-1.34380
1539.774	-1.77759	2.83419	1.45199	-1.25947
1543.773	-1.90490	2.78082	2.11534	-1.25551
1547.771	-1.89600	2.82581	1.69696	-1.58219
1551.779	-1.56298	2.73126	1.69634	-1.15815
1555.796	-1.51757	2.79199	2.12592	-1.25873
1559.776	-1.41053	2.84768	1.54167	-1.54324
1563.774	-1.42270	2.64409	2.08590	-1.54112
1567.772	-0.94366	2.72137	2.13368	-1.75757
1571.794	-1.19730	2.21454	2.17918	-1.50303
1575.775	-0.77434	2.47790	1.59933	0.01600
1579.775	-1.41018	2.72238	-0.41249	0.80713
1583.774	-1.66973	2.71779	-0.73255	1.03303
1587.737	-1.46226	2.55289	0.38454	1.10170
1591.744	-1.31424	2.63258	1.13089	2.23054
1595.768	-0.93463	2.48610	0.64801	1.84094
1599.763	-1.21427	2.39432	1.00685	1.48656
1603.773	-1.37972	2.24119	0.91956	1.47398
1607.736	-1.44825	1.76451	1.04483	1.15216
1611.775	-1.67531	1.91211	1.31282	0.74598
1615.737	-1.52689	2.01280	1.33750	0.49564
1619.765	-1.57133	2.11983	1.59370	0.62923
1623.773	-1.17473	2.27054	0.96132	0.95575
1627.777	-1.38049	1.93718	1.06418	0.54135
1631.773	-0.15680	2.15980	1.16624	0.84635
1635.799	-1.22300	2.45604	1.34398	1.31701
1639.748	-1.65813	2.71076	1.01409	1.61630
1643.773	-1.50249	3.06568	1.10060	1.14565
1647.775	-1.36340	2.33374	0.87905	-1.47668
1651.777	-0.83508	2.02867	0.99062	-0.87837
1655.776	-2.03419	2.32619	0.81662	-1.07491
1659.737	-1.45767	1.72370	1.25875	-0.89612
1663.773	-1.16997	1.82097	0.97447	-0.49419
1667.773	-1.34036	2.16686	0.84858	-1.23353
1671.775	-0.95919	1.72454	0.95765	-0.43233
1675.777	-0.77672	2.16105	0.91827	-0.38218
1679.777	-1.15779	1.96579	0.72801	-0.95235
1683.799	-0.97035	1.87172	0.77717	-0.99658
1687.777	-1.22670	2.12468	0.95179	-1.43563
1691.773	-1.16900	1.78300	0.86141	-1.49817
1695.775	-1.21325	3.28576	0.88374	2.99742
1699.799	-1.25870	4.07260	0.80367	1.25108
1703.776	-1.36898	2.76258	0.86369	0.24071
1707.774	-1.28403	2.33818	0.77151	-0.39332
1711.747	-1.28852	1.82655	0.77069	-1.90178
1715.768	-1.51072	2.17769	1.20589	-1.75106
1719.775	-1.16153	3.11543	1.02940	1.84833
1723.741	-1.43419	2.25161	0.65962	2.15947
1727.775	-1.55420	2.93067	0.48284	1.86522
1731.766	-1.33453	2.88408	0.80255	1.07648
1735.776	-1.61929	3.19412	1.29167	1.12814
1739.776	-1.52615	3.17710	1.60908	0.63892
1743.774	-1.51859	2.63260	1.37602	0.23948
1747.778	-1.43776	2.62384	0.94569	0.42269
1751.774	-1.39487	2.51168	0.53550	0.54063
1755.778	-1.41789	2.80783	-0.01993	0.95727
1759.779	-1.49267	2.99844	0.87160	1.19339
1763.736	-1.57555	3.61235	1.61716	1.27720
1767.776	-1.92582	2.95903	1.24334	1.40508
1771.775	-1.39649	2.82877	1.38282	0.99542
1775.779	-1.52129	2.62898	1.25562	1.71662
1779.771	-1.32101	2.20845	-0.31079	1.40378
1783.774	-1.28333	2.43728	1.23503	-2.04774
1787.776	-1.61091	2.30424	1.44170	1.11446
1791.778	-1.21727	2.52173	1.20296	1.37635
1795.771	-1.04312	2.79551	1.32247	1.67334
1799.778	-1.02082	2.67262	0.76044	1.67046
1803.770	-1.09648	3.48260	1.23317	1.01855
1807.769	-1.90829	2.77257	1.04873	0.31988
1811.778	-0.97383	2.43385	1.22992	-1.01470
1815.775	-1.05471	2.58079	1.01491	-2.20668
1819.776	-0.91634	2.30139	1.09299	1.26431
1823.775	-2.72890	3.22020	1.27787	0.15244
1827.768	-0.98678	2.74300	1.20045	-1.28706
1831.777	-1.01099	2.08844	1.32299	1.41914
1835.776	-0.95477	2.64290	1.12551	0.40140
1839.778	-1.46077	3.93247	1.02801	-0.07327
1843.780	-1.33106	3.02345	0.89398	-1.49565
1847.755	-1.24357	2.26592	1.34715	0.19066
1851.778	-1.36424	2.28955	1.23206	0.29663
1855.784	-3.09394	2.02583	1.00109	-0.03918
1859.782	-2.18349	2.56208	0.94790	-0.59985
1863.741	-0.26632	2.52554	1.14072	-1.48644
1867.780	-1.91504	2.55287	-0.60106	-0.49769
1871.776	-2.04277	2.02179	1.18989	0.86336
1875.780	-1.95140	-0.42094	-0.84739	-0.52685
1879.776	-2.03742	1.86567	0.10500	-1.94002
1883.780	-2.20922	-0.60662	-0.91924	-5.27850
1887.780	-2.73640	-0.95447	-0.41063	-5.41361
1891.770	-3.22668	-1.15077	-1.69448	-6.74062
1895.742	-4.36222	-1.62170	-1.55938	-5.60460
1899.778	-4.79097	-2.03256	-2.33403	-6.34065
1903.777	-4.92087	-1.53178	-3.97076	-7.91031
1907.744	-4.62537	-1.81508	-3.35392	-7.52107
1911.777	-4.69788	-0.96149	-2.64753	-6.59472
1915.778	-4.95536	-2.29274	-3.58739	-5.72893
1919.781	-4.03455	-2.81054	-3.27076	-4.84364
1923.778	-4.82875	-2.62683	-3.74234	-4.99844
1927.778	-4.95132	-3.15531	-3.27806	-4.65770
1931.780	-4.90875	-2.67662	-2.65448	-5.16116
1935.780	-4.57704	-2.61305	-3.76314	-5.35181
1939.778	-4.84667	-3.10188	-2.82184	-5.00849
1943.780	-4.93686	-2.77215	-3.66481	-4.48192
1947.778	-4.71146	-3.15924	-2.54024	-4.54336
1951.778	-4.94851	-3.25194	-2.97114	-4.77099
1955.772	-4.73611	-3.26493	-3.79072	-5.59141
1959.778	-5.04206	-1.00893	-3.73977	-6.80069
1963.782	-4.66997	-1.79740	-3.59782	-4.21496
1967.782	-4.98948	-2.52266	-3.25372	-4.20263
1971.739	-4.71365	-3.56763	-2.58380	-4.31747
1975.782	-5.25003	-3.07415	-4.15507	-6.88056
1979.781	-5.00650	-1.70344	-2.97505	-4.40112
1983.780	-4.71587	-2.85532	-2.96233	-3.54912
1987.773	-4.55416	-3.51293	-2.99136	-4.36308
1991.780	-4.82018	-1.12615	-3.70606	-5.56544
1995.782	-4.35116	-2.13951	-2.39710	-3.67242
1999.743	-4.78757	-3.35373	-3.47970	-4.02737
2003.679	-5.15500	-3.29933	-2.71674	-4.60980
2007.779	-4.73944	-1.37959	-3.91706	-6.36462
2011.777	-4.93088	-2.98065	-1.99823	-4.51749
2015.771	-5.03595	-3.39220	-3.07075	-4.79416
2019.745	-5.10253	-3.07909	-2.23214	-5.02315
2023.780	-4.99214	-2.03014	-3.72333	-5.41831
2027.779	-5.26753	-3.14068	-2.10572	-4.52007
2031.779	-5.25589	-3.19824	-2.25741	-3.93164
2035.748	-4.94475	-3.51144	-3.38355	-4.22791
2039.782	-4.65900	-3.04106	-2.28544	-4.18785
2043.780	-3.34076	-1.79025	-0.37836	-3.77802
2047.783	-2.46724	-0.94403	0.53699	-2.74540
2051.679	-0.27704	0.97816	1.69696	-3.54788
2055.759	0.04167	1.12602	2.66959	-3.41004
2059.780	0.64141	0.53528	3.06194	0.06372
2063.779	0.77335	1.45162	2.74091	0.25044
2067.660	0.04872	2.83082	4.11656	3.47311
2071.781	0.61081	3.14512	2.58175	0.26025
2075.779	0.69791	4.83928	3.49930	0.33731
2079.781	0.69387	4.25183	3.69862	-0.62661
2083.677	0.73253	2.87020	4.11382	-0.86080
2087.781	0.83816	4.23622	3.94349	-0.44535
2091.784	0.15126	4.84872	4.01082	-0.11192
2095.764	0.70136	2.98030	3.92534	-0.39784
2099.782	1.05218	2.52244	4.02087	-0.14788
2103.784	0.91411	3.48838	4.07485	-0.31518
2107.783	0.25110	3.28958	3.97182	-0.05379
2111.781	1.05689	2.54751	4.05093	-0.46951
2115.682	1.07182	4.42654	4.24626	-0.33707
2119.784	0.41767	4.36329	4.21883	-0.78373
2123.784	0.65759	4.49366	4.29322	-0.39904
2127.779	0.17352	4.17501	4.18391	-0.59452
2131.681	0.46028	2.73370	4.19931	0.14304
2135.744	1.11340	3.33708	4.39101	-0.61567
2139.749	0.75439	3.82952	4.56641	-0.75065
2143.776	0.75337	3.31734	4.49706	-1.47305
2147.656	0.33968	3.18032	4.32377	0.67969
2151.781	0.57233	2.61948	4.20447	1.77890
2155.786	0.64479	2.38191	3.95236	1.73978
2159.779	0.58493	1.80758	3.41078	2.02105
2163.682	0.85974	2.90694	4.18956	2.04232
2167.781	0.50674	4.31723	3.81637	1.92486
2171.781	0.48311	3.73855	3.97941	1.41543
2175.786	0.19263	3.25178	3.84478	1.62788
2179.763	0.63776	2.68052	3.94354	1.30186
2183.782	0.75536	2.66096	3.82030	0.98767
2187.782	0.58424	1.98281	3.81281	0.42137
2191.781	0.65355	3.26052	4.05115	0.15410
2195.682	0.25679	4.42300	4.11520	1.89658
2199.782	0.77776	2.95777	4.43169	1.55709
2203.782	0.76387	2.51578	4.48123	0.59320
2207.784	0.38995	3.25395	3.94740	0.33672
2211.652	0.28404	3.27528	4.56646	-0.06398
2215.747	0.74625	2.68765	4.55218	2.22627
2219.773	0.95455	2.22292	4.54111	0.61388
2223.770	0.68766	3.46333	4.52755	0.18026
2227.684	0.81079	3.66977	4.68831	-0.91270
2231.783	0.83518	2.83791	4.44625	-0.08854
2235.785	0.68727	2.34366	4.34428	2.85585
2239.780	0.69585	1.28856	4.47370	1.79640
2243.686	0.81220	2.24573	4.32666	0.82858
2247.785	0.98137	2.48798	4.89821	0.64426
2251.784	0.99521	3.39955	4.73024	1.09221
2255.789	0.58776	3.84336	4.66127	1.06676
2259.681	0.15067	2.95325	4.55492	0.90554
2263.755	0.62913	2.83164	4.65133	1.77107
2267.783	0.76474	2.04811	4.90821	2.46102
2271.783	0.78059	1.95643	4.42188	1.22623
2275.681	1.06915	2.10497	4.93989	-0.61291
2279.783	0.59339	3.48092	4.66073	-1.49338
2283.786	0.92291	3.34297	4.91969	-0.71184
2287.785	0.40321	3.49580	4.75743	0.97589
2291.682	0.35546	3.65720	4.51230	2.00976
2295.784	1.00548	4.44192	4.54543	1.40112
2299.786	0.33414	3.98717	4.41995	2.10629
2303.786	0.50987	3.31024	4.26612	2.15121
2307.684	0.71690	3.07514	4.23475	2.59076
2311.787	1.14198	2.97027	4.07639	2.49737
2315.782	1.13700	3.84162	4.25065	2.19409
2319.784	0.48870	3.50110	3.63984	1.25163
2323.686	0.26046	3.59731	4.54885	1.93365
2327.786	0.24393	4.08941	4.08174	2.00745
2331.780	-0.37755	5.46160	3.99013	2.81346
2335.748	-0.18266	6.10946	3.09532	3.51416
2339.681	0.03589	5.75627	3.65035	4.60816
2343.659	0.83315	5.32281	3.36433	4.80429
2347.658	0.23058	5.77644	2.60181	2.66200
2351.640	-0.03685	6.53713	2.61479	7.58018
2355.636	-0.23458	5.78544	2.96836	5.14144
2359.658	-0.00814	3.99450	3.27858	4.24550
2363.659	0.13272	6.65553	3.27059	6.37612
2367.659	0.51885	6.96631	2.61800	5.55241
2371.790	0.26200	6.86842	3.10314	4.78692
2375.661	0.29367	6.76688	3.21899	3.60797
2379.660	0.15136	6.56531	3.28961	3.41559
2383.663	0.18291	5.92000	3.00982	3.17152
2387.662	0.24234	5.92934	2.77205	3.75325
2391.650	0.11059	5.87886	2.86967	3.80169
2395.652	0.22676	6.44008	2.99094	4.57513
2399.661	0.23356	7.18644	3.28867	5.54191
2403.654	0.12049	6.35442	3.32847	5.78483
2407.625	0.13573	6.15848	2.92903	6.22983
2411.662	0.06098	6.71648	3.12672	3.50182
2415.662	0.10858	6.65825	2.78768	5.87385
2419.684	0.07076	5.46134	2.83435	7.01498
2423.664	0.00459	6.54120	3.20261	4.41187
2427.664	-0.18060	7.03659	3.18705	4.48922
2431.666	0.07924	6.40538	2.87195	5.71759
2435.661	0.17635	6.04555	2.78607	7.13203
2439.659	0.16414	6.15493	2.63668	6.90530
2443.658	0.20782	6.51548	2.57692	3.24651
2447.659	0.19164	6.86556	2.85658	4.71069
2451.654	0.07306	6.20830	3.47131	4.61928
2455.658	0.14332	4.88602	3.18153	4.76224
2459.625	0.23671	5.67097	2.49057	6.73466
2463.663	0.23693	5.70724	2.46736	6.65962
2467.660	0.17238	5.83416	3.42747	5.50330
2471.661	0.27997	5.96541	2.44412	5.00618
2475.626	0.32017	6.23404	2.54405	4.92114
2479.658	0.36467	6.48465	2.53308	4.49106
2483.662	0.36601	6.69127	2.94198	3.56182
2487.660	0.23123	6.90341	2.40260	6.82925
2491.660	0.26726	6.34948	2.70738	7.00494
2495.660	0.30158	6.75906	3.08144	6.69778
2499.661	0.27014	6.60955	3.00891	6.03976
2503.662	0.19559	6.60134	2.84026	5.40443
2507.626	0.34404	6.63361	2.73942	6.98932
2511.665	0.32116	6.70138	2.85177	6.12288
2515.650	0.19186	6.77109	2.78864	6.78411
2519.660	0.19616	6.91072	2.91584	7.15454
2523.659	-0.10617	6.93389	3.12588	3.48496
2527.663	0.26857	6.72290	3.08810	4.98496
2531.663	0.19708	7.03225	3.43402	7.44953
2535.663	1.40569	6.95874	4.31420	6.01375
2539.661	3.27522	7.54927	4.07550	9.35727
2543.625	3.24870	8.79112	5.77492	6.32941
2547.660	3.42366	7.24888	4.33764	9.74193
2551.663	2.93829	9.02095	3.95614	6.59066
2555.666	2.72786	7.09679	4.21812	8.40518
2559.647	3.09216	7.61459	4.12846	10.43999
2563.688	2.65664	8.97632	5.68113	7.49431
2567.661	2.68606	8.93656	5.54975	7.54061
2571.664	3.19256	8.79150	5.57331	6.95248
2575.664	2.33896	9.08830	5.53741	7.60298
2579.690	3.11566	9.19551	4.33947	9.67426
2583.663	2.82063	9.13856	4.85928	7.78355
2587.663	2.62373	9.12033	5.67214	7.43450
2591.664	3.30732	8.15372	5.56881	8.03262
2595.663	2.62140	8.23373	5.72532	8.02692
2599.653	3.00401	7.93124	5.94502	7.11469
2603.653	2.87116	9.38060	5.20105	9.77211
2607.628	2.60062	9.19746	4.98891	9.20282
2611.666	2.67041	8.44630	5.89770	6.88903
2615.664	2.88002	7.62490	4.73522	7.59344
2619.665	2.84762	7.64620	5.68711	6.62720
2623.666	3.18804	9.62620	5.60246	8.87309
2627.689	2.70354	9.45103	5.94727	8.07619
2631.665	3.16710	9.24912	5.24179	8.96006
2635.668	3.44377	8.48311	5.49539	6.44974
2639.668	2.77309	8.03422	5.95390	8.26549
2643.656	3.09129	7.80656	5.86175	7.68941
2647.662	3.00586	8.47258	4.67806	10.13739
2651.663	3.05234	9.49355	5.21880	7.36755
2655.666	3.06892	8.09625	5.34454	7.93887
2659.656	3.20642	9.19240	5.67639	6.65801
2663.666	3.40190	7.92239	4.45834	9.22625
2667.665	2.85804	8.86496	5.43354	6.70349
2671.662	2.71330	8.54252	5.70563	9.44661
2675.690	3.16720	7.93596	5.72441	6.33338
2679.668	2.94148	9.11680	4.97943	9.56313
2683.648	2.96723	7.73021	5.42700	9.59314
2687.664	2.91686	8.25225	5.84662	6.42551
2691.662	2.70805	8.90704	5.08527	9.49483
2695.660	2.50003	8.77971	5.10760	9.43351
2699.663	3.06399	9.26047	4.78742	9.97242
2703.666	2.64166	9.31519	4.36382	9.58547
2707.630	2.92738	9.41270	4.22098	9.47195
2711.663	2.72459	8.44720	4.66097	10.47174
2715.628	2.86660	8.56239	4.73737	8.74005
2719.664	2.82618	9.50353	6.07175	6.16393
2723.685	2.83717	8.57690	4.69817	6.43264
2727.662	2.75651	8.62854	5.08695	9.72942
2731.670	2.68876	9.53949	5.26972	7.56976
2735.664	2.74098	9.09936	4.22039	6.37529
2739.686	2.83494	8.25043	4.70057	10.37071
2743.666	2.96049	9.33843	4.90284	8.91235
2747.665	2.74420	8.95055	4.91023	7.07817
2751.675	2.96849	8.43931	5.18461	6.93898
2755.686	2.74536	8.42092	4.86426	8.33259
2759.670	3.52504	7.82565	4.92994	9.13684
2763.666	2.88559	8.75166	4.72788	10.51031
2767.645	2.50454	8.92898	4.24018	10.17404
2771.638	2.90190	8.93337	4.98130	10.64790
2775.668	2.56404	8.24341	4.34897	8.12500
2779.667	3.60808	7.71401	5.42700	5.65280
2783.669	3.14800	8.14667	5.62965	7.76113
2787.688	2.51329	7.68079	4.60856	9.27598
2791.669	3.56573	7.92093	5.28281	8.15784
2795.666	3.14419	8.57357	5.18205	9.95554
2799.665	3.39072	8.14694	5.09520	10.31534
2803.694	2.80295	8.85602	4.83516	10.70670
2807.656	2.53553	9.31770	5.02208	6.16953
2811.657	3.23049	8.55042	4.71957	6.33042
2815.665	2.63512	8.93620	4.99485	6.45993
2819.690	2.82147	8.92999	4.70725	6.44779
2823.666	3.44409	8.46217	5.40464	9.49564
2827.666	2.67132	8.38623	4.09799	11.25783
2831.666	2.02039	7.32907	3.42732	10.12653
2835.656	0.73275	8.31226	3.23415	6.79117
2839.670	0.75451	4.55339	2.33977	7.21517
2843.670	-1.93013	6.34512	1.09224	5.16796
2847.625	-1.64179	5.63336	0.39986	2.77436
2851.670	-1.76651	4.05504	0.57642	4.87484
2855.667	-1.76624	6.04801	0.49495	3.17815
2859.673	-1.84235	5.02367	0.51148	2.66962
2863.669	-1.80786	4.13264	0.46862	2.14567
2867.668	-2.22071	4.11710	-0.92284	1.89694
2871.670	-2.02606	4.39360	2.05355	1.30066
2875.670	-3.39324	4.85685	-0.14806	2.54999
2879.665	-2.13135	5.34022	0.61570	2.66853
2883.662	-3.48331	5.50131	0.36065	3.10912
2887.670	-3.36767	5.46043	-0.93805	3.23566
2891.648	-1.95497	4.17577	-1.30295	1.78810
2895.626	-1.53342	2.22829	-1.47084	2.89015
2899.634	1.34929	2.41718	-3.59950	-0.11537
2903.668	0.53863	1.71413	-1.02151	-0.56131
2907.671	-1.67628	1.49231	0.36705	1.00488
2911.670	-2.49456	1.87855	2.13046	-0.20471
2915.669	-3.47037	1.56727	1.36164	2.03287
2919.669	-3.30144	2.50962	0.77747	-0.43717
2923.669	-2.81739	1.64587	0.62496	-2.62404
2927.667	-3.16127	1.19620	-1.33068	-0.36868
2931.661	-3.34823	2.04318	-0.32275	-0.39014
2935.663	-2.92364	1.39770	-0.61052	-1.86322
2939.671	-3.35550	0.23018	-3.09646	-2.76417
2943.670	-3.35350	2.04117	-1.13712	0.18693
2947.661	-3.09899	0.94496	-0.18062	-1.20542
2951.671	-3.09045	1.68588	0.49582	-1.30177
2955.666	-3.20639	0.88585	0.84188	-1.43304
2959.671	-3.24422	2.29416	-0.78871	-3.61582
2963.663	-3.10641	0.45394	1.17031	-0.39996
2967.672	-3.07535	-0.11384	-0.59250	-2.95363
2971.671	-3.27447	1.24678	0.80000	-2.47511
2975.649	-3.07689	1.46287	0.26830	-2.51436
2979.666	-3.09149	1.41381	-0.05264	-2.24998
2983.670	-2.85477	0.52318	-0.62258	-1.87814
2987.667	-3.06672	0.30441	-0.26279	-1.27479
2991.670	-3.23131	0.70932	0.51967	-2.93173
2995.669	-3.23920	0.26635	0.90510	-3.74589
2999.672	-3.10027	0.64550	0.80848	-3.60410
3003.673	-3.05444	0.69657	-0.01819	-3.64603
3007.672	-3.17022	1.23426	-0.06979	-2.82732
3011.671	-3.24429	1.13805	0.32833	-2.12580
3015.659	-3.04130	-1.21579	-0.17745	-0.35337
3019.633	-3.01141	0.49207	-0.38077	-4.09561
3023.670	-2.35935	0.65970	-0.31769	-3.55633
3027.637	-3.22470	0.81388	0.45378	-2.10193
3031.671	-3.07214	0.30766	0.75886	-0.88105
3035.674	-2.96329	0.40965	-0.19013	-1.19501
3039.669	-3.12442	0.37803	0.05465	-4.10700
3043.672	-3.12353	0.52732	-0.20229	-2.55078
3047.669	-3.03833	0.81097	0.01670	-2.24239
3051.672	-2.59866	0.85221	-0.32913	-1.74536
3055.670	-3.05905	0.76084	-0.13617	-2.39974
3059.677	-3.03452	0.83132	0.10838	-1.87891
3063.670	-3.20657	1.03361	-0.07492	-1.78342
3067.682	-3.20553	1.17371	-0.37958	-1.68594
3071.668	-3.32501	0.90053	-0.26031	-2.04273
3075.569	-3.36772	0.81044	-0.33310	-2.12739
3079.669	-3.16542	0.94525	-0.59131	-2.04567
3083.673	-3.08943	0.82064	-0.53821	-1.96399
3087.670	-3.07357	0.68623	-0.69570	-1.92762
3091.663	-2.84724	0.70893	-0.96777	-2.13558
3095.673	-3.02262	0.52695	-0.90914	-2.33907
3099.652	-3.03581	0.58882	-0.96492	-2.19707
3103.667	-2.98072	0.44476	-0.92736	-2.48938
3107.676	-3.06612	0.46152	-0.83647	-2.29662
3111.670	-3.02665	0.37134	-0.58181	-2.38350
3115.670	-2.90661	0.41044	-0.68665	-2.11755
3119.672	-2.85626	0.52390	-0.63240	-1.62693
3123.670	-2.82657	0.95403	-0.47517	-1.64674
3127.670	-2.72914	1.32168	-0.42130	-1.23528
3131.671	-2.83940	1.25141	-0.24445	-0.76279
3135.675	-2.87445	1.44472	-0.66307	-1.16164
3139.571	-2.96926	1.06177	-0.08934	-1.26948
3143.638	-2.95750	0.84574	-0.06847	-0.66441
3147.634	-2.85841	1.17858	-0.15392	-1.05435
3151.672	-3.01730	1.53331	0.07944	-1.22100
3155.574	-2.81900	1.50982	-0.38231	-1.22922
3159.636	-3.17537	1.48495	-0.70811	-3.30266
3163.678	-2.80139	1.36243	-0.52694	-2.70839
3167.673	-2.69366	0.90882	-0.46530	-3.06678
3171.571	-2.86866	0.42376	-0.16270	-0.75885
3175.671	-2.66622	-1.22234	-0.50190	-1.47332
3179.673	-3.07652	1.78502	-0.06289	-2.83352
3183.652	-2.69572	1.29810	-0.35553	-3.03273
3187.565	-2.30853	1.71428	0.00030	-3.45491
3191.670	-1.01732	1.64378	0.38598	-3.05968
3195.674	0.47376	2.53417	3.32056	-2.60638
3199.672	1.22598	1.93251	3.40732	-1.70505
3203.675	1.65907	1.46127	2.52716	0.27670
3207.676	0.85324	3.03240	3.43054	2.01737
3211.671	0.82315	3.64370	4.05048	1.89376
3215.667	0.88322	3.69821	2.95143	2.95356
3219.677	1.14578	3.90071	1.49827	2.70765
3223.662	1.27968	4.71688	2.96530	3.27429
3227.666	1.02449	3.42619	1.91801	1.56326
3231.675	1.09177	3.54970	3.85054	0.92656
3235.676	1.37987	4.03762	2.53496	2.84891
3239.675	1.83613	4.47028	4.06369	4.12108
3243.671	1.24297	3.92159	4.01784	1.21674
3247.674	1.22372	4.69746	4.26032	0.71790
3251.678	1.02332	4.76660	4.10873	2.95493
3255.675	2.00594	3.46304	4.25433	3.74909
3259.672	2.03615	3.85607	3.62872	2.13216
3263.677	1.49401	4.75965	4.00344	1.09463
3267.577	0.56878	3.79887	3.75511	2.12244
3271.639	1.09897	3.46145	2.31609	3.15400
3275.637	1.33368	4.09833	2.13100	3.21571
3279.673	1.08733	4.61412	3.50860	4.34342
3283.575	1.23216	4.66722	3.26972	4.93681
3287.634	1.31910	4.57562	3.06063	3.46908
3291.677	1.14084	4.76593	3.11240	5.28031
3295.672	1.29576	4.59521	3.28974	4.49962
3299.576	1.26932	4.57450	3.31091	4.59798
3303.678	1.15429	4.31890	3.44065	4.54283
3307.674	1.23707	4.42987	3.33839	4.53495
3311.673	1.45073	3.86822	3.22905	3.98529
3315.570	1.69651	4.01377	3.26643	3.50717
3319.673	1.17919	4.21035	4.05404	2.02094
3323.675	1.15744	3.95186	3.86778	1.33479
3327.676	1.39909	4.86257	3.55587	1.70734
3331.679	1.74980	4.19693	3.35123	2.03077
3335.676	2.15051	4.20601	3.68421	1.70541
3339.640	1.77878	4.27611	4.17880	4.80768
3343.676	1.60089	4.47312	2.75086	3.75614
3347.577	1.91105	4.08068	4.41874	3.25561
3351.672	1.87364	4.09103	3.45507	3.72976
3355.675	1.64005	4.15420	4.29169	3.44107
3359.676	3.01725	4.00143	4.31921	3.92231
3363.578	1.78813	4.27992	3.95807	3.91676
3367.678	1.88207	4.51395	3.93692	1.57843
3371.677	1.69081	5.01155	3.92003	-0.58187
3375.678	1.57314	5.14008	4.22036	1.41354
3379.679	1.77675	4.01782	4.10987	3.49062
3383.551	2.01104	4.33431	3.96298	3.96335
3387.553	1.81010	4.37904	4.07547	4.83983
3391.553	2.03977	4.44775	4.03438	0.98338
3395.639	1.82787	4.89072	3.91489	0.95105
3399.549	1.98799	4.85597	4.04152	1.52696
3403.552	1.97076	4.79846	4.00660	3.79058
3407.552	2.11948	4.66055	4.12715	5.62040
3411.680	2.09165	4.90067	12.29429	5.18215
3415.551	7.13170	7.15334	11.96878	6.48953
3419.552	3.08050	7.27337	3.81859	5.47291
3423.551	NaN	NaN	NaN	NaN
3427.517	NaN	NaN	NaN	NaN
3431.554	NaN	NaN	NaN	NaN
3435.549	NaN	NaN	NaN	NaN
3439.516	NaN	NaN	NaN	NaN
3443.514	NaN	NaN	NaN	NaN
3447.549	NaN	NaN	NaN	NaN
3451.548	NaN	NaN	NaN	NaN
3455.552	NaN	NaN	NaN	NaN
3459.511	NaN	NaN	NaN	NaN
3463.553	NaN	NaN	NaN	NaN
3467.550	NaN	NaN	NaN	NaN
3471.549	NaN	NaN	NaN	NaN
3475.556	NaN	NaN	NaN	NaN
3479.531	NaN	NaN	NaN	NaN
3483.551	NaN	NaN	NaN	NaN
3487.553	NaN	NaN	NaN	NaN
3491.516	NaN	NaN	NaN	NaN
3495.514	NaN	NaN	NaN	NaN
3499.551	NaN	NaN	NaN	NaN
3503.553	NaN	NaN	NaN	NaN
3507.518	NaN	NaN	NaN	NaN
3511.544	NaN	NaN	NaN	NaN
3515.554	NaN	NaN	NaN	NaN
3519.549	NaN	NaN	NaN	NaN
3523.543	NaN	NaN	2.96978	13.69329
3527.522	NaN	NaN	5.68770	8.97784
3531.555	NaN	NaN	4.24673	12.07753
3535.551	NaN	NaN	3.87117	8.57035
3539.551	12.52322	2.57976	8.22066	5.28976
3543.545	7.06608	2.30665	6.45010	5.53963
3547.555	11.59784	4.95963	8.75965	8.50575
3551.553	9.60543	3.30426	8.29207	5.66092
3555.553	0.51066	0.48252	2.97926	11.21575
3559.546	-3.37707	2.42871	-0.98276	8.41810
3563.529	-1.91598	0.30967	-0.60741	8.37031
3567.553	0.18042	2.57942	-1.44272	4.24069
3571.553	0.10533	4.28787	0.63667	3.81933
3575.553	0.51118	6.00401	9.53120	5.08992
3579.557	6.66442	6.63693	8.36644	6.08941
3583.552	9.53820	6.57493	4.53749	6.32316
3587.517	8.39006	6.55978	5.86514	4.14568
3591.522	3.39129	7.53310	5.34508	5.36386
3595.556	7.06185	6.84836	4.34522	5.90374
3599.556	4.82402	7.10740	4.10184	5.02471
3603.553	3.68762	6.21582	4.17788	4.44380
3607.521	3.66782	6.01283	4.01830	3.86205
3611.553	3.30950	6.25062	3.63863	4.27820
3615.553	3.36997	6.42240	4.00462	5.03564
3619.553	3.51112	6.58237	1.66125	4.99344
3623.555	4.56343	6.44572	1.29993	6.68330
3627.556	4.26400	6.60511	1.78572	4.73099
3631.557	4.27866	6.44744	1.60890	5.31621
3635.554	3.63900	6.47341	1.58520	5.11220
3639.546	3.49169	6.23464	1.63921	5.23956
3643.557	4.14135	5.57545	4.39237	4.40414
3647.520	3.86714	5.78478	4.18126	4.86141
3651.553	4.35482	5.12817	3.68107	4.26520
3655.548	2.90537	4.83460	1.87688	3.87599
3659.554	3.97649	6.37932	3.96387	7.57855
3663.560	3.61757	6.26833	3.76700	4.47073
3667.558	3.51587	4.73872	4.15591	3.28607
3671.547	3.38066	4.95234	4.14737	4.64019
3675.556	3.44525	6.49726	4.23557	4.55775
3679.554	3.03279	5.59319	2.86497	6.03896
3683.557	3.32159	5.04249	3.57686	5.00940
3687.560	3.62239	4.61158	3.88512	4.38263
3691.557	2.86893	6.35735	4.44546	1.71271
3695.556	3.39535	6.19943	4.45037	2.65175
3699.556	3.21819	6.03101	4.45653	4.22026
3703.550	3.22096	5.62006	2.34198	4.04190
3707.518	3.28444	5.74201	3.67039	5.54233
3711.557	2.98819	5.53412	3.48654	5.36646
3715.519	3.48442	5.33412	4.49122	2.22952
3719.555	2.76948	5.98164	4.13295	2.89240
3723.519	3.52289	5.88563	3.83917	3.46516
3727.554	3.49292	5.69911	3.59233	4.00334
3731.556	3.71602	3.50849	3.25961	4.83593
3735.554	3.75615	3.68877	3.86679	5.58345
3739.555	3.51495	5.35239	3.04882	3.72167
3743.558	3.82954	5.53575	3.00009	3.51689
3747.559	3.35451	6.35221	3.16203	3.61257
3751.556	3.73295	3.41142	3.94169	5.22546
3755.554	3.90118	3.57975	3.57026	6.02863
3759.557	3.36540	5.18943	2.70948	3.86717
3763.553	3.63972	6.11417	2.81201	3.31646
3767.554	3.75820	6.41624	3.58761	3.85508
3771.530	4.03618	4.97710	3.81031	4.38313
3775.557	3.58603	4.25835	3.66765	5.35958
3779.558	3.50788	4.32710	3.30809	5.36184
3783.577	3.71063	4.77785	3.42507	5.67709
3787.559	3.73329	4.79181	3.97513	4.79477
3791.560	3.85301	4.95149	4.07051	2.09825
3795.556	3.45588	5.29970	3.41345	2.61111
3799.558	3.14573	5.91463	2.65609	4.04481
3803.556	1.90966	6.64517	2.48948	3.56127
3807.559	1.63192	6.47784	2.84692	3.62175
3811.557	1.70489	7.27167	2.56436	3.87031
3815.556	1.39547	7.04325	2.13048	4.11215
3819.557	1.50375	6.92155	2.33911	4.21328
3823.558	1.90415	7.21694	2.24421	3.61097
3827.559	2.19410	6.96021	2.75440	4.20671
3831.548	1.85584	6.94893	2.68442	4.26527
3835.521	2.22981	6.58165	2.11257	7.31927
3839.558	1.86174	6.56469	2.22926	5.83288
3843.560	1.54497	7.02003	1.81605	6.13041
3847.518	1.15019	7.17552	1.70524	4.71185
3851.562	1.70078	7.10868	1.62688	3.47003
3855.560	1.84562	6.69007	1.54472	7.85438
3859.557	2.07881	5.91238	1.11025	6.90284
3863.549	1.76653	6.64574	1.37216	5.53875
3867.560	1.76249	7.05510	1.13811	4.39073
3871.559	1.86176	6.50615	1.48548	1.93161
3875.557	1.68644	6.61813	1.42089	7.66375
3879.558	1.60556	6.35162	1.50988	5.71243
3883.557	2.07450	6.86403	1.24721	4.98145
3887.561	1.93517	7.11926	1.80593	4.31169
3891.561	1.65664	7.37528	1.23469	6.95500
3895.548	1.79911	6.95379	1.41050	6.12359
3899.521	1.66542	6.89734	1.50165	7.03130
3903.559	1.61967	7.06651	1.75947	6.77541
3907.559	1.82698	7.12158	1.81895	7.50498
3911.559	1.62170	7.32007	1.92894	7.75632
3915.560	1.58249	7.17567	2.84752	4.08042
3919.558	1.69840	6.34566	1.61850	3.98671
3923.559	1.55519	6.59990	1.05954	4.34280
3927.556	1.55951	6.71421	0.78126	6.77671
3931.561	1.31005	6.99629	-0.03162	6.78012
3935.554	1.52734	7.08051	1.44011	3.82580
3939.549	1.43297	6.01427	1.96680	3.97478
3943.562	1.46588	6.71330	1.60303	5.57189
3947.560	1.35256	7.18857	1.60320	6.51645
3951.561	1.53535	6.83874	0.85920	8.93510
3955.572	1.53969	5.78870	1.35559	5.47622
3959.562	1.54410	6.29281	1.79829	3.75596
3963.560	1.35797	6.01903	1.64087	4.28489
3967.565	0.84960	6.61013	1.44346	3.92360
3971.524	1.35698	6.03029	1.77162	4.23856
3975.559	1.48746	6.00096	1.72602	5.11778
3979.534	1.34748	5.87067	1.97892	6.32455
3983.560	1.47665	6.51794	1.85100	7.31134
3987.560	1.73023	6.71210	1.75629	5.98427
3991.553	1.42414	6.41319	1.98284	3.98129
3995.558	1.44396	5.47469	1.85819	8.03350
3999.559	1.23528	6.72165	1.56823	6.71352
4003.559	1.23645	6.62114	1.44984	4.30034
4007.552	1.54083	5.54097	2.20136	9.09685
4011.562	1.25761	6.89447	1.95636	6.33357
4015.562	1.23682	6.64146	2.22406	4.15908
4019.559	1.98058	4.89512	1.99404	6.85468
4023.553	2.09911	6.75399	2.08776	6.75975
4027.524	1.36933	6.85971	1.99359	5.91079
4031.557	1.73799	6.62300	2.36448	5.92097
4035.562	1.26817	6.73048	1.57882	5.16586
4039.564	0.87786	6.71898	1.70814	4.95163
4043.562	1.06212	6.16739	2.35848	3.88952
4047.561	1.23129	6.50527	1.87515	3.70107
4051.560	1.43153	6.13790	1.54004	3.83443
4055.567	1.34450	6.23482	1.37238	5.35488
4059.567	1.50730	6.49818	1.21874	5.50069
4063.527	1.69135	6.25969	1.01251	6.24830
4067.563	1.89699	5.27019	2.03137	6.27810
4071.565	1.06798	5.97994	2.08215	5.47917
4075.561	1.12489	6.18092	1.57109	5.19847
4079.560	1.21566	6.31667	0.94229	5.96539
4083.563	1.46715	5.01988	1.37136	8.54521
4087.460	1.30417	5.89186	2.37904	4.12420
4091.535	1.26664	6.18561	0.79508	5.23612
4095.563	1.20539	7.28695	0.63918	6.05634
4099.562	0.60315	6.26780	0.09545	6.67529
4103.567	1.20284	5.45493	-0.10423	7.04114
4107.563	1.15893	5.33667	1.20537	8.60821
4111.562	1.17847	5.22019	-0.06765	8.03700
4115.562	1.37528	4.92220	0.26746	5.51257
4119.563	1.41826	5.24569	0.49952	7.44552
4123.561	1.54403	4.96826	0.89900	6.80492
4127.561	1.62202	6.17478	0.46234	6.69149
4131.563	1.17066	6.42786	1.07607	7.08177
4135.563	1.50633	6.52256	0.73933	7.33525
4139.561	1.73735	6.20513	0.85185	6.56832
4143.558	1.58805	6.14777	1.02005	6.11906
4147.555	1.39775	6.34635	1.11668	4.53196
4151.562	1.33363	5.60398	2.70614	5.28156
4155.564	1.39118	5.07600	1.77509	6.72448
4159.562	1.97441	6.05528	1.65694	6.69302
4163.566	1.72342	6.74916	0.95594	7.02085
4167.474	1.65974	6.87053	1.19279	7.33359
4171.562	1.44733	6.27534	1.56866	6.22583
4175.526	1.69126	6.12570	1.09207	6.21406
4179.561	1.34088	6.31541	1.87867	5.73638
4183.462	1.35715	6.23974	1.31895	5.77209
4187.535	1.40609	6.23397	1.49815	4.82642
4191.562	1.29814	6.28616	1.10214	5.42152
4195.562	1.26617	6.22588	1.39537	5.32202
4199.462	1.48305	6.07951	1.34395	4.66563
4203.564	1.51303	6.33855	1.13965	5.02149
4207.526	1.37950	6.43109	1.31729	4.81478
4211.562	1.23489	6.43023	1.39649	5.19940
4215.556	1.74967	6.52271	0.98177	6.00256
4219.561	1.70184	6.19128	1.32907	5.82398
4223.568	1.70274	5.69059	1.05153	6.57177
4227.549	2.03967	4.07829	1.29201	6.68097
4231.462	2.02150	3.90100	1.12452	6.81775
4235.563	2.11423	4.53079	0.84042	7.41156
4239.564	2.37119	4.01336	1.11817	8.47404
4243.527	2.22525	4.18795	2.10168	5.92819
4247.565	2.46709	4.56984	1.48081	5.83729
4251.564	2.33224	5.25279	1.86771	4.37633
4255.564	2.47734	5.43106	1.48151	5.50347
4259.563	2.55188	5.31593	1.54182	5.86456
4263.569	2.05328	6.23885	1.25833	6.21070
4267.567	1.81741	6.31262	1.61116	6.58831
4271.530	2.54147	5.99396	1.30553	5.61361
4275.528	1.67663	5.27005	1.54869	4.16427
4279.546	1.79071	4.58420	1.83276	2.91636
4283.565	2.01883	3.61061	1.84416	2.32620
4287.530	2.01008	3.80861	1.68878	1.71282
4291.570	1.36781	3.22898	2.42723	1.40814
4295.567	1.66661	3.45075	1.94317	1.09086
4299.565	1.54559	2.98385	1.76485	1.77751
4303.565	1.52846	2.09852	1.71350	2.76062
4307.565	1.59990	1.58386	2.10022	3.22526
4311.430	1.60990	1.85867	2.17177	2.32881
4315.565	1.54274	2.31957	2.23685	0.98028
4319.565	1.13444	2.57117	2.14862	0.56632
4323.565	0.68503	2.10040	2.07653	0.50203
4327.470	1.48243	2.19342	1.90388	3.17031
4331.566	1.35859	1.92757	2.14627	3.52624
4335.593	0.89235	1.75193	2.08116	2.56572
4339.565	0.49609	2.93685	1.85157	2.50970
4343.571	1.36675	4.12783	1.81964	2.20855
4347.568	1.32652	2.92626	1.98068	1.67936
4351.562	1.11633	2.64197	1.85222	0.91665
4355.558	1.20348	2.62159	1.73737	0.63530
4359.571	1.34306	2.15999	1.98355	-0.77232
4363.567	1.20854	1.76773	1.75448	2.32967
4367.572	1.07299	1.53581	1.58706	3.06739
4371.565	1.45006	3.83679	1.93323	3.29131
4375.476	1.52533	3.66172	2.40075	2.46656
4379.564	1.25872	3.53761	1.77900	3.18467
4383.566	1.53882	3.64118	2.19313	2.23160
4387.568	1.57979	3.34251	1.98140	2.07388
4391.469	1.22266	3.52682	2.16050	1.84774
4395.538	1.70601	3.65597	2.38110	1.79222
4399.541	1.59827	3.65803	3.90229	2.07684
4403.529	1.54490	3.65711	2.47472	2.71292
4407.465	0.73645	3.43041	2.86200	3.58986
4411.566	1.65783	1.73652	2.69507	2.61545
4415.567	1.45366	1.80327	1.82073	2.19706
4419.445	1.41524	2.68976	2.67860	-0.82480
4423.435	1.82936	2.77975	2.36135	1.36796
4427.441	1.60154	3.33634	3.58475	1.79742
4431.440	1.14367	3.70776	2.76824	2.66022
4435.440	1.52104	2.10614	2.42250	1.47611
4439.445	1.00268	2.56102	2.69973	2.14485
4443.438	2.01513	2.05176	2.33925	2.76154
4447.441	1.05488	3.17288	6.29224	0.83802
4451.443	1.00586	3.55274	11.69888	0.40648
4455.442	8.24524	4.29453	8.59323	1.55850
4459.441	-2.82137	2.42100	8.40222	1.92838
4463.443	6.92958	9.32702	5.63808	2.10776
4467.444	NaN	NaN	2.58284	0.11824
4471.447	NaN	NaN	2.42671	1.55214
4475.443	NaN	NaN	1.46201	4.25005
4479.443	NaN	NaN	0.76962	5.10726
4483.417	NaN	NaN	0.91770	6.92577
4487.465	NaN	NaN	NaN	NaN
4491.444	NaN	NaN	1.05424	6.49034
4495.442	NaN	NaN	-0.31679	2.04265
4499.442	NaN	NaN	-2.98242	2.83863
4503.465	NaN	NaN	NaN	NaN
4507.408	NaN	NaN	3.83127	11.29323
4511.441	NaN	NaN	0.29610	2.98688
4515.442	NaN	NaN	1.16912	-1.32109
4519.467	NaN	NaN	5.52010	10.70813
4523.439	NaN	NaN	2.51928	7.93544
4527.405	NaN	NaN	2.48782	6.72507
4531.442	NaN	NaN	-0.28875	1.21187
4535.435	NaN	NaN	6.90989	2.56169
4539.443	NaN	NaN	3.76485	-2.00779
4543.441	NaN	NaN	NaN	NaN
4547.444	NaN	NaN	NaN	NaN
4551.466	NaN	NaN	NaN	NaN
4555.434	NaN	NaN	NaN	NaN
4559.440	NaN	NaN	NaN	NaN
4563.441	NaN	NaN	NaN	NaN
4567.419	NaN	NaN	NaN	NaN
4571.444	NaN	NaN	NaN	NaN
4575.444	NaN	NaN	NaN	NaN
4579.442	NaN	NaN	NaN	NaN
4583.435	NaN	NaN	NaN	NaN
4587.407	NaN	NaN	NaN	NaN
4591.445	NaN	NaN	NaN	NaN
4595.443	NaN	NaN	NaN	NaN
4599.442	NaN	NaN	NaN	NaN
4603.447	NaN	NaN	NaN	NaN
4607.444	NaN	NaN	NaN	NaN
4611.443	NaN	NaN	NaN	NaN
4615.444	NaN	NaN	NaN	NaN
4619.443	NaN	NaN	NaN	NaN
4623.444	NaN	NaN	NaN	NaN
4627.443	NaN	NaN	NaN	NaN
4631.443	NaN	NaN	NaN	NaN
4635.456	NaN	NaN	NaN	NaN
4639.446	NaN	NaN	NaN	NaN
4643.406	NaN	NaN	NaN	NaN
4647.442	NaN	NaN	NaN	NaN
4651.423	NaN	NaN	NaN	NaN
4655.445	NaN	NaN	NaN	NaN
4659.447	NaN	NaN	NaN	NaN
4663.446	NaN	NaN	NaN	NaN
4667.446	NaN	NaN	NaN	NaN
4671.445	NaN	NaN	-1.35881	-0.09393
4675.447	NaN	NaN	1.67663	1.63785
4679.449	-6.50594	14.93286	0.97536	6.05901
4683.438	NaN	NaN	-0.63952	1.40197
4687.446	NaN	NaN	-4.52846	2.15396
4691.425	-3.40126	6.64943	0.65188	5.02171
4695.446	-2.46186	2.44779	0.67087	1.94292
4699.437	-0.85714	14.15118	-1.21169	2.47941
4703.444	-4.08261	2.35192	0.69476	5.21773
4707.448	6.57720	4.02726	-1.37253	6.13567
4711.408	6.99585	3.49658	0.69429	5.26243
4715.436	7.07534	1.00501	-1.48699	1.57230
4719.447	7.15904	1.94799	3.13749	1.64121
4723.446	5.75084	1.28027	1.16937	3.04987
4727.448	-4.22246	1.34694	1.04486	1.95244
4731.446	4.79341	1.52814	-1.33455	1.88987
4735.438	-0.42542	2.71106	0.98770	1.60941
4739.446	0.61300	1.72793	1.55618	1.49468
4743.446	0.79543	3.07001	-0.95048	2.30524
4747.440	0.65270	2.82984	1.22593	5.13977
4751.446	-0.62980	2.44509	1.52203	5.21505
4755.446	1.01325	1.82474	2.15279	4.79957
4759.448	-0.80394	2.53651	-0.78652	3.91898
4763.438	0.78697	2.33307	1.24322	2.02275
4767.446	1.06664	2.38596	0.47820	-1.16987
4771.457	-0.01884	1.70954	1.14131	1.58317
4775.410	-0.32650	2.72348	1.25808	2.17353
4779.445	0.53620	2.62287	-0.27518	1.38838
4783.447	0.75761	2.05069	0.84456	0.93057
4787.445	-0.36844	2.35760	0.30679	1.76800
4791.448	0.72005	1.64279	0.67015	0.59006
4795.446	0.59389	2.81614	0.81853	1.55815
4799.446	0.08602	2.95356	-0.57449	0.11614
4803.448	0.33226	0.93950	-0.73920	1.23784
4807.448	0.03492	2.00252	0.36648	1.90241
4811.440	0.08443	2.87772	-1.40514	1.60939
4815.433	0.19328	2.94720	0.62340	0.10391
4819.447	-0.05572	0.50249	0.57414	0.96378
4823.450	0.15166	1.20903	0.66114	1.11752
4827.442	-0.09647	2.65809	0.63967	1.38094
4831.447	-0.40092	2.80934	0.91125	1.19825
4835.412	-0.02596	2.46850	0.79079	1.54192
4839.448	-0.41867	2.65495	0.74216	1.39203
4843.442	-0.05614	1.81199	1.22062	1.10418
4847.452	-0.17380	1.57464	0.64789	0.10545
4851.446	-0.36417	2.10135	0.77158	-0.31955
4855.449	-0.28868	1.92824	0.94065	0.14945
4859.450	0.02708	1.94536	1.09728	0.90032
4863.448	0.00434	1.94323	1.56040	0.08463
4867.449	0.13086	2.50897	0.18343	0.04903
4871.453	-0.36762	2.64832	0.97060	0.45121
4875.449	-0.18261	4.15714	1.39319	-0.32217
4879.450	-0.53453	1.76944	-1.70219	0.24314
4883.450	0.26014	1.64733	0.35404	-0.79615
4887.448	-0.01300	1.83994	0.91316	0.32563
4891.440	-0.28751	1.77436	0.79923	-0.17129
4895.450	0.22170	2.69311	0.65970	0.33012
4899.452	0.08624	3.36854	0.90468	1.27653
4903.448	0.23807	1.49539	1.16245	2.21811
4907.441	0.25329	1.71806	0.68749	-0.26447
4911.447	0.05778	2.74217	0.87433	-0.19683
4915.449	-0.07063	2.48633	0.88654	0.09081
4919.448	0.31799	3.97713	0.86669	1.39927
4923.438	0.26515	2.05072	0.79213	1.80199
4927.449	0.21137	1.54682	0.67940	1.70929
4931.450	0.30610	2.19300	0.95380	-0.13648
4935.450	0.17869	2.26081	-2.20315	0.88388
4939.409	0.27974	1.57182	0.67355	1.02584
4943.441	0.02052	1.86330	0.62637	0.29770
4947.450	0.20507	1.94046	0.83979	2.81862
4951.452	0.05701	4.04546	1.01548	1.80771
4955.441	0.20075	4.31510	0.80568	1.28471
4959.451	0.10734	4.22549	0.89867	0.37882
4963.450	-0.06366	3.23269	1.12348	-0.43499
4967.412	-0.08450	2.21221	0.16898	1.58678
4971.420	-0.34551	4.24762	0.81794	2.54897
4975.451	-0.33302	3.97732	1.26190	0.76778
4979.452	-0.37298	3.14233	1.27048	-0.61526
4983.450	-0.42569	2.92287	0.63707	-0.54308
4987.447	-0.50813	3.87168	1.10482	3.01850
4991.450	-0.50272	3.51865	1.50656	1.81980
4995.450	-0.58188	3.03053	1.25413	0.79071
4999.451	-0.56694	2.25825	1.46075	0.22364
5003.442	-0.52284	2.32332	0.90190	0.04167
5007.453	-0.45065	3.49951	1.31496	-0.18898
5011.451	-0.56037	3.61307	1.20884	0.29849
5015.453	-0.52133	3.21074	1.22186	0.02519
5019.455	-0.38814	3.33186	1.21859	-0.02271
5023.442	-0.44073	3.22866	1.30724	0.48529
5027.413	-0.45150	3.39622	1.33604	0.22112
5031.454	-0.44115	3.05091	0.97534	0.01958
5035.454	-1.30908	1.56425	0.72712	-2.31298
5039.452	-3.08112	-0.07685	-0.83074	-3.42605
5043.452	-3.54081	0.29571	-3.33955	-5.54253
5047.452	-3.81657	-1.25009	-2.56109	-1.62020
5051.456	-4.00161	-2.25573	-3.60709	-3.51185
5055.451	-5.36056	-2.86582	-4.23036	-5.43325
5059.451	-6.11106	-2.78240	-4.22826	-5.51309
5063.451	-5.81066	-2.52095	-6.25068	-5.76869
5067.451	-6.84930	-3.08152	-6.31892	-6.74730
5071.456	-7.76669	-3.70166	-6.57967	-6.82679
5075.452	-8.18108	-3.97310	-7.43520	-8.40141
5079.452	-8.17255	-4.73685	-7.31818	-7.01982
5083.451	-8.37614	-5.02041	-7.30224	-7.82310
5087.451	-7.68820	-5.83979	-7.69839	-8.21776
5091.415	-7.40304	-3.04188	-7.37128	-8.45101
5095.452	-8.51513	-3.53021	-7.60904	-8.31843
5099.453	-8.75875	-4.32322	-8.05443	-8.53220
5103.451	-7.96792	-5.31734	-7.70121	-8.85928
5107.432	-8.25408	-5.36119	-7.77198	-9.95372
5111.452	-8.51474	-4.12812	-8.05823	-8.42815
5115.445	-8.55032	-4.00808	-8.16814	-7.99983
5119.452	-8.63049	-4.74854	-7.94041	-8.10997
5123.451	-8.53794	-5.66482	-8.13181	-8.06325
5127.452	-8.28818	-5.91530	-7.51283	-7.35642
5131.455	-8.46318	-4.66720	-8.02375	-7.21301
5135.453	-8.50088	-3.97397	-7.76945	-7.45558
5139.451	-8.29112	-4.63222	-8.04964	-7.55669
5143.455	-8.43809	-4.35093	-7.93437	-6.32193
5147.357	-8.12848	-5.37057	-7.89216	-6.01481
5151.444	-8.38129	-4.77403	-7.69578	-5.99011
5155.454	-7.77761	-4.96991	-7.91051	-7.83472
5159.455	-8.32954	-5.61823	-7.76577	-9.44142
5163.353	-8.16323	-6.01489	-7.96570	-9.16433
5167.453	-8.15387	-5.79862	-7.85626	-8.54233
5171.456	-8.21347	-4.71028	-7.61458	-8.53097
5175.450	-8.10691	-4.53091	-7.82803	-8.64789
5179.353	-8.50598	-3.35332	-7.70631	-8.70900
5183.452	-8.50722	-4.65431	-7.48654	-8.39564
5187.452	-8.64543	-4.13465	-7.57517	-7.91725
5191.421	-8.34507	-4.45946	-7.57608	-7.95942
5195.332	-8.34239	-4.16495	-7.43549	-7.85966
5199.451	-8.24619	-4.39641	-7.66009	-7.04345
5203.451	-8.82616	-4.44588	-7.44335	-7.56903
5207.453	-8.45135	-4.53085	-7.46655	-6.71786
5211.455	-8.60036	-4.58266	-7.12742	-7.24794
5215.452	-8.62261	-4.67187	-7.25917	-6.76257
5219.455	-8.40922	-5.21737	-7.28881	-6.33124
5223.453	-8.41784	-5.39999	-7.27885	-6.66545
5227.458	-8.52911	-5.61352	-7.47778	-5.81710
5231.439	-8.32837	-6.30999	-7.38588	-6.18467
5235.453	-8.39994	-5.49602	-7.26444	-6.06269
5239.453	-8.29151	-5.49223	-7.46509	-6.88257
5243.357	-8.41507	-5.46480	-7.35642	-6.89907
5247.452	-8.26648	-5.71020	-6.98565	-7.39293
5251.455	-8.38529	-5.96364	-7.52364	-8.65192
5255.455	-8.29679	-6.17261	-7.56554	-8.55742
5259.353	-8.19467	-5.88923	-7.13060	-7.75344
5263.454	-8.20868	-6.08335	-7.44081	-6.04680
5267.456	-8.33139	-5.47815	-7.62497	-7.94188
5271.455	-8.24079	-5.08980	-7.86569	-8.04905
5275.425	-8.24456	-4.82528	-7.88906	-7.43272
5279.453	-8.27333	-5.83198	-7.62777	-6.87343
5283.455	-8.26407	-6.11205	-7.43059	-5.90806
5287.457	-8.29304	-5.96256	-7.93459	-7.21127
5291.353	-8.26283	-6.04335	-7.72078	-7.76923
5295.457	-8.03085	-5.51693	-7.72332	-8.21446
5299.454	-8.23262	-5.40479	-7.90452	-8.43833
5303.456	-8.42304	-5.47287	-7.91358	-7.77960
5307.422	-8.52365	-5.18282	-7.96303	-6.85966
5311.455	-8.41602	-5.17354	-7.72602	-6.36508
5315.436	-8.42272	-5.07737	-7.65690	-6.44136
5319.455	-8.42787	-5.18874	-7.78467	-6.53264
5323.457	-8.39635	-5.04781	-7.63752	-6.22904
5327.455	-8.33880	-5.38568	-7.18919	-6.62606
5331.455	-8.13402	-5.39803	-7.46438	-6.38333
5335.419	-8.25941	-5.64921	-7.43386	-6.46893
5339.457	-8.32782	-5.68865	-7.37104	-6.72884
5343.457	-8.37740	-5.50162	-7.43410	-6.72630
5347.454	-7.19398	-4.06735	-7.32612	-6.64751
5351.461	-8.23678	-4.70160	-7.26310	-6.64226
5355.354	-8.10245	-4.25996	-7.10384	-6.62666
5359.449	-8.13828	-3.65880	-7.13793	-6.39606
5363.455	-8.40635	-3.89746	-7.13539	-6.65107
5367.456	-8.31180	-3.15662	-7.19722	-6.54649
5371.460	-8.54938	-3.63098	-7.22893	-6.79803
5375.462	-8.36720	-3.94843	-7.22595	-6.49639
5379.455	-8.46412	-4.29619	-7.34184	-6.75191
5383.459	-8.57709	-5.56500	-7.59424	-7.91437
5387.354	-8.60257	-6.69323	-7.40977	-8.79168
5391.457	-9.07080	-8.01146	-7.84250	-9.27409
5395.457	-8.76321	-5.11672	-9.42520	-10.03769
5399.424	-9.39755	-4.80710	-8.34264	-9.33598
5403.357	-9.69511	-5.11755	-12.76961	-9.30796
5407.420	-10.41287	-5.83552	-9.33178	-9.92028
5411.427	-9.77734	-5.70325	-9.19873	-10.30113
5415.457	-10.12830	-5.77534	-9.46616	-10.36034
5419.354	-10.12284	-6.02587	-9.58540	-10.21965
5423.456	-10.23928	-6.35870	-9.61127	-10.55735
5427.458	-10.06410	-6.63195	-9.81322	-9.93250
5431.454	-9.98129	-7.12638	-9.82132	-9.83108
5435.353	-10.09123	-7.86335	-10.44804	-10.82846
5439.456	-10.29144	-7.21829	-9.23778	-9.32314
5443.454	-10.18245	-7.94397	-9.43187	-9.89412
5447.456	-10.15915	-8.17117	-9.95461	-10.42807
5451.355	-10.13886	-8.21427	-10.42423	-10.75721
5455.331	-10.18233	-7.44734	-10.18269	-10.17780
5459.329	-10.02673	-6.50430	-9.50815	-9.72251
5463.335	-10.07543	-5.77251	-9.82125	-10.20189
5467.335	-10.03994	-6.74149	-9.56805	-9.60672
5471.332	-9.97445	-6.77682	-9.59882	-9.93838
5475.337	-10.19411	-6.99844	-9.22917	-9.82840
5479.332	-9.80274	-7.34341	-9.32434	-10.01922
5483.335	-10.13616	-8.10281	-9.38276	-9.66445
5487.303	-9.98480	-7.46780	-9.57867	-9.79383
5491.330	-10.04814	-8.44486	-9.55398	-10.00727
5495.334	-10.05909	-8.48032	-9.56335	-10.03104
5499.359	-10.14016	-8.46950	-9.40992	-9.75916
5503.331	-9.98764	-8.21948	-9.66520	-10.05906
5507.332	-10.11488	-8.24624	-9.68980	-10.24071
5511.334	-9.80315	-6.69490	-9.22932	-9.11188
5515.325	-10.07771	-6.50036	-9.36406	-9.52845
5519.334	-10.09838	-6.54042	-9.53154	-9.72397
5523.340	-10.09963	-6.27302	-9.62237	-9.74981
5527.296	-10.07807	-6.50130	-9.54474	-9.48022
5531.334	-10.07995	-6.38685	-9.53311	-8.98057
5535.333	-9.92249	-6.88015	-9.45312	-9.52251
5539.333	-10.08690	-6.49738	-9.57051	-9.48064
5543.332	-10.24896	-6.67919	-9.28434	-9.45305
5547.332	-9.56694	-6.73969	-8.57129	-9.26720
5551.335	-7.50539	-6.53343	-7.21667	-9.08427
5555.293	-7.34040	-6.44299	-7.28769	-9.32801
5559.337	-7.15889	-6.72783	-6.21907	-9.18691
5563.328	-7.05178	-6.28802	-6.05810	-8.05871
5567.333	-7.27939	-6.72722	-6.44557	-8.16141
5571.301	-7.14753	-6.73675	-6.06993	-8.62689
5575.339	-7.08693	-6.80518	-6.04904	-8.38634
5579.327	-7.19967	-6.77554	-6.02141	-7.52670
5583.337	-7.08932	-6.85863	-5.33578	-7.44498
5587.298	-7.04438	-7.74301	-5.87435	-7.94049
5591.373	-6.93780	-6.86266	-5.69465	-6.96546
5595.356	-7.35512	-6.85323	-5.41423	-6.83621
5599.331	-7.04765	-6.81397	-5.59870	-6.60631
5603.333	-7.11819	-6.85528	-5.75259	-6.60993
5607.298	-7.17565	-6.77718	-5.78853	-6.06757
5611.328	-7.13751	-6.55883	-5.63473	-6.89492
5615.334	-7.11982	-6.19336	-5.71613	-6.10229
5619.334	-7.20062	-5.33171	-5.67627	-5.59177
5623.336	-7.18706	-5.66447	-5.69143	-7.66797
5627.327	-7.29174	-5.61767	-5.75807	-7.42309
5631.334	-7.24810	-5.02781	-6.01127	-7.81851
5635.334	-7.27077	-5.38366	-5.72502	-7.51360
5639.334	-7.27455	-6.02892	-5.87282	-7.17521
5643.330	-7.28842	-6.01191	-5.78423	-7.47766
5647.335	-7.34348	-6.14859	-5.79602	-7.63637
5651.327	-7.32575	-5.32987	-5.64380	-7.83068
5655.325	-7.18860	-5.24622	-5.89117	-7.87252
5659.365	-7.18139	-6.35830	-5.55639	-7.59263
5663.336	-7.27648	-5.23230	-5.74279	-7.59656
5667.338	-7.23955	-5.00833	-5.78762	-6.74717
5671.335	-7.44508	-5.61244	-5.52758	-5.97623
5675.338	-7.35217	-5.58293	-5.74726	-6.24957
5679.337	-7.29164	-5.58822	-5.60760	-6.71956
5683.336	-6.96467	-6.39785	-5.52396	-6.65512
5687.335	-7.25609	-6.33106	-5.57107	-6.96008
5691.327	-7.18332	-6.51262	-5.76971	-7.07678
5695.310	-7.14025	-7.23422	-5.65115	-7.12281
5699.336	-6.96771	-6.54349	-5.49111	-8.47749
5703.335	-6.92220	-6.83631	-5.49827	-7.62819
5707.301	-6.90564	-6.14681	-5.42100	-6.23334
5711.335	-6.98103	-6.11075	-5.74561	-6.77719
5715.299	-7.02233	-5.89614	-5.64309	-7.67059
5719.338	-7.10203	-6.19297	-5.68546	-7.34314
5723.296	-7.16217	-6.53545	-6.12337	-8.09731
5727.337	-7.24295	-6.35338	-5.80931	-7.47366
5731.338	-7.27240	-7.07341	-5.84976	-6.97945
5735.321	-7.08236	-6.17378	-5.73175	-7.90682
5739.334	-7.41302	-6.65122	-5.61399	-7.78345
5743.338	-7.35554	-7.47934	-5.92356	-8.07375
5747.336	-7.29040	-7.35854	-5.53537	-8.15727
5751.335	-7.37668	-7.61745	-5.59605	-7.79053
5755.338	-7.43642	-7.05051	-5.74912	-7.60806
5759.339	-7.05660	-6.69248	-6.16655	-7.61349
5763.337	-7.25743	-6.42689	-5.76084	-7.22634
5767.340	-7.25311	-6.67747	-5.76861	-7.11090
5771.329	-7.20619	-6.11824	-5.58889	-6.94973
5775.342	-7.29829	-5.93281	-5.72733	-6.83355
5779.338	-7.32246	-6.30079	-5.60453	-6.36405
5783.340	-7.23145	-5.86493	-5.77065	-6.49965
5787.299	-7.25760	-5.89364	-5.69087	-6.04830
5791.337	-7.38788	-6.14174	-5.67905	-7.00821
5795.338	-6.91985	-5.82572	-5.70976	-6.48581
5799.337	-7.30039	-5.50715	-5.70699	-6.22095
5803.331	-7.37448	-5.61760	-5.70974	-5.98895
5807.300	-7.24586	-5.66179	-5.67447	-6.23242
5811.337	-7.67362	-6.03421	-5.63004	-6.20010
5815.340	-7.54091	-5.73428	-5.69448	-6.28222
5819.329	-7.26473	-5.71486	-5.66983	-6.19095
5823.336	-7.65885	-5.88708	-5.66315	-6.33806
5827.338	-7.53915	-6.06413	-5.65673	-6.36700
5831.339	-7.43925	-6.20375	-5.66998	-6.46998
5835.330	-7.05484	-6.32299	-5.79710	-6.37246
5839.338	-7.18606	-6.42339	-5.77777	-6.11156
5843.337	-7.09336	-6.58790	-5.82277	-6.82237
5847.330	-7.17411	-6.63818	-5.74492	-6.77771
5851.337	-7.54847	-6.35795	-5.89215	-6.99549
5855.338	-7.13615	-6.35420	-5.92557	-7.63571
5859.342	-7.10509	-6.30387	-6.00985	-7.79794
5863.337	-7.17866	-6.23733	-6.05893	-7.71907
5867.331	-6.99741	-6.40571	-5.96618	-7.91266
5871.338	-6.89172	-6.23557	-5.81808	-7.53519
5875.302	-6.84189	-6.25141	-5.96078	-8.03394
5879.342	-6.50971	-5.29642	-5.37753	-7.30377
5883.331	-5.28771	-3.87883	-3.79205	-5.65893
5887.339	-3.65865	-4.86702	-1.20574	-4.25773
5891.344	-2.43122	-6.01248	-0.84151	-3.76512
5895.342	-2.19658	-5.37684	-0.75923	-5.10433
5899.336	-2.19923	-5.20604	2.03754	-5.84050
5903.326	-1.81334	-4.88082	2.83031	-7.16284
5907.340	0.00551	-4.27213	3.03860	-6.31096
5911.340	0.63220	-4.72243	3.45039	-6.16661
5915.338	0.60496	-4.28052	3.82692	-5.69801
5919.338	0.45207	-4.62431	2.78805	-5.43647
5923.341	0.33340	-4.12745	3.28729	-5.69177
5927.341	0.47748	-3.91436	3.08637	-5.66956
5931.341	0.47500	-4.56815	3.91309	-5.32015
5935.342	-0.70136	-4.05960	3.32991	-5.03388
5939.343	0.27314	-4.88443	2.78485	-4.18542
5943.328	0.53865	-5.28436	3.33245	-3.63400
5947.338	0.44778	-5.43835	2.90111	-2.99250
5951.340	0.30265	-5.77225	2.72256	-3.61209
5955.342	0.23984	-5.51557	2.89294	-8.11210
5959.339	0.24180	-4.59841	2.86071	-8.26393
5963.339	0.22557	-5.04495	2.59856	-8.11030
5967.342	0.31863	-4.88138	2.80771	-7.77076
5971.342	0.03015	-3.76939	2.42443	-6.19523
5975.341	0.10252	-3.98033	2.71661	-6.12473
5979.342	0.10071	-6.10643	3.21441	-5.54194
5983.341	0.10689	-5.90974	2.55896	-3.58722
5987.307	0.10103	-4.96580	2.91916	-7.96992
5991.340	0.13804	-3.44807	2.45485	-7.78843
5995.332	0.13079	-4.26165	3.43731	-6.68648
5999.341	0.13320	-4.68578	2.68086	-5.39784
6003.341	0.08282	-3.90764	3.41088	-6.33837
6007.342	0.10195	-3.61358	3.38105	-6.85374
6011.343	0.12416	-5.22318	2.80372	-5.85140
6015.339	0.21599	-3.61604	3.59364	-4.42892
6019.302	0.34908	-3.95528	3.51345	-7.52122
6023.341	0.35444	-5.24300	2.85477	-5.69467
6027.343	0.21867	-3.67548	3.06936	-4.02916
6031.340	0.34360	-3.40198	2.69735	-7.73991
6035.342	0.17137	-5.54966	2.71307	-6.48669
6039.341	0.15598	-5.09833	3.11269	-5.86490
6043.343	0.36864	-3.80776	2.38150	-4.43133
6047.343	0.11424	-3.21369	3.34405	-4.22174
6051.341	0.25681	-3.84377	2.31978	-7.75482
6055.343	0.21926	-5.33927	3.22980	-8.22845
6059.333	0.31707	-4.36803	2.51995	-8.92854
6063.343	0.21621	-4.41846	3.23667	-8.26679
6067.338	-0.01509	-3.81555	3.37022	-8.55920
6071.344	0.03844	-4.23343	2.96755	-8.89238
6075.344	0.07530	-4.15367	3.66083	-8.88828
6079.346	0.22527	-4.38931	2.82048	-4.06646
6083.344	0.27845	-4.60588	3.20043	-4.45805
6087.341	0.34940	-5.15142	3.95878	-6.45307
6091.379	0.14727	-5.15246	2.95921	-7.19438
6095.343	0.03340	-4.51756	3.43301	-7.59800
6099.343	-0.12009	-2.87199	2.86470	-8.54110
6103.341	0.33851	-2.73538	2.18478	-4.79321
6107.345	0.59637	-2.02463	2.91686	-3.30052
6111.313	-6.79655	-1.68022	9.76712	-3.50223
6115.343	-7.83191	11.51086	14.83752	-3.29204
6119.344	NaN	NaN	8.30743	-2.52087
6123.353	NaN	NaN	6.33635	8.44490
6127.243	NaN	NaN	NaN	NaN
6131.339	NaN	NaN	NaN	NaN
6135.339	NaN	NaN	NaN	NaN
6139.339	NaN	NaN	NaN	NaN
6143.344	NaN	NaN	NaN	NaN
6147.331	NaN	NaN	NaN	NaN
6151.305	NaN	NaN	NaN	NaN
6155.332	NaN	NaN	NaN	NaN
6159.342	NaN	NaN	NaN	NaN
6163.342	NaN	NaN	NaN	NaN
6167.342	NaN	NaN	NaN	NaN
6171.341	NaN	NaN	NaN	NaN
6175.339	NaN	NaN	NaN	NaN
6179.346	NaN	NaN	NaN	NaN
6183.343	NaN	NaN	NaN	NaN
6187.306	NaN	NaN	NaN	NaN
6191.347	NaN	NaN	NaN	NaN
6195.309	NaN	NaN	NaN	NaN
6199.343	NaN	NaN	NaN	NaN
6203.339	NaN	NaN	12.02580	9.99558
6207.343	NaN	NaN	5.46559	6.62372
6211.346	NaN	NaN	2.95936	6.39199
6215.343	NaN	NaN	14.52042	6.08815
6219.244	NaN	NaN	11.30424	6.49227
6223.345	NaN	NaN	14.49755	9.21488
6227.346	9.04819	10.05940	7.42573	6.08134
6231.344	8.66103	9.47959	16.13569	5.47834
6235.277	9.33736	4.69347	14.93682	2.51796
6239.346	4.70774	14.21434	15.18816	8.49370
6243.346	9.47618	6.72130	12.83161	6.22374
6247.344	12.42501	9.64622	14.69866	2.84728
6251.241	1.62475	4.49842	11.34421	7.10834
6255.345	12.01141	9.31705	11.93662	7.36298
6259.344	7.00746	4.25675	2.67048	3.78179
6263.344	4.82372	14.36353	11.36739	4.36531
6267.245	4.59702	6.89624	11.05883	7.82826
6271.343	-0.23152	6.55726	6.93934	5.41889
6275.333	6.71363	9.22110	8.42605	3.53394
6279.351	0.56180	6.73153	7.84041	3.80739
6283.245	7.58076	6.74837	7.80750	7.80363
6287.345	6.67701	6.51909	7.36476	7.68613
6291.346	4.98526	6.25512	7.20685	7.39468
6295.345	4.18487	6.12944	5.74279	6.62517
6299.246	6.41452	6.23568	5.84247	6.36174
6303.347	4.41549	6.39757	5.68757	6.25657
6307.346	4.00262	6.50035	4.46537	7.66124
6311.348	4.29796	6.88919	4.57805	6.23986
6315.242	4.51743	6.72991	6.64824	8.14871
6319.320	4.73246	6.82855	6.13422	6.31185
6323.344	5.40707	5.61787	6.30634	6.29319
6327.346	4.72995	6.09415	6.85067	6.08332
6331.350	4.77858	6.02234	5.19303	3.75396
6335.347	4.64093	6.32315	6.96480	1.15753
6339.345	5.27909	6.65703	6.30002	5.35044
6343.349	5.23585	6.83449	6.61082	2.79408
6347.245	4.83447	6.90240	6.98925	3.83576
6351.347	4.86675	4.34486	6.52358	4.38759
6355.349	5.00608	4.27313	5.97560	3.53558
6359.332	5.01435	5.18519	6.54430	3.83272
6363.251	4.86167	4.84615	5.79320	3.63625
6367.345	4.86694	5.10303	6.09697	3.54823
6371.347	4.81811	5.28282	6.05719	3.27700
6375.346	4.74846	4.79605	6.41721	2.66433
6379.249	4.61654	4.87184	6.48222	2.34028
6383.348	4.69650	4.45202	5.23059	3.91084
6387.347	4.52577	4.48236	5.26108	3.88198
6391.347	4.55090	5.39742	4.89469	4.36260
6395.246	4.47538	6.26659	6.04767	4.93088
6399.325	4.47706	7.02137	6.69556	4.15923
6403.309	4.41864	6.30173	6.29506	4.02015
6407.347	4.46290	6.21122	5.55649	3.60020
6411.352	4.49699	5.47886	6.23030	4.59826
6415.348	4.43549	5.15910	6.13974	4.84505
6419.346	4.56259	4.96161	5.08641	5.29784
6423.347	4.60806	4.00495	6.10372	5.29212
6427.248	4.51176	5.73428	3.85212	4.64459
6431.347	4.48799	6.95867	5.90961	4.38410
6435.347	4.55349	6.54831	6.02028	4.33332
6439.349	4.57297	6.39292	5.84055	3.95728
6443.249	4.65836	6.69210	5.44380	3.77712
6447.349	4.48680	6.56268	2.97275	4.77512
6451.349	2.07316	7.05342	3.38204	7.77595
6455.346	1.74429	7.09326	2.65481	9.02079
6459.244	3.04791	7.24912	3.65149	8.25221
6463.351	2.75970	7.29300	3.82709	7.43964
6467.357	2.25950	7.38753	4.10505	6.15448
6471.347	1.86667	7.50515	3.83638	5.34624
6475.246	2.78537	7.52054	3.87008	4.86885
6479.350	2.83316	7.62277	4.04507	4.77915
6483.224	2.07440	7.69402	3.59483	8.18545
6487.224	2.76388	7.73059	3.93473	8.46360
6491.242	2.64391	7.76508	3.72946	8.63091
6495.222	2.76829	7.69015	3.92198	8.34745
6499.222	2.79743	7.64672	3.41345	8.50895
6503.224	2.53491	7.57151	3.33733	8.57118
6507.351	2.36604	7.50086	2.45758	8.34805
6511.223	2.54142	7.45752	2.86195	8.41987
6515.222	2.73543	7.52554	3.00804	8.52796
6519.225	2.54006	7.31180	2.89770	8.70308
6523.204	2.28405	7.76852	3.17794	8.55139
6527.188	2.25756	8.45442	3.18343	7.90164
6531.226	2.02346	8.42868	3.21050	6.10134
6535.188	2.49406	7.29627	3.51703	6.62663
6539.248	2.37094	7.27407	3.56981	4.71877
6543.226	2.06042	7.43566	3.59122	5.33843
6547.223	2.33138	7.75588	3.69882	5.46304
6551.226	2.29488	7.75013	2.78287	5.59171
6555.214	2.45433	8.34296	2.90671	5.58576
6559.225	2.45579	8.28707	2.25298	6.83393
6563.228	2.42666	8.15233	2.61451	6.88113
6567.226	2.14117	7.57556	3.48711	6.27516
6571.248	2.35826	8.15134	2.67680	5.96435
6575.221	2.54960	7.59506	3.11440	5.87459
6579.226	2.12335	8.10296	3.42149	5.27970
6583.226	2.53033	8.30759	2.77027	5.04459
6587.247	2.37352	8.17137	1.95676	4.93833
6591.225	2.49894	8.32983	2.52255	8.64780
6595.223	2.57261	8.31237	2.89166	6.85266
6599.227	2.60520	8.02738	2.68202	5.23239
6603.249	2.49255	7.85563	2.51433	5.27621
6607.225	2.62818	7.46065	2.62241	5.37293
6611.225	2.57117	7.32901	3.04739	8.88094
6615.224	3.08661	6.64708	1.75538	6.86564
6619.195	2.48319	8.37532	2.44452	6.78620
6623.225	3.08337	8.48980	2.47360	6.07308
6627.225	2.38519	8.20487	2.65706	5.26838
6631.228	2.68029	8.33293	3.26485	3.77643
6635.220	2.50511	8.27369	2.67073	2.16463
6639.228	2.63294	8.49435	1.46881	6.18637
6643.227	2.61112	8.39992	3.61757	4.74219
6647.205	2.80761	8.11041	2.77921	8.93813
6651.229	2.19631	8.43439	0.74570	5.87395
6655.220	3.06115	6.18993	2.00847	6.29416
6659.217	2.57920	6.26612	2.03291	5.97082
6663.226	2.83885	7.03067	2.09348	5.97786
6667.221	2.99868	7.27044	2.29832	4.94552
6671.228	2.61355	8.12840	3.03729	5.62656
6675.225	2.77772	8.43747	2.47556	5.94016
6679.227	2.43474	8.38308	2.14944	6.89824
6683.254	3.18833	6.64007	2.13891	7.15067
6687.225	2.57598	6.46694	2.71632	7.11780
6691.224	3.19056	6.50365	1.59407	7.30956
6695.228	2.75918	7.82813	2.33207	5.64698
6699.220	3.07941	8.36537	5.58840	5.16063
6703.225	3.14310	7.83311	3.72400	6.12198
6707.226	5.50092	8.51519	4.55736	5.30499
6711.223	4.85982	8.65881	3.04563	5.96841
6715.227	4.75152	8.82909	2.73655	7.45065
6719.229	5.43733	8.62974	4.88358	7.33318
6723.225	4.69995	8.75769	4.30272	7.39788
6727.229	5.06841	9.09981	3.33364	7.51504
6731.250	4.37754	8.80057	4.38208	7.02402
6735.228	5.14256	8.63958	5.14434	6.37936
6739.213	5.72495	8.18127	4.40303	7.07485
6743.226	4.35837	8.80951	4.38808	7.56759
6747.253	5.03339	8.28702	5.27580	7.50133
6751.229	5.25035	8.79971	4.86746	7.76095
6755.229	5.18783	8.43105	4.94423	9.07930
6759.227	5.22040	8.58533	4.90117	9.33453
6763.223	5.93713	8.62608	4.92184	8.63970
6767.227	4.69975	8.76243	4.85014	9.52151
6771.229	4.75137	9.67729	4.73858	7.57156
6775.199	4.62303	8.42831	4.63758	5.26786
6779.219	5.05100	8.64004	5.25987	5.65759
6783.227	5.04664	8.31925	4.92681	7.10147
6787.225	4.97504	8.20060	4.78343	7.20665
6791.229	5.14559	8.69130	3.64684	7.85485
6795.221	5.20100	8.57995	4.52150	7.90148
6799.228	4.87370	8.94072	4.35267	8.18491
6803.227	5.07183	9.70849	4.54555	8.70275
6807.229	4.96812	8.91526	4.51354	9.84635
6811.219	5.44603	9.02399	4.37127	9.26900
6815.228	5.32875	7.66039	4.33221	10.10571
6819.229	5.13890	7.90742	4.44119	7.08918
6823.209	5.25030	8.52886	4.54456	6.50847
6827.198	4.98551	8.65343	4.39928	7.75056
6831.227	5.13616	8.48119	4.39474	7.71246
6835.190	5.30215	8.83613	4.14088	6.26078
6839.230	5.16691	8.68378	4.86423	6.14828
6843.253	5.20241	8.85745	4.77892	4.73943
6847.218	5.13082	9.01813	4.91053	5.63323
6851.198	5.18958	8.96444	4.60261	5.35281
6855.228	5.22739	8.34576	4.68198	5.88314
6859.254	5.67558	8.50865	4.55566	5.13472
6863.219	5.16314	8.35621	4.24865	5.79784
6867.220	5.42869	8.45600	4.75494	6.12133
6871.230	5.20484	8.43930	4.30939	6.32969
6875.255	5.27055	8.51484	4.73217	6.59179
6879.231	5.35770	8.71879	4.78084	8.46859
6883.236	5.55637	8.65488	5.33701	4.32545
6887.233	5.55438	8.08192	4.88678	6.06710
6891.252	5.27353	8.41279	4.94933	5.47288
6895.220	5.85723	8.50244	4.62355	7.86236
6899.192	5.66931	8.54509	4.96827	8.16724
6903.230	3.19692	8.35014	4.97551	7.44726
6907.221	5.43020	8.51360	4.86446	5.63932
6911.228	5.67477	8.59308	4.14376	7.36842
6915.232	5.24228	8.78339	3.52272	8.24478
6919.229	5.43443	8.99489	5.09195	7.92686
6923.232	4.56417	8.46465	5.40275	8.16300
6927.232	5.32289	7.81410	5.24695	7.98652
6931.231	5.27668	8.06237	5.37224	4.38918
6935.232	5.43066	8.21418	5.19812	5.41614
6939.226	5.35128	8.17653	5.42850	4.65779
6943.233	4.93588	7.89191	5.06232	5.75565
6947.215	4.68479	8.44561	5.63953	7.94310
6951.226	5.34176	10.15153	9.13656	11.40892
6955.230	6.92733	11.75328	16.54798	12.95138
6959.193	NaN	NaN	NaN	NaN
6963.231	NaN	NaN	NaN	NaN
6967.234	NaN	NaN	NaN	NaN
6971.258	NaN	NaN	NaN	NaN
6975.231	NaN	NaN	NaN	NaN
6979.229	NaN	NaN	NaN	NaN
6983.231	NaN	NaN	NaN	NaN
6987.229	NaN	NaN	NaN	NaN
6991.225	NaN	NaN	NaN	NaN
6995.231	NaN	NaN	NaN	NaN
6999.230	NaN	NaN	NaN	NaN
7003.230	NaN	NaN	NaN	NaN
7007.195	NaN	NaN	NaN	NaN
7011.234	NaN	NaN	NaN	NaN
7015.228	NaN	NaN	NaN	NaN
7019.231	NaN	NaN	NaN	NaN
7023.229	NaN	NaN	NaN	NaN
7027.232	NaN	NaN	NaN	NaN
7031.220	NaN	NaN	NaN	NaN
7035.194	NaN	NaN	NaN	NaN
7039.234	NaN	NaN	NaN	NaN
7043.231	NaN	NaN	NaN	NaN
7047.230	NaN	NaN	NaN	NaN
7051.218	NaN	NaN	NaN	NaN
7055.232	NaN	NaN	NaN	NaN
7059.232	NaN	NaN	NaN	NaN
7063.231	NaN	NaN	NaN	NaN
7067.227	NaN	NaN	6.08200	13.89663
7071.235	NaN	NaN	6.63663	7.39432
7075.224	NaN	NaN	NaN	NaN
7079.234	9.19614	9.91428	5.17905	-3.97364
7083.242	7.18552	7.48168	4.71696	7.62130
7087.236	7.01783	7.69443	1.95190	5.44754
7091.233	7.00282	6.85725	6.81757	9.22487
7095.231	9.60936	8.74207	5.44926	9.59039
7099.233	9.26967	7.77393	6.97558	3.97041
7103.232	9.14627	8.05513	5.02647	4.73672
7107.197	9.71855	7.71225	4.56649	7.17765
7111.235	10.42163	6.89755	2.43119	6.22607
7115.228	9.34821	7.49387	4.88828	5.97255
7119.232	10.93686	7.58377	4.71449	5.98314
7123.235	11.68234	6.47635	4.41159	3.35910
7127.232	9.67328	6.66788	5.10214	2.43961
7131.234	7.66482	6.89937	4.07821	2.63151
7135.235	4.31334	6.50882	4.52903	5.71163
7139.232	5.24545	5.96594	6.11842	5.07034
7143.234	5.73401	6.05257	5.67460	2.99241
7147.225	6.36373	5.46955	5.23967	2.51935
7151.236	7.47077	5.48185	3.88260	2.33668
7155.221	5.57569	6.39619	5.18303	2.34518
7159.231	4.70251	6.85445	5.84927	2.02228
7163.132	5.88640	6.45029	6.15777	1.78602
7167.234	6.14302	6.22619	3.57503	2.29802
7171.233	5.87189	5.37272	3.40657	1.83338
7175.232	5.47264	5.40363	4.81917	1.25651
7179.129	5.58658	4.85516	5.62935	2.44195
7183.233	4.99187	4.92771	5.18274	2.38389
7187.240	4.99642	4.79628	5.66831	1.81532
7191.235	5.28426	4.68327	5.33332	1.94337
7195.133	5.33035	4.31278	5.47328	0.22581
7199.229	5.61905	3.66770	3.96819	0.92244
7203.233	5.07826	4.21917	3.85091	0.24275
7207.196	5.36986	4.59706	4.76978	1.73685
7211.134	5.00251	4.92935	5.18434	2.05608
7215.198	4.76645	4.69908	5.36821	2.68842
7219.237	4.82023	4.86351	5.48627	1.70977
7223.232	5.19847	4.38785	5.54297	-0.01776
7227.143	4.90668	3.98267	5.29447	-0.19097
7231.236	4.94260	4.47839	4.40668	0.43498
7235.236	5.03366	4.48203	3.94468	2.63620
7239.223	4.65550	5.28634	3.93692	3.06750
7243.244	4.87599	4.82090	5.04115	1.79638
7247.234	4.83972	4.25664	4.66228	1.46811
7251.235	4.73002	4.02464	4.13448	3.08254
7255.232	4.18472	3.93759	2.78666	1.33729
7259.133	2.75163	1.86029	3.18079	-2.24810
7263.234	1.45715	3.81554	1.40388	-1.88322
7267.234	0.97688	0.65373	1.29434	-3.46611
7271.234	-0.10148	0.50882	0.00472	-3.00394
7275.108	0.09657	0.39480	-0.07666	-3.42247
7279.198	-0.36678	-1.41375	-1.26889	-6.68660
7283.225	-0.67888	0.26271	-0.36923	-6.56243
7287.236	-0.66456	0.18293	-0.71863	-4.68972
7291.238	-1.10785	0.06050	-0.36372	-4.94008
7295.235	-0.35769	-0.04714	0.12054	-5.62154
7299.238	-0.79037	-0.87223	-0.39874	-5.99029
7303.234	-0.43889	-1.08428	-0.40976	-6.52110
7307.135	0.03264	-1.29112	-0.45123	-6.96417
7311.237	-0.51431	-0.68048	-0.47986	-6.72757
7315.242	-0.73446	-0.17475	-0.85461	-6.36159
7319.237	-0.78364	-1.09526	-0.42614	-4.58159
7323.136	-1.02652	-1.19637	-0.48954	-4.67632
7327.235	-1.04637	-1.96338	-0.59488	-6.09498
7331.238	-1.31570	0.07063	-0.55401	-6.65666
7335.235	-1.34264	-0.80469	-0.94026	-6.50450
7339.134	-0.98211	-1.10144	-0.55352	-4.55511
7343.235	-1.07098	-1.93621	-0.53366	-4.47306
7347.237	-0.99663	0.50236	-0.55166	-6.33853
7351.235	-1.18602	-0.13649	-0.76938	-6.33774
7355.237	-1.03605	-1.32192	-0.53409	-4.14170
7359.238	-1.04096	-1.94586	-0.62057	-4.41797
7363.220	-0.98752	0.48388	-0.65650	-6.25274
7367.235	-1.09078	-0.08191	-0.72489	-6.14219
7371.202	-0.98253	-1.69136	-0.35342	-3.98483
7375.236	-1.10313	-1.09948	0.68270	-4.30227
7379.234	-1.24320	0.23869	-0.34724	-6.19557
7383.235	-1.02335	-0.27618	-0.38152	-6.26494
7387.137	-1.18351	-0.81920	0.05425	-3.15298
7391.238	-1.10877	-2.15665	-0.23673	-4.13297
7395.236	-1.42035	0.43815	-0.07783	-5.61065
7399.234	-1.13216	-0.42957	-0.22929	-6.34098
7403.138	-1.31741	-0.45881	-0.17675	-5.00909
7407.234	-1.26029	-0.91683	-0.24033	-3.71272
7411.237	-1.17217	-2.01903	-0.39194	-3.69797
7415.239	-1.18845	-2.40982	-0.56893	-3.87740
7419.134	-1.13055	-0.95749	-0.37621	-4.90567
7423.235	-1.14920	0.72688	-0.49781	-5.56242
7427.240	-0.94415	-0.65384	-0.77260	-5.75673
7431.237	-1.10839	-0.29480	-0.71367	-5.97593
7435.135	-0.92016	-0.46863	-0.67754	-6.52245
7439.238	-0.96971	-0.65202	-0.69642	-6.00737
7443.241	-1.12578	-0.85766	-0.84324	-5.61797
7447.218	-0.96785	-0.99685	-0.89349	-5.89807
7451.128	-0.91840	-1.07394	-1.07029	-5.61652
7455.238	-0.84039	-1.26691	-0.09570	-3.78284
7459.236	-1.03833	-0.16316	-0.62019	-5.29734
7463.239	-0.96368	-0.31981	-0.60677	-5.55299
7467.240	-1.18301	-0.82680	-0.31106	-6.05038
7471.235	-1.05632	-0.62751	-0.48661	-6.36299
7475.239	-0.94939	-1.79266	-0.41415	-6.22597
7479.237	-1.23342	-0.49437	-0.75429	-4.24733
7483.136	-1.15086	-0.91342	-1.34514	-5.45700
7487.226	-1.70576	-2.61674	-2.03858	-7.23948
7491.229	-4.32997	-0.86576	-3.14382	-4.58789
7495.240	-4.20351	-3.23704	-3.33970	-7.30002
7499.137	-4.06248	-6.26942	-4.47097	-7.80619
7503.237	-4.21748	-3.80380	-5.92866	-9.84649
7507.242	-4.32173	-3.73571	-5.09635	-7.16101
7511.238	-4.46551	-4.93490	-5.62284	-7.93401
7515.105	-4.49055	-4.26348	-5.75561	-9.08049
7519.238	-4.77084	-4.42186	-6.01493	-8.13671
7523.115	-4.95758	-4.79145	-6.13436	-8.51786
7527.114	-5.22982	-4.62613	-5.41753	-8.51317
7531.104	-5.02169	-4.18135	-4.70828	-8.24331
7535.094	-4.63967	-4.18902	-5.20095	-7.41629
7539.116	-4.97288	-4.07943	-5.59983	-7.34606
7543.115	-5.18471	-4.12778	-5.82604	-10.62814
7547.109	-4.04562	-4.73599	-5.71428	-8.97630
7551.128	-5.12331	-4.62526	-5.76271	-8.64174
7555.181	-5.24865	-4.56895	-5.30916	-8.11727
7559.115	-5.34476	-4.00011	-5.55853	-9.10820
7563.242	-5.22448	-4.61518	-5.59410	-8.82970
7567.115	-5.24191	-4.90449	-5.56379	-7.55521
7571.113	-5.26137	-4.60257	-5.83220	-8.89618
7575.114	-5.34786	-4.04975	-5.58663	-9.40197
7579.241	-5.26950	-4.08451	-5.52706	-8.97460
7583.115	-5.32683	-4.79780	-5.45430	-8.29461
7587.119	-3.64031	-4.83723	-5.41554	-7.60887
7591.114	-5.28303	-4.90552	-5.30040	-7.46175
7595.113	-5.13444	-4.63782	-5.12821	-6.68574
7599.115	-5.22589	-5.05927	-5.23059	-6.30592
7603.117	-5.02543	-5.15954	-5.57702	-8.07645
7607.116	-5.08926	-4.78545	-5.15950	-6.63463
7611.109	-4.93974	-4.26452	-5.35273	-6.54540
7615.117	-5.09081	-4.26310	-5.23959	-7.26735
7619.096	-5.02110	-4.50034	-5.18367	-7.41413
7623.114	-5.01652	-5.07943	-5.19825	-7.83362
7627.137	-5.07727	-5.28567	-5.58056	-8.21619
7631.116	-4.92999	-4.57285	-5.57756	-8.36678
7635.114	-4.94677	-4.08599	-5.63869	-10.25736
7639.115	-5.05710	-3.85942	-5.72652	-7.78518
7643.082	-5.03634	-4.00923	-4.91242	-8.11304
7647.118	-4.88727	-3.82866	-5.60423	-7.88896
7651.078	-5.06690	-3.70770	-5.33674	-8.39204
7655.119	-4.95608	-3.85284	-5.60241	-8.83231
7659.141	-5.00955	-3.59215	-5.67524	-8.26464
7663.117	-4.98790	-4.99769	-5.06944	-7.86049
7667.118	-4.98248	-5.90614	-5.71188	-5.31023
7671.116	-4.96044	-4.15369	-5.47574	-8.34934
7675.107	-4.97189	-3.63802	-4.76431	-6.77042
7679.114	-5.23878	-5.47509	-5.79234	-7.89012
7683.118	-5.17233	-4.29991	-4.25045	-7.76364
7687.122	-4.94893	-3.66887	-4.63864	-5.46389
7691.110	-4.88732	-6.03581	-5.82061	-8.82333
7695.116	-5.28736	-4.13857	-5.15610	-7.01580
7699.116	-5.22852	-4.79394	-4.89444	-7.94041
7703.083	-5.04297	-4.41831	-5.19847	-6.86341
7707.115	-5.19463	-4.40475	-5.79386	-8.76009
7711.118	-5.29917	-5.72786	-5.70706	-7.19462
7715.113	-5.23804	-4.28096	-5.36762	-6.18112
7719.117	-5.12144	-4.37000	-5.02556	-8.72170
7723.115	-5.02041	-4.23589	-5.67364	-8.09379
7727.116	-5.15815	-3.86349	-5.17742	-6.69619
7731.119	-5.07784	-4.79684	-4.67527	-6.22726
7735.118	-5.19130	-4.94151	-5.31344	-6.04989
7739.108	-5.28025	-5.03602	-5.43561	-8.17195
7743.095	-5.15537	-5.32539	-5.17705	-5.88586
7747.118	-4.98191	-4.55860	-5.18665	-6.53446
7751.117	-4.83080	-5.37799	-5.25229	-6.65692
7755.117	-5.01832	-5.29123	-4.76120	-7.61732
7759.117	-4.96967	-4.66744	-5.24366	-6.29293
7763.117	-5.13274	-4.37666	-5.29270	-7.47413
7767.119	-4.63787	-4.76488	-5.32346	-7.85799
7771.078	-5.06222	-4.98461	-5.31177	-7.46514
7775.080	-5.36048	-4.78715	-5.55066	-7.37454
7779.116	-5.21730	-4.87845	-5.26369	-7.73499
7783.117	-5.28212	-5.06858	-5.47159	-7.00525
7787.144	-5.13139	-4.82414	-4.42923	-6.62643
7791.118	-5.06173	-4.75362	-5.24710	-4.87480
7795.120	-5.33463	-5.40547	-5.54073	-6.30407
7799.119	-5.18158	-4.62786	-4.69512	-7.29374
7803.079	-5.18843	-4.47000	-5.86818	-6.69314
7807.118	-5.16351	-4.51527	-4.75839	-6.11021
7811.116	-5.25591	-3.39515	-4.13137	-4.18855
7815.118	-5.12324	-0.38755	-3.74384	-3.41684
7819.118	-4.77042	-2.86463	6.28354	-4.30664
7823.117	NaN	NaN	2.02034	-7.15653
7827.084	NaN	NaN	-7.73938	2.35640
7831.118	NaN	NaN	NaN	NaN
7835.119	NaN	NaN	NaN	NaN
7839.080	NaN	NaN	NaN	NaN
7843.118	NaN	NaN	NaN	NaN
7847.118	NaN	NaN	NaN	NaN
7851.090	NaN	NaN	NaN	NaN
7855.116	NaN	NaN	NaN	NaN
7859.117	NaN	NaN	NaN	NaN
7863.118	NaN	NaN	NaN	NaN
7867.117	NaN	NaN	NaN	NaN
7871.117	NaN	NaN	NaN	NaN
7875.119	NaN	NaN	NaN	NaN
7879.117	NaN	NaN	NaN	NaN
7883.120	NaN	NaN	NaN	NaN
7887.121	NaN	NaN	NaN	NaN
7891.120	NaN	NaN	NaN	NaN
7895.114	NaN	NaN	NaN	NaN
7899.120	NaN	NaN	NaN	NaN
7903.113	NaN	NaN	NaN	NaN
7907.086	NaN	NaN	NaN	NaN
7911.082	NaN	NaN	NaN	NaN
7915.077	NaN	NaN	NaN	NaN
7919.121	NaN	NaN	NaN	NaN
7923.120	NaN	NaN	NaN	NaN
7927.121	NaN	NaN	NaN	NaN
7931.121	NaN	NaN	NaN	NaN
7935.120	NaN	NaN	NaN	NaN
7939.120	NaN	NaN	NaN	NaN
7943.083	-9.26239	7.23900	NaN	NaN
7947.124	NaN	NaN	NaN	NaN
7951.098	NaN	NaN	NaN	NaN
7955.121	NaN	NaN	8.98796	-8.73246
7959.118	NaN	NaN	NaN	NaN
7963.082	6.93058	-6.97099	1.94992	-3.89585
7967.121	-4.71380	-6.64809	10.83517	-5.09893
7971.122	6.02239	-3.48799	0.60389	-6.42839
7975.123	-3.03160	-4.24567	-5.75320	-5.33679
7979.145	-2.64379	-1.54099	-2.33455	-3.52262
7983.084	5.10017	-2.57954	-6.53362	-6.14043
7987.124	5.83852	-4.42641	-6.55334	-7.28360
7991.118	7.85950	-5.51919	0.16891	-4.01491
7995.122	3.16480	-3.62910	-1.48121	-4.06594
7999.120	2.15953	-3.44200	-2.16000	-5.50392
8003.121	0.07341	-3.05888	-2.49030	-5.63118
8007.080	-1.58991	-1.85601	-3.05840	-5.29918
8011.114	-0.70843	-1.81036	-2.28901	-3.06407
8015.123	-0.78176	-1.78060	-1.06823	-3.40309
8019.120	-1.21373	-3.12230	-1.05974	-3.91306
8023.087	-0.51195	-3.04843	-0.96909	-3.22367
8027.090	-1.26272	-3.20571	-0.76020	-4.51912
8031.123	-1.64841	-2.81233	-0.82689	-4.18520
8035.096	-1.41653	-3.14313	-1.08043	-4.11755
8039.122	-1.65289	-2.78254	-1.21516	-3.93147
8043.123	-1.16711	-2.64406	-1.63402	-3.45663
8047.123	-1.33698	-2.21645	-1.23846	-3.76428
8051.122	-1.25659	-1.83801	-1.12782	-3.68165
8055.121	-1.87946	-2.04272	-1.32575	-3.59931
8059.123	-1.80767	-2.91481	-1.45269	-5.57117
8063.121	-2.00762	-3.24913	-0.99960	-6.30581
8067.121	-2.06210	-2.84234	-1.71662	-7.11457
8071.126	-2.16087	-3.08959	-1.30511	-6.53533
8075.114	-2.03920	-3.11892	-1.09510	-6.31674
8079.123	-2.08882	-3.04759	-0.45577	-6.16088
8083.121	-2.11938	-2.14408	-0.70327	-3.85101
8087.087	-1.55489	-0.73803	-1.33696	-4.53322
8091.126	-0.95207	-1.39168	0.79617	-4.01956
8095.123	0.24870	2.24829	0.10766	-3.12651
8099.122	0.28892	1.34837	2.52099	-0.45774
8103.122	2.59359	2.79875	1.41965	-0.12679
8107.092	2.99123	2.93865	4.98142	2.85203
8111.125	3.03665	3.03007	4.95179	3.18620
8115.123	2.74128	5.78427	3.02747	3.80842
8119.088	2.26242	6.45484	1.43009	6.18645
8123.116	3.00264	6.45489	1.57907	5.91721
8127.126	2.16577	7.52390	1.67070	5.71331
8131.124	1.25929	5.49772	1.98606	4.63908
8135.126	3.32189	6.47795	2.19175	5.34200
8139.115	3.28014	6.20481	2.79944	5.19104
8143.135	2.72768	6.36889	5.73689	4.39623
8147.119	2.50088	6.52978	1.92872	5.14384
8151.125	3.40870	6.04053	1.69245	5.19693
8155.120	3.15075	5.60550	2.05016	5.14149
8159.102	3.33980	5.99493	2.86249	5.18360
8163.124	3.62153	6.29888	6.20722	5.23426
8167.124	3.06231	6.42104	3.39530	5.07522
8171.117	3.93124	6.29809	3.12638	5.27220
8175.122	3.43773	5.42928	4.10332	5.58205
8179.123	3.62106	5.76359	4.04717	6.39393
8183.126	3.75926	5.59225	3.85343	6.90946
8187.124	3.55904	6.29477	4.07313	5.63357
8191.126	3.38882	6.16210	3.55043	4.96310
8195.126	3.53229	6.65539	3.78963	5.71463
8199.121	3.43254	6.73373	3.41271	5.24182
8203.029	3.41696	6.23202	3.75959	5.43920
8207.086	3.60875	5.63846	6.49830	5.33673
8211.123	3.42801	5.11703	1.82978	5.49734
8215.082	3.49614	5.80210	3.65418	2.68932
8219.022	3.40376	5.52546	3.62969	4.02598
8223.118	3.17181	6.11627	5.33025	5.17069
8227.124	3.34512	6.13087	3.49535	5.15896
8231.123	3.17220	5.59693	3.47584	4.70338
8235.128	3.26146	6.35263	5.78359	5.70347
8239.128	3.28459	6.80867	3.83297	8.70804
8243.100	3.10116	6.53616	2.83754	5.45388
8247.125	3.28791	7.24680	3.49772	7.66737
8251.129	3.31583	6.98210	1.80990	6.89075
8255.124	3.21886	5.73524	2.83383	6.20671
8259.124	2.92106	5.23891	3.45487	7.74520
8263.123	3.21325	5.39351	3.99218	7.34338
8267.122	3.29243	5.27462	3.18269	5.64636
8271.124	3.09409	6.52327	4.17556	3.89153
8275.128	3.87025	6.19479	4.89294	3.43914
8279.126	3.30562	7.09809	2.85492	3.45276
8283.027	3.13385	6.59194	4.32903	5.28022
8287.123	3.57033	5.05984	4.43732	4.25009
8291.134	3.63362	6.06853	3.20602	5.14704
8295.127	3.86835	6.07540	4.70071	4.29717
8299.031	2.99700	6.44519	4.04828	4.66002
8303.124	3.63367	6.95324	4.18805	5.40633
8307.090	3.26047	6.80042	4.63970	5.56839
8311.125	3.60324	6.16375	3.66043	5.21505
8315.026	3.93206	5.19156	4.86815	5.96148
8319.128	3.69632	5.05810	4.06332	6.69626
8323.089	3.87692	5.61442	5.29555	5.27230
8327.128	3.79247	5.06045	4.61317	6.31045
8331.008	3.78642	6.15175	3.57802	6.33289
8335.127	3.95794	5.64474	4.45320	5.34819
8339.091	3.52514	6.02858	4.57869	5.65419
8343.129	3.41244	5.54647	4.18388	5.42627
8347.130	3.61369	6.43211	3.76186	5.74162
8351.128	3.89123	6.02579	4.62586	4.95279
8355.128	3.58205	6.09166	4.89437	4.88148
8359.125	3.56428	5.77548	3.71061	4.75537
8363.131	3.58106	6.51889	4.52501	4.75363
8367.127	3.55095	6.42104	4.76246	4.39235
8371.128	3.38822	6.52531	4.21424	4.23901
8375.126	3.66839	6.47024	4.13480	4.29312
8379.026	3.36077	6.72958	4.33105	4.51392
8383.129	3.38696	6.95645	4.67288	3.94028
8387.128	3.41239	6.61497	4.67527	4.18144
8391.096	3.79492	6.12441	3.63095	6.30999
8395.131	3.68905	7.45882	4.77922	7.75477
8399.094	4.31114	9.23227	4.34741	4.04378
8403.128	3.82030	9.20400	4.38215	6.99874
8407.120	3.54714	9.34577	4.67835	7.83781
8411.122	4.26341	9.44352	4.14700	9.17290
8415.127	4.51608	9.51150	4.49025	10.88557
8419.129	4.41102	9.67244	4.56994	9.27283
8423.129	4.59068	9.84134	4.77357	9.65212
8427.130	4.61857	9.37175	4.76564	10.07539
8431.128	5.39025	8.91856	4.51563	11.47955
8435.128	4.60219	9.38725	4.42047	11.16253
8439.130	5.40191	9.63850	4.59056	10.48157
8443.134	4.28251	9.49635	4.42424	10.62121
8447.130	5.18062	8.71899	4.80029	10.78241
8451.130	4.70490	9.47452	4.24826	11.54101
8455.128	5.30070	9.51660	4.32444	10.82931
8459.132	4.61852	8.91388	4.96366	10.76847
8463.128	4.79484	8.92277	4.63698	10.76567
8467.130	5.43883	9.16539	4.21338	10.75468
8471.127	4.82525	9.36696	4.13100	11.18243
8475.132	4.94324	9.47624	4.19948	10.92192
8479.130	4.77301	8.89105	4.28856	10.69919
8483.128	4.76901	9.25266	4.24041	10.60805
8487.133	4.91499	9.48179	3.66108	11.02902
8491.125	4.80278	9.56951	3.77753	10.85964
8495.119	4.97334	9.47312	4.03890	10.95120
8499.128	5.13314	9.80034	4.06557	10.67674
8503.129	4.74318	9.75698	4.21242	10.48249
8506.998	4.99721	9.85728	4.01018	11.82220
8511.131	5.10677	9.09068	3.73932	8.63455
8515.130	4.97603	9.58610	4.05354	8.28740
8519.130	4.88370	9.54684	4.23014	7.95289
8523.024	4.80468	10.08364	4.58476	8.20701
8527.131	5.07092	9.82680	3.43657	8.28437
8531.134	5.53719	8.90747	3.70107	10.33472
8535.128	5.20260	9.53901	4.29517	10.84973
8539.007	5.27572	9.75171	3.93418	10.82495
8543.130	5.25741	9.96325	4.28797	11.51462
8547.132	5.13023	9.95816	4.61050	9.28288
8551.128	5.19601	8.54397	3.72662	5.60889
8555.005	4.70522	8.45761	3.58870	7.83770
8559.005	5.19236	8.83961	4.37433	7.49655
8563.006	5.38762	9.23505	5.04819	7.48701
8567.004	4.58067	9.61917	5.13727	7.28678
8571.007	4.99352	9.68202	5.26775	7.43616
8575.005	5.21646	9.49177	3.75622	8.33402
8578.995	5.43071	9.11632	3.12682	7.84270
8583.007	5.20802	9.43336	3.04108	8.04267
8586.999	5.14389	9.55827	3.17131	7.85934
8591.006	4.85098	9.30279	4.62764	7.48791
8594.971	5.11807	9.26841	5.09881	7.17080
8599.006	5.15667	9.33951	4.93144	7.48037
8603.028	5.16472	9.31369	4.97561	8.49782
8607.004	4.84139	9.28295	4.30680	10.63358
8611.005	4.91816	9.29949	4.45486	9.94745
8615.006	4.76441	9.00031	4.46608	9.98861
8619.033	4.84755	9.09305	4.81061	9.45468
8622.983	4.81374	8.92995	4.81187	8.69629
8627.005	5.15820	8.78010	4.80532	9.43714
8631.006	4.94492	8.83811	4.73764	9.34243
8634.998	5.14764	8.75658	3.23408	9.68697
8639.007	4.90634	8.62093	3.08149	9.51632
8643.004	4.97975	8.57219	2.83360	9.37856
8646.971	4.94989	8.44559	3.27225	8.89682
8650.997	4.85623	10.22369	3.25632	6.11576
8655.009	4.37707	8.42748	3.18781	9.42446
8659.013	3.90148	6.40080	1.68347	6.20989
8662.972	2.07997	7.30153	2.84794	3.85911
8667.044	2.05685	4.82290	2.79015	6.03743
8671.005	3.35051	6.07575	6.11621	0.69979
8675.004	4.01826	6.21526	1.61376	1.09756
8679.004	7.54223	6.36108	3.72234	0.44291
8683.006	6.90385	4.53243	-5.03974	-2.69279
8687.006	NaN	NaN	1.16156	-4.73947
8691.003	NaN	NaN	-3.25728	-3.12202
8695.008	NaN	NaN	0.76955	-1.53721
8699.006	NaN	NaN	NaN	NaN
8703.028	NaN	NaN	NaN	NaN
8707.008	NaN	NaN	NaN	NaN
8711.006	NaN	NaN	NaN	NaN
8715.006	NaN	NaN	-8.29968	-2.90517
8719.007	NaN	NaN	-11.35411	3.91175
8723.005	NaN	NaN	-16.78169	4.23968
8727.006	NaN	NaN	-22.58888	2.05351
8731.005	NaN	NaN	-19.99390	-12.07741
8735.005	-0.88810	-2.94885	-8.77550	-7.72025
8739.006	-0.86753	-3.10354	-4.52017	-11.15995
8743.009	-3.03650	-2.81217	-4.41706	-10.70097
8746.987	-1.17227	-3.01553	6.61195	-8.24170
8750.978	5.33960	-2.73599	2.87415	-7.47765
8755.007	-3.40042	-3.03179	4.27007	-8.44449
8759.009	-1.26527	-3.03643	2.00847	-8.84144
8763.010	-2.75561	-2.78392	-7.81054	-8.70702
8767.002	-3.01732	-2.45993	-7.66487	-8.59958
8771.006	-2.99839	-2.21360	-7.22260	-7.55777
8775.009	-2.67524	-1.89063	-3.57169	-7.06094
8779.013	-6.33167	-1.44413	-3.84799	-6.65958
8783.008	-6.41030	-1.61886	-3.49915	-4.66414
8787.008	-3.71033	-1.48630	-3.64009	-3.91349
8790.997	-3.25510	-1.96545	-3.30992	-4.02953
8795.012	-3.13011	-2.36112	-1.59363	-4.13616
8799.000	-3.61626	-2.70745	-2.63685	-3.90461
8803.007	-4.41487	-3.19420	-2.66179	-3.82662
8807.009	-5.84893	-2.89423	-2.49270	-4.38881
8811.009	-3.53466	-2.02688	-3.26243	-5.11951
8815.000	-3.44194	-2.95918	-0.75464	-4.59524
8819.007	-3.27435	-1.66240	-0.87088	-5.57056
8823.007	-3.10802	-1.77046	-2.73145	-5.78628
8827.009	-3.52007	-2.06575	-3.00621	-5.57467
8830.969	-3.50600	-2.44376	-2.96950	-5.94977
8835.008	-3.37099	-2.71959	-2.79307	-6.05556
8839.008	-3.15416	-3.08347	-1.16711	-6.16108
8842.976	-3.70744	-3.15480	-3.06835	-6.20271
8847.010	-3.20078	-2.68651	-2.42062	-6.32755
8851.014	-3.22329	-2.66897	-2.88368	-6.43896
8855.009	-3.12049	-2.66240	-2.85177	-6.89057
8859.011	-2.88685	-1.92971	-3.04343	-6.80799
8863.036	-3.27613	-2.25111	-3.20033	-7.36170
8867.015	-3.27047	-2.68870	-3.01037	-7.04320
8871.010	-3.10421	-2.80650	-2.36106	-7.63575
8875.012	-2.99269	-2.91969	-2.34738	-7.30783
8878.985	-3.12969	-3.20266	-3.32041	-7.61091
8883.012	-3.04271	-3.05801	-3.15575	-8.17581
8887.009	-3.16084	-3.01571	-2.41573	-8.15261
8891.014	-3.02346	-3.29281	-2.23719	-7.42754
8894.979	-4.16798	-3.45397	-3.54272	-8.03951
8899.008	-2.90582	-3.34691	-3.42549	-7.99100
8903.011	-3.13598	-3.11767	-3.39010	-7.79943
8907.010	-3.20273	-3.26493	-3.04848	-7.90901
8911.003	-4.76867	-3.28672	-3.54366	-7.63966
8915.011	-2.93599	-2.29393	-3.57777	-7.17920
8919.012	-2.98240	-3.10428	-2.75017	-6.50980
8923.009	-2.82836	-2.51745	-2.69529	-7.19275
8927.011	-2.98745	-1.97532	-3.26562	-6.62004
8931.011	-3.17260	-2.40657	-3.65223	-6.79235
8935.012	-2.97203	-2.49372	-2.92344	-6.53220
8939.009	-2.81221	-2.66869	-2.92574	-6.84533
8943.034	-3.03959	-3.01917	-3.77755	-7.81520
8947.012	-3.00104	-2.79912	-3.09178	-7.33163
8951.015	-3.01331	-2.83892	-3.10092	-8.18483
8954.991	-2.98770	-2.66107	-3.29231	-8.31704
8958.977	-3.14996	-1.93618	-3.49537	-6.70951
8963.009	-3.14325	-2.47173	-3.92704	-6.55825
8967.011	-3.09396	-3.04052	-1.09631	-4.46688
8971.010	-3.03261	-2.89659	-2.78122	-4.94183
8975.015	-3.15263	-3.37404	-2.86240	-4.86287
8979.014	-3.10351	-2.92323	-3.17638	-4.80072
8983.010	-3.17866	-3.30833	-1.61875	-4.97109
8987.012	-3.17361	-3.79235	-3.35382	-5.77202
8991.006	-3.40662	-3.84000	-2.80766	-5.05310
8995.015	-3.14803	-1.78559	-2.96688	-5.05378
8999.004	-3.26826	-1.71682	-2.42711	-5.32305
9003.012	-2.96238	-1.88094	-1.30935	-5.32362
9006.979	-3.02470	-2.00226	-2.44081	-5.27567
9011.014	-2.96455	-1.91356	-3.01923	-5.26711
9015.011	-3.17777	-1.77029	-3.24932	-5.31078
9019.009	-3.38580	-2.15723	-2.18109	-4.88010
9023.003	-2.67085	-1.99943	-1.14528	-5.05947
9027.013	-2.94059	-1.75390	-1.62877	-3.96195
9031.012	-3.02895	-1.69857	-2.42644	-1.09754
9035.015	-3.33023	-1.65140	-3.37707	-4.99197
9039.006	-2.32617	-2.16909	-2.38187	-2.38342
9043.010	-2.76990	-1.75131	-10.80067	-5.90030
9047.011	-2.91619	-4.77117	-12.58011	-5.51838
9051.011	0.49530	-3.37416	-12.59084	-4.85185
9055.012	NaN	NaN	-12.95360	-5.08853
9059.009	NaN	NaN	NaN	NaN
9063.010	NaN	NaN	-22.11010	3.79568
9067.011	NaN	NaN	-19.99870	-12.07705
9071.011	NaN	NaN	-23.22353	6.23633
9075.013	NaN	NaN	-19.99703	-12.07718
9078.995	-20.07072	-3.20730	-19.99618	-12.07724
9083.012	-19.99861	-1.72599	-18.28020	-5.07558
9087.014	-19.52290	-3.33394	-19.40366	-8.10202
9091.015	-19.77522	-5.07902	-19.34261	-8.28021
9095.010	-18.17042	-6.34101	-18.53656	-11.52397
9099.012	-17.01217	-6.79195	-17.87969	-11.70807
9103.012	-17.16239	-6.99859	-17.35374	-11.01259
9107.013	-17.18450	-7.03628	-17.18946	-12.12870
9111.007	-16.85039	-7.09158	-18.57448	-11.08452
9115.029	-16.96255	-7.22820	-17.26891	-11.03488
9119.011	-16.30412	-7.35721	-17.05204	-10.03551
9123.004	-13.37984	-5.09155	-16.83109	-11.09337
9127.006	-15.69933	-6.78133	-13.87162	-10.51178
9131.014	-14.75565	-5.48080	-14.25138	-10.23159
9135.014	-13.29100	-5.03796	-16.14863	-11.78716
9139.014	-12.41476	-5.04462	-13.47873	-10.04578
9143.018	-12.05924	-5.75867	-12.21238	-9.49684
9147.011	-12.37536	-7.31259	-12.99566	-9.78493
9151.013	-13.02226	-7.54153	-13.44113	-10.51161
9155.014	-12.54694	-7.48766	-12.71564	-10.59482
9159.018	-13.13265	-7.38222	-12.69422	-9.02873
9163.016	-12.45788	-6.36240	-12.71925	-10.53773
9167.014	-11.82012	-5.76433	-13.39203	-10.21702
9171.012	-12.47605	-5.87967	-12.55257	-10.07653
9175.006	-12.61370	-6.64398	-12.62265	-10.09765
9179.015	-12.21077	-5.89510	-12.76447	-10.42578
9183.015	-12.27491	-5.79444	-13.13974	-10.10568
9187.014	-12.30026	-6.15052	-12.47470	-9.70074
9191.020	-12.48717	-6.75802	-12.45227	-10.08178
9195.013	-12.19076	-6.38042	-12.55309	-10.19826
9199.014	-12.40586	-6.21393	-13.01602	-10.00974
9203.014	-12.25341	-6.31366	-13.21867	-10.53374
9206.981	-12.09296	-6.04246	-13.10033	-10.28783
9210.978	-12.15932	-6.44767	-12.98556	-10.16119
9214.978	-12.01675	-6.14917	-12.78637	-10.45752
9219.019	-12.43272	-6.43412	-13.05797	-10.08344
9223.013	-12.57198	-6.40129	-13.17670	-10.26280
9227.015	-12.03726	-6.79318	-13.10973	-10.34187
9231.016	-11.97771	-6.79850	-12.40929	-9.45906
9235.015	-12.38988	-7.79364	-12.98782	-10.12374
9238.914	-12.19123	-7.39842	-12.96684	-9.77783
9243.015	-12.28832	-7.30214	-12.97997	-10.01016
9246.988	-12.28218	-6.67264	-12.91055	-10.10891
9251.013	-12.29220	-6.77308	-13.05498	-9.82433
9254.915	-12.10720	-7.20360	-12.89013	-10.00686
9259.018	-12.44202	-7.24665	-12.68897	-9.83703
9263.017	-12.68855	-8.89559	-12.58576	-9.85934
9267.016	-12.62844	-7.41884	-12.48854	-9.76120
9271.019	-12.62457	-7.57260	-12.65583	-9.67474
9274.984	-12.69367	-7.30490	-12.74851	-9.59295
9279.015	-12.77856	-7.00502	-12.74355	-9.80592
9283.020	-12.50744	-6.64761	-12.96338	-9.89572
9287.008	-12.37098	-7.19032	-13.26537	-10.10695
9291.013	-12.07431	-6.88958	-13.04820	-9.89877
9295.017	-12.77931	-8.61867	-13.04033	-9.79775
9299.018	-12.32504	-8.56980	-12.78793	-9.98059
9303.021	-12.09909	-8.24669	-12.54117	-10.02243
9307.016	-12.35384	-8.11902	-12.51302	-9.88079
9311.017	-12.76657	-7.82834	-12.92936	-9.73635
9315.015	-12.57990	-7.07980	-11.99172	-9.53832
9318.915	-12.73049	-7.32057	-11.95178	-9.60424
9323.030	-12.50266	-7.31293	-12.30054	-9.31831
9327.016	-12.45102	-7.33118	-12.07177	-9.11014
9330.985	-12.44188	-7.22359	-12.07239	-9.22311
9334.891	-12.53542	-7.15995	-11.98752	-8.68112
9339.016	-12.35464	-5.28166	-12.03821	-8.88668
9343.017	-12.63683	-6.96587	-12.09232	-8.88168
9346.981	-12.53273	-7.28877	-12.22765	-9.14846
9350.919	-12.31770	-7.59361	-12.14954	-9.18030
9355.015	-12.43466	-8.22463	-12.26223	-9.24550
9359.017	-12.39329	-7.59356	-12.15372	-9.02123
9363.016	-12.43831	-7.61997	-12.27251	-8.96867
9366.917	-12.51184	-7.99503	-12.32390	-8.71107
9370.997	-12.45296	-7.61709	-12.29197	-8.86752
9375.019	-12.69686	-7.93949	-12.32838	-8.69339
9379.018	-12.56559	-7.91490	-12.34313	-8.72709
9382.917	-12.73840	-8.00349	-12.41966	-8.64996
9387.018	-12.61351	-7.85324	-12.34155	-8.58619
9391.018	-12.79362	-8.02493	-12.33849	-8.56915
9394.978	-12.77457	-8.05079	-12.29727	-8.45485
9398.919	-12.84597	-8.08414	-12.24284	-8.48273
9403.018	-12.91180	-8.32819	-12.23609	-8.45486
9407.021	-12.88879	-8.30162	-12.20849	-8.51506
9410.980	-12.94052	-8.92310	-12.22604	-8.59624
9414.915	-12.96475	-9.28767	-12.03273	-9.01857
9419.018	-13.11003	-9.71612	-12.12855	-8.67442
9423.021	-13.06344	-9.09901	-12.14271	-8.49941
9427.017	-13.12681	-9.48253	-12.31402	-9.07699
9430.915	-13.01845	-9.27596	-12.30149	-9.26803
9435.020	-13.03345	-9.33783	-12.59396	-9.18829
9439.017	-13.10810	-9.33944	-12.87171	-8.95544
9443.020	-13.09153	-9.15485	-12.56117	-9.19473
9446.917	-13.00462	-8.71034	-12.50621	-9.25885
9451.018	-12.13334	-8.22573	-11.76138	-9.20572
9454.989	-11.13262	-7.91779	-11.56445	-8.20629
9459.017	-11.19165	-7.41429	-11.29519	-7.12692
9462.883	-10.68703	-6.35773	-10.72649	-6.65825
9467.019	-10.35203	-5.65646	-10.10042	-5.64683
9471.019	-10.30127	-5.22612	-10.14220	-5.71644
9475.020	-10.30639	-4.99506	-9.66564	-5.19692
9478.885	-10.00456	-5.65899	-9.87223	-6.02521
9483.019	-10.33644	-5.65240	-9.74198	-5.42940
9487.018	-10.25028	-5.96474	-9.57778	-5.86701
9490.982	-10.04944	-5.78471	-9.96049	-7.01502
9494.924	-10.25165	-6.37982	-10.06845	-6.73014
9499.024	-10.13571	-6.29589	-10.24416	-7.32333
9503.021	-10.19825	-6.45856	-9.99152	-7.17016
9507.019	-10.16610	-5.92560	-10.02913	-7.65483
9511.023	-10.27919	-6.53749	-10.05065	-7.54060
9515.021	-10.26778	-6.55904	-9.95635	-7.18239
9519.019	-10.16596	-6.42682	-10.04480	-6.39351
9523.019	-10.16620	-6.71879	-10.33493	-7.11327
9526.919	-10.20690	-6.76278	-10.08623	-6.29683
9531.020	-10.25468	-6.63078	-10.04367	-6.06023
9535.017	-10.55143	-6.92312	-9.97406	-6.06597
9539.019	-10.28597	-6.78406	-9.99152	-5.97549
9542.919	-10.26598	-6.94178	-9.84267	-6.27689
9546.982	-10.27218	-6.74715	-9.95909	-5.93306
9551.019	-10.26636	-6.79521	-9.85956	-6.01605
9555.097	-10.16937	-6.40885	-9.85628	-6.07978
9559.023	-10.32328	-6.63637	-9.86640	-6.27030
9563.020	-10.20344	-6.60037	-9.76813	-6.23333
9567.023	-10.24550	-6.55416	-9.69173	-5.88644
9571.020	-10.29370	-7.19579	-9.77985	-6.00080
9574.918	-10.32880	-7.83925	-9.58907	-5.90961
9578.999	-9.27329	-6.65973	-9.45901	-5.93793
9582.982	-6.78422	-5.66079	-9.01058	-5.82047
9586.885	-5.22884	-1.76559	-7.24962	-5.22850
9590.897	-3.41837	-2.31334	-4.45885	-4.17434
9594.896	-1.64883	-5.08752	-2.15621	-3.93096
9598.901	0.46460	-5.55009	-1.71898	-3.66275
9602.898	0.97921	-5.42182	0.66082	-5.17070
9606.856	4.28784	-5.00055	2.57179	-3.33715
9610.897	4.67991	-5.08512	3.41919	-3.96722
9614.859	7.04357	-4.24825	9.01191	-1.76039
9618.895	7.10164	-4.92660	6.51167	-1.48964
9622.897	7.28876	-4.98354	6.58337	-2.52572
9626.896	7.16424	-4.93041	6.88979	-2.72511
9630.896	6.69796	-5.28627	6.93919	-1.45086
9634.895	6.82227	-5.11296	8.43817	-2.86359
9638.896	7.00802	-4.87074	8.60866	-4.04067
9642.897	7.13373	-4.91074	5.00674	-3.24178
9646.907	7.22024	-5.09318	8.52998	-1.90022
9650.896	7.12026	-4.97342	8.26762	-2.40817
9655.023	6.63039	-4.82962	7.35717	-2.97864
9658.895	6.70022	-4.16184	7.54462	-4.90176
9662.900	7.05660	-4.19268	7.99433	-2.02474
9666.877	6.75037	-3.49251	9.39467	-1.98413
9670.896	6.42567	-4.05063	8.13529	-2.29829
9674.894	6.58242	-4.88925	8.77356	-2.85187
9678.887	6.82792	-5.00269	8.02336	-3.16462
9682.898	6.41900	-4.69795	8.43353	-4.43903
9686.897	6.00190	-3.19518	8.24871	-4.89033
9690.898	5.94192	-2.50344	8.02723	-4.73907
9694.896	5.91862	-4.38749	7.57981	-5.10071
9698.902	5.81550	-4.30018	8.24179	-6.15734
9702.924	6.62020	-4.59789	9.47997	-3.77555
9706.900	6.40795	-3.44049	9.94917	-3.40993
9710.860	7.01986	-3.92393	8.66239	-3.12335
9714.897	6.55373	-4.12392	8.61179	-3.07762
9718.897	6.27555	-4.69994	9.21599	-3.43701
9722.898	6.79941	-5.11675	8.50964	-3.63322
9726.899	6.54335	-4.77026	7.24488	-3.83598
9730.900	5.77684	-4.01704	8.42843	-3.97190
9734.900	5.56119	-3.00177	7.94849	-6.20069
9738.897	6.82501	-3.21476	8.55018	-7.66854
9742.899	6.90989	-3.73580	10.19457	-3.61111
9746.896	6.03098	-3.40505	8.82461	-3.34677
9750.894	5.63790	-3.03543	9.15502	-3.84144
9754.896	6.55197	-4.22179	10.21406	-4.53517
9758.895	6.51863	-3.50662	8.13057	-5.61105
9762.898	6.07594	-4.75425	8.96964	-5.64884
9766.896	6.36645	-4.51519	8.85012	-6.02755
9770.862	6.06637	-3.75963	9.22881	-6.23242
9774.900	6.03189	-3.94742	8.93227	-1.33592
9778.899	6.74944	-3.59721	10.81693	-4.56632
9782.897	5.81295	-2.60981	9.20685	-4.13063
9786.902	6.70310	-3.42808	9.22593	-3.46318
9790.887	6.22777	-4.29285	9.16044	-3.80201
9794.892	6.17023	-3.91739	10.01688	-5.38817
9798.902	6.34424	-3.73206	8.70396	-3.24782
9802.899	6.42042	-3.57394	8.48670	-3.39890
9806.900	5.73338	-1.32166	9.30527	-4.35241
9810.899	6.19268	-3.80009	8.52387	-3.03993
9814.891	6.50322	-4.18029	8.91103	-3.16432
9818.862	6.42778	-3.38713	9.41414	-3.84744
9822.899	6.52167	-3.69718	9.26043	-5.73274
9826.900	6.59978	-3.01300	11.34194	-4.39021
9830.902	6.41261	-3.06172	9.72059	-5.94885
9834.863	6.52162	-3.55871	12.41698	-5.80297
9838.899	6.47794	-4.53249	9.50962	-6.20363
9842.901	6.46669	-4.47392	11.19564	-4.23719
9846.900	6.81750	-4.44040	9.62126	-5.98961
9850.903	6.43143	-3.80951	10.25807	-3.77855
9854.905	6.37293	-3.43100	9.31305	-3.14749
9858.902	6.29921	-3.37545	9.87073	-5.36268
9862.893	6.25330	-3.15253	9.11179	-4.40447
9866.900	6.34192	-3.66065	10.08553	-6.26788
9870.902	6.30593	-3.17866	6.96321	-6.18149
9874.899	6.04679	-2.58952	9.65635	-6.33710
9878.924	6.31664	-3.37004	9.77592	-6.67694
9882.902	6.59329	-2.92279	7.99768	-7.61730
9886.864	6.01527	-2.81716	9.93424	-5.41968
9890.901	6.17293	-2.87292	11.33741	-4.45122
9894.924	6.36265	-2.72895	9.86074	-4.25748
9898.863	6.63059	-2.47855	9.91666	-4.02972
9902.906	6.91488	-0.29789	9.74220	-1.63045
9906.901	7.31152	1.82539	15.22809	-2.04896
9910.912	12.39090	1.99225	22.17112	-2.51657
9914.900	13.77242	6.61172	15.96463	0.69746
9918.892	NaN	NaN	15.68543	2.08430
9922.903	NaN	NaN	NaN	NaN
9926.922	NaN	NaN	NaN	NaN
9930.902	NaN	NaN	NaN	NaN
9934.901	NaN	NaN	NaN	NaN
9938.902	NaN	NaN	NaN	NaN
9942.861	NaN	NaN	NaN	NaN
9946.897	NaN	NaN	NaN	NaN
9950.900	NaN	NaN	NaN	NaN
9954.880	NaN	NaN	NaN	NaN
9958.873	NaN	NaN	NaN	NaN
9962.904	NaN	NaN	NaN	NaN
9966.905	NaN	NaN	NaN	NaN
9970.902	NaN	NaN	NaN	NaN
9974.905	NaN	NaN	NaN	NaN
9978.865	NaN	NaN	NaN	NaN
9982.929	NaN	NaN	NaN	NaN
9986.900	NaN	NaN	NaN	NaN
9990.900	NaN	NaN	23.07233	8.72912
9994.878	NaN	NaN	NaN	NaN
9998.862	17.77263	-6.86018	NaN	NaN
10002.900	16.24329	-1.10887	NaN	NaN
10006.901	18.43600	-1.10319	NaN	NaN
10010.904	18.60866	-2.58501	NaN	NaN
10014.926	19.47686	-1.25800	NaN	NaN
10018.903	18.53730	-1.73139	23.12653	-5.33937
10022.865	18.67809	-3.93941	NaN	NaN
10026.902	19.76718	-2.02990	19.33426	-5.52629
10030.895	18.59278	-2.38682	20.08171	-8.96033
10034.903	16.02167	-2.87989	18.12390	-6.58619
10038.906	15.60668	-3.93149	13.18560	-6.94649
10042.905	13.64441	-4.49427	16.54611	-8.91673
10046.901	13.32016	-4.37908	13.49516	-6.64011
10050.904	12.91729	-4.53347	10.67461	-5.24530
10054.901	11.45260	-3.74487	15.98608	-7.12737
10058.901	11.29894	-3.51275	13.24675	-5.52503
10062.902	11.53763	-3.58276	17.03044	-6.87002
10066.904	11.77375	-3.48933	17.16321	-6.99507
10070.901	11.54535	-3.48223	17.06154	-6.92342
10074.905	11.56376	-3.51727	16.35895	-7.11592
10078.905	11.42534	-3.52035	16.11281	-6.78500
10082.884	11.60451	-3.53036	16.17500	-7.11876
10086.903	11.18444	-4.01357	14.21864	-6.93536
10090.904	10.88353	-3.71490	15.54886	-7.12177
10094.898	11.34585	-3.84381	14.93376	-7.08915
10098.904	11.19791	-4.05937	15.10469	-7.39957
10102.906	11.08815	-4.24760	14.48953	-7.45440
10106.903	10.37040	-4.12995	15.11391	-7.77425
10110.896	10.56994	-3.85176	14.75973	-7.98250
10114.904	10.65604	-4.47621	14.88924	-8.22632
10118.904	10.54656	-4.71296	15.11107	-8.30688
10122.895	10.66342	-4.73780	16.68746	-8.15805
10126.897	11.16710	-4.85015	15.02145	-8.02360
10130.907	10.94138	-5.05284	14.88982	-8.21731
10134.904	11.16879	-5.17413	14.76013	-8.38193
10138.906	11.07917	-5.16996	14.76442	-8.67615
10142.906	10.88707	-5.35465	14.61441	-8.57777
10146.907	10.50661	-5.22604	14.95132	-8.60225
10150.904	10.71724	-5.19701	14.69411	-8.33107
10154.906	10.88661	-4.99057	14.30151	-8.58012
10158.872	11.02129	-5.17690	14.52530	-8.83921
10162.908	11.19039	-5.47931	13.88053	-8.66592
10166.904	10.96050	-5.38702	13.31779	-8.46658
10170.905	11.13169	-5.56884	12.79838	-8.75172
10174.906	10.98092	-5.52768	11.74787	-8.37264
10178.905	10.94969	-5.67144	11.67344	-8.93509
10182.903	10.56342	-5.19592	12.33309	-8.36242
10186.904	10.88499	-4.65521	11.97237	-8.59095
10190.910	10.85385	-2.73337	15.05524	-8.19096
10194.907	11.03645	-4.14399	14.87809	-8.96654
10198.905	10.83256	-4.00596	13.96166	-8.65979
10202.919	10.98985	-4.06298	14.04687	-8.27366
10206.903	10.71585	-3.93401	12.54935	-8.40100
10210.867	10.37525	-4.15418	12.69358	-8.43996
10214.906	10.48207	-3.92800	11.57246	-8.76618
10218.906	10.95772	-3.97450	15.09613	-7.23708
10222.899	10.56219	-4.09564	14.98266	-7.86274
10226.904	10.60375	-4.00699	14.26711	-8.67172
10230.904	11.27994	-4.46226	14.56669	-8.50648
10234.905	11.22511	-4.06129	14.20129	-8.81797
10238.903	10.72431	-4.35650	14.09182	-8.94312
10242.908	10.71250	-4.49052	12.86779	-8.61104
10246.907	10.38190	-4.28069	12.38488	-9.06328
10250.873	10.67411	-4.15522	11.78286	-8.07090
10254.896	11.13064	-4.69502	14.74054	-8.90967
10258.905	10.59056	-4.62617	14.45207	-8.71945
10262.907	10.70141	-4.81480	13.75708	-7.44302
10266.906	11.33862	-4.63329	13.88488	-7.71070
10270.806	10.99173	-4.88319	13.77115	-8.13886
10274.906	10.61514	-4.48076	12.66426	-8.42174
10278.909	10.36667	-4.61534	13.83849	-8.97823
10282.908	10.51405	-4.60326	14.36017	-8.86527
10286.911	10.98975	-4.26025	14.66914	-8.06235
10290.888	10.72781	-4.89023	14.77932	-6.06970
10294.871	10.68600	-3.56580	13.67143	-5.83489
10298.908	10.81236	-2.03699	13.36330	-5.28516
10302.915	10.92191	-1.25389	14.15153	-4.05204
10306.908	11.02677	-0.67483	13.18659	-0.26831
10310.905	11.07446	0.10425	13.28258	-0.14523
10314.909	10.65556	1.90948	12.11418	-0.30816
10318.898	10.54977	2.02274	13.68298	-3.88389
10322.905	10.79322	1.74462	14.97217	-3.76563
10326.909	11.08129	1.41931	13.13051	-0.47125
10330.901	10.81777	1.79137	13.13767	-1.37744
10334.816	10.66344	1.98177	12.37579	-1.25140
10338.909	11.34657	1.57103	12.67100	-2.71073
10342.906	10.87462	1.97171	13.18348	-1.21988
10346.909	10.78082	1.88823	15.91303	-1.57802
10350.909	10.93504	1.75393	15.87621	-2.26824
10354.907	10.68032	1.67157	12.74123	-2.23384
10358.907	10.81870	1.58542	12.69379	-2.10094
10362.870	10.80208	1.49612	14.44667	-2.26499
10366.807	10.84896	1.52132	13.75800	-2.50015
10370.911	10.83309	1.44121	14.07373	-2.14275
10374.882	10.68870	1.47425	12.97311	-1.90697
10378.907	11.12190	1.32495	12.49486	-2.38708
10382.913	10.86711	1.16569	15.99968	-2.21483
10386.907	10.84492	1.14648	15.75208	-2.25870
10390.906	11.02335	0.92952	12.80383	-2.25133
10394.906	10.57865	0.81192	12.81202	-1.70525
10398.807	11.06552	0.62694	13.94149	-1.89326
10402.916	10.45334	0.90816	14.01798	-1.72266
10406.871	11.05550	0.81465	13.23081	0.06488
10410.923	11.14099	0.86653	12.65075	1.55892
10414.893	10.82275	0.65364	13.12893	0.13077
10418.900	10.41213	0.90953	14.18547	0.57357
10422.906	10.84748	0.88218	13.32733	1.19734
10426.907	10.82921	1.09887	12.69743	-0.70449
10430.806	10.90911	1.10970	11.72726	-1.24710
10434.908	10.68686	1.22253	12.46817	-2.38177
10438.909	10.72115	1.54714	14.25114	-1.72874
10442.909	10.75059	1.65723	15.70788	-1.98846
10446.913	10.65422	1.73679	13.59743	-0.84407
10450.909	10.75550	1.61247	12.35443	-0.53988
10454.913	10.78685	1.79402	13.90438	-1.51399
10458.875	10.88152	1.76432	14.21913	-0.86548
10462.789	10.56896	1.98173	13.90125	0.28617
10466.911	10.86933	2.00294	12.44758	1.64009
10470.911	10.68156	2.12257	14.20642	-0.42488
10474.907	10.86309	2.04086	13.69952	0.02479
10478.910	10.90975	2.10183	14.10205	1.37179
10482.910	10.71712	2.26214	13.91296	-1.56207
10486.910	10.65947	2.24138	13.92012	-2.97392
10490.908	10.79885	2.10500	12.62377	-3.15096
10494.809	10.75598	2.19874	13.10655	-4.19846
10498.822	11.08873	2.00180	14.79809	-3.21637
10502.916	10.99755	1.95620	14.35309	-2.81491
10506.912	11.07357	1.77477	13.47439	-2.56118
10510.807	10.76793	1.83674	15.10325	-2.84539
10514.908	10.07791	1.65127	12.95996	-2.59437
10518.908	7.77900	1.84961	12.30125	-2.29119
10522.911	7.16366	1.66430	10.27222	-2.43201
10526.812	5.04841	1.50400	7.82971	-2.95080
10530.909	4.44072	-0.45877	2.59349	-1.62857
10534.912	1.02156	-0.54260	0.19251	-2.91223
10538.910	-0.31813	0.27987	-0.18990	-2.51564
10542.810	-2.04106	0.39735	-0.35543	-2.92059
10546.908	-3.79818	-0.79167	-2.60473	-5.83093
10550.910	-5.92822	-0.59463	-7.50932	-6.45486
10554.909	-6.91853	-0.84130	-6.91486	-7.78182
10558.915	-6.98717	-2.74475	-8.96760	-7.87790
10562.912	-7.86269	-3.55160	-9.32173	-8.49477
10566.873	-9.23227	-3.95711	-11.31660	-10.10062
10570.911	-9.23379	-3.07371	-9.67148	-10.11925
10574.912	-9.46145	-2.53241	-11.32526	-10.48568
10578.911	-9.18216	-3.62859	-11.71323	-10.40744
10582.882	-8.29776	-3.68197	-10.72731	-10.44595
10586.874	-9.30099	-4.27000	-10.25237	-10.05130
10590.878	-9.14972	-5.22189	-11.04116	-10.30422
10594.913	-8.65863	-5.00466	-11.08947	-10.34311
10598.910	-8.85763	-2.65537	-10.93892	-9.97909
10602.911	-9.02699	-3.01656	-10.70162	-9.68026
10606.785	-9.19916	-3.80226	-10.40459	-10.12016
10610.912	-8.75308	-3.68137	-11.39761	-10.74956
10614.912	-9.29814	-5.19366	-11.10218	-10.60750
10618.788	-9.10492	-4.48638	-10.96488	-9.76261
10622.746	-8.82613	-4.27428	-10.87850	-10.10368
10626.788	-9.45141	-2.27328	-10.72520	-9.24297
10630.782	-8.77245	-3.23413	-10.87170	-8.44319
10634.787	-8.75938	-4.07197	-10.51705	-9.01628
10638.786	-9.05124	-4.29642	-10.58809	-8.00390
10642.788	-9.46230	-5.43097	-10.66802	-8.22673
10646.786	-9.33355	-4.74876	-10.78338	-8.53593
10650.787	-9.69342	-4.34577	-10.31468	-7.49341
10654.788	-9.59431	-3.67348	-10.76068	-7.84090
10658.789	-9.86245	-4.16147	-10.84932	-8.45862
10662.787	-9.57684	-4.43549	-10.28239	-7.43088
10666.789	-9.76351	-4.78375	-10.86651	-7.63328
10670.786	-9.60649	-5.11269	-10.35565	-7.86850
10674.786	-9.66262	-4.89378	-10.25425	-7.51752
10678.788	-9.85621	-4.17422	-10.73179	-7.44029
10682.786	-9.54817	-3.14027	-11.00015	-7.78127
10686.787	-9.43883	-3.83021	-10.07783	-7.57168
10690.787	-9.81269	-4.49674	-9.93443	-7.28645
10694.789	-9.76507	-4.53510	-9.68332	-7.61361
10698.789	-9.60239	-5.02201	-9.89658	-7.74224
10702.780	-9.55321	-4.99712	-9.99036	-7.61388
10706.751	-9.45175	-5.15468	-9.59368	-7.28040
10710.777	-9.46879	-3.43709	-9.63127	-7.52334
10714.750	-9.45817	-3.90810	-9.67295	-7.29936
10718.790	-9.35957	-3.64168	-9.40402	-7.29401
10722.789	-9.37552	-4.41966	-9.38245	-7.45742
10726.792	-9.54196	-5.01587	-9.41141	-7.52495
10730.788	-9.43706	-5.50809	-9.72489	-7.42339
10734.782	-9.50716	-5.33516	-9.31346	-7.26921
10738.786	-9.48729	-3.66242	-9.32647	-7.26694
10742.789	-9.55188	-3.54724	-10.45380	-8.32912
10746.788	-9.45655	-3.31012	-8.98048	-7.39196
10750.788	-9.85040	-3.71488	-9.78216	-7.52055
10754.766	-9.61194	-4.49881	-9.81947	-7.59702
10758.790	-9.47319	-4.31017	-9.12558	-7.19152
10762.789	-9.54416	-4.69225	-8.60647	-7.36285
10766.779	-9.85132	-4.70694	-9.36832	-7.01979
10770.791	-9.40001	-4.24109	-9.63901	-6.87491
10774.755	-9.70331	-4.05883	-8.46335	-7.27012
10778.827	-9.44588	-3.53832	-9.19885	-7.00300
10782.811	-9.53388	-3.05002	-9.49866	-6.64263
10786.788	-9.54655	-3.27591	-9.09306	-6.56872
10790.790	-9.42409	-3.15238	-9.51095	-6.50148
10794.773	-9.43008	-3.56505	-8.67774	-5.76562
10798.781	-9.47490	-3.18839	-8.43244	-5.24672
10802.788	-9.54167	-3.37274	-8.44453	-5.26940
10806.788	-9.69159	-3.60946	-9.12028	-6.19575
10810.791	-9.43177	-3.57810	-8.89693	-4.77602
10814.781	-9.73313	-3.64204	-8.78622	-4.90263
10818.787	-9.58077	-4.04959	-9.06874	-5.81327
10822.792	-9.52026	-3.39686	-8.90662	-4.60478
10826.790	-9.53115	-4.01880	-8.37512	-6.12358
10830.817	-9.68086	-4.14909	-8.53095	-4.66901
10834.788	-9.78500	-3.74124	-8.16065	-3.67847
10838.790	-14.44015	-3.87277	-8.58316	-4.11719
10842.790	-14.98692	-3.51140	-12.72863	-3.48676
10846.789	-8.72338	-2.47051	-12.78913	0.89440
10850.792	NaN	NaN	-12.16956	0.46972
10854.790	NaN	NaN	-19.14772	12.80505
10858.792	NaN	NaN	-19.73623	-12.09647
10862.812	NaN	NaN	-19.84255	-12.08864
10866.790	NaN	NaN	-19.88736	-12.08532
10870.789	NaN	NaN	-19.91222	-12.08348
10874.789	NaN	NaN	-19.92812	-12.08230
10878.770	NaN	NaN	-19.93924	-12.08147
10882.788	NaN	NaN	-19.94749	-12.08086
10886.787	NaN	NaN	-19.95389	-12.08039
10890.754	NaN	NaN	-19.95904	-12.08000
10894.793	NaN	NaN	-19.96327	-12.07969
10898.789	NaN	NaN	NaN	NaN
10902.783	NaN	NaN	20.46564	9.68959
10906.758	NaN	NaN	NaN	NaN
10910.791	NaN	NaN	16.67450	8.33431
10914.793	NaN	NaN	16.34407	9.37843
10918.794	21.00079	14.18733	16.34170	9.71006
10922.782	20.26069	10.17582	16.19677	7.59350
10926.791	18.40407	10.26050	16.53712	9.62691
10930.792	16.91863	7.73747	21.96269	7.89316
10934.786	18.22556	8.54552	16.99663	7.86980
10938.790	16.95540	7.88557	19.94442	5.77265
10942.792	17.25490	7.76908	16.30922	1.93163
10946.794	15.50273	8.07102	15.61550	7.60497
10950.783	17.47209	13.05955	12.75788	8.01605
10954.792	16.34165	6.41336	8.80362	8.53910
10958.790	16.32691	7.00596	11.83569	7.67266
10962.763	15.52691	7.29907	12.05212	7.55597
10966.763	15.07540	6.21329	11.82635	7.59472
10970.791	13.73097	6.69337	12.74013	7.58637
10974.792	13.49575	6.15186	12.35538	7.38475
10978.793	12.25742	6.59650	13.03465	7.14238
10982.787	12.08188	6.01067	14.97493	6.50712
10986.794	13.07799	5.79719	14.97682	6.76664
10990.791	12.71590	5.86514	12.59800	6.54955
10994.792	12.61041	5.76281	13.41901	5.73572
10998.785	12.46945	5.13604	13.27678	5.31836
11002.774	12.33150	6.02783	12.91821	6.51270
11006.795	13.00631	3.27483	13.26044	6.75300
11010.793	12.59368	2.38996	14.35000	6.26705
11014.785	12.06475	3.21602	14.17143	4.91358
11018.796	11.84175	2.72971	11.89250	6.22419
11022.757	12.18820	3.79333	11.87227	6.53860
11026.815	12.52248	3.22129	14.07954	6.24145
11030.797	11.89709	3.44774	13.61649	6.34137
11034.757	11.25225	3.81713	14.39403	6.04848
11038.794	11.77334	3.83036	14.15358	4.95550
11042.757	11.18628	4.18232	11.76906	6.49153
11046.790	11.35487	4.05282	13.53627	6.07706
11050.792	11.55142	4.26986	13.90862	6.21586
11054.793	11.69552	4.12789	14.21577	5.97999
11058.792	11.57472	4.13316	14.35458	6.03538
11062.788	11.04116	4.58698	14.36097	5.85121
11066.791	11.45429	4.86038	14.66652	5.80258
11070.794	11.32588	4.93120	14.13071	5.77479
11074.792	10.81145	5.59812	13.36751	5.48974
11078.794	11.40326	5.42641	13.29598	5.87779
11082.794	11.43915	5.43282	13.95385	6.07254
11086.776	11.25722	4.48366	13.52283	6.64576
11090.795	10.91203	4.20235	14.04605	7.53363
11094.819	10.91882	3.09548	11.92372	5.69191
11098.795	11.16433	3.27131	11.58520	5.34060
11102.794	11.17288	3.54416	11.93745	5.64249
11106.799	11.02160	3.47207	12.19451	3.43341
11110.789	11.09439	3.61606	13.03866	2.71392
11114.795	11.10292	3.84288	12.93040	3.94292
11118.794	10.92648	3.69527	13.35005	4.43481
11122.794	11.08129	4.27661	13.31584	4.97884
11126.785	11.18864	4.05855	14.16198	3.55656
11130.787	11.16160	4.74803	14.47324	4.17301
11134.794	11.88463	4.91320	12.91911	4.52100
11138.793	12.57770	5.04054	13.12877	1.71662
11142.788	11.22718	4.02423	12.38758	4.42429
11146.756	11.53894	3.79485	12.40126	4.50909
11150.797	12.55916	3.67114	12.78835	4.37439
11154.792	12.22658	4.30388	12.56663	4.44895
11158.789	11.85835	3.65243	12.47342	4.89397
11162.804	11.72769	4.08396	14.31286	3.75296
11166.795	11.81767	4.26384	13.30157	4.10313
11170.769	12.01765	4.07956	13.44350	3.59001
11174.792	11.98688	4.38033	13.24985	4.66550
11178.758	11.59372	4.94468	14.78619	4.98263
11182.794	11.47827	4.98054	14.67116	7.70211
11186.798	9.89048	4.90270	12.48769	7.85706
11190.788	7.61748	5.05398	5.92638	5.33436
11194.796	5.24641	5.24702	6.00116	3.35778
11198.796	4.96248	5.00129	5.24412	3.13083
11202.797	3.14429	4.77867	1.22454	1.02178
11206.799	2.52619	4.20005	2.58918	1.66776
11210.793	-1.32426	4.26751	-2.26341	1.74192
11214.759	-0.81645	3.07965	1.12983	2.11233
11218.798	-0.92411	3.32777	0.88478	0.92616
11222.797	-0.05763	3.20074	0.88815	1.42707
11226.798	-0.45435	3.50919	0.72298	2.07093
11230.794	-0.16102	3.98146	0.22698	2.53031
11234.798	-0.77814	4.11760	-0.37938	2.96953
11238.800	-0.75776	4.22938	1.81047	1.66930
11242.797	-1.00221	3.41247	0.79372	1.98156
11246.796	-1.27782	3.49249	0.79310	1.84314
11250.797	-0.98720	3.61417	0.13565	1.11548
11254.788	-0.41996	3.50730	-0.31806	1.50569
11258.796	-0.64953	3.23665	-1.09852	1.73444
11262.795	-1.08482	3.24804	2.54965	2.22421
11266.796	-1.21960	3.22956	1.41931	1.79297
11270.798	-0.40782	1.64469	1.42489	2.06983
11274.795	-0.71637	1.79031	1.13536	2.74557
11278.795	-0.92051	2.07299	-0.83049	2.98849
11282.796	-1.08373	1.54189	0.31786	3.55715
11286.800	-0.63672	2.22384	1.83047	1.78137
11290.800	-0.73888	1.97945	2.09130	2.01441
11294.776	-0.76032	2.80336	1.50279	-0.17147
11298.796	-0.99998	2.89921	1.33172	-0.36178
11302.798	-0.51279	2.69498	1.18421	0.15346
11306.799	-0.31952	2.73496	0.10468	2.20427
11310.797	-0.34007	2.68515	-0.51470	2.35604
11314.760	-0.41509	2.71160	0.04547	1.89825
11318.788	-0.55801	2.94886	0.77456	2.00624
11322.796	-0.54558	2.86611	1.16538	2.60479
11326.796	-0.64814	3.05165	1.46688	2.60403
11330.797	-0.84131	3.18427	0.82642	3.31218
11334.762	-0.96030	3.57096	0.72186	3.20997
11338.787	-0.03363	2.55821	-0.65903	3.79197
11342.797	-0.09465	3.15372	-0.21797	3.51002
11346.796	-0.30533	2.89917	1.28668	3.01751
11350.698	-0.64044	2.88840	-3.27979	5.96116
11354.802	-0.58056	2.88129	1.05168	2.92377
11358.801	-0.58213	2.52991	1.58981	1.52196
11362.796	-0.32441	2.71627	1.30030	1.69411
11366.802	-0.77523	2.70657	1.13935	3.42051
11370.811	-0.71729	2.78266	1.08098	3.56951
11374.797	-0.62359	2.86079	0.42120	3.76105
11378.770	-0.60622	2.37788	-0.66752	3.83862
11382.764	-0.66159	2.60369	-0.69298	3.69189
11386.796	-0.87495	2.55533	-1.04367	3.00999
11390.799	-0.69099	2.44533	0.30421	4.21973
11394.799	-0.52039	2.26807	1.93048	3.55326
11398.704	-0.58049	1.78286	-0.49949	0.80018
11402.801	-0.59665	1.84265	2.18211	1.06722
11406.790	-0.96852	1.81253	1.55655	0.96452
11410.798	-1.34130	2.01627	1.97498	3.58067
11414.698	-0.51394	3.92550	1.95158	2.09507
11418.800	-0.58853	4.29192	1.07284	2.54070
11422.797	-0.75928	3.66343	0.80985	1.45759
11426.798	-0.86639	2.77966	1.18304	0.96877
11430.803	-0.85290	2.82431	0.71231	0.92091
11434.799	-0.82580	2.48722	0.69513	0.00201
11438.798	-0.89572	2.14210	0.09793	0.88396
11442.799	-1.15191	2.12918	-0.07242	0.99975
11446.802	-0.98770	2.42627	-0.40169	1.98828
11450.762	-0.50818	2.96980	-0.78943	3.03681
11454.801	-0.65094	2.80414	-0.95336	3.46386
11458.799	-0.68665	2.74604	-1.01551	2.93102
11462.702	-0.84126	2.95205	-0.80186	2.61583
11466.800	-0.72814	2.66656	-0.97209	2.41656
11470.800	-0.69506	2.49399	-0.90634	2.48355
11474.798	-0.55530	2.56315	-1.12556	2.45221
11478.697	-0.62630	2.64911	-0.66692	2.70859
11482.799	-0.18923	2.99411	-0.37658	2.44154
11486.802	-0.30245	2.85899	0.52230	2.08704
11490.798	-0.35375	1.94237	-1.37962	1.61959
11494.803	-0.73213	-0.04117	-1.72656	-1.31990
11498.799	-0.85855	-0.80994	0.32000	-2.79741
11502.780	-1.63809	-0.97163	0.29635	-1.61457
11506.800	-0.68213	-1.02301	0.61744	-2.35434
11510.804	-1.28961	-1.72010	-0.22765	-3.14461
11514.799	-1.86119	-2.85433	-0.09190	-5.08700
11518.762	-1.31223	-2.88757	-1.61689	-5.46962
11522.801	-1.65262	-3.08456	-1.36528	-5.84186
11526.702	-1.72483	-2.91497	-0.86183	-5.99172
11530.800	-1.80231	-2.92686	-1.17652	-5.86918
11534.802	-2.01407	-2.34410	-1.29873	-7.02419
11538.804	-1.88926	-2.09849	-1.21938	-5.35119
11542.697	-2.27580	-2.31038	-1.41137	-3.70027
11546.792	-1.96209	-2.22694	-1.08336	-5.41946
11550.802	-2.08711	-2.82687	-1.03687	-6.79833
11554.800	-1.99865	-2.00919	-1.30699	-4.39577
11558.702	-2.33960	-2.41562	-1.35665	-4.71264
11562.800	-2.07710	-1.96802	-1.19204	-5.77618
11566.802	-2.01181	-2.59468	-1.31240	-7.15690
11570.800	-1.96824	-2.47833	-1.38828	-3.87082
11574.699	-1.98100	-1.99590	-1.02245	-3.56787
11578.803	-1.96256	-1.98800	-1.32726	-4.42366
11582.804	-1.94806	-2.11524	-1.57478	-5.24418
11586.765	-1.80025	-1.93041	-1.11906	-5.10258
11590.671	-1.79624	-2.35359	-1.52910	-5.71757
11594.799	-1.73770	-2.16102	-1.37565	-5.85236
11598.769	-1.72676	-2.01129	-1.50043	-5.68887
11602.803	-1.63450	-1.98586	-1.50442	-5.07134
11606.767	-1.59477	-1.73029	-1.84525	-5.22276
11610.808	-1.78915	-1.72610	-1.60690	-4.43234
11614.801	-1.53195	-1.29689	-1.64310	-3.33431
11618.802	-1.65287	-2.22816	-1.54353	-7.01235
11622.808	-1.53872	-2.13435	-1.36337	-7.91865
11626.787	-1.65146	-1.74186	-1.09713	-6.52277
11630.798	-1.66832	-1.21160	-1.29749	-5.41931
11634.803	-1.86444	-1.12284	-1.73715	-4.20568
11638.703	-1.60588	-1.86277	-1.43520	-3.11613
11642.801	-1.63665	-2.54130	-1.99813	-3.97461
11646.802	-1.57634	-2.45031	-1.28727	-4.86291
11650.802	-1.79066	-2.63732	-1.12144	-5.20472
11654.700	-1.80905	-2.69008	-0.57285	-7.20060
11658.680	-2.10753	-2.55157	-1.04917	-6.65959
11662.677	-2.03020	-2.90881	-0.79121	-4.39397
11666.676	-2.11390	-2.68362	-1.36347	-3.16633
11670.668	-2.11998	-0.92675	-0.76657	-4.55486
11674.652	-2.05038	-0.83441	-1.14201	-4.71206
11678.678	-1.64429	-0.90272	-1.04042	-4.55770
11682.678	-1.81037	-2.41214	-0.80697	-5.93727
11686.677	-2.23127	-2.42906	-1.04806	-6.13723
11690.677	-1.68240	-2.41066	-1.40599	-5.74183
11694.679	-1.75143	-0.49602	-0.66749	-3.89371
11698.678	-2.21576	-1.50481	-1.47404	-4.40010
11702.672	-1.86427	-0.98202	-0.87525	-5.82378
11706.638	-1.96273	-1.42313	-1.08798	-7.10364
11710.686	-1.85921	-1.86776	-0.47478	-6.95744
11714.642	-1.61617	-1.83137	-0.34042	-7.71371
11718.679	-1.63673	-1.70963	-2.97059	-5.97326
11722.676	-1.75247	-1.63310	0.23775	-4.12153
11726.681	-1.75902	-1.90969	0.43405	-5.50785
11730.676	-1.69616	-1.88693	0.51833	-5.37299
11734.672	-1.80633	-1.75231	0.46110	-5.46989
11738.679	-1.82400	-1.63584	0.65399	-5.07886
11742.680	-1.70762	-1.57950	0.45338	-7.31524
11746.677	-1.67301	-1.77090	-0.08785	-7.53490
11750.678	-1.65116	-1.70890	-0.28838	-6.84788
11754.678	-1.61243	-1.65930	0.01988	-7.34836
11758.644	-1.62931	-1.51290	0.38948	-6.28831
11762.678	-1.58822	-1.40102	0.49019	-6.40974
11766.702	-1.49361	-1.24557	0.27662	-6.28288
11770.678	-1.57766	-1.38003	0.18993	-5.41428
11774.642	-1.60786	-1.51254	-0.52776	-6.23599
11778.679	-2.93116	-1.40747	-0.48825	-6.36913
11782.703	-3.16448	-1.45430	-0.53964	-6.30384
11786.678	-1.63224	-1.38739	-0.65508	-6.50583
11790.679	-1.47154	-1.18934	-0.77419	-6.37023
11794.682	-1.54158	-1.25284	-1.02630	-6.76880
11798.678	-1.58363	-1.29924	-0.67017	-6.33842
11802.680	-1.73767	-1.62969	0.31188	-6.56516
11806.680	-1.65857	-1.47003	-1.04801	-5.58369
11810.684	-1.76641	-1.33854	-0.76769	-6.67086
11814.674	-0.76637	-1.10736	-0.82272	-5.96450
11818.679	-1.63184	-0.51594	-0.16581	-4.60238
11822.680	-1.21963	1.23570	0.62039	-3.61407
11826.681	-1.50214	-0.21298	0.25584	-2.00211
11830.681	-1.13352	0.17992	0.50743	-1.85099
11834.679	-0.87882	-0.75767	1.27147	-2.10336
11838.682	-0.18901	-0.75547	0.71776	-1.66047
11842.669	-0.53786	-0.84211	0.80945	-1.42156
11846.685	-0.51426	-0.16340	0.70305	-1.35435
11850.683	-0.86590	-0.13119	0.82538	-0.96420
11854.681	-0.71335	0.01869	0.88341	-0.68103
11858.681	-0.79027	0.37021	0.97033	0.19372
11862.703	-0.40919	0.17160	0.85173	1.07177
11866.680	-0.47510	0.31075	-0.16486	-0.29252
11870.679	-0.50225	0.45526	0.06954	-3.17037
11874.682	-0.40762	0.64959	0.50133	-3.18613
11878.681	-0.48914	0.75994	0.59682	-3.34429
11882.644	-0.17717	0.58306	0.66876	-3.09219
11886.681	-0.31260	0.57878	0.91875	-2.55099
11890.680	-0.41688	0.76372	1.60814	-0.34844
11894.705	-0.01501	0.67698	1.76807	-0.81588
11898.681	-0.32129	0.82569	1.47804	-0.06801
11902.682	-0.42874	0.82528	1.34375	-0.53673
11906.693	-0.55141	0.77946	1.16401	-1.24779
11910.642	-0.39489	0.56531	0.58109	-1.72529
11914.683	-0.38988	0.41076	1.30677	-1.64761
11918.682	-0.29548	0.33150	1.61776	-2.53875
11922.667	0.19464	-0.17851	0.96145	-5.24163
11926.674	0.16444	0.23810	0.71692	-3.20802
11930.681	-0.05979	0.89619	1.39931	2.75461
11934.682	-0.83220	1.35013	1.50460	1.35989
11938.682	-1.23327	1.19681	1.31146	0.57449
11942.674	-0.87436	0.78611	1.35556	0.97526
11946.681	0.10597	0.85313	1.69237	0.49911
11950.681	0.24438	1.10559	1.52942	0.45936
11954.680	0.06311	1.37839	2.01984	-0.60011
11958.681	-0.98174	1.12076	1.39076	0.22201
11962.687	-1.06064	1.20664	1.58629	0.16707
11966.644	-0.35792	-0.26434	1.90532	0.37963
11970.684	-0.31330	0.69253	1.74692	0.91278
11974.723	0.11026	-0.13719	1.58115	1.06791
11978.681	0.02077	-0.52915	1.24731	-4.03148
11982.682	-0.17179	-0.48852	1.14469	-4.27964
11986.682	-0.28960	-0.02363	1.08222	-3.96165
11990.674	0.08915	0.32716	1.56752	-3.48042
11994.685	0.18569	0.40419	1.54148	-3.18711
11998.686	0.01770	-0.07639	1.32347	-1.77220
12002.685	0.18755	0.29769	1.22916	-2.23287
12006.650	0.46557	0.63192	1.09051	-2.13143
12010.689	0.05646	1.33932	1.15979	-1.92457
12014.683	-0.23363	1.53758	1.36923	-1.83979
12018.682	-0.27299	1.58120	1.50003	-2.48013
12022.674	-0.45080	1.19640	1.57498	-1.78803
12026.685	-0.21395	0.93541	1.46720	-1.98435
12030.685	-0.12322	1.24827	1.22080	-2.36582
12034.683	-0.09927	0.81569	0.84945	-3.86359
12038.704	-0.27242	0.64455	-0.48562	-2.19588
12042.687	-0.23386	0.57561	-0.10565	-3.64868
12046.681	-0.26366	0.38142	1.31952	1.29338
12050.676	-0.19517	-0.07611	1.36613	0.72878
12054.674	-0.04001	-0.70330	1.54108	0.23528
12058.681	0.02132	-0.63298	1.66100	-0.52048
12062.647	-0.00221	-0.31424	1.47511	-1.04579
12066.683	0.04964	0.67440	1.46157	-2.19877
12070.675	-0.41015	0.78919	1.51653	-1.74135
12074.683	-0.71799	1.47912	2.13668	-2.36387
12078.684	-0.51458	1.36619	1.69297	-2.20403
12082.686	-0.36481	1.31605	1.63083	-1.59091
12086.679	-0.80975	1.54606	1.82264	-2.24465
12090.647	-0.23185	1.22228	2.15341	-1.47628
12094.686	-0.32508	1.31834	1.91229	-3.49535
12098.687	-0.25555	1.30385	2.24265	-2.83770
12102.681	-0.05559	1.15163	2.25613	-3.10699
12106.686	0.04847	1.24221	0.43487	-3.34945
12110.689	-0.10031	1.29335	-0.29836	-2.76375
12114.689	-0.02670	1.28657	0.54684	-3.90480
12118.696	-0.17891	1.19641	1.55234	-4.05041
12122.683	-0.26264	0.99808	1.11690	-3.79796
12126.688	-0.21154	1.03860	2.07626	-3.95806
12130.673	-0.11307	1.08965	2.17467	-3.97839
12134.684	0.32608	0.96074	1.84823	-3.86399
12138.683	0.74367	1.07923	1.33626	-3.48872
12142.684	0.85349	1.00580	1.38158	-3.63394
12146.684	-0.02718	1.17796	1.72126	-3.60736
12150.678	-0.17325	1.00420	1.67477	-3.14431
12154.685	-0.37415	0.80236	1.90480	-3.43346
12158.685	0.85756	0.22993	1.83563	-2.67453
12162.686	1.37367	0.48264	1.43094	0.10376
12166.684	1.40046	1.15876	2.02416	0.13341
12170.684	1.74320	2.13674	2.21065	0.06473
12174.653	3.30304	2.73158	4.23155	0.62157
12178.685	2.15252	3.06321	2.94963	2.97931
12182.680	2.13433	3.16582	2.81989	1.94299
12186.685	2.33009	2.99248	2.59755	3.31244
12190.685	2.28437	2.91353	2.87472	1.58769
12194.684	2.26024	3.00020	2.59846	1.81308
12198.676	2.58172	2.95473	5.07887	-0.40067
12202.687	2.14156	2.95130	3.01918	1.87547
12206.650	2.02346	3.05707	0.76667	-0.30902
12210.689	2.27389	3.04204	0.46602	-0.23193
12214.655	2.30092	3.10517	0.57382	0.24617
12218.682	2.28715	3.25639	1.15406	0.26345
12222.686	2.50930	3.22376	0.42043	-0.07214
12226.687	2.20770	4.02888	0.42428	0.32052
12230.689	2.09901	4.23540	0.76275	0.38992
12234.686	2.17807	3.57262	0.96894	0.54815
12238.685	1.83769	3.46276	1.13149	0.83513
12242.686	1.83097	3.37212	1.39101	0.46394
12246.687	1.96960	3.47400	1.63477	0.27248
12250.688	1.92156	3.29386	4.00477	2.46931
12254.686	2.27332	3.31269	3.89866	0.95573
12258.681	2.51076	3.12523	0.59258	3.07281
12262.686	1.99863	3.30049	0.17410	3.13285
12266.683	1.78820	3.17098	0.93716	2.20336
12270.686	2.04651	2.89070	0.76618	1.96107
12274.649	2.08937	2.18778	0.99541	1.63101
12278.685	2.05844	2.20057	1.15086	1.00025
12282.687	2.27592	2.42195	0.46805	2.04028
12286.674	2.34592	2.16477	0.71970	1.55922
12290.689	2.22602	2.24994	0.30957	1.81318
12294.687	2.27714	2.11985	0.45884	1.63771
12298.662	2.33913	2.05248	0.66987	1.77593
12302.687	2.40989	2.15361	0.30903	1.81075
12306.654	2.49924	1.89806	0.61603	2.00000
12310.690	2.38060	1.81055	0.39075	1.95348
12314.692	2.38477	1.83545	0.70052	2.09119
12318.688	2.32662	1.85309	0.68647	1.69437
12322.688	2.33380	2.07049	0.93262	1.66160
12326.691	2.55720	2.09147	1.28048	1.88542
12330.687	2.72449	2.11308	1.81067	2.05957
12334.689	2.70116	2.36849	2.40570	2.20362
12338.650	2.85774	2.43777	5.72394	2.48170
12342.588	2.91215	2.87762	-0.02762	4.08952
12346.688	2.09346	3.34497	0.72578	4.11273
12350.686	1.75657	2.83561	2.60951	2.66505
12354.687	2.25724	2.68341	2.55584	3.18687
12358.693	2.39089	2.97306	2.58170	4.31763
12362.686	2.56000	2.99516	2.58833	2.84069
12366.687	2.74851	3.05888	2.94275	2.67772
12370.688	2.46957	2.93240	5.91811	1.54459
12374.589	2.68878	2.78091	2.81595	2.59807
12378.688	2.67454	2.64235	3.19645	2.49401
12382.660	2.68896	2.47230	3.62311	2.14175
12386.691	2.61823	3.39487	3.35434	1.88071
12390.588	2.45671	3.46888	2.75769	2.35438
12394.691	2.57605	3.87436	2.54256	2.34512
12398.690	2.68499	3.56169	2.41261	1.74607
12402.652	2.65669	3.63318	2.95609	1.26661
12406.691	2.63507	3.64036	2.25283	1.67631
12410.688	2.72669	3.44329	1.80972	1.44140
12414.696	2.83752	2.79571	1.91861	1.22707
12418.693	2.86061	2.94776	2.77141	1.65626
12422.671	2.71149	2.51093	2.17621	1.36241
12426.689	2.39956	1.56604	2.09960	1.22713
12430.690	2.27917	2.87243	2.36899	1.17576
12434.689	2.26455	2.62599	1.41286	1.04807
12438.590	2.87185	2.44385	1.69612	0.84782
12442.652	2.92881	2.35732	1.47305	0.46909
12446.688	2.42938	2.17136	2.16062	2.67221
12450.691	3.01123	1.73690	2.25266	1.69889
12454.588	2.38313	2.00684	2.76673	1.73272
12458.649	2.83752	1.81389	5.32009	0.48204
12462.688	3.13113	1.72912	1.05079	0.38000
12466.684	2.95790	1.84615	0.50168	0.39722
12470.588	3.13551	1.88637	1.00573	1.16466
12474.689	2.42366	2.10767	0.97755	1.24300
12478.689	2.39787	2.17245	0.68789	1.95676
12482.689	3.35259	2.22453	0.74317	1.91403
12486.588	3.04373	2.33225	0.48448	2.39921
12490.691	2.42443	2.96345	0.16407	1.92575
12494.689	2.33586	2.93967	0.48758	1.94763
12498.688	2.48696	2.77803	0.91639	2.29605
12502.593	2.72857	2.83950	1.19708	2.06871
12506.653	2.65976	2.78221	0.52855	2.16108
12510.690	2.24545	2.83385	1.39225	2.01875
12514.699	2.68071	2.72176	1.10690	1.99969
12518.693	2.38043	2.83992	1.57535	2.21354
12522.689	2.55153	2.92764	1.69341	1.92469
12526.691	2.09606	2.58262	1.76886	1.69867
12530.690	2.31304	2.13440	1.86283	2.10358
12534.692	2.27897	2.48762	1.24146	-0.16891
12538.692	2.41876	2.53539	0.06065	4.41291
12542.696	2.33071	2.82266	0.30893	2.67199
12546.675	2.26311	2.66953	0.20842	3.34111
12550.589	2.01689	3.15430	4.50029	2.94536
12554.690	2.19172	3.38538	4.61018	3.01430
12558.692	2.02641	3.08510	2.26943	3.09669
12562.690	2.20181	2.79903	2.30291	2.39362
12566.589	1.97024	2.59135	1.58029	2.98303
12570.694	1.40817	2.83212	0.82017	1.24589
12574.694	0.55118	2.42000	0.11314	2.78201
12578.690	-0.47249	2.51914	0.35196	4.90669
12582.589	-0.42122	2.29472	0.09696	5.27022
12586.693	-0.80176	2.83109	0.62332	5.29426
12590.659	-0.75377	3.30159	0.68578	5.45172
12594.692	-0.41281	4.04232	-0.50813	5.36462
12598.692	-0.66697	4.25218	0.78238	2.85708
12602.691	-0.89813	2.99468	0.63389	5.30861
12606.655	2.18263	2.45898	0.94738	4.55218
12610.692	2.36272	2.39577	3.58915	5.16036
12614.694	2.18577	2.43260	1.31793	3.91329
12618.697	-0.91210	3.30034	3.14951	2.88514
12622.692	-1.28025	3.45110	1.22893	2.44522
12626.694	-3.31351	3.94558	1.55965	2.48209
12630.596	-0.22842	2.98020	1.05275	1.44989
12634.693	-0.28431	2.86787	1.06337	1.15657
12638.693	-0.93681	3.60590	-0.61397	4.85100
12642.696	-0.73198	3.27526	-0.85228	4.69658
12646.593	-0.71116	3.15375	-2.13395	3.57448
12650.656	-0.38993	2.72902	-3.32624	4.35909
12654.693	-1.16714	2.85740	-4.24660	4.32592
12658.695	-0.60369	1.81991	-3.27274	3.86964
12662.593	-0.49490	3.02883	-2.95455	1.90456
12666.691	-0.97700	3.29726	3.82541	4.05985
12670.689	-1.71322	3.10180	3.50180	3.25755
12674.655	-0.63392	3.13183	NaN	NaN
12678.591	-0.72811	3.09072	0.72454	4.26441
12682.691	-0.71089	2.90635	-1.96040	4.44379
12686.566	-1.07039	2.81739	0.78240	3.94757
12690.567	-0.69804	2.82000	0.68878	3.92975
12694.569	-0.78359	2.96520	0.53850	3.93688
12698.566	-1.02245	3.00555	0.62203	3.89278
12702.568	-0.77382	2.92261	0.56848	4.18130
12706.530	-0.74136	2.93247	0.59354	4.02955
12710.695	-0.44572	2.90948	0.52103	4.11722
12714.533	-1.16892	2.89553	0.57605	4.08774
12718.554	-1.13655	2.80828	0.53515	4.15621
12722.532	-1.34730	2.97653	0.39924	4.14512
12726.696	-1.32421	2.59472	3.09453	0.92713
12730.567	-1.59658	2.42371	1.02603	1.19349
12734.568	-1.79264	2.46787	1.26368	1.07101
12738.570	-1.96705	2.52250	1.16369	1.09909
12742.562	-1.87081	2.42167	1.25148	1.24102
12746.570	-1.61585	2.32824	1.77881	1.30509
12750.570	-1.73160	2.23117	0.96229	1.46279
12754.569	-1.81669	2.13866	1.08215	1.01835
12758.694	-1.63871	2.39869	-0.07994	1.55550
12762.568	-1.57716	2.31554	1.57743	0.82733
12766.567	-1.61907	2.25746	-0.28289	0.77216
12770.572	-1.68203	2.25479	-0.44949	1.45553
12774.570	-1.57178	2.59352	-0.73307	1.72943
12778.570	-1.52501	2.54578	-0.81972	3.62193
12782.568	-1.59995	2.58166	0.36196	4.47838
12786.569	-1.59995	2.41979	0.05996	4.37334
12790.592	-1.42340	2.28577	0.69255	2.47760
12794.569	-2.37909	2.53527	0.59516	1.63603
12798.569	-1.16002	2.33122	0.72335	0.76671
12802.551	-1.19532	2.54662	1.62711	2.86831
12806.569	-1.64915	2.61178	1.73056	2.70266
12810.533	-1.16987	2.82000	0.87806	3.19673
12814.568	-1.16659	1.68314	1.39532	1.97605
12818.573	-1.66085	2.00302	1.32974	1.14697
12822.562	-0.95385	2.36003	0.05008	1.81683
12826.570	-1.43312	1.25667	-0.02995	1.77850
12830.573	-1.22600	2.66626	0.61488	1.28888
12834.572	-0.57994	1.20013	0.54193	4.13661
12838.572	-2.16694	1.68752	0.61141	1.49515
12842.534	-1.83023	2.92379	-0.67719	2.10371
12846.572	-2.92037	2.63506	0.29649	3.95149
12850.572	-1.19331	2.13357	0.41199	1.85643
12854.566	-2.48220	3.00972	0.63449	1.67718
12858.574	-1.51938	2.02375	-0.16290	1.99085
12862.571	-1.24940	2.02078	0.41395	2.39400
12866.572	-2.00973	2.88457	-0.28657	1.17836
12870.595	-2.76366	2.16087	-0.09165	4.55595
12874.574	-2.07259	2.97719	0.51317	1.96598
12878.534	-1.34088	2.09774	0.74928	2.08797
12882.570	-1.38448	2.19217	0.28217	1.92658
12886.593	-1.80474	2.65437	0.82741	1.91764
12890.570	-2.00653	2.57491	-0.74958	2.38280
12894.571	-2.16488	2.99034	0.39278	5.16577
12898.571	-1.16446	2.73303	0.09024	1.67756
12902.538	-1.88229	2.22310	-1.20417	2.42650
12906.571	-1.32213	2.64152	1.37895	0.78578
12910.571	-0.83185	2.46413	-1.57292	5.22098
12914.572	-1.69316	2.56857	0.63449	2.03953
12918.575	-1.65282	2.46532	0.01921	1.85710
12922.577	-2.48443	2.70653	0.18742	2.63009
12926.556	-2.66115	2.45531	0.85721	2.97727
12930.570	0.14888	2.37074	0.74881	1.22179
12934.563	-3.21849	3.21480	-1.42375	1.15994
12938.576	-1.69126	2.68123	-3.09614	1.26332
12942.575	-1.52885	2.31654	-1.97649	3.19736
12946.575	-2.35761	2.32517	0.44207	0.63855
12950.571	-1.98353	2.40151	0.79223	3.22783
12954.576	-2.62813	2.30144	-1.75525	3.08380
12958.572	-1.36722	2.83981	-1.75862	3.33070
12962.573	-1.61414	2.62519	0.68856	2.69348
12966.569	-3.68661	3.25489	0.99392	2.75083
12970.568	-1.43496	2.57293	0.91001	1.27352
12974.575	-3.72936	3.30624	0.87510	2.85890
12978.571	-3.82516	3.04733	1.24488	2.84255
12982.599	-3.85879	3.57793	0.47056	2.66924
12986.571	-0.21539	3.57921	1.14293	2.78783
12990.573	-1.57252	3.76090	1.09782	3.28829
12994.573	0.67719	3.24510	0.93934	3.35140
12998.572	0.55352	-0.74426	1.01876	3.53642
13002.572	NaN	NaN	-1.24049	2.83006
13006.537	-1.52129	2.59509	-1.19921	3.31804
13010.574	-1.47513	2.96133	-2.41883	2.21567
13014.597	-2.00916	3.06683	-1.23156	0.61525
13018.571	-1.76559	2.38348	-1.16575	1.41845
13022.574	-1.80640	1.77132	-1.25535	2.68715
13026.539	-2.03367	2.28129	0.99333	2.41613
13030.596	-1.93824	2.35273	0.71945	5.19311
13034.573	-2.08161	2.61384	0.55900	5.92535
13038.575	-1.88246	2.42421	0.68320	5.63716
13042.576	-1.80677	2.24244	0.31900	5.97227
13046.567	-1.87537	2.50305	0.47698	4.98549
13050.573	-1.80834	2.57087	0.65828	-0.22412
13054.576	-1.83000	2.47496	0.68454	-0.89622
13058.573	-1.52694	2.57649	-1.27470	-0.82386
13062.565	-1.15491	2.44544	0.54133	2.70203
13066.573	-1.73780	2.69717	0.58409	2.57020
13070.574	-1.71920	2.44986	-1.88132	2.59225
13074.573	-1.89461	3.27864	-1.05533	2.24977
13078.599	-1.65927	3.02783	-0.77243	2.19718
13082.572	-1.11698	2.69274	-0.44467	2.90688
13086.573	-1.41020	2.63704	1.14861	4.61493
13090.572	-1.48210	2.77179	0.68764	3.95210
