time (ms)	lx (deg)	ly (deg)	rx (deg)	ry (deg)
0.000	-0.09215	3.79744	1.85457	-0.43614
3.976	-0.11635	3.72769	2.32815	0.03647
8.006	-0.14836	3.88038	3.41783	0.64411
12.005	-0.15114	3.65597	2.43620	-0.40651
16.008	-0.38301	3.71554	2.80350	-0.41435
20.006	-0.18030	3.70068	2.19316	-0.41437
24.012	-0.01511	3.58267	2.59453	-0.41102
28.005	-0.15928	3.64533	2.40147	-0.48591
32.004	-0.11421	3.61051	2.09737	-0.62834
35.967	-0.14379	3.66453	2.10067	-0.73776
40.008	0.28572	3.57540	2.28546	-0.79749
43.992	0.21899	3.56767	2.39019	-0.84869
47.989	0.46584	3.64025	2.30301	-0.85781
52.008	0.21986	3.54792	2.64557	-0.83076
56.007	-0.08113	3.46553	2.38930	-1.11712
60.008	0.36474	3.38677	2.18895	-1.04795
63.998	0.30583	3.34987	2.25518	-1.38755
67.969	0.29295	3.32140	1.93031	-1.33392
72.007	0.37008	3.34086	1.67831	-1.46967
76.009	0.51031	2.93434	2.05809	-1.55832
80.004	0.31746	3.07486	0.20013	0.24687
84.018	0.03288	3.02183	3.64160	0.38996
88.002	-0.54463	3.15735	3.03992	0.65100
92.006	-0.61667	3.02052	3.31076	0.64951
96.006	-0.64337	2.99407	3.68414	0.79626
100.007	0.10545	2.63005	3.21688	-0.21173
104.008	-0.18132	2.93769	1.87902	-0.28876
108.006	-0.14412	2.98052	2.11670	0.33761
112.006	0.41080	2.99143	1.57696	0.21563
116.010	0.02149	2.90476	1.61101	0.45030
120.007	0.05271	3.17696	1.32215	0.53971
124.013	1.08001	2.97749	1.68969	0.62093
127.968	0.47756	3.08675	2.47576	0.41578
132.008	0.26669	3.19303	1.78381	0.30857
136.007	1.33339	3.14452	2.02505	0.33488
140.007	0.95884	3.23299	1.41291	0.37863
144.011	1.01985	3.17269	1.71022	0.46031
148.008	0.86131	3.17955	1.50410	0.71053
152.010	1.04034	3.01373	1.52213	0.70836
156.009	0.91324	3.19100	1.11199	0.76348
160.006	0.91579	3.21921	1.70274	0.80011
163.972	1.33927	3.13733	1.14925	0.91575
167.997	1.22109	3.13948	0.74417	0.92773
171.999	0.64461	3.10479	0.95011	0.82733
176.001	0.63153	3.08102	0.26599	0.75226
180.009	0.90386	2.94085	0.45621	0.54543
184.009	0.77484	2.85290	0.55957	0.20355
188.011	0.61871	2.74761	0.35459	0.25254
192.000	0.45061	2.65372	0.56332	0.21054
196.008	0.55736	2.46844	0.96308	0.44177
200.009	0.28672	2.26861	1.56008	0.47870
204.011	0.29024	2.18147	1.91355	0.11643
208.028	0.16251	2.00559	3.28689	1.13245
211.976	0.17467	1.89122	3.33438	1.18050
216.013	0.21629	1.81342	3.16438	0.56717
220.008	-0.07244	2.00714	2.37354	0.58947
224.002	-0.32444	1.81365	1.66668	1.48648
228.009	-0.61337	1.91842	2.13205	1.43134
232.009	-2.64527	1.89893	2.06498	1.92225
236.010	-2.02644	1.78975	2.11606	1.52647
240.001	-1.93356	1.51937	1.90986	1.58898
244.008	-2.02572	1.88595	2.03122	0.84468
248.011	-2.21957	1.86965	1.78352	1.94817
251.993	-2.15383	1.94384	1.90026	0.98686
256.003	-1.99796	1.99109	1.86424	-0.85998
260.010	-2.19673	2.02868	1.89288	-0.26502
264.009	-2.09797	2.05530	1.53721	-2.21931
267.972	-2.01969	2.01321	1.48181	-1.90179
272.009	-2.01000	1.96456	1.35906	-1.78835
276.011	-1.99533	1.97956	1.65545	-1.66175
280.013	-2.07678	2.00637	1.53347	-1.39657
284.012	-2.04641	2.04123	1.54569	-1.65077
287.977	-2.06805	2.04286	1.62872	-1.36286
291.973	-1.94652	2.05237	1.48781	-1.61147
296.005	1.10894	2.14204	1.43860	-1.18769
300.014	0.96100	2.13829	1.27363	-1.23505
304.010	1.11286	2.13740	1.22968	-0.99813
308.011	1.03873	2.15829	1.21154	-1.04359
312.012	1.36221	2.30612	1.31377	-0.74931
316.009	1.01933	2.45075	1.17828	-0.61158
320.001	0.91043	2.30382	1.07743	-0.64219
324.010	0.78714	2.35304	0.54461	-0.60659
328.012	0.72164	2.34975	0.79407	-0.40969
332.012	0.73265	2.24359	0.43165	-0.20428
336.015	0.38616	2.46869	0.62796	-0.34175
340.011	0.19983	2.32692	0.25378	-0.16388
344.010	0.91994	2.18595	0.24748	0.06078
348.011	0.34585	2.23302	0.34397	0.02669
352.013	0.09748	2.29935	0.21405	0.36291
356.009	0.17151	2.25007	0.00395	0.23810
360.009	0.09493	2.15469	0.26240	0.07487
364.015	0.03249	2.15959	0.28314	0.13187
368.011	0.15293	1.98750	0.12960	0.10059
372.013	0.10215	2.02694	0.07934	0.04282
376.002	-0.15891	2.13283	0.20817	0.02053
380.004	0.08269	1.99403	0.16839	0.06779
384.019	-0.11096	2.04034	0.27297	0.10889
388.015	-0.11143	1.95638	0.27753	-0.40297
392.013	-0.16149	1.86503	0.25351	-0.22302
396.011	-0.13526	1.93573	0.25847	-0.36115
399.985	-0.11208	1.58765	0.17884	-0.72203
404.012	-0.00020	1.60955	-0.03869	-0.33934
408.013	-0.08302	1.54246	0.48914	-0.36072
412.011	0.03065	1.44008	0.18551	-0.87708
416.004	-0.02129	1.68548	0.17571	-0.82622
420.012	-0.09721	1.44961	-0.04348	-1.03831
424.012	0.29270	1.63605	0.08897	-0.98072
428.012	0.50870	1.20936	0.07468	-1.39083
432.018	0.29391	1.62445	0.08897	-0.92940
436.012	0.67248	1.11486	-0.14464	-0.89902
440.013	0.21289	1.14091	-0.30461	-0.88313
444.015	0.56409	1.32558	0.20993	-0.65174
448.019	0.52376	1.95710	-0.04450	-0.99657
452.013	0.31940	1.15941	0.15057	-1.05055
456.015	0.37080	0.96279	0.24103	-1.10013
459.993	0.40316	1.12833	0.25986	-0.86651
463.989	0.07167	1.32375	0.11644	-1.02020
468.015	0.13253	1.21171	0.06440	-0.80071
472.011	0.30764	1.19620	0.03365	-0.66888
476.014	0.11917	1.55569	0.03266	-0.79959
480.017	-0.19904	1.32374	0.07376	-0.66583
484.012	0.00149	1.47417	0.17797	-0.61579
488.013	-0.18593	1.41663	0.39536	-0.65510
492.017	-0.24453	1.36156	0.19866	-0.71350
496.018	-0.27098	1.53703	1.40276	-0.67591
500.014	-0.15762	1.53950	1.16969	-0.50025
504.010	-0.23125	1.33353	1.13717	-0.66013
508.015	-0.16814	1.46925	1.52803	-0.50849
512.019	-0.20705	1.64376	1.25051	-0.47648
516.014	-0.22343	1.47508	1.74194	-0.32413
520.013	-0.19827	1.37754	1.91883	-0.27502
524.013	0.08401	1.58167	2.14734	-0.22406
528.017	-0.14886	1.67822	0.34660	-0.20284
532.013	-0.15690	1.67944	0.08982	-0.30214
535.977	-0.03013	1.76716	-0.18886	-0.26653
540.015	-0.05229	1.56409	-0.05120	-0.24315
543.976	-0.03891	1.42630	-0.09962	-0.34985
548.018	-0.05964	1.37208	-0.04169	-0.44260
552.018	-0.00834	1.22835	-0.21102	-0.91176
556.014	0.14012	1.48907	-0.15995	-1.68473
559.913	0.18737	1.37061	0.82597	-1.05243
564.013	0.65136	1.10200	2.09489	-0.66501
567.978	0.61275	1.53378	2.08339	-0.51343
572.014	0.27897	1.74105	2.41544	-0.72556
575.915	0.50101	1.60150	3.01391	-0.98220
579.983	0.28342	2.50580	3.02353	-0.69299
584.002	0.55617	2.24139	3.00688	0.45599
588.005	0.34814	2.86736	1.99248	2.36798
591.918	0.15806	2.44942	3.22636	0.46292
596.014	0.18745	2.81618	1.91558	1.40951
600.017	0.36333	2.19929	2.14736	0.93692
603.975	0.12158	2.09876	2.36021	1.10258
608.020	0.08205	2.25950	2.57330	1.15861
611.977	0.34558	2.21456	2.35305	1.65754
616.014	-0.19497	2.35580	2.24557	1.65216
620.017	0.23373	2.14309	2.28507	1.50650
623.915	-0.10838	2.47423	1.88873	1.54133
627.980	-0.07753	2.35234	1.98259	1.52255
632.018	0.05338	2.49876	2.30551	0.89633
636.017	0.29672	2.35558	2.29805	0.64456
639.915	-0.13225	2.47457	2.35315	1.03215
644.017	0.23440	2.65210	2.49377	1.13098
648.020	0.28359	2.36908	2.56203	0.42315
652.015	0.40668	2.19459	2.62311	0.08139
655.912	0.23892	1.94614	2.33056	-0.42538
660.017	0.17645	2.27428	2.34592	0.00891
663.976	0.14553	1.84773	1.89726	0.11265
667.978	-0.07090	1.87266	2.65278	0.05905
672.018	-0.38375	1.72248	2.29780	-1.45033
676.017	-0.46569	1.96721	1.86828	-0.74106
680.016	-0.41710	1.90451	1.87515	-1.11025
684.019	-0.52674	1.65795	2.31978	-1.24906
688.021	-0.19256	2.21935	1.85871	-1.24280
692.017	-0.39591	2.43518	1.93814	-1.16572
696.020	-0.30687	2.06025	2.19752	-2.13558
700.019	-0.22438	2.29541	1.96097	-2.18654
703.916	0.03425	2.66895	1.63147	-1.31276
708.014	1.15287	2.11085	1.26669	-1.70845
712.019	0.26391	2.00975	1.69073	-1.01625
716.017	0.95179	2.05533	1.26058	-0.91651
719.920	0.38603	2.32232	1.28852	3.10014
724.013	1.23020	1.96315	1.33448	2.68006
728.019	-0.01169	2.30491	1.27281	2.81927
732.014	0.42199	1.91441	1.31421	2.68412
735.917	0.33528	1.56982	1.22201	2.75045
740.018	1.14312	1.64858	0.47128	2.57918
744.019	1.46623	1.89049	0.41316	2.88823
748.024	1.04334	1.85399	0.31106	2.78080
751.998	1.20504	1.88994	0.12051	3.17450
756.015	0.62322	1.96674	0.06185	2.88268
760.018	0.92254	1.87996	0.16360	3.02618
764.020	0.85781	2.00709	0.81555	2.77286
768.021	0.68536	1.84282	1.20507	3.06603
772.017	0.78506	2.04887	0.67637	2.78987
776.021	1.06153	1.92979	0.83935	3.16414
780.017	0.83426	1.94042	0.82146	3.03215
784.024	0.80612	1.84483	0.25190	2.13488
788.016	0.78186	1.90309	0.04122	1.76939
791.981	0.80694	1.99026	-0.14191	1.70022
796.008	0.87873	1.96759	0.46952	1.28782
799.887	0.86242	2.03101	1.02389	1.32791
804.017	3.58005	2.09031	0.98179	-0.35777
807.981	1.84265	2.50669	2.62209	2.06546
812.019	5.51430	1.67632	3.72383	2.84266
815.915	6.20690	1.96545	6.51018	0.63147
820.020	6.30860	2.10222	5.95432	1.77412
824.019	6.22007	1.88538	7.53915	0.98540
827.905	6.07062	2.21793	5.79720	1.34335
831.916	6.23440	2.53844	6.66815	0.35629
835.896	6.53046	2.66068	7.90842	1.29156
839.874	8.17646	2.30905	8.40589	2.77925
843.895	8.27144	1.99360	8.95143	3.12506
847.865	7.75375	1.37901	8.21167	2.93854
851.895	8.34111	1.69522	7.09101	3.16675
855.893	8.06596	1.89851	8.12291	3.23709
859.894	7.91180	1.70414	8.47808	3.07931
864.023	7.23618	2.08273	8.34939	0.67763
867.858	7.64973	2.00656	8.74159	3.11706
871.895	7.76903	1.62126	8.03735	0.77523
875.898	7.05635	1.86593	8.15963	0.79298
879.910	7.19078	1.72472	8.01433	0.69601
883.885	6.68313	1.86335	7.90399	2.50188
887.895	6.66545	1.73910	7.82718	1.65850
891.894	6.91214	1.86359	7.85648	1.85160
895.895	6.42849	1.81713	7.72044	2.00507
899.894	6.44638	1.74482	7.43786	1.11652
903.897	6.06924	1.70855	7.65810	2.35585
907.896	5.82501	1.61328	7.39801	1.47681
911.893	5.37116	1.82819	7.10746	0.63120
915.899	5.60376	1.89116	6.97903	0.91914
919.896	5.14175	2.48739	6.32851	0.21233
923.875	4.87793	2.46793	7.39764	-1.33069
927.916	5.17240	2.50974	7.10873	-1.69431
931.898	4.89286	2.11736	6.97910	-2.67857
935.894	5.01356	2.18300	7.02509	-2.70269
939.898	4.91812	1.89421	6.90189	-2.52992
943.893	4.99965	2.64197	7.67236	-2.32966
947.896	4.99531	2.60404	7.37685	-2.50971
951.895	6.41886	2.83651	7.23103	-2.80566
955.894	6.40621	2.88727	9.42433	-0.33368
959.900	6.70979	2.98198	10.25699	-0.23728
963.880	6.24651	2.97363	10.24432	-0.38224
967.895	6.37976	2.89173	9.09611	-0.28752
971.895	6.10325	2.85648	8.45281	-0.04542
975.889	5.33519	3.05488	7.48024	-2.25183
979.896	2.67434	3.25840	4.42222	-1.27346
983.895	2.67244	3.42024	2.36884	1.80876
987.895	0.80076	4.21481	1.78121	3.67863
991.921	5.53068	4.48708	9.25009	3.44227
995.898	5.24794	8.92549	-0.17769	2.86611
999.896	-7.35871	3.20183	-4.81682	5.38082
1003.900	NaN	NaN	NaN	NaN
1007.895	NaN	NaN	NaN	NaN
1011.860	NaN	NaN	NaN	NaN
1015.897	NaN	NaN	NaN	NaN
1019.899	NaN	NaN	NaN	NaN
1023.897	NaN	NaN	NaN	NaN
1027.901	NaN	NaN	NaN	NaN
1031.896	NaN	NaN	NaN	NaN
1035.896	NaN	NaN	NaN	NaN
1039.854	NaN	NaN	NaN	NaN
1043.861	NaN	NaN	NaN	NaN
1047.876	NaN	NaN	NaN	NaN
1051.900	NaN	NaN	NaN	NaN
1055.898	NaN	NaN	NaN	NaN
1059.883	NaN	NaN	NaN	NaN
1063.897	NaN	NaN	NaN	NaN
1067.899	NaN	NaN	NaN	NaN
1071.895	NaN	NaN	NaN	NaN
1075.860	NaN	NaN	NaN	NaN
1079.879	NaN	NaN	NaN	NaN
1083.896	NaN	NaN	-1.70544	6.40620
1087.898	NaN	NaN	-2.78966	1.33779
1091.885	NaN	NaN	-3.71916	4.84018
1095.898	1.09713	2.64182	-3.72788	1.79114
1099.892	2.77938	11.09755	-4.17492	2.41065
1103.898	5.41118	5.21633	-3.51710	5.29075
1107.898	11.05701	5.27134	-3.26433	6.52478
1111.891	5.80211	5.91489	-5.62053	5.18693
1115.859	11.22974	3.38406	-3.14459	8.35498
1119.898	6.15708	3.67402	-3.17564	9.06939
1123.897	6.47723	3.64658	-4.83526	4.89885
1127.901	4.37559	3.84420	-5.08495	5.14498
1131.897	1.99483	4.07813	-4.35637	5.02801
1135.899	-0.11518	3.60222	-3.23375	2.85384
1139.900	-0.24487	3.76765	-3.01512	4.79268
1143.900	-0.22018	3.24129	-3.28202	4.40528
1147.901	1.36159	3.50398	-3.03459	3.14849
1151.904	0.72662	3.81495	-3.22458	2.68635
1155.900	0.68382	3.68235	-2.86745	4.62749
1159.900	0.43165	3.45338	-3.20753	4.75557
1163.891	0.69474	3.36121	-2.66714	4.82389
1167.899	0.28284	3.25299	-3.81372	3.77496
1171.889	0.16186	3.35236	-4.66440	3.50077
1175.895	-7.31267	4.58031	-5.44879	4.18596
1179.899	-3.29886	3.44895	-1.23533	4.33394
1183.900	-5.29120	5.89682	-3.72103	4.13451
1187.899	0.42966	3.26607	-3.02178	4.48659
1191.899	-2.70993	3.55385	-2.72976	3.80869
1195.895	-2.51963	3.16647	-3.13830	4.00814
1199.900	-2.70899	3.41591	-2.16134	3.90223
1203.900	-2.77062	3.04838	-2.63690	3.80779
1207.902	-0.09178	-2.64034	-2.57635	3.63464
1211.904	-0.56456	-2.68363	-2.78134	3.28600
1215.867	-0.48448	-2.54257	-2.58442	3.56803
1219.902	-5.98800	3.59028	-2.65736	3.34749
1223.863	-5.73296	3.64777	-2.41871	3.44828
1227.922	-5.11696	5.01941	-2.49260	3.08221
1231.900	-5.18882	5.51078	-2.39322	2.99420
1235.900	-5.24036	4.96242	-2.52639	3.26455
1239.903	-5.38120	5.18918	-6.17548	3.43520
1243.892	-4.82486	5.46866	-2.51950	3.05189
1247.901	-4.86014	5.44715	-2.39386	3.53093
1251.901	-4.13174	6.05275	-2.68326	3.21330
1255.881	-4.11169	5.01742	-2.57419	3.44834
1259.872	-4.86601	5.50606	-2.69118	3.52159
1263.901	-4.65262	5.31678	-3.09968	3.57789
1267.900	-3.53216	6.20231	-2.78676	3.24959
1271.903	-2.84044	7.57336	-3.26705	3.56058
1275.902	-3.43843	5.07548	-2.38155	4.37194
1279.903	-3.01898	4.29206	-1.06203	3.99115
1283.901	-2.41110	5.03836	0.75176	4.20043
1287.864	-1.47977	4.83936	1.09281	4.52008
1291.895	-0.59573	4.16497	3.16354	5.23063
1295.897	-0.12228	4.86237	3.17220	5.88360
1299.892	0.19807	5.24295	3.20070	6.00945
1303.900	2.38905	3.15935	3.08674	5.64687
1307.922	-0.15054	5.03477	3.41518	5.04080
1311.902	1.83895	3.40243	3.46775	5.38624
1315.903	-0.37519	5.19503	3.61189	6.19104
1319.904	-0.19075	5.14934	0.86468	5.48294
1323.904	-0.00392	4.69613	2.63517	5.70432
1327.902	0.10215	4.65412	2.89814	6.06622
1331.903	-0.00062	4.14730	3.58512	6.28056
1335.901	-0.06338	4.85088	3.84530	6.17758
1339.901	-0.33910	4.13934	4.11298	2.82082
1343.907	-0.03886	5.70239	4.04265	2.50915
1347.902	0.09716	4.04571	3.92657	0.31995
1351.905	0.10850	4.51303	3.98040	1.46453
1355.904	0.11855	4.19087	3.73102	1.87647
1359.901	-0.01829	4.29497	3.87465	1.92663
1363.902	0.06552	4.62573	3.52015	2.04297
1367.904	-0.03976	4.59630	3.75435	1.20631
1371.902	-0.11893	4.41404	3.65623	2.17785
1375.907	-0.30379	4.36033	3.88493	2.15398
1379.886	-0.63012	4.13736	4.09211	2.22279
1383.902	-0.41745	4.00231	3.86568	2.37080
1387.895	-1.14059	4.44526	3.60175	2.75873
1391.902	-0.91361	4.27038	3.54653	4.06146
1395.901	-1.24463	4.00884	3.67601	3.86016
1399.902	0.03971	4.16658	3.41723	4.18806
1403.895	0.00943	3.79373	3.19479	3.82873
1407.901	-0.35352	4.05006	3.02207	3.38036
1411.902	-0.61047	3.97091	3.24152	3.00835
1415.899	-0.19492	4.08198	3.23920	3.42253
1419.895	-0.61166	4.52217	2.97247	3.14998
1423.869	-0.23624	4.21753	2.60958	2.95897
1427.903	-0.32702	4.16943	3.13437	3.04986
1431.904	-0.62240	4.16174	3.81209	2.58574
1435.899	-0.54575	3.89639	3.87952	2.68155
1439.904	-0.71908	4.19438	3.20986	2.85646
1443.900	-0.66682	4.98483	3.26777	2.73334
1447.901	-0.21152	5.71554	3.52687	2.51384
1451.897	0.38780	6.24735	3.75121	2.55919
1455.903	0.55004	5.28440	3.93925	2.39886
1459.906	0.00402	6.24502	3.79472	2.25721
1463.905	-0.09103	6.24668	3.74908	2.34459
1467.870	-0.48604	6.36255	3.80856	2.31101
1471.903	0.00747	6.02516	3.76833	2.39256
1475.879	-0.28292	6.04651	3.68510	2.39754
1479.903	-0.28476	5.98114	3.65757	2.18028
1483.895	-0.29637	6.02839	3.24180	2.31911
1487.878	-0.30761	4.53179	3.54109	2.47449
1491.903	0.14131	5.76624	4.02865	2.47424
1495.903	-0.11056	5.73793	3.92937	2.62484
1499.895	-0.39854	4.73297	4.00569	3.05802
1503.904	-0.50130	3.96416	3.67346	4.38926
1507.897	-0.84339	3.95120	3.56037	5.65467
1511.907	-1.19892	4.19693	4.05011	5.43079
1515.904	-1.43984	3.75947	4.19240	5.36675
1519.904	-1.76120	4.77592	2.88970	4.49966
1523.907	0.02149	4.02754	3.18606	0.70149
1527.905	0.04487	4.52074	4.25193	-0.39676
1531.802	0.12399	4.44830	3.98771	-0.03936
1535.904	-0.54786	5.06929	3.69837	0.75162
1539.867	-0.94867	5.69205	3.01032	0.95409
1543.868	-0.90627	5.67216	3.90022	3.84559
1547.802	-0.49647	5.74314	4.22898	2.65485
1551.915	-0.56096	5.65749	4.57470	3.59179
1555.904	-0.23520	4.91444	4.72418	3.43493
1559.907	-0.13826	5.07069	4.23952	3.79944
1563.804	-0.24574	5.51876	4.36417	3.53726
1567.906	-0.24835	5.43401	4.20588	4.58691
1571.906	-0.35332	5.38286	4.21044	4.75778
1575.906	-0.17288	5.57172	4.47824	4.62691
1579.804	0.12483	5.47507	4.51189	5.18360
1583.908	0.16841	5.48930	4.60047	5.36351
1587.890	0.11381	5.34551	5.01593	5.36124
1591.904	0.01931	5.37429	4.91560	5.35979
1595.910	0.21398	5.45818	4.37137	5.18540
1599.904	0.16605	5.53157	5.19758	4.93262
1603.906	0.01425	5.62313	4.57978	5.21144
1607.906	-0.04772	5.53132	4.41948	5.14417
1611.803	-0.31300	5.94676	4.32987	5.01948
1615.908	-0.48148	6.20445	4.45481	5.04738
1619.908	-0.16131	5.91752	4.19235	4.62217
1623.868	-0.48676	5.80174	3.99348	4.51617
1627.806	-0.79528	6.25868	3.71950	4.25503
1631.870	-0.65685	5.95516	3.94226	3.80880
1635.906	-0.70938	5.98572	4.88047	4.02629
1639.906	-0.67139	5.72235	5.11024	3.59201
1643.910	1.54817	2.86463	5.45400	3.94590
1647.908	1.87257	2.96009	5.47014	3.32489
1651.906	2.14310	2.57719	3.85829	3.67448
1655.910	1.10827	5.68613	5.45287	4.06077
1659.804	2.25813	5.74632	5.56832	3.97746
1663.909	2.39619	5.53672	7.18386	4.04095
1667.908	2.49486	5.30661	8.44276	4.07504
1671.888	2.40721	3.03116	9.66125	3.73230
1675.796	2.41026	3.42811	8.30498	4.59517
1679.903	2.49208	3.35745	9.47304	4.74707
1683.906	2.52406	3.32926	9.58789	4.10624
1687.906	2.55534	3.77774	9.69460	4.39794
1691.776	2.57471	3.79852	9.68346	4.34824
1695.925	2.42552	4.37306	9.53692	5.08385
1699.906	2.43161	4.12856	9.59086	4.89282
1703.906	2.23690	4.24881	9.60164	4.94885
1707.805	2.20889	3.96530	9.69981	5.18789
1711.902	2.34545	3.85508	9.63293	5.49478
1715.898	2.10741	3.95496	9.43933	5.06443
1719.907	1.89518	4.06118	9.63088	4.94478
1723.805	1.95133	4.09452	9.63735	4.47313
1727.908	1.85675	4.29531	9.34647	3.03544
1731.907	2.36368	4.12427	9.25722	3.56105
1735.906	2.86324	4.61611	8.39513	3.00707
1739.805	3.03294	5.06167	8.13675	2.63233
1743.907	3.20676	5.17130	8.93377	4.76711
1747.907	2.79454	5.01555	9.33152	3.31967
1751.909	2.68049	4.93136	9.18630	4.41180
1755.805	3.22520	4.51125	9.17203	4.84004
1759.911	3.00982	5.26888	9.48951	4.40673
1763.909	3.06338	4.99699	9.19585	3.75652
1767.907	3.17418	5.23791	9.11281	4.03803
1771.805	3.30005	5.16524	9.22056	4.44528
1775.911	3.47252	5.22809	9.33357	3.72881
1779.908	3.49409	4.97834	9.14646	4.30870
1783.908	3.64751	4.87557	9.22649	3.53089
1787.805	3.17391	4.98345	9.02471	2.98454
1791.910	3.64892	4.84903	9.06003	3.87829
1795.893	3.47910	5.94141	8.90468	4.12120
1799.906	NaN	NaN	13.28312	4.18180
1803.811	NaN	NaN	14.19095	9.04373
1807.910	NaN	NaN	NaN	NaN
1811.910	NaN	NaN	NaN	NaN
1815.905	NaN	NaN	NaN	NaN
1819.905	NaN	NaN	NaN	NaN
1823.909	NaN	NaN	NaN	NaN
1827.870	NaN	NaN	NaN	NaN
1831.906	NaN	NaN	NaN	NaN
1835.909	NaN	NaN	NaN	NaN
1839.872	NaN	NaN	NaN	NaN
1843.906	NaN	NaN	NaN	NaN
1847.908	NaN	NaN	NaN	NaN
1851.912	NaN	NaN	NaN	NaN
1855.907	NaN	NaN	NaN	NaN
1859.908	NaN	NaN	NaN	NaN
1863.785	NaN	NaN	NaN	NaN
1867.866	NaN	NaN	NaN	NaN
1871.785	NaN	NaN	NaN	NaN
1875.786	NaN	NaN	NaN	NaN
1879.785	NaN	NaN	NaN	NaN
1883.772	NaN	NaN	NaN	NaN
1887.774	NaN	NaN	NaN	NaN
1891.753	NaN	NaN	NaN	NaN
1895.792	NaN	NaN	NaN	NaN
1899.812	NaN	NaN	NaN	NaN
1903.787	NaN	NaN	NaN	NaN
1907.790	NaN	NaN	NaN	NaN
1911.785	NaN	NaN	NaN	NaN
1915.781	NaN	NaN	NaN	NaN
1919.789	NaN	NaN	NaN	NaN
1923.785	NaN	NaN	NaN	NaN
1927.752	NaN	NaN	11.73826	8.17834
1931.756	NaN	NaN	9.21561	10.82368
1935.786	NaN	NaN	12.81615	7.95933
1939.787	NaN	NaN	16.16356	5.20842
1943.790	NaN	NaN	12.23154	4.82083
1947.780	NaN	NaN	13.03524	4.76120
1951.786	18.88439	7.10075	16.07515	3.61917
1955.786	NaN	NaN	15.44739	6.69671
1959.796	12.69467	4.80808	11.11798	1.04218
1963.788	-0.16648	3.73555	16.34229	4.60004
1967.780	-2.86240	1.65771	9.26058	5.29251
1971.782	-2.00812	5.55417	11.94379	4.51309
1975.788	10.22887	7.17368	12.69519	3.01786
1979.783	14.24541	7.04116	12.01217	4.43307
1983.778	9.36547	6.11326	6.48208	4.45935
1987.784	8.80536	6.74219	11.44892	2.61473
1991.786	3.15805	7.43261	8.50173	4.87660
1995.785	3.66538	6.98419	7.32876	4.37482
1999.808	4.51857	6.76980	9.59421	3.18117
2003.789	4.54772	6.64959	7.84235	2.65162
2007.784	3.99111	6.40332	8.56979	2.58415
2011.782	3.05885	6.45892	8.36246	3.08599
2015.778	4.39222	1.94282	8.47432	3.02530
2019.785	3.04175	2.39592	8.21925	2.77757
2023.787	3.30722	2.25344	8.33046	3.05587
2027.787	5.06053	1.97062	8.16873	3.12458
2031.789	2.90431	6.06141	8.68274	3.27778
2035.788	2.81301	5.02382	7.41236	3.36327
2039.750	2.76794	5.07935	7.90864	3.45509
2043.751	2.59138	5.29852	6.44919	3.35690
2047.777	2.53724	4.68272	6.82092	3.34881
2051.760	2.32788	5.12488	6.30117	3.43377
2055.799	1.61292	5.16937	5.86860	3.55594
2059.788	1.51122	5.39383	6.20602	3.67868
2063.779	1.41846	5.20997	5.91234	3.64877
2067.787	1.81850	5.08887	5.53377	3.53293
2071.790	1.82735	4.90704	5.93357	1.96825
2075.789	1.51154	5.06496	6.04060	2.02049
2079.778	1.72567	4.72986	6.16022	1.28162
2083.786	1.72223	4.54041	5.97853	0.66124
2087.787	1.76014	3.85649	6.19057	-0.31873
2091.776	1.75547	3.90520	6.61460	-0.11991
2095.810	2.26705	3.41663	6.91982	-0.80556
2099.786	2.06652	3.35975	7.19378	0.19782
2103.750	2.18927	3.93992	6.17195	0.10744
2107.788	2.37359	3.84057	7.40753	0.33838
2111.782	2.44863	4.04549	6.30960	1.12651
2115.790	2.88284	4.01107	6.98335	1.85444
2119.787	2.43882	3.91287	7.65115	3.38297
2123.789	2.54142	4.40995	7.69373	3.45789
2127.779	2.22079	6.15638	7.93442	2.99183
2131.789	2.21241	6.32805	7.83069	3.37412
2135.760	2.24178	5.85767	7.71284	3.28306
2139.792	1.95594	6.12822	6.71601	3.34403
2143.811	1.50202	6.34557	7.85938	3.23002
2147.788	1.64665	6.21374	7.99131	2.68067
2151.787	1.35234	6.49751	7.81873	2.82373
2155.796	1.14280	6.22640	6.89458	3.03599
2159.812	1.69170	6.33790	6.91481	3.46985
2163.788	1.17989	6.24950	6.39074	3.40551
2167.794	1.04744	6.28780	6.14278	3.38760
2171.752	1.28412	6.28399	5.99365	4.24850
2175.788	0.99395	6.09135	6.18983	4.37054
2179.784	1.11554	5.73578	6.16437	4.10369
2183.789	1.05476	4.38562	6.12835	2.52825
2187.790	0.99918	4.34662	5.91489	2.35101
2191.811	1.25607	4.13365	6.16844	2.85926
2195.788	1.40085	3.99356	5.96637	3.20101
2199.790	1.71568	4.04719	5.99969	3.52472
2203.791	1.63368	3.89971	6.02504	3.52389
2207.757	2.04240	3.85296	6.03476	4.31971
2211.792	2.14592	3.86510	5.95120	4.29336
2215.791	2.45616	4.01718	5.91405	3.35733
2219.783	2.42406	3.85760	6.14168	2.90532
2223.755	2.80654	3.83540	6.42167	2.77052
2227.791	2.61268	3.59310	6.48607	2.56204
2231.791	2.70584	3.71332	6.72714	2.10212
2235.789	2.86054	3.76090	7.07933	2.22435
2239.782	2.80553	4.53558	7.15704	2.23190
2243.790	2.91859	4.74050	7.29081	1.59669
2247.790	3.02113	4.40730	7.31330	1.38933
2251.790	3.03937	4.16915	7.39713	1.33119
2255.796	0.72034	7.06934	7.60787	1.59042
2259.771	0.82525	6.09911	7.50217	1.11540
2263.790	1.30603	6.27610	7.80324	1.26130
2267.792	0.79161	5.94805	7.82428	1.20649
2271.785	2.50749	5.42367	7.63347	1.41745
2275.800	2.22114	4.51717	7.15244	2.03539
2279.793	2.21358	4.61354	5.74134	3.75100
2283.793	0.74858	5.40090	4.60769	2.55094
2287.777	1.46231	5.72750	4.19417	4.19981
2291.757	2.87386	3.96159	3.64805	4.45429
2295.791	2.57474	3.41700	3.65957	4.43136
2299.791	2.19878	3.48735	4.32316	4.37792
2303.782	2.60906	3.25518	4.74247	4.05096
2307.792	2.76648	3.30927	4.01253	4.12646
2311.789	2.59002	7.16498	4.15757	4.24693
2315.791	2.49258	8.00923	4.22957	3.80179
2319.790	3.03353	7.73055	3.95622	3.81286
2323.792	2.81120	3.13581	4.06843	3.97660
2327.790	3.04623	3.08587	4.01369	3.85847
2331.794	3.08594	3.18545	3.99519	4.03564
2335.785	3.14130	3.10555	4.13216	3.89651
2339.795	3.31850	3.18799	4.40675	3.91613
2343.794	2.14411	5.66663	4.27197	1.26591
2347.792	2.36368	5.34297	4.44812	3.37531
2351.759	2.82578	4.36876	4.79775	2.65386
2355.794	3.32271	3.28417	4.96191	3.09471
2359.794	3.43803	3.23223	5.26275	3.50049
2363.792	-0.95033	3.38544	5.21260	3.46285
2367.785	-0.49833	4.19264	5.35428	3.65720
2371.755	-0.55245	4.45578	4.82769	3.44285
2375.794	-0.38990	4.39960	5.47719	2.63297
2379.795	-0.19385	5.22442	5.71020	2.52663
2383.778	-0.73345	5.77848	5.64894	2.66334
2387.793	-0.43316	5.92404	5.63579	2.80152
2391.794	-0.61545	6.32369	5.00682	0.84290
2395.791	-0.43884	6.43386	4.00783	0.40456
2399.787	-0.36263	6.28059	3.53871	0.09998
2403.793	-0.23820	6.50327	3.97215	-0.07248
2407.793	-0.02147	6.24973	3.32914	1.07921
2411.789	-0.29399	6.33781	3.95024	1.40559
2415.793	-0.42269	6.36366	4.04490	1.09645
2419.793	-0.41554	6.37712	3.74557	1.30093
2423.792	-0.24805	6.37745	3.81612	1.17562
2427.787	-0.44125	6.51077	3.79233	1.03955
2431.795	-0.25225	6.45801	3.91734	1.11722
2435.793	-0.05299	6.34226	4.09320	1.30140
2439.757	0.44917	6.25750	3.94861	1.44878
2443.794	1.52665	6.22907	3.98146	1.58308
2447.787	1.66539	6.14850	4.14811	1.85201
2451.793	1.83665	6.13947	4.23387	1.66714
2455.792	1.77665	6.06173	4.18176	1.92004
2459.793	2.03680	11.30804	4.27153	1.70071
2463.786	2.36143	11.43713	4.39281	1.97724
2467.793	2.11363	11.65781	4.01035	1.52088
2471.797	2.05784	12.01399	4.30573	2.15733
2475.757	1.96553	12.17533	4.31472	2.14013
2479.767	1.91724	12.43384	4.20119	2.40444
2483.794	-0.24708	4.35383	4.04552	2.46934
2487.796	1.86699	8.21992	3.83149	2.55839
2491.794	1.82723	3.69840	3.35439	2.80796
2495.796	1.52518	3.53959	3.36992	2.79607
2499.793	1.82172	7.15244	4.61551	2.74152
2503.793	0.51550	5.29756	3.92734	3.16625
2507.783	-0.03765	6.23942	1.87671	3.91406
2511.789	-0.05008	5.30893	-0.11908	3.44834
2515.793	-2.81679	5.08237	-1.09921	3.64378
2519.796	-3.27759	5.07737	-2.54881	3.60535
2523.796	-4.31936	4.93599	-2.01826	2.92347
2527.798	-5.39367	5.35755	-2.57655	3.05958
2531.796	-6.84473	3.36797	-3.12390	2.87724
2535.794	-7.35893	4.22087	-4.72287	2.64009
2539.794	-7.58683	4.75845	-3.56581	2.64100
2543.794	-4.62305	5.17271	-4.10451	2.09980
2547.795	-5.07894	4.31267	-3.38348	2.81172
2551.762	-5.21065	3.72990	-2.47928	2.51290
2555.797	-5.87641	3.86830	-3.24479	2.59450
2559.793	-6.64513	4.05944	-3.70939	2.99966
2563.794	-7.25120	4.06335	-3.39671	2.44290
2567.798	-7.11584	3.60464	-3.26458	2.56347
2571.795	-6.17911	3.66071	-3.90671	2.35104
2575.762	-4.49849	3.32185	-3.69595	1.32217
2579.795	-5.22183	4.81623	-3.26275	2.25235
2583.795	-5.37460	4.05807	-2.93240	1.51212
2587.798	-6.06318	3.86310	-2.97099	1.43053
2591.797	-5.95005	4.61133	-3.01759	0.67126
2595.791	-6.32892	3.91869	-3.19058	-0.59241
2599.793	-6.10176	3.86676	-2.30553	-0.65610
2603.758	-5.10509	3.75155	-2.62752	1.70357
2607.695	-5.80717	3.75278	-2.66429	1.68497
2611.797	-5.66342	3.63577	-3.23994	1.46748
2615.797	-5.79312	3.57206	-2.54507	-0.98140
2619.799	-6.74406	3.67988	-1.50197	0.10483
2623.695	-5.74787	3.64474	-2.43337	4.09509
2627.795	-5.66143	4.16615	-2.48188	4.05243
2631.798	-5.80597	4.91747	-2.55368	-0.35762
2635.790	-5.94411	4.31836	-3.30317	4.64803
2639.696	-5.39861	4.13268	-2.79813	5.69372
2643.759	-5.51831	4.39970	-2.05712	2.83457
2647.798	-5.47867	3.89483	-3.11415	2.89194
2651.800	-5.58139	3.75383	-2.99166	4.56871
2655.800	-5.68457	3.31919	-0.52907	4.55199
2659.797	-5.46996	2.98242	-0.82828	4.53008
2663.787	-5.42771	2.96171	-2.91678	4.29554
2667.796	-5.76939	4.55659	-2.88839	4.50297
2671.763	-8.87692	5.91450	-3.10641	4.79651
2675.776	-8.83471	14.19568	1.87178	4.65831
2679.799	-4.58155	5.05570	8.96886	4.61785
2683.800	NaN	NaN	-6.79327	6.05603
2687.802	NaN	NaN	NaN	NaN
2691.799	NaN	NaN	NaN	NaN
2695.800	NaN	NaN	NaN	NaN
2699.796	NaN	NaN	NaN	NaN
2703.797	NaN	NaN	NaN	NaN
2707.800	NaN	NaN	NaN	NaN
2711.803	NaN	NaN	NaN	NaN
2715.799	NaN	NaN	NaN	NaN
2719.795	NaN	NaN	NaN	NaN
2723.793	NaN	NaN	NaN	NaN
2727.797	NaN	NaN	NaN	NaN
2731.798	NaN	NaN	NaN	NaN
2735.798	NaN	NaN	NaN	NaN
2739.798	NaN	NaN	NaN	NaN
2743.796	NaN	NaN	NaN	NaN
2747.795	NaN	NaN	NaN	NaN
2751.800	NaN	NaN	NaN	NaN
2755.700	NaN	NaN	NaN	NaN
2759.769	NaN	NaN	NaN	NaN
2763.759	NaN	NaN	NaN	NaN
2767.781	NaN	NaN	NaN	NaN
2771.760	NaN	NaN	NaN	NaN
2775.798	NaN	NaN	NaN	NaN
2779.674	NaN	NaN	NaN	NaN
2783.800	NaN	NaN	-1.52970	11.03578
2787.798	NaN	NaN	-6.17087	14.42872
2791.798	NaN	NaN	-2.30816	10.74129
2795.695	NaN	NaN	1.01290	9.13214
2799.779	NaN	NaN	1.02990	8.10629
2803.796	NaN	NaN	-1.60962	8.04971
2807.799	NaN	NaN	-2.03015	8.22388
2811.699	NaN	NaN	-0.92296	8.21726
2815.797	NaN	NaN	-1.38607	5.36746
2819.798	NaN	NaN	-2.97735	4.36109
2823.797	2.58997	-2.35470	-3.05751	8.07561
2827.799	0.72568	-4.90563	-4.58668	6.10177
2831.802	-7.42185	0.17576	-5.97722	6.22381
2835.800	8.47855	-2.72137	-0.82655	5.36322
2839.698	-2.71285	3.80234	-6.20675	5.51070
2843.794	-12.03598	2.23597	-6.84453	3.68214
2847.761	2.99034	5.96672	-0.61168	3.56688
2851.811	3.24595	4.75598	-0.67699	3.25211
2855.667	3.31828	4.85764	-0.17918	3.11419
2859.807	-1.65299	3.75066	-0.19005	3.15787
2863.801	0.53823	5.72446	-0.40946	2.98102
2867.800	-1.12328	5.63114	-0.56903	2.61864
2871.700	-2.67494	5.45632	-0.38127	2.88455
2875.799	0.83741	3.43382	-0.36268	2.14557
2879.800	0.72660	3.15057	-0.59153	3.12115
2883.799	0.66106	2.09016	-0.78421	1.71201
2887.688	0.65876	2.45403	-1.23923	1.16323
2891.801	-3.68058	5.51455	-1.55432	1.95954
2895.800	-3.57703	5.14884	-1.40370	3.57014
2899.800	-0.43909	1.58167	-1.74454	3.36830
2903.699	-0.64759	1.44826	-1.99173	3.44647
2907.676	-1.55641	5.03030	-2.57073	1.81801
2911.639	-0.19144	1.83852	-2.99824	3.47798
2915.660	-0.37678	1.76295	-2.90841	3.37922
2919.697	-0.86061	1.82949	-2.83425	3.53694
2923.678	-0.85292	1.63373	-2.48681	1.53811
2927.679	-0.94519	1.63821	-2.55477	2.00291
2931.643	-0.95963	1.49269	-2.95025	1.96071
2935.670	-1.02774	1.61913	-2.65664	1.87449
2939.675	-1.21955	1.59603	-1.68704	1.81907
2943.676	-1.38664	1.41394	-0.77362	1.76893
2947.677	-1.24044	1.40602	0.28652	1.71858
2951.814	-1.57111	1.19132	0.78672	2.72379
2955.677	-3.83507	4.91921	-1.84627	1.65664
2959.678	-1.78996	6.93116	-1.96400	2.43347
2963.679	-4.14875	4.44067	-1.48270	3.09224
2967.643	-4.34157	3.89800	-1.81448	3.88708
2971.655	-4.48285	4.04112	-1.43476	3.61132
2975.674	-4.49854	3.69140	-1.86449	3.94902
2979.678	-4.58151	3.76882	-1.90884	3.78202
2983.669	-4.47511	3.92132	-2.12751	3.81491
2987.676	-4.52681	3.17028	-2.03201	3.62802
2991.676	-4.50076	2.64368	-2.39339	3.53647
2995.679	-4.44931	2.38302	-2.45879	3.58396
2999.670	-4.47504	2.19712	-2.77238	3.70305
3003.678	-4.33638	2.44250	-2.76723	3.29984
3007.676	-4.37912	2.14423	-2.95772	3.11531
3011.672	-4.21711	2.62286	-3.30564	3.07319
3015.669	-4.01860	2.07126	-3.17500	2.78186
3019.675	-3.91973	2.15531	-3.45979	3.30348
3023.677	-3.58163	3.00714	-3.35976	2.81228
3027.680	-3.61337	2.45390	-2.63061	2.54831
3031.668	-3.63001	2.14501	-2.34991	2.46621
3035.679	-3.47369	2.53173	-1.82653	2.28169
3039.677	-3.36720	2.40487	-1.50207	2.70418
3043.681	-3.47154	2.60258	-1.55068	2.37858
3047.670	-3.40259	2.77902	-1.39517	2.25975
3051.679	-3.26886	2.87624	-1.37801	2.72658
3055.653	-3.34455	2.76721	-1.61421	2.64083
3059.680	-3.30042	2.80485	-1.63318	2.57110
3063.674	-3.31791	2.93377	-1.26907	2.76155
3067.677	-3.41694	2.90792	-1.65074	2.89660
3071.678	-3.40927	2.84670	-2.05682	2.76095
3075.676	-3.46896	2.91545	-1.71702	2.70283
3079.668	-3.41399	2.90194	-1.83771	2.85692
3083.678	-3.44082	2.78816	-0.99772	2.67827
3087.680	-0.26083	2.93534	-0.79059	2.99464
3091.681	-0.56372	2.86556	-0.51932	2.74186
3095.693	0.47396	2.93852	0.41641	2.95376
3099.678	1.48793	2.93049	2.97747	2.82530
3103.639	1.89436	3.08948	5.24641	3.83371
3107.679	2.75910	2.92125	1.71308	2.86112
3111.677	2.58781	2.92342	2.34230	2.60434
3115.679	3.26280	3.74887	3.37658	2.02662
3119.643	2.62115	4.09632	2.74796	0.89493
3123.679	1.67439	4.26155	2.77884	0.64264
3127.671	1.31258	4.07936	2.37565	1.30768
3131.680	2.08845	3.35678	0.21447	2.42272
3135.684	1.69626	5.18399	2.73650	0.88770
3139.646	2.33361	5.57905	2.66375	0.39417
3143.673	1.88757	5.33872	0.55486	1.63632
3147.680	2.01335	5.50170	4.17820	0.45833
3151.682	2.00210	5.29586	4.30712	-1.41685
3155.684	3.13702	5.67437	4.08915	0.26052
3159.639	2.61513	3.71925	4.46223	1.29545
3163.646	2.31309	4.09912	4.34371	-0.30860
3167.699	2.89817	3.51793	4.60942	-0.13757
3171.682	2.93893	3.55105	4.87345	-0.16205
3175.666	3.23296	3.83403	4.56222	0.26606
3179.661	2.25548	3.24042	4.30297	0.77693
3183.682	3.32548	3.54537	4.38766	0.50339
3187.642	2.08404	3.44003	4.58197	1.14738
3191.639	2.32203	3.48530	4.66733	1.13070
3195.683	2.78399	3.37076	6.01986	1.33147
3199.678	2.73281	3.36858	4.96172	1.17936
3203.681	2.29428	3.87823	4.68646	0.74406
3207.671	2.57523	3.50648	5.00241	0.86892
3211.680	2.71481	3.64086	5.61337	0.64632
3215.685	2.83979	3.60563	4.97460	0.95364
3219.674	2.43459	3.69737	5.84628	1.99567
3223.676	2.45047	3.67401	5.90153	1.80793
3227.678	2.69809	3.70056	6.35469	1.64081
3231.683	2.62952	3.80151	6.32164	1.58992
3235.681	2.87056	3.72402	4.59162	-0.54768
3239.680	2.53692	3.76509	4.27276	-1.20478
3243.680	3.10982	3.85713	4.97753	-0.75913
3247.683	2.82283	3.83147	4.98499	-1.50069
3251.682	2.99262	3.87101	5.18943	-1.18718
3255.676	4.15399	3.93183	4.74020	-1.14611
3259.684	2.93252	4.07863	4.64993	-0.98946
3263.686	3.11646	3.85004	4.09463	-0.01405
3267.682	3.02088	3.89277	4.96640	0.00807
3271.707	3.20991	4.18906	4.45750	0.51898
3275.684	3.09097	4.25267	4.73596	0.60301
3279.679	2.89923	4.42808	4.61790	-0.21269
3283.679	2.85284	4.60518	4.62579	2.68509
3287.675	2.53645	4.81271	5.60480	3.00300
3291.684	2.50256	5.01151	4.42067	1.32313
3295.683	2.62189	4.96739	4.02816	0.83759
3299.686	2.42493	4.95897	3.89624	0.62795
3303.684	2.34969	5.14704	3.99410	1.00667
3307.678	2.46434	4.99413	4.67172	0.68575
3311.681	2.40407	5.01673	4.33214	0.40301
3315.682	2.34287	5.16233	3.88577	1.20752
3319.704	2.36237	5.18075	4.09518	0.95017
3323.686	2.36463	5.11282	3.95745	0.65884
3327.684	2.69205	5.12523	4.29764	0.69032
3331.682	2.74445	4.91991	4.12438	0.88254
3335.685	2.88465	4.93827	4.22330	0.50747
3339.681	2.69886	4.80733	4.49810	0.03560
3343.687	2.81838	4.75731	4.34949	3.02758
3347.649	2.96906	4.66080	4.61383	0.98480
3351.680	2.87017	4.63024	4.78486	3.41842
3355.682	3.05989	4.58963	4.66822	5.04540
3359.683	3.18460	4.51663	4.47235	4.79080
3363.687	3.23653	4.50400	3.04165	3.49905
3367.676	3.18301	4.38036	2.21281	3.90076
3371.685	3.06310	4.46778	1.06302	3.34244
3375.686	2.89292	4.51195	4.43145	3.46670
3379.683	2.93834	4.51305	4.36755	3.57703
3383.679	2.91200	4.53903	3.82469	4.01014
3387.662	2.84586	4.52790	3.83680	3.84223
3391.645	2.94022	4.43071	3.36475	3.54770
3395.679	3.13321	4.37400	3.55261	3.93652
3399.680	2.88564	4.06302	3.71182	3.74207
3403.680	3.08572	4.04332	3.95542	3.94801
3407.685	3.25854	4.27843	4.62064	3.99615
3411.711	3.38983	4.30534	4.15766	3.64291
3415.687	2.79736	4.37207	4.36745	3.81923
3419.686	2.98552	4.37784	3.45428	3.82640
3423.691	2.40147	4.45572	3.26225	3.79363
3427.673	1.50189	5.02086	3.77765	3.81610
3431.675	2.22119	5.11067	3.99457	4.66291
3435.683	2.45738	5.31486	4.14167	4.82853
3439.682	2.99544	5.46696	3.12205	3.81999
3443.685	2.88849	5.82872	3.64808	2.22014
3447.683	2.69988	6.03150	3.57570	1.60409
3451.683	2.25687	5.92758	4.22886	0.51108
3455.683	2.54720	6.20425	3.88342	3.73427
3459.684	1.57245	5.93371	4.51995	3.71392
3463.691	2.32196	5.37879	4.94797	3.76867
3467.685	1.87731	5.26813	5.19135	3.37772
3471.664	2.92436	4.67516	3.87860	3.15680
3475.686	2.27411	4.31140	2.21598	3.28397
3479.689	-2.74378	6.34589	5.34545	3.19440
3483.685	-8.66147	5.94000	9.49798	6.09249
3487.688	NaN	NaN	-2.28945	6.23053
3491.683	NaN	NaN	-2.29116	6.52151
3495.683	NaN	NaN	NaN	NaN
3499.683	NaN	NaN	NaN	NaN
3503.686	NaN	NaN	NaN	NaN
3507.687	NaN	NaN	NaN	NaN
3511.647	NaN	NaN	NaN	NaN
3515.690	NaN	NaN	NaN	NaN
3519.684	NaN	NaN	NaN	NaN
3523.685	NaN	NaN	NaN	NaN
3527.651	NaN	NaN	NaN	NaN
3531.589	NaN	NaN	NaN	NaN
3535.686	NaN	NaN	NaN	NaN
3539.685	NaN	NaN	NaN	NaN
3543.684	NaN	NaN	NaN	NaN
3547.652	NaN	NaN	NaN	NaN
3551.689	NaN	NaN	-2.50271	10.09599
3555.686	NaN	NaN	NaN	NaN
3559.688	NaN	NaN	NaN	NaN
3563.691	NaN	NaN	-1.76420	13.52957
3567.647	-22.09840	3.76152	-4.33619	3.91413
3571.689	-19.99458	-12.07736	-8.09455	5.59286
3575.686	-19.99458	-12.07736	-5.74799	7.27173
3579.684	-4.81786	0.12039	-3.72912	3.41080
3583.686	-5.62448	-2.31345	-5.21415	4.09935
3587.690	-9.14970	1.55297	-6.33481	3.51947
3591.692	-13.77094	1.08070	-11.90167	4.59499
3595.673	-12.98636	1.12194	-9.63013	3.21478
3599.648	-3.84135	4.32044	-9.85503	4.23362
3603.687	2.58346	5.67137	-8.98639	4.88167
3607.691	2.48208	5.35941	-9.29949	4.52577
3611.649	1.67447	5.12932	-7.70170	5.03388
3615.689	-4.01075	5.60525	-8.04373	4.95459
3619.687	-4.09357	5.84965	-1.22092	7.23784
3623.691	-4.92321	5.94539	-1.94543	3.73869
3627.687	-5.17636	6.15258	-3.06850	3.83498
3631.687	-5.16873	5.91726	-2.03100	2.81170
3635.677	-5.17917	5.47288	-3.37497	3.36397
3639.684	-3.17344	10.52179	-3.25649	2.90401
3643.687	-2.97827	10.66638	-7.92931	2.13719
3647.689	-2.88012	10.76615	-6.68188	1.68610
3651.691	-3.30975	10.91098	-4.68269	1.79798
3655.585	-2.95698	11.48288	-4.24233	1.74487
3659.689	-2.90388	11.09392	-3.52024	1.82406
3663.691	-5.29265	4.24023	-3.03118	1.39045
3667.651	-4.79075	4.18274	-3.27821	1.36689
3671.587	-4.49950	4.84188	-2.82125	0.51650
3675.690	-3.59360	4.69236	-3.95575	-0.49765
3679.664	-5.40304	4.30083	-4.04826	0.03049
3683.689	-5.72411	4.64030	-4.12564	-0.03502
3687.557	-5.22822	3.98757	-3.96192	-0.03790
3691.686	-5.17087	4.08170	-3.58655	0.66147
3695.690	-5.28106	4.15794	-4.02658	0.59618
3699.688	-5.67723	4.14909	-3.67373	0.55372
3703.555	-5.39775	4.25107	-3.58153	0.83895
3707.689	-5.80518	4.09477	-3.60205	1.02163
3711.689	-5.82427	4.42136	-3.98457	1.25507
3715.689	-5.45774	4.46754	-3.82474	1.38377
3719.654	-2.45639	12.41942	-3.83297	2.22007
3723.687	-2.50083	13.46524	-3.76566	2.64957
3727.690	-2.74479	13.15039	-4.02245	2.50352
3731.689	-2.95554	13.12394	-4.23700	3.08903
3735.584	-3.36461	13.29232	-3.57068	2.74690
3739.690	-3.80419	13.48044	-3.39913	2.59332
3743.688	-4.62180	13.38939	-3.38108	2.67684
3747.688	-6.10953	2.57196	-3.32718	2.69090
3751.585	-6.13255	2.78667	-4.52370	3.20894
3755.652	-5.96173	4.06190	-3.62281	2.68597
3759.692	-5.97843	3.40110	-3.06795	2.73674
3763.688	-3.15666	7.21764	-3.61804	2.85960
3767.568	-4.87988	4.34036	-3.00475	2.79753
3771.690	-5.03363	4.59823	-3.37405	2.87729
3775.688	-5.48499	4.78169	-3.16226	2.85733
3779.691	-6.11226	4.93227	-3.64185	2.70594
3783.692	-6.10912	4.20515	-1.88221	2.56689
3787.649	-5.97344	4.59513	-3.93319	2.46027
3791.689	-6.22223	3.99157	-2.94718	2.26574
3795.690	-5.99529	3.83918	-3.97575	2.19756
3799.693	-6.19947	4.04457	-6.81583	2.41118
3803.669	-4.24626	4.51674	-4.25334	2.57046
3807.691	-5.06316	4.56202	-4.18388	2.15022
3811.690	-5.69195	4.05066	-1.42610	1.55410
3815.694	-6.28518	3.90053	-4.56787	2.02915
3819.688	-6.42400	2.35386	-4.57549	2.29022
3823.690	-6.66403	3.26729	-6.27670	2.19206
3827.689	-5.86271	4.77340	-2.14900	2.61715
3831.588	-4.01823	4.32485	-5.97948	-3.69197
3835.688	-5.05831	4.03262	-6.37842	-3.86318
3839.690	-5.63773	4.89910	-3.72630	-2.20856
3843.678	-6.49156	4.53453	-4.94625	-3.78766
3847.582	-5.40166	4.73904	-4.69963	-3.86958
3851.651	-4.37108	4.48278	-5.46332	-3.78761
3855.690	-3.98254	4.32353	-5.87732	-3.76204
3859.689	-4.59559	5.34179	-6.67184	-4.00173
3863.593	-5.45331	5.28227	-3.19353	-3.68583
3867.690	-5.22148	4.57544	-4.60715	4.31343
3871.692	-5.18719	4.34007	-5.13759	4.66071
3875.691	-5.20721	4.42011	-4.89171	-2.36138
3879.588	-4.82067	4.47795	-4.33695	-2.54674
3883.692	-4.72386	4.45923	-5.65639	4.65669
3887.691	-4.57278	5.00613	-3.06543	6.07392
3891.691	-4.71607	4.98922	-1.84830	4.53151
3895.587	-5.14074	4.16846	-4.81436	5.86682
3899.694	-5.52431	4.19982	-5.03270	6.09871
3903.694	-5.40341	4.20423	-5.28815	5.37389
3907.688	-5.43959	4.05872	-5.22370	-1.29968
3911.591	-3.87075	4.24413	-7.80969	5.35018
3915.704	-3.03675	4.22956	-2.63242	5.59059
3919.693	-3.04620	4.36906	-1.26904	6.03177
3923.693	-5.39859	4.05042	-0.14402	4.90633
3927.588	-6.23695	4.05407	-1.59231	4.86093
3931.687	-11.38733	3.55489	1.07758	4.72433
3935.653	-11.14978	3.83567	1.34232	5.57012
3939.565	NaN	NaN	5.66988	5.25766
3943.567	NaN	NaN	1.28073	5.20289
3947.565	NaN	NaN	NaN	NaN
3951.565	NaN	NaN	NaN	NaN
3955.566	NaN	NaN	NaN	NaN
3959.564	NaN	NaN	NaN	NaN
3963.566	NaN	NaN	NaN	NaN
3967.568	NaN	NaN	NaN	NaN
3971.574	NaN	NaN	NaN	NaN
3975.538	NaN	NaN	NaN	NaN
3979.527	NaN	NaN	NaN	NaN
3987.569	NaN	NaN	NaN	NaN
3991.567	NaN	NaN	NaN	NaN
3995.569	NaN	NaN	NaN	NaN
3999.569	NaN	NaN	NaN	NaN
4003.566	NaN	NaN	NaN	NaN
4007.563	NaN	NaN	NaN	NaN
4011.566	NaN	NaN	NaN	NaN
4015.566	NaN	NaN	NaN	NaN
4019.555	NaN	NaN	NaN	NaN
4023.570	NaN	NaN	NaN	NaN
4027.569	NaN	NaN	NaN	NaN
4031.570	NaN	NaN	NaN	NaN
4035.532	NaN	NaN	NaN	NaN
4039.566	NaN	NaN	NaN	NaN
4043.572	NaN	NaN	NaN	NaN
4047.570	NaN	NaN	NaN	NaN
4051.570	NaN	NaN	NaN	NaN
4055.571	NaN	NaN	NaN	NaN
4059.562	NaN	NaN	NaN	NaN
4063.567	NaN	NaN	NaN	NaN
4067.571	NaN	NaN	NaN	NaN
4071.537	NaN	NaN	NaN	NaN
4075.558	NaN	NaN	NaN	NaN
4079.568	NaN	NaN	NaN	NaN
4083.567	NaN	NaN	0.34985	7.26433
4087.567	NaN	NaN	0.51436	7.31079
4091.568	NaN	NaN	0.23681	4.94821
4095.575	NaN	NaN	0.00809	6.51157
4099.568	4.90405	12.21050	5.60327	5.34327
4103.568	16.04893	8.20888	5.38801	3.45077
4107.560	10.69117	9.49824	11.03786	4.96610
4111.563	8.01085	8.09292	5.02635	2.93526
4115.571	10.82062	7.96979	5.54582	1.54876
4119.571	NaN	NaN	12.50094	3.90717
4123.562	-2.70602	-2.03844	6.04762	2.49528
4127.571	11.49016	4.73927	6.12595	1.95105
4131.571	5.90423	5.00340	10.70344	3.16206
4135.566	-3.79176	-1.65216	6.18912	1.80507
4139.563	10.88913	7.04246	6.11903	3.96828
4143.533	11.19356	6.57448	3.26366	10.81073
4147.571	-4.20454	-0.45479	5.31982	11.10849
4151.573	9.58931	4.83030	5.68782	1.20666
4155.568	11.18988	4.75498	5.47247	1.06535
4159.571	11.46509	4.83212	3.40366	0.77834
4163.536	10.17072	5.01085	3.45262	1.30796
4167.602	9.99640	4.66794	2.91554	1.35979
4171.565	9.75032	4.31077	4.02771	1.56612
4175.532	9.00772	4.48086	1.67363	1.72496
4179.572	7.07349	4.40368	2.48287	3.13124
4183.549	3.59473	4.53880	1.40671	2.69487
4187.540	3.97570	4.43415	2.47311	3.39418
4191.572	4.20410	4.34676	2.14176	2.79243
4195.569	3.93779	4.25952	1.36288	3.00230
4199.572	3.89325	4.43912	1.57726	2.97922
4203.561	4.13340	4.28260	1.02196	3.21153
4207.570	3.95713	4.36953	1.50854	3.48470
4211.569	3.77557	4.71266	0.67948	3.05686
4215.573	3.70984	4.60637	0.32446	2.88724
4219.562	3.54628	5.16146	2.74370	2.72519
4223.558	3.21052	5.15753	2.71075	2.70567
4227.560	3.07714	5.46404	2.65803	2.82159
4231.574	2.42401	5.49639	3.09287	2.44136
4235.563	2.50070	5.40131	3.35392	2.58530
4239.572	3.03702	5.30433	2.80800	2.98997
4243.571	2.72365	5.08410	2.50744	3.43904
4247.573	2.42371	3.29299	2.84551	3.29420
4251.570	2.88250	3.55150	2.53271	3.12560
4255.571	2.19167	3.68373	2.70936	3.42454
4259.572	2.77659	3.15448	2.63831	3.39657
4263.575	2.60300	2.26486	3.10643	3.74615
4267.569	2.80055	1.77822	2.89703	3.64880
4271.576	1.81887	1.71592	3.19489	3.75458
4275.571	2.11418	1.91003	3.34573	3.76837
4279.571	2.94287	1.77309	3.24692	3.81187
4283.570	2.42502	1.94122	2.69465	3.75604
4287.534	2.62749	2.23002	3.26329	3.70526
4291.571	2.69933	1.94117	2.88896	3.65246
4295.574	2.38011	1.79671	3.19024	3.64008
4299.564	2.13014	1.65323	3.16584	3.60915
4303.574	2.21826	1.72838	3.02950	3.62279
4307.555	2.55316	1.85027	3.55696	3.24834
4311.568	2.47987	1.82515	3.07667	3.43372
4315.573	2.28688	1.92648	3.04289	3.16653
4319.570	2.28427	1.98863	3.50561	3.06580
4323.573	2.25563	2.17014	3.30987	2.99268
4327.573	3.88542	2.25041	6.19434	3.38329
4331.564	6.17219	2.13097	3.97249	1.15476
4335.571	3.80774	2.60367	6.53076	0.26295
4339.572	6.81644	2.47359	7.50029	2.24364
4343.534	7.04511	2.49338	8.99486	0.65406
4347.561	6.26542	2.98416	3.75197	-0.49856
4351.535	6.50922	2.79319	5.99524	-0.51410
4355.572	6.33321	2.72122	6.67064	-0.76970
4359.575	6.70000	2.80893	6.37253	0.45269
4363.564	6.06514	1.79450	6.86011	-0.10056
4367.575	5.97747	1.97570	6.99570	0.11513
4371.575	6.06070	2.93156	8.55911	0.40426
4375.572	6.38003	1.15452	8.37077	0.01967
4379.577	3.62852	1.68887	6.92009	2.11335
4383.573	4.63654	2.07657	8.58643	0.70146
4387.574	4.37673	1.93457	4.36032	2.74888
4391.569	3.94273	2.20201	6.14484	3.87998
4395.543	4.58587	1.86746	6.42871	0.56350
4399.574	5.07776	1.74611	6.64809	2.15242
4403.569	5.38705	1.44405	6.94213	4.06890
4407.571	5.74556	1.55740	8.03173	2.82070
4411.563	5.29282	1.47674	8.29742	2.64179
4415.576	4.82597	1.76394	6.52213	3.37390
4419.574	4.53906	2.06799	7.82679	3.03527
4423.575	4.18270	2.12469	8.45133	3.19352
4427.567	5.04299	1.75792	6.40623	2.43309
4431.562	4.82784	1.72816	8.39178	3.07914
4435.575	5.47943	1.94429	8.14570	2.51530
4439.572	5.11455	2.48527	8.04553	2.50291
4443.572	5.58567	2.96889	7.82304	2.80383
4447.574	5.04334	2.81222	8.34694	2.74658
4451.575	4.71378	3.01951	8.45718	2.68226
4455.572	4.69176	3.50618	7.66843	2.24126
4459.575	5.22210	3.12857	8.56566	2.75770
4463.575	4.84105	2.54534	7.95884	1.82693
4467.575	4.48283	2.55707	7.12442	2.87175
4471.583	5.02176	2.49267	7.69502	4.40550
4475.533	5.07528	2.70180	6.97399	1.43670
4479.579	5.15320	1.14448	7.26874	2.03088
4483.578	3.77155	1.87696	8.77080	2.47061
4487.573	4.30457	2.59942	8.65259	1.64122
4491.573	4.70739	2.75972	6.80715	2.98817
4495.575	5.16179	2.75768	8.05628	1.13872
4499.577	4.85085	2.59163	6.50423	1.91433
4503.574	5.36484	2.28879	7.35053	2.86067
4507.565	5.20196	1.65495	8.18371	1.53030
4511.576	4.04848	3.31438	7.19610	1.88770
4515.558	4.92245	3.14436	7.58793	2.42210
4519.573	4.27341	3.55284	8.12019	2.05713
4523.574	4.83242	2.30377	7.25079	1.70220
4527.573	4.76280	2.12204	8.15864	2.29536
4531.576	5.67447	2.18625	7.76930	1.37367
4535.574	5.64751	2.81898	7.63847	1.72865
4539.567	4.94396	2.91457	7.67457	1.96822
4543.575	4.99805	3.10760	8.37036	1.82466
4547.539	4.15682	3.65175	6.60394	1.65844
4551.578	4.42229	3.78585	7.26766	1.59143
4555.574	5.11211	3.89538	7.92797	2.03224
4559.573	5.24624	4.12294	8.10430	1.86304
4563.577	3.97037	3.05820	7.78801	2.10460
4567.577	3.83952	2.65253	8.10457	1.61772
4571.603	4.94223	2.66562	6.25622	-0.25650
4575.579	4.71218	2.36208	6.52226	-0.33492
4579.578	4.99344	2.77740	6.97910	-0.36018
4583.580	6.26223	1.85059	8.04550	0.19858
4587.570	3.30416	1.86861	8.19757	1.62846
4591.577	3.22106	2.64519	8.04755	0.87376
4595.580	3.24523	1.84332	8.05650	1.82998
4599.537	4.89222	2.65428	7.21445	0.54860
4603.579	2.76861	2.85686	5.97649	-1.30414
4607.575	1.05530	3.14767	0.86843	1.47130
4611.577	0.74662	2.69107	1.82155	-0.02037
4615.540	-2.63643	4.00234	-1.46023	1.36866
4619.478	-3.10460	4.24624	-3.41293	0.62655
4623.577	-2.79857	3.87135	-3.72892	0.80003
4627.578	-3.25691	3.54210	-3.77159	1.28738
4631.575	-3.44683	3.77869	-4.02038	1.17573
4635.581	-3.58702	3.85007	-3.79682	1.26229
4639.575	-3.07283	4.15617	-3.63945	0.98001
4643.577	-3.03489	3.97465	-3.97607	0.21458
4647.578	-3.51728	4.08942	-3.60334	0.28770
4651.583	-7.19109	4.02602	-3.46345	0.11447
4655.575	-6.84296	4.04920	-2.34114	0.01045
4659.576	-6.65774	4.00823	-3.57552	0.48755
4663.616	-6.25455	4.01176	-3.59201	0.59878
4667.476	-5.77418	3.98594	-3.73156	0.56923
4671.544	-5.14655	4.08994	-3.66815	0.26569
4675.584	-5.69674	4.18557	-3.65962	0.72889
4679.582	-5.46485	4.15696	-3.55646	0.94291
4683.544	-4.68585	4.07324	-2.82912	1.65263
4687.579	-4.31760	4.01920	-3.68122	1.94487
4691.577	-4.14080	4.15027	-3.11094	1.89843
4695.579	-4.56715	4.14009	-3.22035	2.25215
4699.483	-4.41329	4.11976	-2.97423	2.38069
4703.577	-4.08648	4.08474	-3.07580	2.60564
4707.580	-3.86274	4.09479	-2.72233	2.86091
4711.578	-3.55192	4.16790	-2.74856	2.58755
4715.479	-3.42737	4.15905	-2.76364	2.94578
4719.582	-3.25325	3.44001	-2.73759	2.99438
4723.560	-3.69897	3.83594	-2.83853	3.36882
4727.574	-3.86580	3.78564	-2.64215	3.81094
4731.477	-3.75430	2.99548	-2.60941	3.48623
4735.578	-3.22487	3.43484	-2.58502	3.88041
4739.580	-3.29547	3.37248	-2.50751	4.05079
4743.578	-2.96874	3.56955	-1.53153	4.29759
4747.478	-3.50084	3.05427	-2.72437	4.55594
4751.542	-4.39905	3.40377	-2.57617	4.56728
4755.577	-4.95376	3.38436	-3.03358	3.58473
4759.578	-4.74661	3.59281	-2.64225	-0.94554
4763.476	-4.55270	3.30185	-2.65327	-1.69359
4767.573	-5.07099	3.72244	-2.26824	-1.41247
4771.546	-4.86303	3.52869	-2.29426	-1.32636
4775.580	-5.25968	3.41493	-2.59832	-0.85556
4779.584	-5.15753	3.60674	-2.45322	-0.95769
4783.581	-5.09357	3.52931	-2.41742	-0.64548
4787.579	-5.14296	3.85555	-2.41878	-0.59377
4791.580	-5.13092	3.75524	-2.79857	-0.52757
4795.476	-5.19217	3.94785	-3.01363	-0.37584
4799.579	-5.08589	4.07643	-3.48741	-0.10608
4803.579	-4.86044	3.94441	-3.28207	-0.04567
4807.552	-4.71186	4.29356	-2.65924	0.12962
4811.492	-4.65824	4.23406	-2.78899	0.70484
4815.581	-5.22970	4.27366	-3.05677	0.46607
4819.583	-5.17065	4.58975	-3.00779	1.58262
4823.579	-4.72186	4.83160	-2.54410	1.37088
4827.478	-5.16617	4.52459	-1.44269	1.97192
4831.579	-4.59359	4.80235	-0.24701	2.27750
4835.579	-4.61132	4.82394	-1.05128	2.18614
4839.582	-4.63245	4.76042	-2.51955	2.64639
4843.584	-4.65340	4.87242	-2.82925	3.06320
4847.569	-4.42143	5.04395	-2.61744	3.32083
4851.570	-4.71730	4.96257	-2.82595	3.35018
4855.579	-4.50079	5.43540	-2.72501	3.61938
4859.489	-4.38699	5.49113	-2.52924	3.74479
4863.582	-4.41191	5.30874	-2.31951	3.72282
4867.580	-4.36594	5.63251	-2.30853	3.79739
4871.587	-4.39955	5.41584	-2.44048	3.77930
4875.587	-4.43132	5.58012	-2.73692	4.00868
4879.581	-4.51588	5.73697	-2.51921	4.00711
4883.581	-4.53423	5.76197	-2.76062	4.17038
4887.581	-4.48757	5.68186	-2.76886	4.24986
4891.585	-4.56045	5.88686	-2.79166	4.21191
4895.581	-4.55805	5.68261	-2.56567	4.18407
4899.583	-4.62490	5.71266	-2.78622	4.21072
4903.579	-4.62616	5.67072	-2.95148	4.11565
4907.583	-4.69586	5.84817	-2.59628	4.07452
4911.583	-4.74861	5.75518	-2.61221	2.37374
4915.582	-4.77214	5.82249	-2.75772	1.17012
4919.583	-4.79408	5.93790	-2.36472	1.34895
4923.481	-4.84430	6.04623	-2.78904	1.41841
4927.584	-4.94107	6.04781	-2.56173	1.02176
4931.579	-4.86965	6.07622	-2.68945	0.64961
4935.578	-4.89166	5.88367	-3.08441	0.28912
4939.481	-4.75102	6.22960	-3.03197	0.20298
4943.581	-4.86579	6.13591	-2.72575	-0.28492
4947.580	-4.88769	3.07921	-2.84049	-0.46871
4951.583	-4.88518	3.73414	-2.96898	-0.54449
4955.459	-4.36488	2.93045	-3.08978	0.07064
4959.580	-3.81970	3.09366	-2.89314	-1.01160
4963.581	-4.63627	3.01426	-3.39287	-0.44478
4967.456	-4.34687	2.93233	-3.21095	-0.64012
4971.452	-4.26859	3.08483	-3.52625	-0.49876
4975.458	-4.19938	3.56950	-3.29867	-0.40337
4979.420	-4.24658	3.37193	-3.20172	-0.42264
4983.461	-4.18075	4.32345	-3.05610	-0.46103
4987.449	-4.25336	3.57367	-3.35486	-0.41707
4991.456	-4.27842	3.63410	-2.73553	-0.27146
4995.457	-4.12846	3.59325	-2.80206	0.37417
4999.460	-4.47920	3.54577	-3.28640	0.51265
5003.455	-4.36333	3.79587	-2.91304	0.23038
5007.458	-4.40411	3.71216	-2.37079	0.47850
5011.457	-4.66253	3.69098	-2.62940	0.42236
5015.458	-4.71324	3.82049	-2.56642	0.76851
5019.424	-4.67798	3.75169	-2.35801	0.88746
5023.422	-4.88328	4.32488	0.94532	1.47797
5027.457	-11.73067	3.83711	1.01037	1.40450
5031.456	-4.91023	5.62479	-8.20306	3.47221
5035.497	-9.31533	14.84753	-2.21068	3.58288
5039.421	NaN	NaN	NaN	NaN
5043.457	NaN	NaN	NaN	NaN
5047.459	NaN	NaN	NaN	NaN
5051.458	NaN	NaN	NaN	NaN
5055.452	NaN	NaN	NaN	NaN
5059.458	NaN	NaN	NaN	NaN
5063.586	NaN	NaN	NaN	NaN
5067.461	NaN	NaN	NaN	NaN
5071.459	NaN	NaN	NaN	NaN
5075.462	NaN	NaN	NaN	NaN
5079.457	NaN	NaN	NaN	NaN
5083.456	NaN	NaN	NaN	NaN
5087.459	NaN	NaN	NaN	NaN
5091.421	NaN	NaN	NaN	NaN
5095.458	NaN	NaN	NaN	NaN
5099.458	NaN	NaN	NaN	NaN
5103.459	NaN	NaN	NaN	NaN
5107.468	NaN	NaN	NaN	NaN
5111.455	NaN	NaN	NaN	NaN
5115.460	NaN	NaN	NaN	NaN
5119.459	NaN	NaN	NaN	NaN
5123.460	NaN	NaN	NaN	NaN
5127.471	NaN	NaN	NaN	NaN
5131.459	NaN	NaN	NaN	NaN
5135.458	NaN	NaN	NaN	NaN
5139.461	NaN	NaN	NaN	NaN
5143.456	NaN	NaN	NaN	NaN
5147.450	NaN	NaN	NaN	NaN
5151.457	NaN	NaN	NaN	NaN
5155.461	NaN	NaN	NaN	NaN
5159.428	NaN	NaN	NaN	NaN
5163.463	NaN	NaN	NaN	NaN
5167.424	NaN	NaN	NaN	NaN
5171.458	NaN	NaN	NaN	NaN
5175.460	NaN	NaN	-1.17800	5.47300
5179.462	NaN	NaN	0.14873	2.14037
5183.485	NaN	NaN	2.20005	1.66667
5187.433	NaN	NaN	2.50169	7.35643
5191.461	NaN	NaN	-2.75678	5.92184
5195.463	9.38151	4.46962	-3.30010	5.17777
5199.485	NaN	NaN	7.83239	3.65793
5203.459	NaN	NaN	16.32218	3.49330
5207.463	-4.37581	-0.90358	0.48150	3.72403
5211.461	NaN	NaN	-0.20407	2.06066
5215.458	-4.39262	2.90519	-0.02251	1.72128
5219.452	-3.92754	1.18173	7.92427	1.97892
5223.461	-2.38796	1.42186	2.61283	1.82434
5227.448	-3.84182	2.06996	4.75526	2.92351
5231.460	-4.23419	5.23059	0.18993	2.04949
5235.460	-4.26131	4.87735	-0.06939	1.99927
5239.464	2.35811	5.29378	0.09297	2.25836
5243.465	-2.43379	7.61133	1.66589	2.03405
5247.462	3.33374	5.10894	0.40760	3.41897
5251.461	2.37426	5.05069	2.77314	3.22214
5255.461	0.56649	4.88102	-0.04571	1.28233
5259.461	-1.70772	5.29300	0.66228	3.35901
5263.461	-1.07401	5.28049	1.40348	3.52981
5267.455	1.03034	4.94050	2.14877	3.17958
5271.428	-1.10703	4.62712	2.04537	0.07507
5275.469	0.89401	4.70366	0.65109	-0.34841
5279.463	0.23745	4.70330	2.78226	-0.07615
5283.431	-1.01288	4.78789	2.71505	0.76810
5287.425	-0.13746	4.66914	1.25113	-0.36340
5291.461	-0.30627	4.23879	1.40809	-0.63488
5295.464	-0.21847	4.21895	1.01670	-1.01890
5299.429	-0.36355	4.50381	1.12794	-0.70482
5303.462	-0.65935	4.21126	1.42104	-0.09626
5307.467	-0.73203	4.25308	1.95683	-0.14143
5311.462	-1.16426	4.29198	2.45810	-0.49964
5315.434	-0.65481	3.55813	1.68840	-0.28507
5319.461	-0.37889	3.51227	1.46427	-0.30085
5323.463	-0.37484	2.92299	1.23928	-0.56852
5327.462	-0.66054	3.28603	2.02743	-0.51449
5331.454	-2.03345	3.23960	1.80789	-0.34898
5335.462	-1.35834	2.71030	-1.45765	-0.14212
5339.463	-3.49629	3.14784	-1.46211	-0.13360
5343.466	-2.73667	3.70287	-2.15703	-1.97673
5347.458	-1.53136	1.21595	-3.08213	-1.37950
5351.452	-2.25030	0.26824	-2.14367	0.56925
5355.459	-4.55754	2.96185	-1.59561	0.63229
5359.461	-4.34954	2.78874	-1.78443	0.61067
5363.462	-4.31163	2.22964	-2.48609	-2.25597
5367.463	-4.07560	2.52060	-2.02693	-2.83919
5371.464	-4.30697	2.35879	-2.68576	1.04637
5375.470	-4.42069	2.09557	-2.28078	1.21711
5379.461	-4.55029	2.18294	-1.73715	1.23536
5383.463	-4.67700	2.04635	-1.44133	1.26739
5387.464	-4.67318	2.09286	-2.19522	1.18600
5391.463	-4.76320	2.04374	-2.58994	0.67227
5395.464	-4.54222	1.99671	-2.54009	-1.93668
5399.464	-4.47536	1.90455	-1.96040	0.81964
5403.463	-4.59329	1.46573	-1.24377	0.25084
5407.464	-4.65789	1.29931	-1.44272	0.90427
5411.424	-4.62838	1.67066	-2.17668	1.02373
5415.427	-4.61351	1.56031	-1.77695	-0.01746
5419.463	-4.75795	1.90045	-1.86513	1.02008
5423.464	-4.78126	1.79493	-2.52810	-0.75310
5427.456	-4.65446	1.70121	-1.89892	-2.92447
5431.465	-4.43330	1.51673	-2.84269	-3.49800
5435.447	-4.38028	1.79566	-3.12356	-3.18318
5439.461	-4.39854	1.06497	-1.33478	-3.31824
5443.458	-4.60821	1.55409	-2.32166	-2.86855
5447.466	-4.68284	1.16697	-2.46369	-3.35089
5451.466	-4.80310	1.63451	-2.74214	-2.17484
5455.467	-4.74607	1.71380	-2.09033	-1.56925
5459.468	-4.91940	1.58223	-1.96576	0.39270
5463.466	-4.91166	1.76065	-1.90594	-1.14449
5467.465	-5.04688	1.79713	-2.26584	-1.01925
5471.427	-4.86418	1.58600	-3.01848	-0.73031
5475.467	-4.86956	1.53415	-2.94027	-1.14116
5479.427	-4.87414	1.58266	-3.37316	-0.94163
5483.464	-4.76993	1.84872	-2.61835	-1.09847
5487.463	-4.80608	1.88448	-3.37794	-0.74277
5491.459	-4.86473	1.96101	-2.32464	-0.79343
5495.464	-4.90067	1.89268	-2.57154	-1.05771
5499.467	-5.01307	1.88855	-2.69856	-0.97659
5503.465	-5.15820	1.97917	-2.59485	-0.75445
5507.463	-5.12230	1.97164	-2.33120	-0.33632
5511.465	-4.83501	1.93887	-2.33425	-0.28687
5515.465	-5.02797	1.95027	-2.59554	-0.68423
5519.463	-5.12725	1.99860	-2.57607	-0.41582
5523.473	-5.12723	2.01899	-2.69453	-0.29041
5527.466	-4.97829	1.97141	-2.64817	-0.10885
5531.465	-5.01780	1.90431	-2.73179	-0.02964
5535.464	-5.04565	1.97101	-2.77807	-0.15217
5539.462	-4.92708	1.88459	-2.76022	0.27950
5543.468	-4.85672	1.87913	-2.74009	-0.17635
5547.465	-4.84132	1.84620	-2.85762	-0.17787
5551.467	-4.74636	1.74537	-2.86415	-0.33859
5555.460	-4.70094	1.72799	-2.85346	-0.11153
5559.462	-4.59847	1.77229	-2.86306	-0.11583
5563.462	-4.63393	1.83750	-2.96267	-0.30424
5567.468	-4.60034	1.83897	-2.94000	-0.17208
5571.470	-4.62337	2.10067	-2.79010	-0.09367
5575.473	-4.69154	2.21715	-2.88002	-0.02797
5579.466	-4.65535	2.37960	-3.00811	-0.09549
5583.469	-4.63338	2.28969	-2.85772	0.08396
5587.469	-4.72351	2.41914	-2.89938	0.09508
5591.467	-4.86448	2.23748	-2.98529	0.14519
5595.469	-4.55453	2.58381	-2.65188	0.34423
5599.468	-4.62552	2.56872	-2.79931	0.36380
5603.471	-4.61839	2.50121	-3.28021	0.82730
5607.469	-4.58952	2.53464	-2.54920	0.95305
5611.467	-4.61758	2.65198	-3.76416	0.75721
5615.467	-4.67315	2.57720	-3.01680	1.13711
5619.468	-4.68040	2.54662	-3.28523	1.88906
5623.468	-4.58508	2.63178	-2.97787	1.51571
5627.466	-4.76165	2.65615	-3.03984	1.33305
5631.466	-4.71331	2.60414	-3.17101	1.33460
5635.460	-4.66467	2.78269	-2.35360	1.46966
5639.470	-4.66267	2.92925	-2.65025	1.53315
5643.452	-4.67167	3.05210	-3.68826	1.78545
5647.464	-4.77503	3.02418	-3.36372	2.00311
5651.471	-4.61257	3.01990	-3.43877	2.28848
5655.467	-4.51253	2.73218	-3.01178	2.40456
5659.467	-4.29873	2.95740	-2.82021	2.13088
5663.469	-3.97617	2.66981	-2.89339	2.39161
5667.471	-4.00504	2.30941	-2.57338	2.26561
5671.469	-4.49583	2.43154	-2.64748	2.39929
5675.468	-6.24479	0.71582	-2.91228	2.74777
5679.468	-6.33476	1.92229	-2.39388	2.43351
5683.471	-6.41062	1.57220	-2.58729	2.47811
5687.467	-6.18500	1.73267	-2.81575	2.65960
5691.470	-6.41604	1.99904	-2.54435	2.59402
5695.469	-6.28633	1.70558	-2.75816	2.66017
5699.472	-5.61355	1.68820	-2.69017	2.75171
5703.430	-5.74991	1.84042	-2.73199	2.96662
5707.467	-6.01976	1.89394	-2.88361	2.77597
5711.467	-5.92567	2.07697	-2.47903	2.83370
5715.472	-5.83906	1.98903	-2.52852	2.80828
5719.470	-5.81017	2.16420	-2.41554	2.63240
5723.430	-5.75748	1.98072	-2.48386	2.62979
5727.448	-5.66020	2.19532	0.43760	2.41223
5731.471	-5.55071	2.02866	-0.92262	2.36741
5735.468	-5.44894	2.23980	0.00973	2.12817
5739.468	-5.43435	2.17474	0.32962	2.37123
5743.469	-5.45088	2.20765	0.05589	2.21169
5747.471	-5.39593	2.29191	-0.03613	2.01751
5751.468	-5.33040	2.44636	-2.06731	1.92783
5755.467	-5.10014	2.15905	-0.23242	2.14865
5759.468	-5.10477	2.10253	-0.19286	2.10667
5763.369	-5.07954	2.24582	-2.83410	3.07779
5767.467	-5.21026	2.17182	-3.24254	0.79152
5771.432	-5.29425	2.18940	-5.41423	-0.89854
5775.471	-6.98096	2.11748	-6.89353	-0.96313
5779.367	-10.18736	2.20822	-6.93325	-0.23402
5783.467	-10.34170	2.77074	-7.07539	0.72883
5787.471	-9.89990	2.26107	-8.97608	-0.17135
5791.468	-10.24339	2.18920	-9.45092	0.06199
5795.369	-10.44833	2.08323	-9.44411	0.55217
5799.471	-10.40800	2.08818	-9.63703	0.89856
5803.470	-10.39741	2.00506	-9.52104	0.81401
5807.469	-10.31143	1.99934	-9.36216	0.95497
5811.374	-10.33533	1.91624	-9.45175	0.85697
5815.469	-10.24901	2.13212	-9.36030	1.18029
5819.472	-10.06715	2.09324	-9.27644	1.22847
5823.469	-9.98215	2.00545	-9.34660	1.01411
5827.371	-9.84409	2.04694	-9.44993	1.16734
5831.470	-10.05240	1.71105	-9.21205	1.32250
5835.469	-10.24062	1.71254	-9.10920	1.04965
5839.473	-10.12601	1.46709	-8.94743	1.19957
5843.473	-10.30949	1.60415	-9.01898	1.56605
5847.472	-10.27040	1.24783	-9.09376	1.31708
5851.460	-10.45629	1.48817	-8.81838	1.25740
5855.462	-10.12933	1.65265	-9.11556	1.21400
5859.370	-10.30903	1.48835	-9.04415	1.29219
5863.427	-11.20390	1.70403	-9.04057	1.19365
5867.467	-11.26529	1.62916	-8.90381	1.25213
5871.468	-11.27474	1.60013	-8.94133	0.70560
5875.477	-11.13869	1.61265	-9.01305	1.09514
5879.477	-11.04647	1.56008	-8.97005	0.87210
5883.471	-10.66764	1.78128	-9.02425	0.89515
5887.472	-10.76975	1.41809	-8.98208	0.82469
5891.372	-10.43248	1.90356	-8.83658	0.87743
5895.472	-10.07584	1.64581	-8.78808	0.77005
5899.471	-10.17646	1.93215	-8.53697	0.77329
5903.472	-9.96807	1.65650	-8.81828	0.83264
5907.344	-9.85226	1.65447	-8.79608	0.78641
5911.472	-9.94342	1.88773	-8.73087	0.75126
5915.435	-10.00480	1.58086	-8.53037	0.91897
5919.472	-10.04870	1.51030	-8.64403	0.95090
5923.369	-10.05731	1.45796	-8.62729	0.99424
5927.473	-10.31201	1.28036	-8.62122	1.28405
5931.472	-10.34400	1.31485	-8.57068	1.38231
5935.451	-10.82550	1.26925	-8.61378	1.60226
5939.362	-10.69671	1.60946	-8.54998	2.52199
5943.471	-9.93636	1.21461	-8.49702	2.78828
5947.470	-10.07957	1.71067	-8.04514	1.96516
5951.471	-7.13014	2.54197	-7.39315	2.78490
5955.475	-6.96572	1.61819	-4.91876	3.27163
5959.470	-3.61050	2.36288	-0.02355	3.06582
5963.474	-2.25184	1.21115	-0.62434	1.49964
5967.474	-1.95445	1.88013	-0.17241	3.19619
5971.477	-0.94882	2.02957	1.58443	4.02991
5975.436	-0.56424	2.20109	3.81320	3.73776
5979.440	0.26925	2.24040	4.03974	3.25050
5983.473	0.58724	2.37596	3.91494	3.28062
5987.369	0.65853	2.33926	4.16569	3.40607
5991.474	0.39715	2.22169	3.89651	1.11737
5995.473	0.42954	2.23198	3.36062	3.13317
5999.347	0.52508	2.33885	4.28091	2.66337
6003.342	0.38695	2.25288	3.33728	3.74251
6007.347	-0.07063	2.75719	2.73697	2.09104
6011.347	-0.14064	2.84772	1.66931	0.78127
6015.348	-0.28808	2.79194	0.77967	0.91384
6019.348	-0.39534	3.29969	0.61483	0.88717
6023.331	-0.14412	3.26860	1.98717	0.81873
6027.348	-0.43001	3.29703	1.37225	0.92506
6031.350	-0.34114	3.22050	1.84627	0.90240
6035.321	-0.08780	3.43071	1.23677	1.21722
6039.312	0.30334	3.34385	1.11127	1.36554
6043.352	0.14491	3.43086	1.36829	1.25033
6047.348	-0.41869	3.51911	1.60930	0.84403
6051.340	-0.63568	3.45920	1.49887	0.57792
6055.349	-1.19405	3.44767	1.70306	0.44405
6059.349	-1.52895	3.35804	1.75570	0.49495
6063.350	-0.96378	3.17223	2.35662	0.46301
6067.377	-0.81513	3.11114	2.51549	0.45978
6071.346	-0.51935	3.12426	2.10773	1.39458
6075.348	-0.57587	3.49120	2.88643	1.26329
6079.352	-0.62945	3.29571	2.67806	1.10620
6083.340	-0.40378	3.31447	2.85712	1.46909
6087.353	-0.74707	3.08701	2.98715	0.71189
6091.352	-1.16438	2.77385	2.94351	1.35475
6095.349	-1.03712	2.68416	3.09216	1.53999
6099.341	-1.06555	2.40107	3.18237	1.28293
6103.350	-0.99258	3.04816	3.28880	1.52381
6107.330	-0.62737	2.57016	4.76702	0.90806
6111.348	-0.73290	2.40692	3.57533	1.86057
6115.374	-0.50381	2.06007	3.50284	1.44450
6119.349	-0.59084	2.19932	3.32530	1.30340
6123.349	-0.84071	2.22684	3.46202	1.85356
6127.352	-0.71940	2.15413	3.91168	1.69964
6131.344	-0.65034	2.11620	3.98286	1.62950
6135.350	-0.77228	1.98388	3.87467	1.53411
6139.352	-0.67677	2.26366	4.78814	1.21617
6143.349	-0.38216	2.14693	4.29251	1.41209
6147.317	-0.47185	2.08050	4.43803	0.89060
6151.340	-0.23624	2.01953	4.21634	1.51192
6155.349	-0.05924	2.05283	3.91788	1.37319
6159.353	-0.12369	2.12757	4.35728	1.02121
6163.375	-0.22003	2.27452	4.16166	1.15526
6167.350	-0.18918	4.37742	3.85960	1.02059
6171.352	-0.15355	3.71526	4.11562	1.47441
6175.351	-0.12022	4.30311	4.15241	1.50637
6179.352	-0.10200	4.23469	4.12478	2.57469
6183.351	-0.09396	3.52244	4.13098	2.01017
6187.352	-0.10406	3.87878	3.83552	2.23655
6191.319	-0.05921	3.22593	3.86986	2.31785
6195.344	-0.05802	3.38058	3.80085	1.40956
6199.350	-0.09145	2.96796	4.12053	1.91967
6203.350	-0.11994	3.17955	3.92102	1.84683
6207.350	-0.05383	2.86381	3.75081	1.31817
6211.341	0.00395	2.73585	3.82089	1.60950
6215.350	0.04949	2.61093	3.82684	1.27181
6219.350	-0.03675	2.81134	3.64738	1.57170
6223.354	0.06289	2.64832	3.62657	1.26479
6227.346	0.08525	2.63635	3.51256	0.67169
6231.314	0.14064	2.69843	3.33686	1.14048
6235.350	0.22172	2.64657	3.48345	1.14918
6239.353	0.24917	2.63035	3.67081	1.31489
6243.345	0.32032	2.69929	3.65366	1.49651
6247.351	0.34027	2.64726	3.66894	1.74409
6251.352	0.37022	2.74739	3.67420	2.06610
6255.354	0.46847	2.87906	3.79013	2.48244
6259.345	0.48974	3.04700	3.47290	2.35667
6263.354	0.53436	3.12227	3.81182	2.43048
6267.353	0.55379	3.24216	3.79144	2.61052
6271.315	0.55729	3.42657	3.65559	2.85342
6275.343	0.56766	3.40024	3.69454	2.91845
6279.359	0.65228	3.25319	3.90400	3.37035
6283.351	0.59491	3.01283	3.87312	3.62726
6287.352	0.60950	2.96655	3.77342	3.04863
6291.343	0.60503	3.29446	3.69684	3.63745
6295.353	0.57441	3.02649	3.67257	3.60068
6299.355	0.52386	3.00426	3.58512	3.41626
6303.355	0.56843	3.14413	3.71901	3.54706
6307.344	0.48297	3.25901	3.59164	3.56024
6311.357	0.54513	3.03669	3.33089	3.75163
6315.333	0.54210	2.63422	5.57210	2.64168
6319.353	0.40134	2.46254	5.83677	1.69552
6323.347	0.33779	1.94784	6.25345	1.38979
6327.355	0.16288	2.48355	0.86267	3.57526
6331.354	-0.18881	3.41604	2.54982	2.15289
6335.353	-0.26118	2.96429	0.92745	3.95167
6339.344	-0.83307	2.99929	3.28019	2.37811
6343.352	-0.46448	3.33535	4.23137	3.57269
6347.352	-0.24688	3.25127	4.10522	2.86464
6351.357	-0.30456	3.13369	3.88048	2.30379
6355.347	-0.36884	3.15212	4.20373	2.57288
6359.345	-0.36042	3.21492	3.29322	2.47285
6363.353	-0.20542	3.14659	3.22529	2.66612
6367.355	-0.45249	3.27242	3.81204	2.73940
6371.354	-0.18457	3.18247	3.63816	3.05241
6375.353	-0.20162	3.24194	3.58531	2.85765
6379.352	-0.11756	3.02755	3.37994	3.00558
6383.356	-0.08977	3.20980	2.98958	2.73131
6387.378	-0.00524	3.17684	2.98968	3.01263
6391.356	0.05624	3.11312	2.98963	2.90492
6395.353	0.08540	3.24208	3.26136	3.19866
6399.319	0.04904	3.24278	3.50422	3.53246
6403.350	0.12530	3.32651	3.62632	3.36060
6407.356	0.13617	3.40917	3.54480	3.52321
6411.355	0.06485	4.03016	3.72993	3.67952
6415.366	-0.09252	4.52247	3.66894	4.28701
6419.356	0.06135	4.19549	3.60596	4.81274
6423.355	0.14687	3.97290	3.71194	4.68103
6427.353	0.05854	4.14005	3.56106	4.68903
6431.355	-0.02244	4.62576	3.58373	5.47442
6435.354	-0.04673	4.45157	3.48734	5.65830
6439.340	0.17231	4.88476	0.77657	5.46021
6443.355	0.03398	5.39700	3.20417	5.71176
6447.354	-0.09245	5.58608	3.79109	4.25525
6451.347	-0.00985	4.85471	4.20743	4.43536
6455.353	0.10299	4.75882	4.71410	1.72862
6459.355	-0.00884	4.55319	4.70293	4.15171
6463.354	-0.13330	4.51234	4.58967	3.27366
6467.378	-0.17871	3.33730	3.71523	2.93633
6471.318	-0.46932	3.92973	4.21096	1.63289
6475.360	-0.12032	4.03146	3.48420	1.39000
6479.315	-0.21087	4.33988	3.29874	1.79700
6483.357	-0.47358	4.61748	4.14369	2.28506
6487.353	-0.44976	3.86654	3.63097	1.86199
6491.356	-0.45698	4.29355	4.11310	1.88250
6495.355	-0.34313	3.39612	3.25884	1.47102
6499.354	-0.41887	4.47832	3.70000	1.95387
6503.354	-0.48297	4.64245	3.53997	1.88514
6507.356	-0.41986	5.56305	3.15901	1.72256
6511.356	-0.33466	5.41671	3.76856	1.76515
6515.351	-0.13612	4.25811	3.56334	1.66847
6519.356	-0.06981	5.21175	3.72790	1.42127
6523.332	0.03167	5.27622	3.86343	0.47906
6527.356	-0.10786	5.56710	2.90656	-0.14999
6531.358	0.17938	5.47673	3.38644	-0.36953
6535.358	0.11381	5.70644	3.09552	-0.89260
6539.317	0.15687	5.74990	3.85629	-0.62260
6543.355	0.19162	5.67419	6.41552	1.30947
6547.349	0.24157	5.73268	6.15345	2.40199
6551.341	0.21028	5.58778	5.93760	2.30052
6555.356	0.06929	5.50293	4.93324	2.67114
6559.357	0.00117	5.60514	5.55718	3.86391
6563.317	0.12215	5.51814	4.70483	2.43182
6567.350	0.06520	5.58572	4.62495	4.41030
6571.321	-0.33069	5.67346	4.09927	2.44020
6575.359	-0.42097	5.50705	4.31410	2.53561
6579.351	-0.45959	5.27297	4.08609	2.21301
6583.360	-0.31856	4.60616	3.99963	1.12774
6587.319	-0.36261	4.98835	3.80310	0.11931
6591.359	-0.36380	4.62757	4.05105	-0.46257
6595.348	-0.31794	4.79187	3.76285	0.30783
6599.361	-0.04929	4.50212	4.11325	0.35720
6603.320	0.00278	4.49477	3.88804	0.21889
6607.325	0.12543	4.14358	3.65675	0.34497
6611.354	-0.19529	4.40634	3.70863	0.13145
6615.358	0.06083	4.50341	3.41948	0.41287
6619.373	0.01546	4.96867	3.52966	0.23743
6623.358	0.24363	4.73832	2.95757	0.29990
6627.365	0.18693	4.99175	3.63436	0.47809
6631.358	0.22132	5.66485	3.26458	0.11928
6635.357	0.23659	5.92335	3.72872	0.01902
6639.360	-4.52846	8.48714	3.23620	3.84137
6643.350	7.63640	10.23278	12.11937	3.71285
6647.343	3.76633	14.67168	6.49996	4.50263
6651.355	NaN	NaN	NaN	NaN
6655.317	NaN	NaN	NaN	NaN
6659.357	NaN	NaN	NaN	NaN
6663.385	NaN	NaN	NaN	NaN
6667.318	NaN	NaN	NaN	NaN
6671.357	NaN	NaN	NaN	NaN
6675.362	NaN	NaN	NaN	NaN
6679.359	NaN	NaN	NaN	NaN
6683.360	NaN	NaN	NaN	NaN
6687.358	NaN	NaN	NaN	NaN
6691.359	NaN	NaN	NaN	NaN
6695.356	NaN	NaN	NaN	NaN
6699.358	NaN	NaN	NaN	NaN
6703.358	NaN	NaN	NaN	NaN
6707.320	NaN	NaN	NaN	NaN
6711.358	NaN	NaN	NaN	NaN
6715.358	NaN	NaN	NaN	NaN
6719.359	NaN	NaN	NaN	NaN
6723.323	NaN	NaN	NaN	NaN
6727.321	NaN	NaN	NaN	NaN
6731.323	NaN	NaN	NaN	NaN
6735.359	NaN	NaN	NaN	NaN
6739.322	NaN	NaN	NaN	NaN
6743.259	NaN	NaN	NaN	NaN
6747.360	NaN	NaN	NaN	NaN
6751.362	NaN	NaN	NaN	NaN
6755.362	NaN	NaN	NaN	NaN
6759.257	NaN	NaN	NaN	NaN
6763.365	NaN	NaN	NaN	NaN
6767.363	NaN	NaN	2.05162	10.75338
6771.323	NaN	NaN	-1.54472	8.30869
6775.258	NaN	NaN	-1.45147	8.39609
6779.359	NaN	NaN	4.00628	8.25887
6783.357	NaN	NaN	8.00803	7.92670
6787.358	NaN	NaN	4.97982	4.20737
6791.360	-3.28672	-2.08781	11.85630	6.44312
6795.260	-3.29755	-1.78161	5.05341	3.91924
6799.361	-4.01322	2.41235	10.45368	4.56329
6803.362	-5.09180	2.16155	10.82579	3.59464
6807.363	NaN	NaN	4.22515	3.08851
6811.261	-6.19358	6.58023	5.67155	2.57166
6815.325	1.18165	6.36895	5.49111	3.82839
6819.364	1.37302	6.32745	2.16605	2.03656
6823.362	1.05198	7.56432	5.67099	2.43269
6827.258	1.23940	6.75726	3.28771	2.57705
6831.362	7.24974	7.18582	5.34156	2.22152
6835.359	1.24508	6.53871	3.47403	0.94711
6839.362	-1.82581	5.25188	3.22247	2.60032
6843.263	-1.75726	4.74808	-1.07813	2.31703
6847.360	1.38079	6.48260	-1.08411	2.33634
6851.367	1.51935	6.42184	-1.32957	2.17999
6855.345	-1.53996	4.85686	-1.40336	2.30925
6859.262	1.69612	5.55933	-1.27787	2.10276
6863.364	2.85081	5.69474	1.34472	3.06161
6867.364	-1.13392	4.19708	1.02062	2.40227
6871.326	-0.12761	3.92312	-0.45023	1.98606
6875.363	-1.28777	3.45993	-1.05694	2.09017
6879.360	-1.22866	3.66900	-0.60883	2.07745
6883.367	-0.99127	3.59043	-0.85478	1.87742
6887.359	-0.96494	3.54628	-0.63369	1.84636
6891.259	-1.07721	3.62057	-0.22269	1.77986
6895.361	-0.89493	3.34736	-0.82900	2.09877
6899.360	-0.76622	3.48079	-0.34419	1.95913
6903.363	-0.72925	3.30438	-0.54031	1.63786
6907.366	-0.82476	3.56423	0.02335	1.69948
6911.364	-0.91768	3.81180	1.38493	-0.12520
6915.326	3.10245	5.28073	0.70851	-0.22233
6919.364	2.99062	6.08661	0.97147	0.09869
6923.260	3.58489	6.23507	1.11869	0.28705
6927.364	3.13843	6.10505	1.24297	0.81577
6931.364	-1.24238	4.41860	0.45800	1.58351
6935.365	-0.93981	4.40212	-0.32568	1.62974
6939.263	-0.96219	4.67971	0.84466	1.46125
6943.362	-1.11851	5.16141	0.72253	1.53114
6947.362	-1.23908	4.79359	0.95318	1.83572
6951.362	-1.52538	4.80976	0.50443	1.89828
6955.363	-1.58336	4.85311	0.77684	2.19722
6959.362	-1.66725	4.99005	0.77789	2.43333
6963.364	-1.76765	4.97322	0.66243	2.29696
6967.362	-2.03851	4.85515	0.47224	2.42013
6971.232	-2.04679	4.94696	0.31670	2.60422
6975.364	-2.11403	4.85638	0.12486	2.42784
6979.329	-2.26009	5.14935	0.51284	2.62114
6983.357	-2.00658	4.92450	0.71228	2.46759
6987.232	-2.23070	4.98989	0.63295	2.57717
6991.365	-2.28995	4.94917	0.51101	2.48748
6995.364	-2.04210	4.95316	0.80342	2.54670
6999.363	-2.31396	4.94239	0.52344	2.48028
7003.262	-2.14922	4.98599	0.64114	2.42571
7007.362	-2.04032	5.08224	0.51572	2.40679
7011.365	-1.88556	4.96668	0.63541	2.18367
7015.366	-0.82235	5.41748	0.63285	1.87136
7019.260	-0.43658	5.37379	0.69630	2.20694
7023.330	-1.51479	5.18144	0.79153	1.93351
7027.364	-0.14230	5.48684	0.60235	1.86553
7031.366	-1.78010	5.04972	0.70829	1.95551
7035.211	-1.48845	4.99203	0.95750	1.60228
7039.241	-0.54994	5.28250	0.88848	1.57207
7043.240	-0.19450	5.30829	0.86123	1.36515
7047.241	-0.47177	5.41021	0.96259	1.32136
7051.260	-1.24518	5.30101	1.06232	1.46764
7055.241	-1.73199	5.44843	0.99794	1.89792
7059.242	-2.13430	5.11875	-1.26974	2.68099
7063.242	-2.74175	5.05001	-2.09665	1.76692
7067.238	-4.04498	4.85542	-2.46877	2.36443
7071.202	-4.53672	4.68491	-2.69235	2.15834
7075.237	-4.66028	4.23814	-2.72825	2.74164
7079.238	-4.80487	3.81966	-2.56285	2.35472
7083.236	-4.83457	4.05226	-2.84019	2.47449
7087.245	-4.85827	3.65788	-3.00834	2.19574
7091.242	-4.86640	3.42378	-2.66375	1.77006
7095.242	-4.88934	3.17214	-2.77733	2.04531
7099.263	-5.06801	3.22879	-2.68910	2.01281
7103.239	-5.08798	3.31748	-2.76752	2.06586
7107.203	-4.98280	3.46544	-2.69569	1.82737
7111.244	-5.11140	3.18989	-2.71206	1.72354
7115.277	-5.17078	3.08572	-2.64809	1.62532
7119.241	-5.17607	3.06504	-2.88339	1.27897
7123.242	-5.13712	2.99242	-2.94077	1.29795
7127.239	-5.13762	3.03129	-2.71441	1.35767
7131.262	-5.13006	2.93299	-2.79159	1.37489
7135.243	-5.17887	2.95641	-2.58009	1.23088
7139.239	-5.19982	3.08762	-2.83128	1.25712
7143.240	-5.14510	3.16132	-3.07530	1.26277
7147.241	-5.07257	3.23388	-2.86747	0.82313
7151.224	-5.08958	3.07152	-2.65000	1.07494
7155.228	-5.10706	3.32114	-3.01334	0.68582
7159.241	-5.01733	3.26127	-3.04870	0.27017
7163.213	-4.96440	3.28179	-3.16661	0.39397
7167.205	-5.04413	3.42600	-2.99985	0.79088
7171.240	-4.96327	3.63085	-3.31830	0.97053
7175.242	-4.93270	3.61666	-2.44090	0.65351
7179.264	-4.88047	3.69255	-2.91532	0.48117
7183.252	-5.00391	3.69221	-3.10243	0.56122
7187.245	-4.97344	3.63222	-2.86987	0.63876
7191.243	-4.94610	3.86603	-2.85393	0.68917
7195.232	-4.90659	3.94776	-2.97185	0.73205
7199.243	-4.89060	3.91584	-2.84417	0.58088
7203.242	-4.89589	4.02864	-2.96143	0.60775
7207.242	-4.97962	4.06564	-3.33789	0.71034
7211.232	-4.88151	4.13201	-2.86170	0.39443
7215.241	-4.98093	4.14354	-2.93465	0.53404
7219.242	-5.02068	4.02076	-2.96225	0.50254
7223.245	-5.00438	4.01167	-2.86502	0.45917
7227.263	-5.06006	4.05263	-3.07686	0.54362
7231.246	-5.13267	3.97849	-3.05442	0.29632
7235.220	-5.06247	3.93197	-3.08716	0.13722
7239.246	-5.16691	3.93325	-2.96168	-0.50122
7243.240	-5.11935	3.86156	-3.26198	-0.36836
7247.242	-5.18505	3.86195	-2.82623	-1.21555
7251.242	-5.05725	3.77807	-2.28133	-1.46276
7255.245	-5.13722	3.70293	-3.34079	-0.17839
7259.233	-5.24594	3.55755	-3.31912	-0.31855
7263.243	-5.17307	3.57364	-3.51112	-0.88553
7267.243	-5.29292	3.57360	-4.47644	0.68993
7271.206	-5.33979	3.56603	-4.02747	0.62778
7275.259	-5.37517	3.42878	-3.83974	-0.64820
7279.237	-5.37037	3.44863	-4.73700	1.14641
7283.241	-5.46615	3.42787	-4.81857	0.11165
7287.253	-5.27936	3.40000	-3.77318	0.41750
7291.251	-4.83972	3.42542	-1.55291	0.49952
7295.240	-4.61147	3.48854	-1.81136	-0.32486
7299.241	-4.71528	3.57768	-1.99481	0.01937
7303.242	-4.44817	4.16376	-2.52627	0.93857
7307.266	-4.40678	3.77683	-2.37914	0.73697
7311.244	-4.65883	3.80737	-2.16634	0.55293
7315.242	-4.57310	4.11943	-2.09415	0.86801
7319.215	-4.37120	4.27584	-2.49169	1.45494
7323.210	-4.41186	4.48283	-2.60513	1.42787
7327.246	-4.57749	4.48856	-2.49414	2.21914
7331.245	-4.70059	4.52116	-2.56186	2.34553
7335.241	-4.75713	4.52074	-2.43392	2.86757
7339.236	-4.89663	4.69102	-2.53417	2.99128
7343.244	-4.80026	4.78138	-2.38013	2.95448
7347.241	-5.04691	4.71550	-2.71835	2.84903
7351.247	-5.08690	4.77143	-2.68908	3.08814
7355.268	-5.15977	4.88049	-2.69039	2.85938
7359.227	-5.16588	4.87044	-2.75960	3.23111
7363.248	-5.25158	4.92923	-2.63336	3.16827
7367.242	-5.32385	4.90547	-2.72583	3.21252
7371.243	-5.34228	4.91129	-2.82345	2.86304
7375.246	-5.37952	4.88896	-2.76577	3.17302
7379.244	-5.50014	4.70871	-2.85898	3.08646
7383.243	-5.50353	4.28097	-2.68640	2.70860
7387.247	-5.65823	4.05628	-2.75074	2.26347
7391.245	-5.65924	2.54428	-2.54427	2.04875
7395.244	-5.79005	3.12290	-2.24151	0.62247
7399.250	-5.72355	2.93714	-2.51200	1.08890
7403.270	-5.78588	2.72603	-2.49998	1.51140
7407.245	-5.79121	2.67302	-2.50363	0.94968
7411.247	-5.73627	2.56664	-2.79307	0.84381
7415.244	-5.53092	2.49813	-2.45800	0.70014
7419.267	-5.54904	2.86798	-2.56656	1.53290
7423.246	-5.35534	2.94553	-3.35647	1.31985
7427.243	-5.46637	2.87154	-2.37231	3.51780
7431.245	-5.46866	2.80258	-2.38321	3.53905
7435.265	-5.65346	2.85302	-2.32885	2.78967
7439.248	-5.32353	3.00189	-2.27659	3.22124
7443.226	-5.35460	3.05232	-2.50425	3.37525
7447.244	-5.19896	3.18030	-2.19745	3.51457
7451.248	-5.30709	3.25056	-2.21653	3.45730
7455.243	-4.41381	3.20917	-2.12392	3.71419
7459.244	-4.84782	3.19070	-4.26343	3.93700
7463.243	-4.27054	3.22767	-4.39419	3.20190
7467.244	-4.18697	3.15461	-3.89871	3.32867
7471.209	-4.33717	3.23680	-4.46682	3.29816
7475.205	-4.56207	3.16363	-4.52570	3.65458
7479.208	-4.51558	3.22466	-2.09336	2.86902
7483.263	-4.44583	3.18182	-2.61766	3.25873
7487.251	-4.31864	3.46633	-4.20079	2.69760
7491.246	-4.34697	3.50271	-2.43241	2.09896
7495.247	-4.29147	3.76472	-2.74088	3.29548
7499.249	-4.45873	3.05411	-3.06392	3.09153
7503.245	-4.40685	3.46923	-2.56822	3.18224
7507.247	-4.47008	3.65821	-2.68668	3.33499
7511.246	-4.71186	3.21866	-2.81669	3.21539
7515.244	-4.75396	3.66134	-2.83605	3.58413
7519.245	-4.76529	3.52244	-2.75923	3.14550
7523.246	-4.87091	3.23610	-2.33985	2.53923
7527.221	-4.77619	3.24652	-2.22158	2.42166
7531.242	-4.80302	3.02297	-2.50568	3.33124
7535.244	-4.63237	2.91424	-2.16077	2.30669
7539.206	-2.62207	2.83767	-1.83791	2.05716
7543.248	-4.09039	3.03954	-2.48750	2.96834
7547.213	-0.89592	3.11938	-1.08569	2.25845
7551.212	-0.94266	3.77536	-0.10771	5.04412
7555.254	-2.78354	4.02715	0.49639	3.89983
7559.247	-1.54616	3.87777	1.24186	3.78669
7563.241	-1.56283	3.19559	1.96531	3.76092
7567.233	-1.56888	3.40872	1.44165	3.80423
7571.210	-0.94978	4.32410	1.45971	4.13232
7575.244	-0.71389	4.57096	1.10693	4.17376
7579.250	-0.76357	4.59829	1.96811	4.55555
7583.250	-1.05987	4.66984	1.42707	4.30006
7587.253	-0.99965	4.54942	1.50299	4.12771
7591.251	-0.91676	4.78509	1.79016	4.41141
7595.248	-0.91009	4.91261	1.68166	4.22386
7599.212	-0.78729	4.82951	1.70264	4.17796
7603.262	-0.90837	4.81428	1.79460	4.21323
7607.212	-0.83158	4.98793	1.59189	4.41875
7611.220	-0.80290	4.90534	1.67365	4.34491
7615.249	-0.97943	5.13665	1.58495	4.47162
7619.247	-0.92435	4.86303	1.56982	4.34560
7623.250	-1.00092	4.92560	1.59199	4.13320
7627.250	-1.06860	4.90142	1.27991	4.18079
7631.250	-1.13591	5.05692	1.49813	4.15125
7635.250	-1.18706	5.12619	1.49170	3.99444
7639.250	-1.20001	5.07833	1.40232	3.58816
7643.242	-1.26934	4.97806	1.27720	3.62529
7647.251	-1.31342	5.00889	1.26872	3.77287
7651.227	-1.30444	4.97331	1.30122	3.52171
7655.250	-1.25528	5.07258	1.21082	3.50236
7659.250	-1.16696	4.94336	1.25413	2.90104
7663.249	-1.17212	4.97412	1.27646	3.24430
7667.247	-1.18897	4.95340	1.24357	3.10295
7671.251	-1.10661	4.85252	1.59762	2.59554
7675.242	-1.19944	4.86443	1.34108	2.52067
7679.251	-1.12238	4.71547	1.27413	2.60248
7683.252	-1.01442	4.69506	1.67628	2.30524
7687.254	-0.97194	4.50780	1.78265	2.25137
7691.254	-1.00831	4.55861	1.95901	2.26059
7695.240	-0.97053	4.46543	1.87728	2.21145
7699.251	-0.97871	4.41319	2.03060	2.40340
7703.252	-0.99779	4.36220	2.05080	2.22615
7707.243	-1.05178	4.34985	2.21953	2.36458
7711.250	-1.13360	4.24869	1.88819	2.10197
7715.248	-1.07190	4.22521	1.86213	2.18593
7719.251	-1.08974	4.25896	2.12216	2.07558
7723.146	-1.25649	4.33566	2.03291	2.12277
7727.222	-1.28363	4.18654	2.08577	2.34379
7731.251	-1.40765	4.26369	2.00757	2.38486
7735.224	-1.37404	4.11359	1.90187	2.28618
7739.137	-1.60454	4.20638	1.69021	2.33279
7743.249	-1.58686	3.93706	1.71402	2.35176
7747.249	-1.61062	4.07061	1.59531	2.24206
7751.250	-1.58998	3.97075	1.32788	2.09485
7755.251	-1.72575	4.07184	1.54897	2.13005
7759.251	-1.77087	4.08842	1.64434	2.05737
7763.248	-1.79743	3.94998	1.30499	1.80147
7767.252	-1.75518	3.73018	1.42573	2.07006
7771.254	-1.75867	3.61654	1.36811	1.97994
7775.237	-1.81302	3.50460	1.20336	1.82790
7779.249	-1.84428	3.31576	1.08408	1.89915
7783.252	-1.75976	2.95898	0.98633	1.73505
7787.152	-1.68754	3.24900	1.10375	1.83049
7791.251	-1.78081	3.28600	1.20693	1.84944
7795.250	-1.68677	3.23283	1.16788	1.82157
7799.252	-1.09862	3.17459	1.14851	1.82424
7803.243	-1.48768	3.25288	0.96780	1.91382
7807.253	-1.45624	3.16722	0.47344	1.91209
7811.255	-1.48200	3.27869	1.29831	1.84444
7815.252	-1.24111	3.41793	0.87962	2.00800
7819.169	-0.66665	3.05129	0.83185	1.95250
7823.248	-0.85178	3.36859	0.99817	1.93326
7827.248	-0.72714	3.28826	0.90718	2.16743
7831.249	-1.02226	3.57624	0.94311	2.23747
7835.253	-1.14169	4.03779	0.87024	2.25195
7839.251	-0.84461	3.95315	1.93675	2.39662
7843.251	-0.74600	3.88592	1.74764	2.49760
7847.211	-0.83659	4.10573	1.23717	2.45518
7851.151	-0.90304	4.14837	0.91493	2.35410
7855.254	-0.96365	4.22624	1.63965	2.42197
7859.230	-1.16962	4.29593	0.95256	2.37665
7863.255	-1.08743	4.29780	1.46688	2.37188
7867.253	-0.99963	4.24028	1.75366	2.43256
7871.252	-1.13945	4.34741	1.71984	2.48185
7875.253	-1.07765	4.36763	1.96367	2.33608
7879.215	-0.83965	4.21857	2.27013	2.32353
7883.256	-0.97799	4.29503	2.12880	2.24436
7887.251	-0.95356	3.91871	1.81014	2.12825
7891.254	-0.91550	3.92434	2.16543	2.12095
7895.254	-1.07314	3.84368	2.09514	2.07581
7899.151	-1.01692	3.69809	2.10002	2.12650
7903.254	-0.93232	3.71340	2.06257	2.11866
7907.252	-1.05629	3.59070	2.11261	1.93903
7911.213	-0.95093	3.43356	1.99962	1.85465
7915.149	-0.93832	3.46774	2.16466	1.83960
7919.257	-0.96762	3.52912	1.98978	1.84119
7923.254	-1.00221	3.42760	1.86950	1.74964
7927.253	-1.07560	3.37870	2.09698	1.71249
7931.254	-1.10678	3.39384	1.95527	1.69686
7935.256	-1.23268	3.43728	1.85028	1.47517
7939.254	-1.20648	3.44107	1.73113	1.40335
7943.224	-1.25572	3.45104	1.69292	1.48582
7947.141	-1.37657	3.46097	1.70403	1.51353
7951.253	-1.44932	3.63685	1.42930	1.58167
7955.253	-1.64617	3.91425	0.78970	1.43147
7959.256	-1.75441	3.82712	1.38262	1.61651
7963.154	-1.48496	3.46234	1.34881	2.15646
7967.254	-1.53753	3.50247	1.42647	1.84374
7971.251	-1.43389	3.65979	1.34264	1.60593
7975.213	-1.41112	3.21684	2.05221	1.45720
7979.155	0.15593	3.24861	4.07955	1.26394
7983.239	1.06376	3.59891	3.15399	1.94554
7987.248	1.44855	3.77036	2.79156	2.16191
7991.259	2.55834	3.95684	3.45724	1.50892
7995.256	1.53560	3.43828	4.43969	1.84514
7999.254	-1.06969	4.51888	4.25882	2.04058
8003.256	-0.44125	4.70463	3.70628	2.07581
8007.255	-0.65074	5.10302	4.17203	1.92276
8011.156	-0.50463	4.73223	4.31716	1.97294
8015.257	-0.66580	5.21734	3.94498	1.91466
8019.252	-0.12573	4.93223	3.77293	2.02424
8023.256	0.27292	5.10859	3.89063	1.97887
8027.149	-0.51260	5.14481	3.94866	2.26714
8031.254	-0.36288	5.33748	4.08048	2.24891
8035.254	2.23323	4.42601	3.84708	2.13957
8039.216	-0.39459	5.33726	3.93796	2.33729
8043.153	2.21786	5.25365	3.88023	2.50883
8047.256	2.05130	4.95525	4.18272	2.35494
8051.254	2.52141	5.02949	3.75934	2.62262
8055.254	2.32905	5.16630	3.92588	2.88220
8059.156	2.12491	5.18886	3.67643	2.81568
8063.256	2.09824	5.33777	3.96446	2.72162
8067.131	1.45916	5.18881	4.00902	2.89398
8071.132	2.14144	5.32812	3.89350	2.78542
8075.121	2.06297	5.26937	3.76413	2.85527
8079.132	2.14575	5.27456	4.12374	2.82590
8083.132	2.07360	5.23961	3.83623	2.78224
8087.131	1.65242	5.24041	4.05191	2.71799
8091.262	1.63494	5.16454	3.50808	2.79814
8095.131	1.60161	5.17689	4.08029	2.78674
8099.136	1.33182	5.25659	3.80540	2.76819
8103.133	1.43458	5.28268	3.90461	2.76876
8107.122	1.36476	5.42544	3.65932	2.65441
8111.141	0.96648	5.48945	3.65784	2.57016
8115.130	1.44827	5.59524	3.55473	2.03278
8119.131	1.71908	5.46053	3.55822	2.24314
8123.164	1.10936	5.59044	3.51532	2.07941
8127.129	0.70347	5.79044	3.78024	2.13969
8131.131	1.29754	5.93179	3.68488	1.89874
8135.131	1.63841	5.88366	3.77975	2.41401
8139.260	0.48629	5.95229	3.99973	1.95189
8143.130	1.82031	5.97711	3.70591	2.14113
8147.131	2.02696	6.02137	3.85096	1.91096
8151.133	1.41387	6.18558	3.35946	2.11572
8155.125	0.78876	6.00117	3.99000	2.09279
8159.129	1.02841	6.08078	4.10690	2.19704
8163.133	0.81260	6.14334	3.46649	2.51913
8167.132	1.67082	6.08842	3.09003	2.32586
8171.156	2.16335	5.99046	3.25832	2.50468
8175.130	1.73552	6.17585	3.27304	2.79656
8179.132	1.93948	5.94823	2.84093	3.39058
8183.134	1.85395	5.95349	2.92441	3.16922
8187.156	1.76834	6.12467	3.45356	3.47092
8191.138	1.88655	6.56159	3.60956	3.37992
8195.134	2.18007	7.29774	3.72187	5.18513
8199.128	6.85508	9.10088	9.00561	6.82645
8203.128	5.94357	10.23500	16.35292	6.72773
8207.131	NaN	NaN	4.45937	5.71063
8211.132	NaN	NaN	NaN	NaN
8215.131	NaN	NaN	NaN	NaN
8219.098	NaN	NaN	NaN	NaN
8223.132	NaN	NaN	NaN	NaN
8227.131	NaN	NaN	NaN	NaN
8231.094	NaN	NaN	NaN	NaN
8235.135	NaN	NaN	NaN	NaN
8239.112	NaN	NaN	NaN	NaN
8243.132	NaN	NaN	NaN	NaN
8247.131	NaN	NaN	NaN	NaN
8251.133	NaN	NaN	NaN	NaN
8255.103	NaN	NaN	NaN	NaN
8259.132	NaN	NaN	NaN	NaN
8263.135	NaN	NaN	NaN	NaN
8267.133	NaN	NaN	NaN	NaN
8271.100	NaN	NaN	NaN	NaN
8275.130	NaN	NaN	NaN	NaN
8279.122	NaN	NaN	NaN	NaN
8283.125	NaN	NaN	NaN	NaN
8287.143	NaN	NaN	NaN	NaN
8291.103	NaN	NaN	NaN	NaN
8295.132	NaN	NaN	NaN	NaN
8299.133	NaN	NaN	NaN	NaN
8303.131	NaN	NaN	NaN	NaN
8307.096	NaN	NaN	NaN	NaN
8311.135	NaN	NaN	NaN	NaN
8315.133	NaN	NaN	NaN	NaN
8319.159	NaN	NaN	7.37877	8.26203
8323.105	NaN	NaN	8.03239	5.70385
8327.135	NaN	NaN	7.14770	2.01217
8331.135	8.82926	12.03220	7.60926	5.41679
8335.125	8.80674	8.81726	8.80466	5.45267
8339.135	7.79437	7.00105	2.18709	0.37383
8343.136	10.14323	6.34272	8.50615	6.59809
8347.135	8.52705	8.33127	1.47784	2.12280
8351.102	8.53052	7.99122	11.93560	6.54245
8355.137	8.85950	8.02810	7.96743	6.21456
8359.138	10.23675	7.15590	10.93323	5.15372
8363.119	11.35310	7.77780	10.26497	5.59970
8367.124	10.28784	6.66169	12.72388	6.09376
8371.134	8.64650	6.16694	10.74882	5.30190
8375.134	8.48284	6.10798	8.28138	5.42658
8379.135	5.02578	6.69573	7.94292	5.78457
8383.134	5.67182	6.05388	8.23505	3.97714
8387.137	3.50365	6.03574	8.31268	5.78657
8391.136	2.48743	5.65875	7.68164	2.35864
8395.136	2.96832	5.75359	4.86768	3.05248
8399.158	3.35818	6.08953	5.65983	0.45410
8403.132	3.26871	5.96907	5.19610	0.24730
8407.130	3.37497	6.38846	5.25436	0.39106
8411.135	3.22148	6.34354	5.10435	0.70476
8415.133	3.33819	7.60417	6.69344	1.97809
8419.134	3.29327	6.23054	4.90129	1.56659
8423.097	2.98309	5.85080	6.64337	0.77290
8427.135	2.73204	6.77704	6.10038	0.93002
8431.156	2.14801	5.57747	5.65371	0.90421
8435.136	2.55485	5.70187	5.25982	1.26773
8439.134	2.57704	5.66016	4.21994	1.05868
8443.137	3.06694	5.80140	4.41087	0.89326
8447.126	2.91611	5.61555	5.92257	0.31449
8451.137	2.98171	5.45850	5.45383	0.93370
8455.136	2.85861	5.15509	6.29570	0.94758
8459.134	2.36802	4.88388	5.80241	1.33491
8463.130	2.67833	4.99490	5.62766	2.19699
8467.139	2.44767	4.59400	5.36779	0.46971
8471.099	2.36926	4.74316	5.14874	0.16963
8475.138	2.39245	4.64231	4.48559	2.15624
8479.141	2.41482	4.30981	5.66319	2.12555
8483.136	2.84356	4.44199	5.42550	4.85112
8487.123	3.47856	4.18404	5.27454	3.79641
8491.099	3.07610	4.11523	5.46967	2.80038
8495.159	2.50799	4.36233	5.73224	0.48007
8499.136	2.34161	5.63081	5.60603	0.27512
8503.134	2.40067	8.29757	4.95223	2.25533
8507.137	2.23258	8.16738	4.18790	1.52980
8511.159	2.26321	7.51387	5.07148	3.48359
8515.137	2.53734	7.27698	7.55254	2.51451
8519.137	2.61644	7.07293	6.35471	3.03133
8523.139	2.37493	6.57891	5.77585	3.29151
8527.128	2.02118	6.85806	5.72404	3.33106
8531.111	2.65278	6.37784	5.48037	0.75736
8535.137	2.29106	6.42196	4.75322	5.00613
8539.097	1.82011	6.69181	5.63938	3.73253
8543.133	2.70451	6.28077	5.54995	3.83525
8547.135	2.74568	5.91507	5.62431	3.73073
8551.139	2.41881	5.94016	5.59010	3.95036
8555.142	1.88207	5.78384	4.81579	4.65410
8559.141	2.01261	5.04867	4.99253	4.22484
8563.137	2.25858	4.67033	4.24813	3.76641
8567.140	2.58180	5.01879	4.85113	3.58630
8571.101	2.73677	4.85669	5.43248	2.84359
8575.136	2.60394	4.57283	6.87753	3.06464
8579.139	2.72177	4.54014	5.63633	3.20850
8583.139	2.86551	4.14524	4.92893	3.85852
8587.138	3.28392	3.78752	4.98073	3.44994
8591.132	2.69205	4.11034	4.65523	3.20499
8595.141	1.91248	5.76029	4.49057	3.38350
8599.131	1.95036	6.30444	4.75866	2.65347
8603.140	2.37406	7.03153	5.96893	2.83014
8607.141	3.37571	5.10350	4.94191	2.67021
8611.131	2.88329	4.00786	5.01585	3.11662
8615.134	2.94485	4.01903	5.21631	3.35122
8619.138	3.71851	3.99315	4.52863	3.35272
8623.140	2.99571	6.03527	5.08535	3.34069
8627.137	2.16050	5.39188	4.94332	3.66661
8631.140	2.21422	5.80494	4.51297	3.47241
8635.138	2.52414	6.48293	4.98549	3.58804
8639.131	1.83422	6.39126	5.47788	3.47545
8643.139	2.64517	6.90442	5.62702	3.36570
8647.139	2.72073	5.75533	5.41251	3.71824
8651.139	3.03739	6.11468	5.39566	4.01165
8655.132	3.18296	6.03102	5.79401	3.70159
8659.139	2.43617	5.28142	5.40811	3.92894
8663.139	2.01836	5.81430	4.97859	4.15594
8667.138	1.14365	5.92476	4.30233	4.29289
8671.139	-0.87498	6.15754	1.27061	4.02564
8675.139	-1.25666	5.60442	0.51758	4.16280
8679.140	-3.62657	5.45301	-1.71206	4.24808
8683.149	-3.42636	4.96227	-0.75417	2.97618
8687.138	-3.38004	4.93690	-0.68402	2.40808
8691.140	-2.89284	4.57947	-0.63461	2.73097
8695.128	-3.04647	4.32129	-1.30804	2.07740
8699.131	-3.19524	3.98644	-1.34383	2.22954
8703.142	-3.16990	4.06092	-1.63437	2.25447
8707.138	-3.13296	4.39894	-1.75389	2.44442
8711.138	-3.54996	4.06416	-1.97614	2.70516
8715.139	-3.73870	3.89911	-1.97785	2.69552
8719.141	-3.59120	3.78831	-0.86887	2.27835
8723.139	-3.13667	3.89196	-0.94768	2.44198
8727.139	-3.37477	3.83459	-0.61709	2.31924
8731.143	-3.35897	3.64085	-0.25612	2.75761
8735.143	-3.20627	3.75686	-0.26830	3.00014
8739.106	-3.37492	3.60514	-0.56523	3.36159
8743.139	-3.27019	3.88836	-0.63131	3.12618
8747.138	-3.55310	3.83883	-0.85123	3.16697
8751.139	-3.77303	3.92001	-4.58469	-7.39184
8755.137	-3.44641	3.85836	-4.92166	-0.02557
8759.139	-3.57592	4.17522	-0.67945	1.66955
8763.140	-3.55637	4.11851	-0.79399	2.13214
8767.145	-3.72007	4.37629	-1.16042	1.54222
8771.140	-3.63213	4.20442	-0.07721	3.24391
8775.142	-3.68006	3.72487	-0.48133	2.32125
8779.143	-3.63685	4.08174	-0.66593	3.70602
8783.107	-3.81108	4.04844	-0.57262	4.32312
8787.139	-3.74147	3.92610	-0.76275	2.38115
8791.144	-3.90375	3.01733	-1.12675	2.14748
8795.145	-3.53703	3.57461	-0.96740	2.23482
8799.122	-3.16503	4.06743	-1.26435	2.13768
8803.142	-3.33070	3.89573	-1.48426	3.81769
8807.142	-3.46446	3.72206	-1.18919	3.64156
8811.138	-3.63354	3.72250	-1.23092	3.07217
8815.141	-4.02166	3.69934	-1.21333	2.57331
8819.136	-4.22535	3.96412	-1.24225	2.50688
8823.106	-3.21025	3.74284	-1.36930	2.60193
8827.143	-3.09245	3.39490	-1.23169	2.40973
8831.036	-3.04083	3.57149	-1.14394	2.72385
8835.141	-3.26072	3.24409	-0.96187	2.78938
8839.143	0.54081	3.24793	-1.29759	2.86224
8843.142	-0.24790	3.20750	-1.29536	2.81612
8847.042	-4.98492	3.26336	-1.52558	3.23601
8851.142	-2.62353	3.33946	-1.42789	3.20213
8855.142	-3.03177	3.38951	-1.26311	3.40966
8859.145	-2.99485	3.27336	-1.49374	2.94889
8863.044	-3.10272	3.23905	-1.55033	2.84235
8867.143	-3.24360	3.38600	-1.49979	2.61145
8871.142	-3.52015	3.80457	-1.57808	3.01157
8875.142	-3.69600	3.86748	-1.61476	2.71437
8879.147	-4.06058	4.05103	-1.51697	3.94421
8883.143	-4.06041	4.27533	-1.42238	2.90682
8887.142	-4.30139	3.91246	-1.43496	2.67181
8891.142	-4.26731	4.19118	-1.17143	4.16143
8895.041	-3.17856	3.64669	-1.15471	3.68659
8899.144	-3.09386	3.76717	-0.75188	3.27541
8903.143	-1.92674	3.16653	-0.87480	3.47800
8907.132	-2.87403	3.83194	-0.91956	2.20632
8911.008	-2.61149	4.69458	0.14933	3.70430
8915.143	0.13804	5.11961	-0.38703	3.94223
8919.145	-0.36499	5.45082	1.94407	3.90751
8923.140	0.34861	4.66974	2.47858	3.52742
8927.041	0.12243	5.03093	4.26975	3.55730
8931.145	0.75776	5.03319	4.87246	1.86320
8935.145	1.35184	4.85711	3.56200	3.00134
8939.146	1.07507	4.98814	4.27249	1.62709
8943.149	1.33917	4.99691	2.38556	1.68484
8947.146	0.96465	4.74924	2.85618	1.68728
8951.143	0.71449	5.02818	3.01702	1.85839
8955.144	1.09135	4.99911	3.32506	1.40843
8959.016	0.60603	5.22403	3.46234	1.66848
8963.143	0.89232	4.96191	2.51413	1.37545
8967.145	0.88083	4.97778	3.87949	1.34322
8971.143	0.90753	4.97646	2.98648	1.62661
8975.039	0.44636	4.82501	3.40606	1.47286
8979.143	0.61439	5.16470	3.51903	1.54952
8983.147	0.57009	5.18025	3.48682	1.48870
8987.143	0.38583	5.41412	3.86291	0.91651
8991.045	0.46927	5.39172	3.88374	1.71926
8995.149	0.50862	5.60288	2.67665	1.43067
8999.159	0.64198	3.28668	2.53922	1.58833
9003.144	0.46051	3.04867	3.34304	1.58116
9007.041	0.57012	2.87507	3.69976	1.76747
9011.147	0.31444	3.47954	3.37091	2.89002
9015.146	0.53495	3.03008	3.42497	2.89881
9019.142	0.57808	3.14754	3.31803	1.81451
9023.043	0.93192	3.56032	3.53844	2.05724
9027.142	0.48701	4.27393	3.65134	2.11766
9031.138	0.72814	3.97710	2.60941	2.26601
9035.112	0.62987	3.89826	3.13662	2.79127
9039.011	0.75402	3.77661	3.37672	3.30248
9043.143	0.51602	4.42538	3.56868	3.70300
9047.145	0.67183	4.50258	3.43622	3.08376
9051.141	0.65419	4.44325	3.56786	2.98863
9055.147	0.66032	4.63478	3.17304	2.82374
9059.144	0.61317	4.89997	2.93099	3.08908
9063.147	0.57654	5.15392	3.64382	3.46956
9067.144	0.51369	5.08029	3.50722	3.80448
9071.045	0.49165	4.95870	3.19338	-7.53573
9075.145	1.04647	4.72689	3.80013	3.03768
9079.143	0.61337	4.70823	2.13162	2.80229
9083.145	0.69620	5.04637	3.45616	3.05147
9087.147	0.49614	5.31453	3.49080	3.01391
9091.148	0.16928	5.30583	3.02663	2.98113
9095.147	0.38499	5.42365	3.41555	2.34576
9099.114	0.56999	5.69264	3.36196	2.29547
9102.995	0.65975	4.98972	3.17799	0.84927
9107.020	0.61273	4.95024	3.41370	1.61847
9111.023	0.32962	5.17302	3.28590	1.41255
9115.022	0.47443	5.40506	3.73413	0.81510
9118.981	0.58032	5.20439	4.29989	1.85234
9123.022	0.35412	5.23487	3.81827	0.56075
9127.019	0.48820	5.21874	3.49490	-0.82491
9131.020	0.79625	5.30071	3.72496	-0.33951
9135.015	0.45113	4.84158	4.08429	-0.28623
9139.021	0.51825	5.05033	4.35272	0.61562
9143.020	0.55183	4.83275	5.05171	0.78770
9147.021	0.78992	3.91633	3.42473	-0.79956
9151.012	0.56486	3.47195	3.26065	-0.52695
9155.024	0.69072	3.19707	3.55476	0.12557
9159.013	0.34087	4.11056	3.63829	0.14622
9162.983	1.08909	4.78792	2.26316	0.64716
9167.013	2.65552	4.63235	4.04325	3.48639
9170.984	2.14149	4.40634	5.65359	2.55501
9175.024	3.93650	3.82346	6.28673	0.97584
9179.021	4.00228	3.19028	8.68667	-0.35726
9183.023	3.91138	2.91062	8.05363	-0.16573
9187.024	4.40836	2.00994	9.90828	-1.60760
9191.021	5.28574	2.06721	8.81801	-1.86217
9195.021	4.66950	2.13276	7.61863	-0.86730
9199.025	4.89390	1.64678	8.76042	-1.06872
9203.014	4.86655	2.12239	9.37856	-0.97926
9207.024	4.99150	2.43775	9.86319	-1.68680
9211.031	4.82890	2.59468	8.69161	-1.67274
9215.013	4.62974	2.36485	8.40378	-1.59314
9219.023	4.66359	2.25542	8.41119	-1.37794
9223.021	5.08109	1.94954	10.09143	-1.61063
9227.022	4.28537	2.42629	9.85691	-1.44078
9231.013	4.48932	2.58454	9.46194	-1.99023
9235.021	4.27170	2.49074	9.01818	-2.81060
9238.993	4.53285	2.43377	9.02634	-3.55790
9243.023	5.18540	2.36461	8.95888	-0.75909
9247.013	4.53440	2.33423	10.20178	1.91739
9251.022	4.45380	2.32768	9.38757	1.66696
9255.023	4.26390	2.28777	10.38276	1.02637
9259.022	5.15121	2.09116	9.25371	0.84260
9263.016	4.41294	1.97214	9.93051	-0.99900
9267.021	4.59793	1.84759	9.19138	-0.47546
9271.019	4.33508	2.02588	8.93464	-0.70230
9275.021	4.85923	1.58282	8.91316	-1.42880
9279.024	4.49339	1.62582	9.92343	-2.58045
9283.010	4.96374	1.23766	9.30955	-3.27197
9287.018	4.44817	1.47224	9.25050	-2.78496
9291.025	4.77229	1.29380	9.94183	-2.74386
9295.022	4.64692	1.12628	11.87883	-1.57948
9299.024	4.65503	1.06459	8.95191	-4.61799
9303.024	4.35580	1.26676	9.30302	-2.83078
9307.026	4.62850	1.08348	9.65763	-1.59290
9311.017	4.45873	1.15679	9.83431	-1.83372
9315.026	4.40436	1.11192	9.40890	-5.39939
9319.022	4.05989	1.97341	9.62649	-4.45625
9323.023	4.55080	1.38125	9.75721	-3.86534
9327.023	4.12764	1.77340	9.86645	-1.85951
9331.023	4.27363	2.07440	5.69300	-2.09553
9335.025	3.93478	2.21416	9.66385	-3.99229
9339.022	4.45732	1.70259	10.02800	-4.06538
9343.015	4.25391	2.19135	10.29887	-1.87648
9347.024	3.89288	2.34303	6.98157	-2.34846
9351.025	4.24268	1.89984	7.48158	-2.21625
9355.023	4.38447	1.68293	10.33687	-2.14634
9358.984	4.24544	2.41019	9.89210	0.37214
9363.028	3.82227	1.84903	6.47296	-1.66342
9367.005	4.28027	1.99682	8.29547	-3.31647
9371.025	4.21893	1.94428	10.00584	2.23705
9374.996	4.13263	2.22973	9.79963	1.60705
9378.987	3.97173	2.66528	9.24433	1.72687
9383.025	4.08456	2.44215	9.22683	1.50261
9387.023	4.17529	2.25730	9.96699	0.44782
9391.024	3.99867	2.35256	10.01438	0.01505
9395.027	3.83243	2.57533	9.43025	-0.57247
9399.028	3.78308	2.59105	9.03096	0.38254
9403.025	4.02443	2.42578	9.23858	-0.44552
9407.017	3.94616	2.45033	10.64417	-0.76215
9411.018	3.89641	2.32117	9.47997	-0.94239
9415.028	3.89476	2.26543	8.98322	-0.89798
9419.026	3.68705	2.57175	8.81700	-0.43715
9423.052	4.15986	2.37542	8.94934	-1.03617
9427.024	3.81834	2.45241	10.72553	-1.49403
9431.025	3.99457	2.26100	10.44487	-0.38967
9435.026	4.11100	1.92311	8.80767	-1.24271
9439.016	3.94977	2.26288	9.89316	-2.41960
9443.025	4.50283	2.02005	9.47205	-2.02376
9447.026	3.72521	1.99176	9.83944	-1.52825
9451.000	4.12858	1.77332	9.65944	-0.34550
9455.022	3.65732	1.81866	8.93273	-0.66482
9459.025	3.52351	1.88657	7.88894	-2.26183
9463.027	1.61252	1.73569	4.72645	-2.25979
9467.025	0.12379	1.62708	3.50153	1.76530
9470.991	-0.37429	1.16497	3.59026	-0.20602
9475.026	-1.30538	1.14808	1.62435	-0.51063
9479.027	-3.52086	2.39938	-0.06733	-0.38521
9483.028	-4.08550	1.86177	-1.98194	-1.29541
9487.029	-4.52343	2.10569	-2.29178	-1.27882
9491.012	-4.91289	1.65727	-2.78211	-1.25650
9495.024	-5.50837	1.61129	-3.30940	-1.75269
9499.026	-4.82732	1.83773	-2.31735	-1.51034
9503.017	-4.43919	1.62176	-1.70871	-1.84560
9507.026	-4.93935	1.52058	-1.89015	-2.59719
9511.030	-5.18833	1.86776	-3.13479	-3.31952
9515.025	-5.01334	2.00357	-2.41556	-3.05589
9519.021	-5.16726	1.92122	-3.01804	-2.71943
9523.029	-5.16733	1.73706	-2.86358	-2.64926
9527.028	-5.33770	1.75478	-3.10849	-2.09543
9531.030	-5.40368	1.69923	-2.29302	-1.65960
9535.016	-5.31854	1.88257	-2.90440	-1.44946
9539.026	-5.14810	1.77240	-2.39651	-1.40185
9543.027	-4.97009	1.97383	-2.32409	-1.31363
9547.030	-5.21875	1.96239	-2.04096	-0.70546
9551.050	-5.32363	2.13620	-2.34156	-1.74515
9555.032	-5.33347	1.84143	-1.89897	-2.09863
9559.028	-5.48341	1.83657	-1.65572	-1.36059
9563.030	-5.28667	1.87308	-2.65758	-1.53426
9567.018	-5.49330	2.48078	-3.04073	-1.33724
9571.030	-5.37662	2.05028	-2.04622	-1.17314
9575.007	-5.21658	2.10948	-2.65639	-1.69218
9578.991	-4.93304	1.89963	-2.14131	-1.33772
9583.032	-5.08370	1.90956	-2.00081	-1.14388
9587.028	-5.30803	1.74157	-1.62505	-2.10564
9591.029	-5.43106	1.59054	-1.84585	-2.47146
9595.028	-5.43125	1.64947	-1.40440	-1.68207
9599.059	-5.55897	1.16792	-2.33395	-0.77880
9603.029	-5.55649	0.34526	-0.95564	-0.57762
9607.029	-5.43866	0.30857	-2.07878	0.51700
9611.034	-5.03162	0.26030	-2.34654	1.45277
9615.032	-4.33394	0.58311	-2.80451	0.04644
9619.023	-4.94753	1.22249	-1.69036	-0.09883
9623.030	-5.22409	1.58591	-2.05930	-0.25757
9627.030	-5.64085	1.77084	-1.55571	-0.10649
9631.034	-5.28918	2.02618	-1.78964	-0.45692
9635.029	-5.24019	2.03210	-1.75674	-0.47063
9639.031	-5.45181	0.99130	-1.10710	-0.48784
9643.027	-5.44571	1.32804	-1.47032	-1.23269
9647.033	-5.34319	1.69524	-1.73311	-2.36024
9651.028	-5.34297	1.56991	-1.78798	-2.27755
9655.028	-5.34447	1.83759	-1.68327	-1.89433
9659.027	-5.22820	1.67325	-1.71434	-2.57402
9663.024	-5.47006	2.25325	-1.90202	-2.11068
9667.029	-5.44788	2.11960	-1.87076	-2.07647
9671.007	-5.38496	-0.07137	-0.98000	-1.94587
9675.030	-5.37323	1.11731	-1.47283	-1.95782
9679.028	-5.36523	1.38321	-1.78337	-1.64657
9683.028	-5.35578	1.32408	-1.58748	-1.18376
9687.030	-5.39099	0.46036	-1.79051	-0.92684
9691.031	-5.32284	0.00863	-1.74194	-1.51641
9695.022	-5.21565	-0.30804	-1.67157	-0.10184
9699.019	-5.09997	-0.38457	-1.98484	-0.12082
9703.028	-5.12573	-0.17921	-2.31255	1.07921
9707.030	-5.12464	-0.21079	-1.80025	1.09679
9711.027	-5.18006	-0.38150	-1.63779	1.90728
9715.029	-5.17371	-0.16764	-1.46586	-0.06312
9719.030	-5.10310	-0.40036	-1.68471	-0.99974
9722.990	-5.12678	-0.23834	-1.70326	-0.73765
9727.033	-5.12829	-0.26833	-1.66088	0.60229
9731.033	-5.21383	-0.23724	-1.57126	0.74215
9735.031	-5.11403	-0.50796	-1.66014	-3.60106
9739.031	-5.09731	-0.32035	-1.75609	-3.12991
9743.024	-5.18395	-0.37485	-2.21816	-2.50413
9747.028	-5.11733	-0.34962	-1.53969	0.33040
9751.029	-5.21801	-0.09696	-1.44282	0.58144
9755.031	-5.42382	-0.27592	-1.68766	-2.30036
9759.034	-5.67403	0.18600	-2.35799	-1.17584
9763.030	-6.11783	0.24930	-5.52900	-0.65707
9767.029	-8.14105	0.40009	-4.12209	-0.48922
9770.994	-6.74190	0.47814	-6.98350	-0.56108
9775.034	-8.34128	0.70053	-6.53906	0.12894
9779.032	-8.81402	0.77513	-6.89796	-0.07142
9783.013	-8.58874	0.69133	-7.01064	0.53782
9787.030	-9.27767	0.83607	-7.43156	0.47412
9790.930	-8.65453	0.92044	-7.20695	-0.04645
9795.031	-8.61814	1.01310	-7.26422	2.04058
9799.032	-8.74088	1.22052	-7.24317	1.67891
9803.036	-8.89659	1.14732	-7.33152	0.17927
9807.037	-9.18489	1.65802	-7.74981	0.41091
9811.034	-8.84639	1.29839	-7.10741	0.02599
9815.032	-8.83469	1.59120	-7.23963	-1.01012
9819.031	-8.86861	1.55762	-7.03736	-1.72581
9822.931	-8.77124	1.62279	-7.00844	-2.10896
9827.023	-8.87001	1.92820	-6.44998	-0.96213
9831.031	-9.39605	1.76301	-7.12271	-1.90605
9835.034	-9.64434	2.02103	-7.12554	-1.98340
9839.030	-8.94898	2.02705	-6.67547	-1.12554
9843.032	-8.98286	2.21842	-7.11567	-0.76923
9847.035	-8.83602	2.49576	-6.84500	-0.58967
9851.032	-9.03636	2.62980	-6.79239	-0.29217
9854.998	-9.45950	2.44043	-6.70807	0.07423
9859.036	-9.16806	2.19861	-6.66724	0.16339
9863.034	-9.41576	2.43930	-6.90231	0.54771
9867.031	-9.20951	2.71667	-6.78414	3.32325
9871.036	-9.06443	-0.76603	-6.58562	2.91571
9875.034	-9.36928	0.27749	-6.85857	0.82320
9879.033	-9.30694	0.37773	-6.71512	-0.20338
9883.032	-9.53487	0.13353	-6.60798	-0.89097
9887.035	-9.42909	-0.23871	-6.69109	-1.36471
9891.033	-9.29002	-0.04696	-6.80922	-0.57246
9895.031	-9.29217	0.71805	-6.77318	-1.50778
9899.033	-9.47082	0.70604	-6.54999	-1.00372
9902.931	-9.41400	0.65171	-6.78368	-0.44792
9907.017	-9.14614	1.12505	-6.88012	-0.25413
9911.031	-9.13306	0.98644	-6.91046	0.35372
9915.034	-9.36104	1.23710	-7.00724	-0.12112
9918.934	-9.65312	0.61280	-6.80597	0.52362
9923.032	-9.30851	0.87242	-6.94086	1.41649
9927.035	-8.95014	0.53368	-6.79934	1.22914
9931.035	-9.21062	0.79775	-6.68247	0.55077
9934.938	-9.50836	0.89449	-6.72842	0.39003
9939.009	-9.36059	0.70180	-6.57619	1.23728
9943.037	-8.96988	0.19133	-6.80487	1.28683
9947.036	-9.17812	0.30663	-6.82165	0.79929
9950.931	-9.22516	0.19870	-6.75700	0.70803
9955.031	-9.47635	0.72367	-6.56458	1.22144
9959.034	-9.84585	1.03278	-6.69647	1.44187
9963.034	-8.88675	1.39274	-6.71429	1.28717
9967.037	-9.14373	1.63782	-6.44966	0.81147
9970.996	-9.28001	2.02584	-6.54570	0.91569
9975.033	-9.51182	2.41117	-6.57720	2.43569
9978.996	-8.96482	2.26110	-6.48815	1.26881
9983.037	-9.76042	2.50072	-6.40077	1.39989
9986.997	-9.20523	2.14699	-6.20810	1.46632
9991.015	-9.27233	2.33714	-6.24156	2.93401
9995.034	-8.96709	2.53127	-6.40991	2.58386
9999.034	-9.62717	2.72923	-6.28580	2.36689
10003.030	-9.41004	2.21750	-6.32235	0.64454
10007.037	-9.24525	2.84776	-6.37739	0.29093
10011.033	-9.31230	1.77781	-6.19385	-0.75091
10014.932	-9.08108	0.78604	-6.25823	-0.13677
10019.032	-9.48490	1.45971	-6.16984	-0.57532
10023.035	-9.70215	0.87801	-6.26988	-0.30846
10027.036	-9.16540	0.20106	-6.32399	0.41608
10031.031	-9.34599	0.46463	-6.45740	0.66778
10035.036	-9.62068	0.93674	-6.49033	0.85352
10038.997	-9.66197	0.52627	-6.47512	1.31835
10043.034	-9.52024	0.25225	-6.39114	1.38207
10047.037	-9.24443	0.21228	-6.51586	1.52495
10051.035	-8.35406	0.28907	-5.94317	2.17361
10054.999	-7.11973	0.78325	-3.95456	2.33897
10059.036	-6.21208	0.47614	-3.57755	2.20637
10063.035	-5.52030	1.37687	-1.96328	1.49560
10067.037	-5.54587	2.01445	-1.47878	1.99650
10070.998	-5.00344	4.34630	-0.49924	1.17168
10075.009	-5.19391	8.26875	1.91382	0.29348
10078.926	-9.90778	12.58474	1.01208	2.08559
10082.998	NaN	NaN	11.12409	-0.00037
10087.035	NaN	NaN	11.61961	0.58122
10091.034	NaN	NaN	11.32237	0.02339
10095.032	NaN	NaN	-6.93665	-6.98342
10099.038	NaN	NaN	-6.30377	-0.03915
10103.039	NaN	NaN	NaN	NaN
10107.037	NaN	NaN	13.06263	0.40090
10111.038	NaN	NaN	10.74269	0.79203
10115.038	6.35935	14.64773	10.49682	0.59051
10118.935	-1.84823	-7.47674	11.62223	0.98147
10122.999	4.32338	-1.27761	-0.79206	1.53196
10127.036	3.97815	-1.72112	-0.51493	0.18484
10131.036	-2.96921	-0.12249	0.19469	1.17586
10134.934	3.07996	1.49421	-0.44917	0.45983
10138.911	-2.45438	3.50572	0.60399	-0.25767
10142.911	-6.55165	2.84682	-1.03335	-0.02000
10146.911	-3.29686	2.25379	-0.05033	1.20496
10150.911	-3.71669	2.30071	1.54358	0.54580
10154.913	-3.88589	2.99715	1.22561	1.46967
10158.874	-2.72090	2.59459	0.22311	0.41969
10162.912	-4.05214	2.76540	0.04217	0.28835
10166.879	-4.13688	1.96523	-0.34099	0.57535
10170.915	-4.74843	2.10411	-0.71079	0.76495
10174.915	-3.36765	2.31693	-1.46236	0.69768
10178.914	-4.04836	2.04254	-0.72801	3.12411
10182.903	-4.14779	1.88811	-2.40124	1.91080
10186.913	-4.62153	2.26134	0.47167	1.12864
10190.874	-4.22582	2.98652	0.36199	2.05951
10194.913	-4.32133	2.48595	0.43189	1.90823
10198.942	-4.72393	2.70198	0.75868	1.55829
10202.908	-5.12934	2.46594	0.75206	1.84128
10206.898	-5.33780	2.76997	0.41132	2.58354
10210.909	-5.59863	2.81438	0.87947	2.81740
10214.939	-4.00339	2.95603	1.45108	3.07427
10218.910	-4.16435	2.31392	0.76925	2.29155
10222.914	-4.05379	2.78691	1.02637	3.54960
10226.876	-4.35844	2.89497	1.16587	1.04015
10230.910	-4.15371	2.89692	0.88671	-0.18287
10234.911	-3.33087	2.82454	0.86880	-1.55646
10238.914	-3.66847	2.77488	0.86488	-1.43463
10242.914	-2.93069	2.58761	0.76052	-1.73257
10246.907	-3.44802	2.50623	0.36355	-1.66188
10250.915	-3.60833	2.50624	-1.49056	-0.53409
10254.915	-3.67578	2.35875	-4.03626	-6.48885
10258.913	-3.86015	2.16613	0.88073	4.31936
10262.905	-3.58905	2.38413	0.87376	4.11775
10266.912	-3.40697	2.28652	1.26247	3.80402
10270.913	-3.52949	1.94653	0.88609	3.36972
10274.913	-3.44174	2.07120	0.87456	3.09135
10278.936	-3.33112	1.77471	1.05022	2.70619
10282.924	-3.46671	1.70938	0.86756	2.45272
10286.894	-3.52074	1.68968	0.98092	2.17852
10290.910	-2.91163	1.38839	1.02079	1.91910
10294.907	2.10116	0.49557	0.95762	2.07358
10298.913	2.10223	5.66767	0.98794	1.64397
10302.918	1.99699	5.18659	0.99506	1.43385
10306.913	-3.67222	1.88646	0.89850	0.47880
10310.937	-3.90269	2.20296	0.79144	0.45051
10314.915	-3.71735	1.90630	0.99710	0.60581
10318.915	-3.30618	2.63187	1.00149	0.77649
10322.914	-3.24558	2.42517	0.90170	0.34777
10326.892	-4.16119	4.28837	0.78853	1.38531
10330.911	-10.09352	7.41098	0.95834	4.43438
10334.914	NaN	NaN	14.07261	1.78584
10338.916	NaN	NaN	4.56400	6.47655
10342.913	NaN	NaN	NaN	NaN
10346.876	NaN	NaN	NaN	NaN
10350.912	NaN	NaN	NaN	NaN
10354.914	NaN	NaN	NaN	NaN
10358.916	NaN	NaN	NaN	NaN
10362.879	NaN	NaN	NaN	NaN
10366.915	NaN	NaN	NaN	NaN
10370.919	NaN	NaN	NaN	NaN
10374.915	NaN	NaN	NaN	NaN
10378.913	NaN	NaN	NaN	NaN
10382.917	NaN	NaN	NaN	NaN
10386.915	NaN	NaN	NaN	NaN
10390.914	NaN	NaN	NaN	NaN
10394.921	NaN	NaN	NaN	NaN
10398.909	NaN	NaN	NaN	NaN
10402.915	NaN	NaN	NaN	NaN
10406.922	NaN	NaN	NaN	NaN
10410.904	NaN	NaN	NaN	NaN
10414.907	NaN	NaN	NaN	NaN
10418.914	NaN	NaN	NaN	NaN
10422.913	NaN	NaN	NaN	NaN
10426.915	NaN	NaN	NaN	NaN
10430.914	NaN	NaN	NaN	NaN
10434.914	NaN	NaN	NaN	NaN
10438.914	NaN	NaN	NaN	NaN
10442.912	NaN	NaN	NaN	NaN
10446.917	NaN	NaN	NaN	NaN
10450.916	NaN	NaN	NaN	NaN
10454.881	NaN	NaN	NaN	NaN
10458.916	NaN	NaN	NaN	NaN
10462.895	NaN	NaN	NaN	NaN
10466.918	NaN	NaN	NaN	NaN
10470.918	NaN	NaN	11.92044	7.07188
10474.913	NaN	NaN	NaN	NaN
10478.880	NaN	NaN	NaN	NaN
10482.882	NaN	NaN	1.52927	-5.06521
10486.913	NaN	NaN	NaN	NaN
10490.917	NaN	NaN	11.26741	-2.35549
10494.902	NaN	NaN	0.15789	0.30221
10498.913	NaN	NaN	1.79034	0.35857
10502.914	NaN	NaN	12.64546	-1.76133
10506.914	NaN	NaN	11.69559	-1.79798
10510.917	-4.16018	-1.23347	9.45464	-1.41876
10514.917	4.73355	9.00713	0.69397	-0.27906
10518.912	-10.41025	-1.52004	0.30012	-0.94688
10522.919	-1.65862	4.53026	0.39062	-0.78338
10526.917	4.70609	-0.46266	0.32933	-0.56594
10530.880	-1.30831	1.46051	0.46768	0.26038
10534.917	-3.26208	4.82663	3.62276	0.59594
10538.880	-2.04636	3.88437	1.97118	1.64419
10542.918	-0.44477	4.02334	6.47620	1.23829
10546.917	1.41494	3.31426	5.35879	1.42405
10550.880	3.17520	1.99625	5.63132	2.87994
10554.918	3.06271	2.92054	9.64965	0.76602
10558.917	4.54200	1.93280	11.69440	-0.97784
10562.919	4.88791	1.73974	11.72508	-1.10447
10566.940	5.30358	1.58061	11.82749	-1.42816
10570.921	5.49291	1.11356	10.19154	-1.51687
10574.919	5.34796	0.78174	10.85921	-1.42445
10578.891	5.33379	1.36703	11.37474	-1.51345
10582.889	5.40324	0.66136	11.14495	-1.52143
10586.922	5.56974	0.23948	11.87434	-1.67370
10590.921	5.60074	0.48488	12.47264	-1.80607
10594.919	5.74812	0.49254	11.63087	-1.84472
10598.943	5.53517	0.81862	12.09657	-1.87128
10602.919	5.41923	0.44629	11.96653	-1.81293
10606.920	5.26369	0.56477	12.15884	-2.10866
10610.921	5.07106	0.48686	12.36651	-2.04199
10614.919	5.15143	0.52837	12.07801	-2.28550
10618.907	5.46433	0.62694	10.87745	-2.11641
10622.910	5.29076	0.50876	11.00467	-2.11757
10626.919	5.46445	0.57713	11.80069	-2.24189
10630.910	5.43605	0.61463	11.24946	-2.13923
10634.921	5.73657	0.33376	11.66172	-2.09213
10638.919	5.58437	0.66502	10.96200	-1.87709
10642.921	5.65737	0.69342	11.57843	-1.94780
10646.910	5.92621	0.66393	11.70440	-1.89031
10650.922	5.78317	0.55733	11.55257	-2.19564
10654.917	5.70989	0.61548	11.74030	-1.87736
10658.921	5.98533	0.57378	11.92959	-2.47859
10662.913	4.46788	1.32409	12.12796	-3.14502
10666.883	5.48177	0.36126	12.56994	-2.93328
10670.881	5.34442	-0.11435	12.88041	-3.93189
10674.882	5.38676	-0.15170	13.35250	-3.44577
10678.923	5.57707	-0.04825	12.95086	-3.32808
10682.922	5.36887	-0.41664	12.73632	-3.30928
10686.921	5.55669	-0.55864	12.28348	-3.21526
10690.919	5.48041	-1.18150	12.62967	-3.46424
10694.914	5.32117	-0.68940	10.52653	-3.25052
10698.924	5.77797	-0.82250	11.55700	-3.46544
10702.920	5.69868	-0.98604	10.93947	-3.30258
10706.922	5.71767	-0.99869	11.20925	-3.34152
10710.920	5.40951	-0.95257	11.03509	-3.21548
10714.919	5.52433	-1.01343	11.59808	-2.88950
10718.919	5.74672	-1.12948	4.51919	-7.08028
10722.918	5.69870	-1.15256	5.07811	-6.92281
10726.926	5.36737	-1.06900	4.79344	-7.14144
10730.915	5.07941	-0.56808	12.72976	-3.45537
10734.883	4.87877	-0.87702	12.99616	-5.27241
10738.921	4.85563	-0.20702	13.06011	-3.58134
10742.911	5.17602	-0.33986	13.17336	-3.31721
10746.920	4.65057	-0.44972	11.15453	-2.16345
10750.921	4.99588	-1.13827	12.30955	-2.07839
10754.920	4.69462	-1.26882	10.34511	-2.65566
10758.921	4.33873	-0.82998	8.46211	-4.10868
10762.923	3.96271	-0.83845	8.33571	-4.77158
10766.919	2.56976	-2.16267	7.55844	-5.09825
10770.886	2.42465	-3.39272	6.00263	-5.25620
10774.924	2.62742	-3.42015	7.38654	-6.43566
10778.923	2.58487	-3.11090	7.79366	-6.70471
10782.925	2.67962	-3.01376	7.71372	-6.33510
10786.918	2.46189	-3.27555	7.65320	-5.95819
10790.887	2.45604	-3.22105	7.57371	-5.83099
10794.920	2.60149	-3.14377	7.98313	-6.27913
10798.921	2.44457	-3.00008	7.88312	-6.56823
10802.921	2.42639	-2.89889	8.00701	-6.83789
10806.925	2.32486	-2.68405	7.96295	-7.30781
10810.921	2.35870	-2.95597	8.31669	-7.24264
10814.920	2.21452	-2.76708	9.41008	-8.00738
10818.923	2.14012	-2.76736	8.35041	-6.21174
10822.819	2.03467	-2.61870	9.23089	-6.45239
10826.912	2.03268	-2.69260	8.62421	-7.16289
10830.913	2.21903	-2.60915	9.63918	-6.47099
10834.920	2.16721	-2.46984	9.63496	-6.17858
10838.821	2.04121	-2.46476	8.86018	-7.04439
10842.924	2.11001	-2.37192	9.16579	-7.28753
10846.923	1.99902	-2.19148	9.50259	-6.17171
10850.960	2.06961	-2.35155	9.03486	-6.14424
10854.927	2.03410	-2.26627	9.57433	-6.55802
10858.927	2.29277	-2.13135	9.55961	-6.08084
10862.924	2.15232	-2.19923	8.64509	-6.91099
10866.924	2.14045	-1.91424	8.73334	-7.33034
10870.925	2.22745	-2.19773	8.62751	-8.14402
10874.924	2.23903	-1.89286	8.28257	-7.52769
10878.922	2.27501	-1.90236	8.63551	-7.31394
10882.921	2.55113	-1.74339	8.22630	-6.93950
10886.819	2.30955	-1.88439	6.83873	-5.84888
10890.922	2.53226	-1.92006	8.01815	-5.82735
10894.926	2.46422	-1.98222	8.06730	-5.90711
10898.924	2.40981	-1.82547	7.76270	-6.62745
10902.821	2.34515	-1.93419	7.84002	-5.81270
10906.929	2.28502	-2.04659	7.95504	-5.47344
10910.922	2.28219	-1.97321	8.11206	-5.40025
10914.920	2.22659	-1.95151	7.79493	-5.38981
10918.924	2.27109	-2.45559	7.79892	-5.33641
10922.922	2.31388	-2.14692	7.77585	-5.03441
10926.923	2.46303	-2.42370	7.74294	-5.33265
10930.923	2.55965	-2.53413	9.39148	-5.75941
10934.821	2.14015	-2.27343	8.52100	-5.84577
10938.897	2.20639	-2.50055	8.31241	-5.35923
10942.923	2.25280	-2.57425	8.37810	-5.35572
10946.924	2.28888	-2.77162	8.80522	-5.31005
10950.824	2.47541	-3.63374	8.97830	-5.31310
10954.890	2.50595	-2.64594	9.60446	-6.58164
10958.924	2.49632	-2.89597	9.42245	-5.60913
10962.923	2.62068	-2.78289	9.56296	-6.26125
10966.841	2.56968	-3.21121	10.15131	-5.44324
10970.923	2.64770	-4.13627	9.26009	-5.72959
10974.922	2.46082	-3.51963	10.38214	-5.53261
10978.922	2.14947	-3.08545	9.14015	-5.36136
10982.823	1.93016	-2.57800	6.54560	-4.13738
10986.922	-0.62359	-0.30055	5.11132	-5.52783
10990.929	-1.76708	1.43185	3.52024	-2.51876
10994.924	-2.45131	-1.00839	0.88307	-0.61678
10998.930	-3.48274	-0.03884	0.37114	-1.48832
11002.923	-3.52415	0.71717	-0.00663	-3.06839
11006.892	-6.03587	1.43385	-1.83729	-1.29338
11010.927	-5.09613	2.16080	-2.61055	0.83855
11014.927	-7.93608	1.73052	-3.93416	0.57532
11018.923	-5.97605	3.29404	-3.83650	1.49280
11022.926	-6.62941	2.94783	-2.88094	1.64251
11026.925	-6.56294	1.87150	-3.54334	1.93528
11030.928	-7.22920	2.14635	-3.69882	2.11906
11034.914	-7.34812	2.22217	-3.43088	1.67520
11038.927	-7.26227	1.93169	-3.71473	1.07856
11042.904	-6.84705	1.57229	-3.85390	0.93684
11046.931	-7.07503	1.69145	-3.76695	0.86170
11050.925	-7.12974	1.31488	-3.38182	-0.63037
11054.926	-6.92454	0.49039	-3.61728	0.88959
11058.927	-6.87827	0.83572	-3.51142	0.88709
11062.927	-7.13539	1.47215	-3.48170	1.12759
11066.926	-7.05736	1.26305	-3.36864	1.01164
11070.928	-6.98010	1.78270	-3.44228	0.90707
11074.889	-7.04457	1.37615	-3.35283	1.04442
11078.929	-7.02462	1.49584	-3.39090	0.76851
11082.926	-6.92951	1.54202	-3.24400	0.78038
11086.924	-6.96986	1.79740	-3.24214	0.91908
11090.927	-6.97546	1.00271	-3.21755	1.02831
11094.928	-6.92946	1.18992	-3.18413	0.69980
11098.926	-6.97179	0.92436	-3.10980	-1.03594
11102.888	-6.95734	0.94004	-3.10208	-1.04661
11106.924	-6.95453	1.07118	-3.11215	-2.39081
11110.932	-6.85145	0.81290	-3.12445	-2.95094
11114.930	-6.88492	0.73318	-3.06219	-2.75666
11118.910	-6.78593	1.28777	-3.00504	-2.72714
11122.922	-6.74653	0.98595	-2.97901	-1.82965
11126.820	-6.81953	0.89794	-3.03299	-0.99515
11130.927	-6.79714	1.21052	-2.97413	-1.03463
11134.928	-6.78121	1.16299	-2.95374	-0.99629
11138.926	-6.83266	1.18345	-2.81038	-0.74441
11142.928	-6.82271	1.29973	-2.91812	-0.33272
11146.926	-6.94863	1.23805	-2.87596	-0.07840
11150.927	-7.03269	1.47716	-2.92844	-0.26085
11154.928	-6.98057	1.39174	-2.94839	-0.48065
11158.801	-7.12725	1.55694	-2.70352	-0.39031
11162.888	-7.19461	1.56085	-2.65149	-0.23197
11166.776	-7.21889	1.53872	-2.92242	-0.49439
11170.808	-7.29794	1.69200	-2.76718	-0.24535
11174.830	-7.37729	1.55287	-2.79728	-0.19796
11178.806	-7.43164	1.46406	-2.61843	-0.09195
11182.803	-7.47522	1.48300	-2.82127	-0.23561
11186.801	-7.50922	1.26816	-2.60872	-0.20194
11190.823	-7.60670	1.19027	-2.64812	-0.25547
11194.805	-7.73336	1.22324	-2.52589	-0.12082
11198.800	-7.58171	1.38030	-2.47407	-0.07033
11202.801	-7.59490	0.95220	-2.48817	-0.21668
11206.762	-7.50815	1.35129	-2.66825	-0.27396
11210.768	-7.56664	1.04961	-2.83685	-0.10158
11214.800	-7.66460	0.99156	-2.67848	-0.00022
11218.802	-7.58832	1.19881	-2.73774	0.11743
11222.800	-7.84949	1.06350	-3.19526	0.23617
11226.804	-7.59473	1.05141	-3.77068	0.33347
11230.802	-7.39183	1.24645	-3.30586	0.20635
11234.804	-7.31628	1.25514	-3.28048	0.31100
11238.829	-7.11215	1.19345	-3.45180	0.18591
11242.806	-7.04770	1.27005	-3.51350	0.53991
11246.806	-6.99727	1.57625	-3.31155	0.56019
11250.807	-6.90542	1.20061	-3.30072	0.60301
11254.825	-7.12823	1.23469	-3.18398	0.57557
11258.806	-7.07532	1.11991	-3.07629	0.42527
11262.804	-7.25037	1.33254	-3.25176	0.70440
11266.804	-7.23892	1.15066	-2.97859	0.53836
11270.803	-7.58605	1.08706	-2.78872	1.12094
11274.804	-7.16395	1.19232	-2.78186	0.74316
11278.768	-7.20074	1.26817	-2.99455	0.96745
11282.808	-7.26603	0.87475	-2.81709	0.85367
11286.795	-7.15713	0.81415	-2.88366	0.86962
11290.786	-7.27316	0.85351	-2.90557	1.03933
11294.799	-7.41385	0.95326	-2.90086	1.00763
11298.802	-7.32085	0.77036	-2.85881	0.88693
11302.829	-7.13248	0.85898	-2.45554	0.67748
11306.805	-6.12843	0.59574	-1.65795	0.53399
11310.808	-6.35479	0.35353	-1.17485	-0.46559
11314.803	-5.66899	-0.18889	-0.23113	0.36691
11318.825	-5.15204	-0.03871	-0.39569	0.02641
11322.803	-5.46711	0.26225	-0.32714	0.01918
11326.805	-5.66931	0.61488	-0.00449	0.59976
11330.800	-5.11300	0.42087	0.04418	0.15767
11334.827	-5.39141	0.59100	0.04298	0.39604
11338.803	-5.18545	0.66852	-0.01281	0.46452
11342.807	-5.30075	0.79021	-0.14771	0.00780
11346.768	-5.23750	0.74447	-0.15717	0.26273
11350.805	-5.21592	1.14078	-0.04812	0.37626
11354.805	-5.27774	1.50277	-0.09433	0.74178
11358.807	-5.32528	1.31688	-0.25505	0.97508
11362.805	-5.35146	1.47861	-0.49880	0.55350
11366.797	-5.39982	1.70868	-0.51877	0.92752
11370.768	-5.35874	1.59501	-0.76513	0.95463
11374.780	-5.40420	1.79843	-1.24801	0.93986
11378.808	-5.39205	1.53861	-0.82243	1.28209
11382.797	-5.42378	2.19073	-1.00501	1.70138
11386.805	-5.28515	2.07497	-1.18478	1.78023
11390.807	-5.28096	1.99754	-0.86421	1.79920
11394.806	-5.27904	1.59111	-1.21306	1.99667
11398.804	-5.40070	1.70655	-1.16878	2.04064
11402.805	-5.14887	1.55350	-0.99345	2.08979
11406.804	-5.17619	1.93487	-0.63019	2.26659
11410.812	-5.03910	1.63418	-0.20142	2.21535
11414.797	-5.04612	1.33752	0.02725	2.36087
11418.805	-4.88799	1.38464	-0.11074	2.54032
11422.804	-4.95810	1.55198	-0.37022	2.71316
11426.805	-4.94755	1.70681	0.01618	2.53658
11430.831	-5.08840	1.69365	0.21547	2.40395
11434.807	-5.03585	1.40758	0.21348	3.07838
11438.806	-5.10891	1.55187	0.23919	2.77896
11442.805	-5.10490	1.67870	0.16680	2.80562
11446.827	-5.15679	1.74149	0.03648	3.04974
11450.805	-5.10133	1.73672	-0.38440	2.23760
11454.802	-3.91180	2.83269	0.02549	-0.01861
11458.807	-5.11959	1.84950	0.67226	1.49739
11462.828	-2.71449	1.75191	3.18917	2.01714
11466.807	-2.11938	2.33568	2.58214	2.06981
11470.784	-1.42647	2.22282	2.83286	2.76757
11474.768	-1.57761	2.06458	2.76559	2.41519
11478.834	-1.53414	2.17600	2.85522	2.75945
11482.769	-1.82229	2.34458	3.11106	2.42886
11486.771	-1.72696	2.60174	4.06589	2.48481
11490.808	-1.72416	2.74606	4.38240	2.53192
11494.831	-1.67231	2.68215	4.45814	2.91902
11498.796	-1.70809	3.08251	4.37937	2.73007
11502.804	-1.80667	2.81807	4.54306	2.51139
11506.806	-1.75096	2.90422	4.76771	2.92489
11510.832	-1.81012	3.25102	4.78328	2.82014
11514.807	-1.87475	3.22050	4.78794	2.79544
11518.806	-1.85507	3.11357	4.78905	2.79680
11522.809	-1.92862	3.27194	4.78050	2.90043
11526.830	-1.88405	3.18597	4.80546	2.72491
11530.806	-1.94126	3.24142	4.81471	2.91335
11534.768	-2.00440	3.43498	4.75092	2.98095
11538.810	-2.02443	3.40369	4.70542	3.00352
11542.832	-2.01280	3.51053	4.78326	2.75606
11546.807	-1.94022	3.54146	4.71385	3.02415
11550.772	-2.03390	3.49868	4.63449	2.91818
11554.810	-2.01454	3.59711	4.55162	3.10386
11558.832	-1.99605	3.25267	4.50885	3.14472
11562.808	-2.04079	3.50132	4.46492	3.17294
11566.811	-2.10555	3.51510	4.44055	3.98233
11570.772	-2.16669	3.54054	4.39708	3.52467
11574.814	-2.09916	3.58450	4.32557	3.68848
11578.807	-2.08206	3.69411	4.32239	3.57740
11582.782	-2.10677	3.47715	4.32335	3.35574
11586.810	-2.09819	3.52749	4.32165	3.38091
11590.835	-2.13093	3.39037	4.27990	3.46335
11594.809	-2.12612	3.34977	4.28572	3.66311
11598.809	-2.08954	3.41553	4.34655	3.63555
11602.809	-2.05844	3.45513	4.49746	3.30642
11606.832	-2.01047	3.51266	4.44716	3.55373
11610.813	-2.04790	3.49808	4.40456	2.94725
11614.807	-2.17626	3.53844	4.44985	2.93259
11618.809	-2.22037	3.43649	4.50066	2.37833
11622.822	-2.14803	3.32005	4.74506	2.62349
11626.799	-2.20969	3.44317	4.69379	2.37967
11630.772	-2.14714	3.27625	4.72199	2.16762
11634.808	-2.14087	3.22569	4.90186	2.44399
11638.813	-1.89999	2.98149	4.92216	1.86663
11642.808	-1.98227	3.03712	4.68686	1.62140
11646.808	-1.79924	2.77673	4.36501	1.98746
11650.809	-1.89102	2.78067	4.01952	1.52787
11654.815	-1.69951	2.71653	3.74266	2.11239
11658.808	-1.64241	2.64870	3.18027	2.21835
11662.812	-1.68880	2.75540	3.42975	2.17960
11666.776	-1.59207	2.79474	3.27727	1.79044
11670.805	-1.52493	2.64712	3.20333	1.82815
11674.811	-1.60144	2.63192	3.12348	1.98302
11678.809	-1.47060	2.66225	3.35531	2.08452
11682.811	-1.54520	2.70298	3.33797	1.98476
11686.808	-1.48930	2.64798	3.15189	2.18682
11690.811	-1.56920	2.71686	3.29016	2.24154
11694.811	-1.78649	2.66555	3.04818	2.21238
11698.810	-1.59026	2.78000	3.48546	2.06244
11702.814	-1.86833	2.75908	3.12341	2.15284
11706.801	-1.84099	2.60530	3.38063	2.39642
11710.815	-1.87979	2.59892	3.41276	1.96766
11714.812	-1.91685	2.58687	3.64335	1.98904
11718.801	-2.01845	2.57893	3.29251	2.74842
11722.770	-1.95168	2.49593	3.84552	2.15297
11726.812	-2.16372	2.67545	4.16487	1.37971
11730.813	-2.18483	2.72467	3.16270	2.24252
11734.808	-2.25600	2.91341	2.99168	2.09358
11738.807	-2.27364	3.02773	3.32333	2.13530
11742.807	-2.30462	2.79621	3.31150	1.90574
11746.800	-2.24604	2.74715	3.47819	1.54602
11750.812	-2.23858	3.16533	3.60235	1.66914
11754.773	-2.03766	2.94932	3.81207	1.15225
11758.810	-2.22532	3.39157	3.79989	1.55156
11762.811	-2.14798	3.65755	4.46221	2.41399
11766.814	-2.21482	3.61302	4.44916	2.21481
11770.772	-2.13180	3.84345	4.03206	2.45015
11774.811	-2.16357	3.65093	3.96921	3.03087
11778.811	-2.21804	3.57755	5.46354	5.15499
11782.818	-2.50328	4.89895	3.57281	5.50385
11786.810	-6.59961	9.94307	4.24041	7.95874
11790.787	NaN	NaN	16.88644	7.13227
11794.812	NaN	NaN	4.74752	12.65966
11798.805	NaN	NaN	NaN	NaN
11802.812	NaN	NaN	NaN	NaN
11806.814	NaN	NaN	NaN	NaN
11810.813	NaN	NaN	NaN	NaN
11814.808	NaN	NaN	NaN	NaN
11818.814	NaN	NaN	NaN	NaN
11822.776	NaN	NaN	NaN	NaN
11826.816	NaN	NaN	NaN	NaN
11830.796	NaN	NaN	NaN	NaN
11834.801	NaN	NaN	NaN	NaN
11838.810	NaN	NaN	NaN	NaN
11842.808	NaN	NaN	NaN	NaN
11846.810	NaN	NaN	NaN	NaN
11850.774	NaN	NaN	NaN	NaN
11854.845	NaN	NaN	NaN	NaN
11858.710	NaN	NaN	NaN	NaN
11862.812	NaN	NaN	NaN	NaN
11866.812	NaN	NaN	NaN	NaN
11870.775	NaN	NaN	NaN	NaN
11874.703	NaN	NaN	NaN	NaN
11878.812	NaN	NaN	NaN	NaN
11882.813	NaN	NaN	NaN	NaN
11886.811	NaN	NaN	NaN	NaN
11890.706	NaN	NaN	NaN	NaN
11894.814	NaN	NaN	NaN	NaN
11898.813	NaN	NaN	8.80757	4.79693
11902.812	NaN	NaN	9.64711	5.07966
11906.714	NaN	NaN	12.34602	6.43075
11910.777	NaN	NaN	4.81177	6.49801
11914.792	NaN	NaN	12.11883	5.21388
11918.775	11.59539	-0.25863	12.43246	4.65599
11922.816	4.79760	-3.44764	7.18161	4.26593
11926.816	8.59403	11.75447	9.29543	3.35462
11930.817	-6.90654	2.45231	10.58064	1.36548
11934.814	8.56236	12.02760	7.64635	1.65069
11938.813	-7.14054	2.82956	7.41590	1.71186
11942.775	-2.38006	6.86710	7.26002	1.33938
11946.713	1.42704	7.38586	11.28145	1.25970
11950.816	-1.73777	6.62720	10.64499	1.78544
11954.808	-1.73182	5.77003	NaN	NaN
11958.782	-0.82262	5.73160	10.54353	1.79892
11962.817	-0.29309	5.72719	11.02349	2.20215
11966.815	0.36812	6.63298	8.63968	-5.19694
11970.813	0.24542	6.47015	6.49808	-4.94985
11974.810	0.09222	4.66300	10.44734	1.71762
11978.713	0.48520	6.12995	NaN	NaN
11982.817	0.69121	5.78736	5.92589	-4.51767
11986.813	0.36938	4.87279	5.79698	-3.72508
11990.814	0.27897	4.58008	5.56423	-3.63804
11994.713	0.43532	3.04591	5.54034	-3.34249
11998.789	0.16385	3.98598	5.20615	-3.15253
12002.815	0.15546	3.06657	4.98999	-2.87698
12006.814	0.30724	3.14268	4.63087	-2.83042
12010.713	0.48627	2.73597	5.30072	2.63793
12014.819	0.42638	2.67496	5.00632	2.69559
12018.810	0.23517	3.31854	4.79829	2.80711
12022.811	0.66039	2.76366	5.05740	2.84923
12026.687	0.74399	2.59286	4.85943	3.51764
12030.816	0.56942	2.67031	7.26473	2.55276
12034.815	0.28054	2.59972	7.61748	2.17350
12038.804	0.52907	2.52375	4.38815	2.71731
12042.712	0.50691	2.52220	4.23278	2.98059
12046.816	0.37144	3.65553	6.48632	1.38978
12050.773	0.59476	2.83511	3.75128	2.97086
12054.818	0.64149	2.88074	3.49829	3.05445
12058.725	0.92438	4.43835	3.57295	2.23449
12062.815	0.70575	5.01202	3.78860	3.22797
12066.818	0.66573	5.38102	3.77856	2.52281
12070.815	0.64729	4.94083	3.57182	2.82887
12074.712	0.78454	4.14555	6.91510	4.13225
12078.820	0.73042	3.89764	4.74230	3.53033
12082.781	0.82027	2.48554	4.44048	3.04445
12086.815	0.87088	5.29406	3.43254	2.55038
12090.713	0.87019	4.88671	3.67400	2.14557
12094.773	0.89361	2.66955	6.01130	2.87464
12098.814	0.95098	4.95497	3.53073	3.08246
12102.816	0.87203	4.62508	4.87579	1.69719
12106.717	0.87523	2.68359	5.72912	2.80898
12110.819	0.84039	4.63674	4.04861	2.75233
12114.819	0.87808	2.91386	6.01802	3.30850
12118.821	0.86637	4.86235	4.23935	2.49334
12122.718	0.83203	4.31413	5.76337	5.35387
12126.813	0.81191	2.65644	5.94251	1.86673
12130.817	0.86925	4.14292	4.31654	2.39037
12134.817	0.87480	2.80107	5.75352	1.89223
12138.719	0.95490	4.77929	5.65855	2.35037
12142.819	1.00380	2.86613	5.80003	2.83011
12146.819	0.88453	5.10780	5.54501	2.00042
12150.816	-0.61300	4.63436	5.27616	5.67859
12154.719	-0.52016	2.84632	4.72260	2.59059
12158.818	-0.51190	5.35432	4.61936	6.03108
12162.791	-1.50135	4.26378	2.92941	2.92335
12166.780	-4.72275	5.38013	0.47919	2.74882
12170.716	-2.62296	4.80683	0.28828	4.96007
12174.818	-6.49734	4.59549	-1.94122	4.64061
12178.818	-5.41795	8.63904	-2.06746	0.67500
12182.780	NaN	NaN	NaN	NaN
12190.816	-4.92652	4.85072	-2.11923	5.69862
12194.717	-4.33900	4.64052	-0.38323	2.99751
12198.817	-4.82427	5.31451	-2.08089	3.88254
12202.817	-6.10504	4.98333	-0.29334	3.08186
12206.790	-4.59872	7.62761	-0.16412	4.53967
12210.709	-4.11957	5.07730	0.40837	4.41060
12214.696	-5.66224	4.67391	-2.47254	4.30891
12218.697	-5.77340	5.19586	-1.74395	0.83312
12222.692	-5.22594	5.48189	-1.93658	5.63996
12226.685	-5.38939	5.30588	-1.01332	5.31878
12230.692	-5.10997	5.45010	-0.69851	3.46612
12234.696	-4.90299	5.22115	-0.70104	1.70710
12238.693	-6.70090	8.61570	-0.15178	5.41161
12242.692	-7.70316	8.54656	-0.83138	4.72220
12246.690	-4.96179	5.65013	-1.77427	4.30067
12250.691	-4.57199	5.64806	-1.71908	3.55412
12254.690	-5.76649	5.66114	-1.45356	3.36385
12258.688	-5.92400	5.62468	-0.65235	1.55033
12262.694	-6.01063	5.62355	-0.79208	1.55304
12266.696	-5.59346	5.54393	-0.63168	3.38020
12270.695	-5.26893	5.52074	-1.14332	5.04666
12274.696	-4.89074	5.39489	-0.98452	3.93324
12278.696	-5.44080	5.48920	-2.12627	3.40562
12282.696	-5.06178	5.38071	-1.37082	1.15607
12286.692	-4.72260	5.49153	-1.18101	1.69843
12290.687	-4.30736	5.46662	-0.90413	1.67996
12294.673	-5.35879	5.43213	-0.43279	1.49047
12298.656	-5.58648	5.30113	-0.66302	2.60684
12302.696	-5.75846	5.15114	-1.08626	2.51746
12306.686	-5.69060	5.36735	-0.68330	3.05941
12310.695	-5.84023	5.42952	-0.53220	4.25025
12314.700	-3.87267	7.43808	-0.44018	5.93613
12318.695	-3.31783	8.76002	-0.47984	1.73756
12322.696	-4.51502	5.08664	-2.26680	2.70418
12326.693	-6.45155	5.54734	-1.67625	3.76538
12330.695	-4.83678	5.56554	-1.84885	6.02553
12334.696	-4.28167	6.50579	-0.94892	1.13110
12338.686	-6.65270	5.56977	-0.96795	3.10110
12342.695	-6.73524	5.43452	-1.31649	4.70307
12346.697	-5.81174	5.83242	-1.32853	6.14872
12350.659	-6.63592	5.07593	-1.56739	3.53036
12354.688	-5.48959	5.28208	-1.10591	1.65136
12358.695	-6.12713	5.78480	-1.24089	4.61624
12362.694	-4.57630	6.56586	-1.23307	4.39841
12366.695	-3.78496	9.36764	-1.43503	3.79252
12370.718	-5.14461	5.40114	-1.05786	1.87408
12374.697	-5.39773	6.20627	-1.01538	3.91980
12378.669	-3.06837	8.82929	-1.24883	4.80642
12382.697	-1.74727	9.30037	-0.76883	3.90156
12386.697	-6.38070	4.95040	-0.67687	3.59163
12390.697	-6.52461	5.93945	-1.20075	3.67522
12394.695	-4.67342	4.96320	-0.58439	3.92172
12398.698	-1.61796	8.29473	-0.54687	5.78973
12402.687	-4.05720	6.84919	-0.70506	1.78326
12406.695	-6.89106	5.79338	-1.33765	1.71498
12410.696	-6.39204	4.95022	-0.97239	2.52957
12414.704	-4.23535	4.86703	-0.93257	4.10399
12418.696	-2.01166	5.31304	-0.23398	3.28436
12422.693	-1.24389	5.68844	1.33619	4.56025
12426.698	-1.50762	6.39526	3.28118	5.06694
12430.695	0.32630	5.90432	4.59840	5.10873
12434.672	1.45609	5.38089	5.02339	6.28748
12438.698	0.46875	5.21740	3.71634	1.60615
12442.696	0.13064	5.06954	6.35667	1.61452
12446.696	0.74191	4.77794	5.66560	1.87859
12450.724	0.72573	5.09907	5.31162	2.68615
12454.699	1.33626	4.83369	5.16511	3.72579
12458.697	0.64439	5.38745	6.05356	4.06321
12462.692	1.49751	5.14075	5.49200	5.26486
12466.719	1.90663	5.44670	5.36302	5.97698
12470.695	0.64635	4.95556	5.67012	6.93708
12474.660	0.79714	4.83744	5.39519	3.31642
12478.660	0.60382	4.90947	5.93755	1.17418
12482.691	0.37489	5.21260	5.72642	2.29053
12486.707	0.85910	5.15042	5.61492	2.44840
12490.695	0.69387	5.16963	5.46259	3.88919
12494.697	0.49580	5.72779	5.47594	4.90164
12498.698	0.41370	5.60288	6.06095	4.93559
12502.660	0.58664	5.24009	6.10401	5.75272
12506.692	0.74841	5.14512	5.57077	5.21195
12510.694	0.71129	4.52620	5.67570	2.85799
12514.657	0.80181	5.01240	5.41536	1.28823
12518.694	0.88932	5.16675	5.54100	2.19460
12522.695	0.86299	5.13760	5.69089	2.48992
12526.701	0.98023	5.03070	5.15074	2.81916
12530.688	0.71176	5.03785	4.75990	3.85600
12534.700	0.86086	5.26528	5.02965	4.47027
12538.663	1.02409	5.10947	5.38503	5.30877
12542.690	1.00122	5.22222	5.65825	4.76634
12546.689	0.87438	5.25178	5.71502	4.81572
12550.665	1.05292	5.33457	5.72777	5.10994
12554.701	1.12596	5.50705	5.56861	5.06570
12558.699	1.20487	5.51356	5.50552	5.33314
12562.697	1.21072	5.70039	5.80015	5.01331
12566.697	0.96425	5.85006	5.83675	5.16002
12570.703	1.28276	5.85086	5.95830	4.62207
12574.662	1.14972	5.77135	5.90760	5.30680
12578.698	1.34733	5.71986	5.91852	4.04633
12582.699	1.24486	5.78300	5.89871	4.85423
12586.665	1.43424	5.59966	5.61394	4.11040
12590.701	1.34819	5.17060	5.95621	3.78143
12594.725	1.30995	4.79506	5.64196	3.41325
12598.697	0.96718	5.01080	5.50732	3.44790
12602.700	1.11899	4.30895	5.27535	2.26049
12606.700	0.79875	4.36489	6.10124	1.17294
12610.691	0.96326	4.31558	5.59782	0.35565
12614.697	-0.53200	4.04826	5.84132	3.82051
12618.703	-1.48667	5.60952	3.35061	3.53581
12622.701	-3.23853	4.87800	-0.01680	3.51653
12626.689	-2.81721	4.79039	0.34858	3.25983
12630.699	-3.12618	4.53488	0.61434	2.89647
12634.698	-3.39389	4.09247	0.87647	2.57938
12638.699	-3.45907	3.96809	0.96420	2.12224
12642.701	-3.79729	3.98598	0.81798	1.29814
12646.698	-3.58479	4.26371	1.07249	1.12448
12650.701	-3.67633	4.06058	0.81173	0.33237
12654.698	-3.71238	3.98282	0.89059	1.18273
12658.691	-3.78000	4.75682	0.63521	0.26882
12662.701	-3.80172	4.40871	1.21000	0.68292
12666.699	-3.77560	4.23069	0.89304	0.69732
12670.703	-3.86062	4.21531	-2.13663	2.03154
12674.699	-4.00060	4.15143	-2.21348	2.07905
12678.701	-3.86324	4.05113	-2.20803	1.90535
12682.702	-4.05001	3.97701	-2.36614	2.25855
12686.701	-3.91109	3.88688	-2.83687	2.24512
12690.699	-3.92823	3.96455	1.40403	3.21657
12694.714	-4.08026	3.82523	1.41360	4.29880
12698.699	-4.26057	3.93758	0.70456	2.38622
12702.701	-3.87947	4.05833	0.41924	2.66777
12706.693	-4.37241	3.96711	0.47167	2.86456
12710.681	-3.60455	3.79810	-1.41824	2.81893
12714.702	-3.25528	3.95704	-1.67452	2.29147
12718.704	-3.04462	4.21181	-1.63484	2.51322
12722.692	-3.88754	4.01618	-1.03838	2.62563
12726.673	-4.24258	4.50100	-1.22541	2.51649
12730.701	-4.40710	5.68886	-1.36662	2.30167
12734.701	-4.52846	5.32551	-1.47945	2.05515
12738.693	-3.82324	5.05754	-1.51018	2.16305
12742.701	-4.18144	4.95443	-2.13747	2.36399
12746.703	-3.92643	3.78009	-1.90433	2.04860
12750.700	-2.22354	2.94921	0.01673	1.91590
12754.666	-2.35214	2.81573	-1.79772	2.03354
12758.698	-2.57603	2.20822	-1.98063	2.16913
12762.699	-3.14484	2.43168	-2.15222	3.04487
12766.702	-3.20271	2.44769	1.01734	2.30382
12770.697	-3.46036	4.00176	-1.30871	2.56535
12774.704	-3.58012	4.29850	-0.37037	2.68397
12778.702	-3.92934	4.87397	-0.38390	3.02472
12782.701	-3.98084	5.06700	0.08890	3.16819
12786.692	-3.13058	4.61077	-0.25329	2.73701
12790.705	-3.18274	4.52349	-1.14111	2.68965
12794.677	-3.38375	4.46714	-1.19832	2.89099
12798.703	-3.33965	3.82418	-0.94743	2.79098
12802.703	-3.67089	3.57366	-1.11941	2.86466
12806.700	-3.02059	3.94363	2.29917	2.60063
12810.703	-3.01539	3.80799	2.66025	2.77003
12814.700	-3.10460	4.03772	1.29191	2.54891
12818.705	-3.33562	3.57496	1.03620	2.01341
12822.702	-3.53238	3.73274	-0.53446	2.64439
12826.703	-3.59436	3.52581	-1.15967	2.48422
12830.706	-3.53641	3.54466	-1.23419	2.61149
12834.696	-3.55548	3.41751	-1.27792	2.04944
12838.700	-3.57048	3.44508	-1.49946	2.00807
12842.664	-3.50630	3.39888	-1.35854	2.75843
12846.704	-3.44859	3.42210	-1.65245	2.41722
12850.695	-3.58707	3.51608	-1.99116	2.53126
12854.701	-3.54052	3.61651	-2.39081	3.26565
12858.705	-3.38078	3.53012	-2.05541	3.86270
12862.703	-3.50991	4.13646	-2.73781	4.81792
12866.704	-3.46830	4.85002	-0.31684	4.99861
12870.702	-3.34539	4.73718	-1.72324	4.00459
12874.704	-3.27240	4.77017	-1.56694	3.81285
12878.701	-3.25402	3.31496	-1.26907	3.32927
12882.693	-3.22411	3.69693	-0.85922	3.16026
12886.705	-3.39507	3.91908	-1.09750	3.74770
12890.702	-3.36367	3.15246	-0.85458	3.78837
12894.666	-3.45450	3.33314	-1.47000	3.94639
12898.602	-3.53577	3.06583	-1.30690	3.80361
12902.704	-3.60984	3.85654	-1.32612	3.67121
12906.707	-3.65522	3.18030	-1.44242	3.38822
12910.675	-3.81044	3.40205	-1.47511	3.28001
12914.707	-3.61567	3.24699	-1.77918	2.90051
12918.666	-4.11782	3.66173	-1.25736	3.07425
12922.703	-3.71886	3.40325	-0.70732	2.81977
12926.704	-1.14868	3.60571	0.78369	3.16515
12930.707	-0.42085	3.73326	-1.71203	5.31133
12934.702	-0.71714	5.45703	2.00829	3.74020
12938.703	-0.31411	4.20507	3.27017	6.07800
12942.703	0.46904	3.96794	5.30557	5.86480
12946.604	1.51025	6.04214	4.33641	6.16828
12950.707	1.43302	5.50258	5.76428	5.56047
12954.707	1.58931	5.44385	5.27983	5.47527
12958.705	1.66797	4.60485	4.58508	3.43677
12962.706	1.10132	4.48184	4.65636	4.53387
12966.704	1.55851	4.74629	4.74511	4.44797
12970.704	1.73095	4.44182	4.95822	4.11755
12974.702	1.61478	4.71720	5.43273	3.73317
12978.612	1.73428	4.53036	5.35608	3.88616
12982.705	1.56335	4.42461	5.57810	3.37232
12986.704	1.73323	4.52207	5.54405	3.61932
12990.705	1.56456	5.06094	5.46327	3.76537
12994.606	1.59058	4.59972	4.94268	3.51148
12998.706	1.83566	4.55528	5.52109	3.43310
13002.672	1.80370	4.56269	5.03775	3.56988
13006.720	1.58267	4.85168	5.35650	3.57076
13010.603	1.40780	4.89843	5.40791	3.58520
13014.708	1.67432	4.86796	5.38777	3.92627
13018.710	1.16002	5.20377	5.40599	3.75964
13022.703	1.09867	5.34489	5.44596	4.18723
13026.601	0.97487	5.33435	5.41325	3.72412
13030.706	0.81245	5.75336	5.41362	3.72420
13034.704	0.85677	5.81075	5.50082	3.62604
13038.707	0.77992	5.77003	5.54614	3.78908
13042.694	0.75109	5.88941	5.57422	3.55050
13046.670	0.71240	5.89192	5.57650	3.71055
13050.706	0.82004	5.95495	5.57114	3.48020
13054.705	0.87413	5.94368	5.66177	3.41794
13058.707	1.54401	5.65734	5.64712	3.56905
13062.705	1.81503	5.79842	5.69819	3.31891
13066.708	1.00263	5.39477	5.22148	3.14979
13070.706	1.35053	5.51618	4.70303	3.00294
13074.711	1.47278	5.36866	4.77244	2.87912
13078.708	2.30511	5.32495	4.81404	2.89493
13082.705	2.13490	5.28757	4.33638	2.69376
13086.707	2.55525	5.43602	5.15992	2.67458
13090.710	1.56459	4.95950	4.48145	2.81116
13094.706	1.59514	5.09071	4.44336	2.85465
13098.706	1.38887	4.97834	4.77976	2.71046
13102.707	1.46316	5.16621	5.07712	2.56110
13106.610	1.19710	5.36859	5.53247	2.40707
13110.709	0.92817	5.64285	5.69143	2.46686
13114.707	0.82258	5.39743	5.45383	2.37324
13118.709	0.92696	5.51610	6.25394	2.44532
13122.605	0.94006	5.35584	5.22941	2.25503
13126.648	0.94778	5.37858	5.40385	4.86438
13130.709	1.09480	5.41402	5.36968	7.12698
13134.706	1.03828	5.24692	6.18313	6.78151
13138.605	1.05580	5.43755	5.86909	6.50413
13142.709	1.74764	5.39746	6.24345	6.29287
13146.707	1.40738	6.76634	6.12296	8.68820
13150.708	10.73840	7.15242	6.73975	9.01745
13154.608	8.06343	11.13419	9.32572	10.58127
13158.708	NaN	NaN	6.69131	9.37395
13162.709	NaN	NaN	NaN	NaN
13166.671	NaN	NaN	NaN	NaN
13170.695	NaN	NaN	NaN	NaN
13174.670	NaN	NaN	NaN	NaN
13178.706	NaN	NaN	NaN	NaN
13182.591	NaN	NaN	NaN	NaN
13186.709	NaN	NaN	NaN	NaN
13190.707	NaN	NaN	NaN	NaN
13194.710	NaN	NaN	NaN	NaN
13198.707	NaN	NaN	NaN	NaN
13202.708	NaN	NaN	NaN	NaN
13206.706	NaN	NaN	NaN	NaN
13210.681	NaN	NaN	NaN	NaN
13214.710	NaN	NaN	NaN	NaN
13218.671	NaN	NaN	NaN	NaN
13222.709	NaN	NaN	NaN	NaN
13226.713	NaN	NaN	NaN	NaN
13230.710	NaN	NaN	NaN	NaN
13234.712	NaN	NaN	NaN	NaN
13238.671	NaN	NaN	NaN	NaN
13246.585	NaN	NaN	NaN	NaN
13250.671	NaN	NaN	NaN	NaN
13254.580	NaN	NaN	NaN	NaN
13258.589	NaN	NaN	NaN	NaN
13262.583	NaN	NaN	NaN	NaN
13266.610	NaN	NaN	NaN	NaN
13270.584	NaN	NaN	NaN	NaN
13274.585	NaN	NaN	NaN	NaN
13278.560	NaN	NaN	NaN	NaN
13282.575	NaN	NaN	NaN	NaN
13286.584	NaN	NaN	NaN	NaN
13290.551	NaN	NaN	5.17439	6.66524
13294.585	NaN	NaN	11.07630	8.67737
13298.575	NaN	NaN	9.34891	5.77399
13302.586	10.86258	6.03618	11.98681	2.64148
13306.587	8.81377	4.72778	7.94367	-0.22777
13310.585	3.83337	8.17027	6.44851	4.79290
13314.586	-3.17129	-1.98068	9.35694	2.74190
13318.548	13.89042	4.69820	9.10744	2.72787
13322.552	13.64788	5.41340	2.69544	0.08534
13326.586	13.55743	6.38867	13.87491	3.65526
13330.587	-3.10007	1.21664	7.71974	3.77894
13334.587	13.28040	5.79525	13.90031	4.61260
13338.574	10.71427	5.70096	12.29310	3.88981
13342.577	9.39025	6.21868	10.47295	4.20737
13346.580	6.32721	6.70505	12.39187	4.72304
13350.586	4.44689	5.88294	9.59206	-0.36559
13354.586	6.30230	4.67342	2.58038	-1.56218
13358.586	4.51181	3.99222	7.65995	0.06282
13362.585	3.53639	3.22067	6.14359	2.33189
13366.586	4.33086	3.94060	6.36962	3.42741
13370.585	3.98279	3.77028	6.33956	4.06922
13374.587	3.60257	3.91619	6.51371	3.65241
13378.586	3.12494	3.99989	5.74458	3.60278
13382.552	2.88965	4.04429	6.56101	3.18772
13386.585	2.69832	4.48716	6.22652	3.41006
13390.586	2.90171	4.66167	6.60955	3.25845
13394.585	2.73652	4.44232	6.62035	3.57906
13398.588	2.64611	5.01368	6.46880	3.45732
13402.586	2.34746	5.66600	6.36415	2.86391
13406.585	2.26061	5.32100	6.59579	2.38836
13410.585	2.03405	5.48583	6.26140	3.09998
13414.548	2.13361	5.40312	5.88832	2.27114
13418.591	2.01687	5.52240	6.52189	2.87634
13422.567	2.10409	5.53654	5.96674	2.30509
13426.563	2.01377	5.50463	5.99235	2.12225
13430.587	1.93472	5.24921	6.29374	1.76979
13434.589	1.91375	5.45881	6.35562	1.71905
13438.586	1.79019	5.61042	6.44667	1.61320
13442.577	1.76953	5.65621	6.14658	1.75570
13446.587	1.73214	5.65125	6.16768	2.26373
13450.589	1.60776	5.79567	5.98913	2.21491
13454.550	1.69855	5.76753	5.85107	1.73032
13458.588	1.70889	5.59329	5.78037	4.20761
13462.584	1.60471	5.64569	5.68563	3.10560
13466.582	1.79336	5.38506	6.03822	1.88968
13470.587	1.71764	5.56389	5.49173	2.65536
13474.582	1.81230	5.50876	5.53680	1.94721
13478.584	1.87753	5.59445	5.35337	2.76503
13482.587	2.10017	5.30751	5.30412	2.92685
13486.587	1.72570	5.62795	5.37475	3.36323
13490.583	2.08134	5.15898	5.29184	3.19680
13494.587	2.12610	5.33337	5.44301	3.36133
13498.590	2.06709	4.87792	5.68521	3.62812
13502.588	1.89067	4.64590	5.38395	3.49041
13506.612	2.02012	3.88931	5.55715	3.64308
13510.589	1.92937	3.09070	5.44003	1.84921
13514.583	2.10731	2.78878	5.46738	1.54865
13518.583	1.94461	2.71728	5.75637	2.83825
13522.581	2.14897	2.64528	5.62859	1.75402
13526.588	2.10838	2.52662	5.91452	0.65588
13530.586	2.02262	2.83568	6.05916	1.07673
13534.588	2.43476	2.64703	5.93610	0.41171
13538.586	2.28170	2.64828	6.35540	0.14272
13542.551	2.29010	2.72705	6.91772	-0.75875
13546.552	1.94012	2.88301	6.10352	-0.83241
13550.590	2.13985	3.02463	6.66795	-0.29602
13554.588	2.12446	3.19300	6.94937	0.07881
13558.589	2.35620	4.07476	6.80986	-0.83485
13562.591	2.16493	3.37522	6.94281	-0.85275
13566.590	2.45998	3.50610	7.03528	-0.10193
13570.587	1.92612	3.70987	6.92242	0.69272
13574.590	1.79492	3.84170	6.79672	0.15022
13578.552	1.89630	3.88764	4.82988	-0.56253
13582.590	2.29044	4.21725	5.60897	-0.19381
13586.589	2.38412	4.14913	4.55620	1.11305
13590.589	2.27327	4.23742	4.20642	0.86233
13594.589	2.35930	4.52120	4.38721	1.52361
13598.551	2.30514	4.36897	4.65454	1.33860
13602.582	1.98447	4.33416	4.19084	1.43346
13606.590	1.67241	4.83356	3.89421	1.62856
13610.592	1.71699	4.54094	4.49398	1.53242
13614.589	1.82859	4.82369	4.41608	1.63582
13618.589	1.81711	4.76054	5.03987	1.86421
13622.593	1.93388	5.08144	4.89705	1.48020
13626.590	1.94032	4.97769	4.94977	1.31268
13630.568	1.75746	5.05922	5.02979	1.64563
13634.581	1.66304	4.89782	5.39003	1.10259
13638.592	1.70926	4.97147	5.89500	1.12792
13642.588	2.08986	5.02781	5.36690	1.57128
13646.591	1.86189	4.97925	5.79595	0.21983
13650.592	1.88564	4.90463	5.86192	0.16228
13654.590	2.01833	4.91404	6.22606	-0.13302
13658.593	2.01067	4.83058	6.44562	0.08087
13662.553	2.60072	4.68077	6.85028	0.14063
13666.552	3.23658	4.46908	7.02739	-0.29388
13670.590	2.27379	4.50163	6.92281	-0.26493
13674.582	2.22520	4.24979	7.19945	-0.22242
13678.593	1.98484	4.39904	7.27204	-0.68697
13682.594	2.41105	4.38664	6.42234	-0.23989
13686.589	2.38080	4.27473	6.59515	-0.33677
13690.589	2.69799	4.26073	6.54073	-0.07206
13694.589	2.79528	4.21230	5.21909	-0.17666
13698.588	3.28442	3.08724	6.31514	0.69384
13702.590	2.81538	3.94850	4.89784	1.37628
13706.590	1.69636	3.92147	2.94780	1.03659
13710.593	1.30154	4.14057	3.32409	1.40555
13714.592	1.22685	3.91435	3.91615	1.06210
13718.590	1.59112	4.22133	3.86311	0.56151
13722.596	1.83853	4.13674	3.71285	-0.09212
13726.592	1.06406	4.51427	3.14244	0.74114
13730.593	0.89746	4.76202	2.98312	1.00294
13734.591	0.50748	5.22306	3.38224	1.37614
13738.595	-1.51075	4.28293	3.69429	1.45555
13742.592	-1.09259	4.41925	3.70243	1.72364
13746.584	-0.77712	4.35253	3.57703	2.21254
13750.596	-0.74059	4.14693	3.84359	2.28624
13754.578	-0.50004	4.13448	3.97874	2.52105
13758.582	0.01581	4.42215	4.08626	3.06301
13762.587	-0.01583	4.24174	3.98850	2.94768
13766.596	0.27145	4.11309	4.06646	3.12899
13770.594	0.36970	4.03520	4.18526	3.07204
13774.592	0.09920	4.30292	4.09031	3.15006
13778.596	0.19641	4.38122	3.32048	3.04178
13782.595	0.17807	4.03612	3.18477	2.52252
13786.593	0.27587	4.18371	4.16460	2.60951
13790.583	0.30664	3.95478	3.84493	1.94644
13794.592	0.25865	4.49442	4.02643	1.67374
13798.563	0.36074	4.61799	4.18465	1.13788
13802.591	0.43103	4.65029	3.57214	1.55857
13806.592	0.48443	4.28444	4.34862	1.16134
13810.585	0.55468	4.46606	4.27540	0.93742
13814.592	0.87659	4.13329	2.97312	1.96781
13818.592	1.29650	3.88998	4.00299	2.46575
13822.594	1.44949	3.64522	4.03312	3.10606
13826.592	1.44641	3.53184	3.32602	3.40871
13830.595	0.68253	3.28240	4.32898	3.19104
13834.594	1.09753	3.39338	4.47575	2.49679
13838.574	0.38080	3.43599	4.54511	2.29423
13842.563	0.43194	3.28407	4.29589	2.60786
13846.592	-0.84032	3.22925	4.00956	2.81438
13850.591	-1.19519	3.26035	4.27015	2.53010
13854.595	-0.65451	3.36929	4.34924	2.70781
13858.597	0.07768	3.35685	4.14828	2.66816
13862.556	-0.72642	3.53452	3.76245	2.80588
13866.594	-0.68444	3.73198	3.39849	3.11344
13870.594	-0.75464	3.96290	3.63631	2.78448
13874.586	-0.62451	3.97728	3.94656	2.93507
13878.555	-0.07641	4.24000	3.79030	2.93737
13882.587	0.25115	3.86734	3.99731	3.37870
13886.594	0.33484	3.90451	3.84014	3.82316
13890.586	0.49386	4.14339	1.59968	2.87501
13894.596	0.03484	4.16635	1.51690	0.61060
13898.594	0.13498	4.27108	1.97706	0.70481
13902.594	0.32528	4.05440	1.72837	-0.19160
13906.596	0.23150	4.20288	2.53972	0.14488
13910.596	0.34270	4.07677	2.70733	0.07816
13914.591	0.66868	3.99628	2.92530	0.00536
13918.594	0.82908	4.08724	3.70774	-0.10502
13922.494	0.73985	4.04637	3.95898	0.04586
13926.599	0.71300	3.93299	4.00339	0.44442
13930.595	0.77553	4.01352	4.67641	0.72492
13934.593	0.85161	4.04487	4.15608	5.05326
13938.598	0.81707	4.10990	4.10552	5.41902
13942.595	0.76211	4.26679	4.57371	4.65925
13946.594	1.26979	4.07698	1.93435	5.12746
13950.598	1.00687	3.92740	1.07212	4.84153
13954.598	0.94599	4.23012	3.16033	5.42931
13958.598	-0.11379	4.23753	4.18435	4.95505
13962.578	0.75943	4.31586	3.45388	4.59415
13966.585	0.81044	3.83006	3.65413	4.55930
13970.588	0.57106	4.19961	3.27962	4.73776
13974.594	0.66742	3.34660	3.88006	4.12345
13978.558	0.53967	3.92085	3.77925	4.00810
13982.594	0.97147	3.49501	3.49574	3.95385
13986.596	1.25552	3.43151	3.30423	4.11614
13990.596	1.25213	3.08617	3.44861	3.67949
13994.596	0.74124	2.98142	3.21092	3.18393
13998.599	1.19577	2.80815	3.50764	3.04898
14002.496	1.85175	2.57859	3.35803	2.89713
14006.561	1.44242	2.43643	3.61424	3.11364
14010.594	1.85740	2.29666	3.52769	2.62134
14014.595	0.91391	2.51598	3.60442	2.71382
14018.504	1.72575	2.37342	3.82168	2.71830
14022.596	1.66155	2.65566	3.93334	2.73401
14026.601	0.95956	3.60717	4.15325	2.53146
14030.593	1.18408	2.70639	3.66016	2.56171
14034.598	1.96516	2.53170	3.40136	2.37433
14038.596	2.17621	1.82671	4.04451	2.03623
14042.601	2.28095	2.83993	5.53520	1.27791
14046.575	2.38256	3.69931	6.47323	0.22444
14050.600	2.64081	2.98083	8.16163	-1.22086
14054.595	2.89223	3.28823	5.56038	-0.46050
14058.596	2.86933	2.22781	4.28760	-0.68401
14062.596	3.18903	2.96713	4.95105	0.48502
14066.562	3.03657	2.74348	5.29356	0.64767
14070.597	3.08632	2.80303	5.46089	0.67972
14074.596	2.99992	2.92091	5.37436	1.01836
14078.596	3.69998	3.25845	5.26866	0.30410
14082.495	3.82015	2.55716	5.46532	0.83644
14086.592	3.14855	2.81693	5.20029	0.77225
14090.560	3.48454	2.34909	5.35455	0.92913
