time (ms)	lx (deg)	ly (deg)	rx (deg)	ry (deg)
0.000	-0.44150	4.05598	3.27781	1.89019
4.005	-0.52322	4.09074	2.14201	2.12031
8.004	-0.58275	3.07936	2.03791	2.69606
12.001	-0.78052	3.10743	3.18668	2.56572
15.970	-0.61424	2.65266	4.02636	0.82491
20.004	-0.92051	2.69901	3.13860	0.70043
24.006	-0.01320	3.30933	2.81870	0.14060
28.004	-0.39596	3.49414	2.80808	0.38097
32.002	-0.59307	3.96808	3.28791	1.81843
36.005	-0.79270	3.63475	3.46751	2.13295
40.005	-0.76345	4.02083	1.11713	3.13420
44.006	-1.14124	3.35153	2.83831	3.80224
48.026	-0.83955	4.15165	3.49599	0.83168
52.009	-0.65176	4.16767	2.94114	0.45552
55.987	-0.73332	2.94522	2.97294	0.33709
59.996	-1.64722	3.75505	1.65034	-0.22052
64.028	-2.36515	3.44354	3.18222	1.20992
68.005	-1.06426	2.93794	0.55821	-0.66823
72.005	-1.91739	1.87871	1.34879	0.10908
76.005	-3.17631	3.78078	-1.15543	-0.53788
80.029	-3.70302	3.71710	2.64906	-0.70423
84.006	-2.55760	3.22525	2.03330	-0.49403
88.007	-5.42060	3.57433	1.08239	-0.21975
92.007	-3.26713	3.60083	1.19941	-0.23763
95.998	-3.27769	3.30719	-0.50106	0.06212
99.968	-3.12200	3.24225	1.40264	-0.21953
104.006	-3.73984	3.34601	1.85388	-0.03380
108.006	-4.33105	3.18404	0.76392	0.44567
112.026	-2.53915	3.31252	1.10576	0.06529
115.966	-3.19066	3.42507	0.89071	0.70132
120.005	-3.30025	3.16977	0.45227	0.76094
123.969	-3.12920	3.14116	0.73327	0.49082
128.006	-3.91193	3.00388	1.06924	0.96056
131.962	-4.01663	3.14006	1.47087	0.98927
136.014	-4.22535	3.09849	0.91830	2.63100
139.985	-4.95071	3.13855	0.89527	2.47574
143.997	-3.36426	3.37506	1.56851	2.28693
148.005	-3.39342	3.36290	2.26254	1.42516
152.006	-2.92418	3.43455	1.60060	0.64965
156.007	-3.31657	3.96675	1.57476	0.39403
160.006	-3.86963	4.20407	1.32451	-0.21968
164.009	-3.07805	4.15138	1.17381	0.06695
167.973	-3.37084	4.21247	1.04731	-0.04753
172.010	-2.67836	3.48592	0.80335	0.04743
175.999	-2.08865	2.88567	0.62067	-0.15304
180.000	-3.75057	3.43564	0.87441	0.04065
184.001	-3.26344	3.12594	1.35591	0.34997
188.007	-3.06607	3.15884	0.87270	1.16307
192.030	-3.40677	3.19522	1.56025	1.23877
196.009	-3.76796	3.52209	0.89500	1.72541
200.007	-4.44687	3.09210	0.73479	1.84888
204.006	-4.40791	3.15936	0.54108	2.45190
207.998	-1.52193	3.19669	0.48478	2.93053
212.006	-1.37486	3.10905	0.70345	2.73698
215.970	-3.54044	2.97138	1.12501	2.72303
220.011	-3.26871	3.06267	2.83761	1.09159
224.027	-3.19976	2.97099	1.68144	1.38112
228.010	-2.98124	3.00523	0.93554	-0.23511
232.003	-3.15426	2.98418	0.61042	0.07656
235.970	-3.08515	3.03854	0.31193	-0.08342
240.002	-3.21686	3.11260	-0.07455	0.00569
244.010	-4.12369	3.09630	-0.37655	-0.23879
248.031	-4.45915	3.25249	-0.63290	-0.61033
252.009	-4.72485	3.08838	-0.99814	0.09923
255.968	-4.03776	3.06341	-0.88411	-0.53669
260.010	-4.64877	3.10393	-1.36015	-0.81755
263.995	-4.17630	3.25627	-1.02538	-0.61405
268.008	-4.46411	3.30672	-1.29645	-0.68598
272.030	-4.31341	3.32065	-1.08061	-0.71323
276.010	-3.95589	3.43222	-0.93922	-0.65019
280.010	-3.80389	3.42733	1.40370	-2.08687
284.011	-3.72766	3.42854	1.18455	-1.95190
288.030	-3.70791	3.48715	0.89840	-1.57286
292.009	-3.65638	3.54469	1.26267	-1.93626
296.019	-3.72558	3.74280	1.42707	-1.46339
300.008	-3.64150	4.02240	1.01878	-1.15485
304.000	-3.57132	4.22934	0.90969	-0.88368
307.972	-3.63179	4.44774	1.28219	-0.49103
312.011	-2.36294	3.90369	1.37178	-0.41150
316.009	-3.50341	4.88072	1.16758	-0.23945
320.000	-3.74535	4.88023	1.22127	-0.12069
324.011	-2.19194	4.47278	1.16486	0.13962
328.011	-2.42564	4.55727	1.22829	0.27516
332.009	-2.44948	4.58255	1.21787	0.33849
336.032	-2.72615	4.77671	1.02729	0.61840
340.009	-2.57305	4.74599	1.07837	1.23484
344.013	-2.47108	4.86224	1.14538	0.96493
347.989	-2.45322	4.84353	1.31791	1.49191
352.003	-2.45309	5.19757	1.45497	1.62797
356.010	-3.93001	4.04205	1.15508	1.90176
360.009	-3.13239	4.62593	1.02258	2.03821
364.014	-2.83412	4.62395	0.94636	1.42012
368.034	-2.73048	4.60327	0.71226	-0.89286
372.013	-2.65619	4.06689	0.50763	-0.17786
376.012	-2.67945	4.04815	0.59952	-0.31904
380.012	-2.69148	3.81877	0.64903	-0.10058
384.036	-2.65287	3.78652	0.98120	0.14157
388.005	-2.68603	4.04037	2.28019	-2.57844
392.001	-2.51948	4.08415	0.94800	-1.09984
396.012	-2.29602	4.28773	3.20239	-0.83905
400.014	-2.07561	4.50044	1.73296	-0.64732
404.009	-2.52332	4.83740	1.75371	-0.56804
408.009	-1.74144	4.57788	2.41011	-0.66363
412.009	-2.43419	3.72392	2.31257	-0.41138
415.978	-2.33839	3.66897	3.65171	-0.78029
420.012	-2.26958	3.84730	2.12169	-0.43619
424.010	-2.10233	3.91590	2.69064	-0.18132
428.011	-2.13985	4.08942	2.47308	-0.50445
432.004	-1.72562	3.93226	0.37926	-0.41405
436.012	0.02866	4.01849	0.17382	-0.36349
440.010	0.21509	3.99638	0.14387	-0.41800
444.012	0.21316	4.03221	0.36829	-0.32459
448.003	-3.01269	4.32404	0.16873	-0.18950
452.012	-3.20798	4.09496	0.19092	-0.01523
456.014	-3.03982	3.90039	0.22599	0.13851
460.011	-3.58685	4.23950	0.29816	0.08001
464.012	-3.53110	4.43894	0.27557	0.15001
468.017	-3.54509	4.41858	0.40437	0.21275
471.996	-3.23509	4.25144	0.34992	0.33607
476.004	-3.36574	4.31598	0.43470	0.55162
480.005	-3.30072	4.40779	0.40718	0.74792
484.012	-3.19974	4.48843	0.50049	0.60615
488.012	-3.21399	4.29667	0.55223	1.40741
491.971	-3.17717	4.43195	0.62496	1.24087
496.011	-3.08701	4.66125	1.23704	1.54471
500.012	-3.17114	4.74156	0.74020	2.00424
504.012	-3.07595	4.90507	0.69097	2.54729
507.976	-1.49490	4.64280	0.63938	0.46993
512.012	-2.68279	4.82716	0.55166	1.22380
515.978	-2.47596	5.05740	1.36300	-1.56983
520.014	-2.87009	4.83978	2.36096	-1.37156
524.012	-2.24284	4.61414	1.90976	0.08533
528.014	-2.53422	4.57454	1.00097	0.21720
532.013	-2.40109	4.58059	0.71930	0.23615
536.012	-2.25481	4.78112	1.90356	0.96611
540.013	-2.03680	4.74762	2.02537	2.05408
544.016	-1.26433	4.58924	2.16766	2.17788
548.012	-1.84612	5.22823	1.96221	2.32892
552.014	-0.88823	4.82971	3.16901	0.30723
555.974	-2.04805	4.35663	2.61548	0.50224
559.983	-1.56657	4.53777	2.77096	0.67905
564.013	-2.09276	4.38544	2.99703	0.66722
568.013	-1.85462	4.44833	2.60344	0.74538
572.018	-2.23117	4.53641	2.31492	2.91129
576.006	-2.30169	4.51975	2.69864	1.15335
580.014	-2.04857	4.72509	2.13651	2.94141
584.013	-2.31262	4.69605	2.32761	3.10951
588.013	-2.36785	4.54500	2.41108	2.83867
592.012	-2.22837	4.50870	2.64411	3.13023
596.008	-2.21360	4.63757	1.47124	2.74273
600.005	-2.16813	4.62939	1.60206	3.03311
604.015	-2.26591	4.65161	1.44773	2.83914
608.006	-2.20716	4.76969	0.81322	2.90829
612.014	-2.02663	4.68211	0.59960	2.89266
616.013	-2.04741	4.63291	0.50942	2.85245
619.979	-2.03407	4.77162	0.48512	2.83541
624.024	-1.94394	4.06875	0.66293	2.61705
628.014	-1.22489	3.96632	0.48366	2.49498
632.014	-1.71055	3.84113	0.56357	2.74085
636.014	-1.63750	3.70958	0.55761	2.87119
639.953	-1.57577	3.58798	0.52570	2.82161
644.015	-1.57384	3.64320	0.62218	2.75609
648.014	-3.60469	3.66218	0.48284	3.06105
652.014	-1.37627	4.04865	0.49026	3.36488
656.012	-3.86842	3.80659	0.39670	2.57618
660.017	-3.55753	4.13911	-0.76446	-0.46863
664.013	-3.83863	4.13156	0.29711	-0.94665
668.015	-3.91200	4.56512	1.14975	-0.76920
672.016	-4.02920	4.91059	0.78660	-1.48350
676.014	-4.03312	5.14948	1.01685	-0.85672
679.998	-4.17504	5.27193	0.47939	-0.78180
684.005	-3.00282	5.11041	1.14188	-0.76635
688.020	-3.29045	5.31659	1.09123	-0.79433
692.016	-0.72858	4.29479	0.73672	-0.68654
696.017	-2.27919	4.30217	0.65690	-0.53577
700.018	-2.75183	4.32533	0.28374	-0.45674
704.017	-2.22664	4.03402	0.38817	-0.24829
708.017	-2.45738	4.45931	0.88994	0.49423
712.018	-2.12456	3.99140	0.96549	0.81026
716.019	-2.10996	4.59061	1.25642	0.64840
719.913	-2.20897	4.62512	1.39748	0.90407
723.980	-2.35950	4.23327	2.14449	1.21094
727.970	-2.13633	4.18446	1.40321	1.60088
732.015	-2.42024	4.25896	2.01632	1.55339
736.021	-2.47375	4.28483	1.68025	1.69426
740.016	-3.77419	4.29128	2.27927	1.96057
743.979	-2.91193	4.52502	1.79207	2.67298
748.015	-2.91908	4.50164	1.88851	2.18912
751.914	-2.88683	4.53503	1.81446	2.27439
756.015	0.82883	4.49571	1.81758	2.58684
760.017	0.81248	4.45517	1.65991	2.74345
763.995	0.45482	4.40294	1.23245	2.54718
767.919	-1.48255	4.39374	1.71719	2.97899
772.014	-1.17140	4.40372	1.57917	2.71942
776.019	-1.58108	4.39326	1.41033	2.90071
780.017	-1.85331	4.38975	1.18220	2.94733
784.018	-1.86848	4.38601	1.25617	2.98281
788.018	-2.06533	4.29868	1.11864	3.54118
792.014	-1.68320	4.34694	1.06572	3.29276
796.018	-1.70591	4.38195	0.95219	3.36979
800.021	-1.78210	4.13749	0.88031	3.07742
804.011	-1.83776	4.15241	0.96207	3.53502
808.011	-1.79552	3.58574	0.51719	3.04096
812.017	-2.03181	3.95179	1.08321	3.97107
816.023	-2.04111	3.20946	-0.40127	3.00315
820.016	-1.99342	3.56270	0.99707	3.60064
824.016	-1.70197	3.65024	1.71025	3.85172
828.019	-1.88011	3.44585	0.58985	3.83873
831.914	-1.83558	3.23646	0.54354	4.04808
835.980	-1.99905	3.08793	0.39033	3.98504
840.019	-2.14748	3.65960	1.01280	4.01181
844.017	-2.03821	4.03703	1.03846	3.97684
847.887	-2.16682	4.62848	1.39998	4.02404
852.018	-2.08144	4.68523	1.13407	3.57291
856.019	-2.02029	4.41280	1.36414	4.04628
860.018	-2.10394	4.65014	4.29804	3.36489
864.021	-2.89289	4.38972	1.66735	3.17844
868.017	-3.60183	4.44624	2.69733	2.43981
872.022	-2.25620	5.15671	2.08820	2.32981
876.017	-2.35345	4.93604	1.89734	2.17976
879.919	-2.20084	5.54340	2.02004	2.13469
884.022	-2.35514	5.43139	3.48054	1.91894
888.004	-2.31128	5.28743	3.32001	1.97669
892.013	-2.28425	5.67434	1.96791	2.11625
896.020	-2.36492	5.65712	2.31170	1.97017
900.018	-2.86425	5.08273	2.14154	2.22813
904.018	-3.47764	5.16728	3.57508	1.98302
908.019	-2.64074	4.54394	3.51970	1.55794
911.914	-2.46476	4.36960	2.24183	1.83950
916.021	-2.89133	4.75785	2.88571	1.66532
920.021	-1.13883	4.28928	3.12158	0.71423
924.021	-1.28199	4.33322	2.05397	-0.46422
927.885	-0.73692	4.37288	2.12833	-0.68692
931.984	-1.30774	4.39300	2.15715	-1.10119
936.020	-0.91758	4.33451	2.01109	-0.69792
940.019	-0.80086	4.35849	2.34344	-0.92192
944.020	-1.01910	4.62607	2.46758	-0.71376
948.018	-1.13367	4.31471	2.13475	-0.33130
952.018	-1.14789	4.52999	2.17576	-0.15522
956.018	-1.23116	4.56837	1.91090	-0.23695
959.919	-1.18875	4.81070	1.84949	-0.10178
964.018	-1.41303	4.79056	1.46130	0.01202
968.021	-1.51620	5.00476	1.47017	0.33453
972.021	-1.30285	4.92574	1.66666	0.17126
975.889	-1.42930	4.82230	1.42620	0.67322
980.019	-1.77553	4.76003	1.17857	0.59338
984.021	-1.50524	5.02615	1.33344	0.83711
988.021	-1.37754	4.73162	0.05155	0.88463
991.983	0.12163	4.77544	1.22831	1.01872
996.019	-0.89465	4.66365	1.19145	1.09893
1000.022	-1.11137	4.70700	1.06984	0.93614
1004.019	-1.40899	4.71194	1.21278	1.10237
1007.917	-2.41189	4.78374	0.86446	1.30639
1012.020	-1.56000	6.09680	1.16843	2.15698
1016.005	2.47118	6.29960	2.04215	4.16127
1019.896	-4.97103	4.46206	14.43003	3.73475
1023.864	NaN	NaN	1.44468	1.31919
1027.897	NaN	NaN	NaN	NaN
1031.895	NaN	NaN	NaN	NaN
1035.889	NaN	NaN	NaN	NaN
1039.895	NaN	NaN	NaN	NaN
1043.892	NaN	NaN	NaN	NaN
1047.892	NaN	NaN	NaN	NaN
1051.904	NaN	NaN	NaN	NaN
1055.894	NaN	NaN	NaN	NaN
1059.876	NaN	NaN	NaN	NaN
1063.895	NaN	NaN	NaN	NaN
1067.894	NaN	NaN	NaN	NaN
1071.898	NaN	NaN	NaN	NaN
1075.884	NaN	NaN	NaN	NaN
1079.891	NaN	NaN	NaN	NaN
1083.893	NaN	NaN	NaN	NaN
1087.895	NaN	NaN	NaN	NaN
1091.896	NaN	NaN	NaN	NaN
1095.895	NaN	NaN	NaN	NaN
1099.892	NaN	NaN	NaN	NaN
1103.897	NaN	NaN	NaN	NaN
1107.894	NaN	NaN	NaN	NaN
1111.895	NaN	NaN	NaN	NaN
1115.862	NaN	NaN	NaN	NaN
1119.886	NaN	NaN	NaN	NaN
1123.896	NaN	NaN	NaN	NaN
1127.897	NaN	NaN	NaN	NaN
1131.855	NaN	NaN	NaN	NaN
1135.895	NaN	NaN	NaN	NaN
1139.897	NaN	NaN	NaN	NaN
1143.877	NaN	NaN	NaN	NaN
1147.900	NaN	NaN	19.67580	-0.06074
1151.921	20.14703	12.60751	22.10739	6.28696
1155.897	15.31053	9.21007	22.89662	1.75715
1159.896	12.04372	9.62970	NaN	NaN
1163.899	17.09735	8.71024	19.13100	-0.27322
1167.895	15.00480	12.85281	22.32252	-0.15631
1171.899	17.16810	9.23612	23.16562	-0.78143
1175.902	17.06231	8.76504	21.54561	-0.72871
1179.901	17.17932	8.55353	22.49253	-1.60468
1183.879	15.06241	12.03787	21.87340	-0.66341
1187.859	14.95693	5.99568	19.47496	-0.91476
1191.899	9.11443	5.19770	18.91076	-0.34380
1195.898	3.00683	5.44637	14.89886	1.79197
1199.896	11.06124	5.45937	15.75690	1.88787
1203.899	7.88120	5.40814	14.50518	1.98829
1207.896	7.56525	5.33044	15.86190	1.96661
1211.897	7.86571	5.14072	14.69957	2.17492
1215.889	7.79242	5.11583	14.23443	1.84872
1219.896	7.41792	4.93911	14.60235	2.34248
1223.899	7.50991	4.67372	14.08531	2.14658
1227.871	7.23267	4.67132	13.94619	2.28228
1231.893	7.22417	4.38988	13.77820	2.25453
1235.901	7.14221	4.48067	13.68403	2.03290
1239.897	7.13309	4.30535	13.66529	2.30089
1243.897	6.84015	4.19153	13.21564	2.58381
1247.891	6.66584	4.24503	13.43308	2.19423
1251.900	6.58580	4.15391	12.79770	2.26590
1255.898	6.26132	4.02994	13.57089	1.97920
1259.899	6.31304	4.00079	13.11370	2.34187
1263.899	5.98042	3.98958	13.47202	2.04563
1267.883	5.84075	3.99809	13.48742	1.85593
1271.894	5.82658	3.97369	13.36946	2.28917
1275.900	5.92032	4.03584	13.31135	2.30043
1279.859	5.79462	4.06152	13.17038	2.09302
1283.899	6.01871	3.96960	13.31525	2.06343
1287.898	6.14464	3.92316	13.29828	2.23590
1291.898	6.61058	3.83506	13.00679	1.90398
1295.893	6.52228	3.87725	13.39736	1.94556
1299.897	6.43905	3.96700	13.23219	-0.50770
1303.898	6.54648	3.96591	13.14360	-0.55085
1307.903	6.38261	4.14485	12.97064	-0.61865
1311.858	6.53825	4.14105	13.36182	-0.59281
1315.901	6.51633	4.30150	13.19141	-0.92382
1319.902	6.53580	4.40381	13.14866	-1.17466
1323.902	6.80017	4.49766	12.74539	-0.87731
1327.890	6.71603	4.60877	13.01586	-0.84080
1331.897	6.44665	4.29558	13.28888	-0.64145
1335.899	6.28371	4.62525	13.04488	-0.88449
1339.901	6.25039	4.68706	13.01569	-0.96030
1343.891	6.15848	4.78134	13.09579	-1.23050
1347.900	6.29298	4.73634	13.62863	-1.03547
1351.902	8.95101	5.94454	13.33852	-1.00714
1355.901	6.84326	4.70268	14.29079	-1.43103
1359.898	6.16103	4.63043	12.96602	-1.73372
1363.899	5.48233	4.49671	11.59970	-1.41216
1367.898	5.08328	4.55688	11.70337	-0.47584
1371.906	4.57273	4.42657	11.92239	1.46044
1375.892	4.06335	4.46711	10.73425	0.79317
1379.901	3.92247	4.15609	11.33903	0.05426
1383.901	3.91052	4.04952	12.64532	-0.44370
1387.903	4.30788	3.71902	10.86285	-0.21038
1391.860	4.34877	3.39776	11.32390	-0.26373
1395.891	4.31570	3.27527	11.35248	-0.44822
1399.863	4.39025	3.61054	12.55850	0.01606
1403.900	4.30825	3.11928	12.61455	-0.17760
1407.891	4.38062	3.21621	12.90616	-0.31047
1411.902	4.55453	3.14583	12.59020	-0.35033
1415.903	4.54350	2.90981	12.57905	-0.41338
1419.901	4.68503	2.78721	12.70997	-0.56391
1423.901	4.83878	2.55928	12.92828	-0.73216
1427.904	5.00105	2.33030	13.21249	-1.28227
1431.864	5.11886	2.19520	12.95527	-0.97647
1435.868	5.04119	2.11718	12.65997	-1.02378
1439.899	5.16526	1.82172	13.29236	-1.62817
1443.900	5.25306	1.80780	13.10751	-1.29414
1447.902	5.34668	1.76521	13.15019	-1.21357
1451.899	5.50114	1.56458	12.61660	-1.48728
1455.893	5.59113	1.50498	12.89237	-1.34632
1459.902	5.61446	1.25934	9.73552	-0.81803
1463.900	5.59806	1.51489	11.98645	-0.68998
1467.905	5.56205	1.71990	12.97787	-1.19580
1471.895	5.58965	2.09250	12.46133	-1.30194
1475.905	5.40862	2.74299	12.15813	-1.35273
1479.903	5.38516	3.53659	12.27877	-1.06167
1483.901	5.52079	2.50597	10.38411	-0.93999
1487.900	5.27963	3.01738	12.88935	-1.29692
1491.901	5.08921	3.36439	12.32807	-1.43648
1495.906	4.92142	3.68478	12.49919	-1.67183
1499.906	4.78360	3.26737	12.32646	-1.63500
1503.895	4.58799	3.38774	12.57096	-1.91075
1507.898	4.58474	3.38373	12.36970	-2.01290
1511.915	4.49561	3.15693	12.22106	-1.98537
1515.864	4.52895	3.17872	11.84282	-1.93047
1519.901	4.40747	3.05405	12.22187	-2.26371
1523.903	4.34776	2.71642	12.10046	-2.43751
1527.902	4.26835	2.57815	11.85899	-2.21201
1531.901	4.20903	2.58476	11.76966	-2.23687
1535.893	4.11478	2.67722	11.88287	-2.95057
1539.901	3.98452	2.90772	12.02375	-2.54403
1543.903	3.94315	2.78832	12.13515	-2.53599
1547.901	3.84107	2.88027	11.75146	-2.74080
1551.903	4.12512	2.50949	12.16800	-2.76190
1555.902	4.25707	2.53142	11.67417	-2.50827
1559.882	4.13187	2.52923	11.39163	-2.32208
1563.903	4.47052	2.36164	11.53660	-2.51643
1567.893	4.35094	2.37948	11.36529	-2.32810
1571.906	4.62471	2.37446	11.40300	-2.35829
1575.907	4.61415	2.26089	11.30023	-2.42287
1579.905	4.47975	2.27440	11.03619	-2.33620
1583.901	4.70121	1.85724	10.90822	-2.22744
1587.902	4.74350	1.96980	10.97825	-2.29555
1591.905	4.71126	1.87020	11.18547	-2.31868
1595.903	4.69916	1.92676	10.99700	-2.22846
1599.893	4.79940	1.82400	11.05744	-2.23250
1603.896	4.82084	1.88558	10.95854	-2.12660
1607.904	4.72073	1.80981	10.91095	-2.51253
1611.905	4.84351	1.81545	10.77038	-2.87790
1615.867	4.78072	1.85089	9.97806	-2.25530
1619.902	4.85699	1.72727	10.67720	-2.73009
1623.861	4.91016	1.67984	9.29294	-1.87554
1627.906	4.85147	1.75388	10.45773	-3.09108
1631.905	4.75854	1.64743	11.07831	-2.03309
1635.904	4.72911	1.48777	10.98910	-1.74404
1639.906	4.80379	1.48461	11.26424	-2.97916
1643.869	4.88264	1.38601	11.60577	-3.05318
1647.908	4.91809	1.23529	11.84487	-3.21092
1651.905	4.94268	1.14797	11.71442	-3.19325
1655.903	4.74010	1.17326	10.95796	-2.88778
1659.906	4.77865	1.20619	10.56783	-2.67684
1663.895	4.70232	1.16981	10.22207	-2.36224
1667.907	4.79248	1.12013	9.89058	-1.70660
1671.906	4.82077	1.17651	9.88006	-1.40569
1675.910	4.60932	1.23840	9.72173	-1.19236
1679.913	4.50121	1.32460	11.47181	-2.76508
1683.888	3.07612	1.93094	9.33415	1.31133
1687.901	1.93839	3.12181	9.38349	2.45325
1691.905	1.13509	4.01397	6.89436	-0.51161
1695.904	-0.39601	5.00853	2.56277	0.18072
1699.905	-1.64494	4.91340	2.41896	-0.37434
1703.907	-4.31114	6.32221	1.85162	-0.22057
1707.909	-5.37141	6.35325	-0.94914	1.64910
1711.806	-5.90391	4.57036	-1.98707	1.93534
1715.916	-9.42095	3.87719	-3.42898	3.62475
1719.908	-6.91564	3.92142	-6.86652	2.31440
1723.898	-6.84504	4.16781	-6.54744	2.32969
1727.806	-8.03480	4.58154	-6.85720	5.14822
1731.907	-7.78187	4.21369	-6.91183	4.72528
1735.907	-8.13792	4.26110	-6.67086	4.29356
1739.904	-8.54700	3.90929	-6.53558	3.17267
1743.873	-9.01966	3.77059	-6.85892	3.46680
1747.905	-5.93758	3.86515	-6.38356	2.46865
1751.909	-5.84077	3.71120	-6.70200	2.60905
1755.905	-5.97973	3.37666	-6.29506	2.47989
1759.902	-6.55302	2.93366	-5.27658	4.26790
1763.907	-6.98785	2.62873	-6.05886	3.91447
1767.885	-6.93452	2.12141	-6.47316	4.27112
1771.903	-7.27694	2.30396	-6.82334	5.21185
1775.814	-7.70770	2.50679	-6.15689	3.30237
1779.906	-7.69653	2.25530	-6.09702	3.74601
1783.906	-7.92802	2.37526	-6.43082	4.16710
1787.908	-4.95334	2.49065	-6.16528	3.62549
1791.900	-4.75578	2.25401	-6.32831	1.70631
1795.906	-5.33103	2.52669	-6.89289	1.38705
1799.868	-5.28320	2.39099	-6.25828	2.16288
1803.906	-5.25468	2.49692	-6.80267	1.81113
1807.915	-5.52635	2.26778	-6.74883	1.13709
1811.898	-5.60354	2.44198	-6.68190	-0.43387
1815.907	-6.20737	2.35430	-6.60840	-0.60629
1819.908	-6.99062	2.20645	-6.55158	-0.56901
1823.804	-7.15804	1.94989	-6.38047	0.46851
1827.909	-3.71565	1.98876	-6.33064	1.09995
1831.907	-3.91222	2.19545	-6.46203	1.82663
1835.905	-4.23999	2.27005	-6.61927	0.85041
1839.804	-4.11187	1.81927	-6.60274	0.79785
1843.909	-4.58022	1.85669	-6.68401	1.02923
1847.907	-4.62367	1.67260	-6.42440	1.03705
1851.872	-5.22790	1.65825	-6.54920	1.09888
1855.912	-4.99443	-4.62084	-6.25524	-0.21940
1859.907	-5.34280	-4.60430	-6.26723	0.56165
1863.908	-5.61396	-4.68781	-6.36584	0.65461
1867.908	-5.90060	1.18170	-6.43084	0.78249
1871.914	-6.06480	0.84443	-6.52351	0.90278
1875.871	-2.71080	-5.05169	-6.67738	0.97893
1879.899	-3.60939	0.65476	-6.37408	2.51042
1883.907	-3.36107	0.76526	-6.41974	1.42138
1887.913	-3.74706	0.65258	-6.60193	1.77276
1891.908	-8.43559	3.64848	-6.84177	1.84038
1895.905	-4.56227	1.24100	-6.00879	2.04568
1899.910	-5.27060	0.91053	-5.30921	1.86107
1903.913	-8.48600	4.12070	-5.80938	2.71933
1907.908	-8.52006	4.49920	-6.00653	2.72970
1911.908	-8.93389	4.77456	-5.23927	2.14561
1915.911	-9.08667	4.92272	-5.77222	2.07258
1919.805	-8.88709	3.99202	-6.08598	2.39936
1923.906	-9.08508	3.92460	-5.53899	2.44712
1927.911	-9.30034	4.10861	-5.92778	2.53868
1931.910	-2.71265	1.25293	-5.82820	2.84391
1935.911	-2.78815	0.41833	-5.70949	3.06292
1939.909	-9.49661	3.92279	-5.90079	3.18623
1943.909	-9.12517	4.06360	-5.95086	3.25227
1947.909	-8.98736	4.23857	-5.44456	2.81244
1951.809	-10.20541	3.64833	-5.53928	2.40477
1955.909	-8.97448	3.53773	-5.85364	0.60561
1959.909	-9.86401	3.40374	-6.05025	4.08546
1963.894	-10.07502	0.92503	-6.21159	0.48916
1967.804	-9.44875	-1.46829	-6.12450	-1.34684
1971.912	-9.43994	0.92522	-5.95960	-3.77915
1975.889	-9.69045	-1.18148	-6.15249	-0.15216
1979.913	-10.12161	-2.95862	-6.33956	-2.37402
1983.912	-10.15571	-2.94030	-6.48176	-3.68835
1987.911	-10.17810	-1.77091	-6.71556	-3.91116
1991.910	-9.62244	-0.22106	-6.32895	-4.11872
1995.910	-9.58878	-1.22993	-6.63343	-4.63060
1999.807	-9.76883	-1.33151	-6.50734	-3.84281
2003.910	-9.95035	-1.58032	-6.61381	-5.09249
2007.914	-10.22731	-1.79053	-6.45623	-4.32572
2011.912	-10.19483	-2.10508	-6.80942	-3.71214
2015.808	-10.02877	-1.81178	-6.70918	-3.76355
2019.902	-9.92196	-2.95770	-6.64716	-3.11928
2023.911	-9.62922	-2.87094	-6.46250	-0.69085
2027.910	-9.75090	-3.48276	-6.80908	-2.47604
2031.917	-10.04735	-1.60635	-6.84089	-2.99251
2035.909	-10.07675	-1.89805	-6.71508	-1.66394
2039.912	-10.44052	-1.40958	-6.48766	-2.08285
2043.910	-10.05223	-1.45375	-6.50454	-2.65451
2047.808	-9.99128	-1.61597	-6.63198	-2.11530
2051.787	-10.30665	-1.03730	-6.88189	-2.98556
2055.785	-10.43712	-1.29079	-6.39650	-1.95018
2059.787	-9.77076	-1.28131	-6.28896	-1.87490
2063.790	-10.23642	-1.60159	-6.64856	-2.23030
2067.784	-9.64644	-2.26333	-6.76532	-2.68544
2071.788	-10.23543	-2.48946	-6.60886	-3.01169
2075.787	-10.37013	-2.08956	-6.74124	-2.45353
2079.791	-10.12491	-2.43997	-6.53409	-2.72860
2083.788	-9.58096	-3.25980	-6.61604	-2.65379
2087.786	-9.23282	-3.45442	-6.63311	-3.09798
2091.788	-9.44404	-2.09328	-6.64373	-3.28775
2095.780	-9.85534	-1.86322	-6.65647	-3.24953
2099.786	-10.14814	-1.37021	-6.63862	-2.64308
2103.790	-10.01024	-1.10820	-6.74677	-3.15919
2107.780	-10.02692	-1.25375	-6.72239	-2.99640
2111.785	-9.95589	-2.07762	-6.55709	-3.18204
2115.788	-10.05967	-2.00795	-6.71929	-3.40273
2119.784	-10.19339	-1.73618	-6.73728	-3.51313
2123.788	-10.07420	-1.91686	-6.67478	-3.67714
2127.789	-10.12835	-2.15325	-6.62319	-3.43109
2131.744	-9.95608	-3.16442	-6.36273	-4.13960
2135.789	-9.99347	-3.61394	-6.63441	-3.36013
2139.793	-10.07615	-1.93664	-6.40305	-2.73734
2143.789	-10.03017	-1.87831	-6.33986	-2.92629
2147.759	-10.15458	-2.05209	-6.68878	-2.29503
2151.787	-10.01376	-1.63407	-6.21659	-0.62513
2155.786	-10.09708	-1.71033	-6.28214	-0.44047
2159.778	-10.02694	-1.81154	-6.63693	-1.07147
2163.787	-10.00256	-1.69723	-6.51067	-1.11730
2167.788	-10.07011	-1.98604	-6.23440	-1.08040
2171.786	-10.25031	-1.85115	-6.21902	-0.76481
2175.786	-10.24742	-1.78101	-6.39349	-1.37157
2179.792	-10.19644	-1.91080	-6.16864	-0.97236
2183.789	-10.25151	-2.25355	-6.19071	-0.96676
2187.775	-10.25221	-4.05630	-6.47723	-1.38714
2191.810	-9.99082	-3.21495	-6.33088	-2.34477
2195.790	-9.82657	-4.00163	-6.32265	-2.82639
2199.786	-10.07103	-3.84567	-6.29200	-2.25617
2203.788	-10.06780	-1.79054	-6.28420	-2.44587
2207.811	-10.06325	-2.12928	-6.25637	-2.07152
2211.789	-9.97019	-1.71821	-6.22527	-2.37774
2215.789	-10.13006	-2.04538	-6.27035	-2.44305
2219.789	-10.08159	-1.16242	-6.28361	-2.69506
2223.815	-9.97491	0.25283	-6.23410	-2.43730
2227.790	-9.86690	-0.75859	-6.27976	-2.88551
2231.790	-9.91165	-0.19862	-6.27993	-3.02152
2235.793	-9.88251	-0.00617	-6.21821	-3.54142
2239.781	-9.91047	-0.05841	-6.27228	-3.96661
2243.789	-9.97233	-0.94898	-6.16535	-2.98529
2247.791	-9.90544	-0.70118	-6.31556	-3.18077
2251.791	-10.45296	-1.36632	-6.53921	-3.06341
2255.788	-10.99857	-2.81461	-7.51759	-3.30452
2259.788	-10.33814	-2.76262	-8.43042	-4.47891
2263.791	-10.87539	-1.77657	-6.92853	-3.28136
2267.792	-11.47803	-2.97649	-8.76435	-5.41353
2271.750	-12.30218	-3.31244	-8.87636	-7.69140
2275.791	-12.68673	-3.16179	-8.96094	-7.84497
2279.791	-12.01917	-3.03589	-8.44176	-7.05575
2283.788	-12.25915	-3.23076	-8.85165	-7.74255
2287.809	-12.32748	-3.08931	-8.91992	-7.17378
2291.788	-12.71257	-3.33413	-9.04163	-7.33274
2295.791	-12.84383	-3.42492	-9.03118	-7.07389
2299.791	-12.81252	-3.67104	-9.11286	-7.01550
2303.810	-12.84866	-4.18576	-9.05991	-6.62806
2307.793	-12.99856	-4.49489	-8.84525	-6.06944
2311.751	-13.29403	-4.64227	-8.69908	-4.38547
2315.781	-13.55438	-4.93664	-8.34047	-4.19139
2319.810	-11.98816	-4.49880	-8.75754	-4.64175
2323.792	-11.80561	-4.41723	-8.90097	-4.84968
2327.788	-11.58672	-4.20878	-8.20539	-5.00659
2331.792	-12.61320	-4.63184	-8.22477	-5.42381
2335.781	-11.80243	-4.60743	-8.39151	-5.23265
2339.790	-11.77458	-4.42649	-8.17719	-4.66947
2343.790	-11.98108	-4.63369	-8.21429	-4.38307
2347.792	-12.34228	-4.74987	-8.15059	-4.52480
2351.753	-12.23353	-3.91856	-8.21881	-4.42701
2355.762	-12.69134	-4.09426	-8.10151	-4.27071
2359.790	-12.69561	-4.13333	-7.97366	-4.11444
2363.791	-13.13435	-4.00695	-8.01219	-4.10524
2367.815	-13.00865	-4.13707	-8.06871	-4.37510
2371.792	-13.33849	-3.59796	-7.96551	-4.62755
2375.792	-11.95805	-3.94763	-8.01815	-4.44335
2379.796	-12.02791	-3.78352	-8.19747	-5.62256
2383.782	-12.27289	-3.87824	-8.09119	-4.72452
2387.792	-12.64806	-3.73532	-8.21395	-3.85662
2391.794	-12.54923	-3.65048	-7.94131	-3.45025
2395.778	-12.98263	-3.60638	-7.90608	-4.18450
2399.813	-11.93588	-1.74238	-8.09343	-5.44009
2403.790	-13.31586	-3.49423	-7.89471	-4.11483
2407.789	-11.68196	-3.33273	-8.19572	-4.35956
2411.789	-11.91365	-3.55893	-8.31929	-4.66376
2415.818	-11.69267	-3.54570	-8.20099	-5.54594
2419.793	-12.26818	-3.54175	-8.32276	-5.76581
2423.794	-11.91940	-3.37231	-8.23235	-5.54124
2427.788	-11.48594	-1.31989	-7.92571	-5.92376
2431.778	-11.58930	-2.15999	-8.08078	-6.09314
2435.795	-11.33900	-2.67283	-8.05988	-6.02567
2439.757	-11.35904	-2.97261	-8.08613	-5.63103
2443.791	-11.37410	-3.59199	-8.16420	-5.82484
2447.814	-11.34432	-3.38087	-8.23155	-5.28720
2451.791	-11.60666	-3.50994	-8.22521	-4.40163
2455.792	-11.82385	-3.64296	-8.09362	-5.27916
2459.787	-11.90737	-3.07142	-8.22224	-4.93726
2463.794	-11.56338	-2.79041	-8.14176	-4.56809
2467.788	-11.26679	-2.99829	-7.95516	-4.33437
2471.789	-10.89360	-3.12992	-7.70090	-3.76553
2475.790	-9.00360	-2.93743	-5.46714	-1.52250
2479.779	-8.47828	-2.30360	-5.33625	-2.57442
2483.792	-7.34538	-1.62302	-3.78412	-2.17229
2487.793	-7.01871	-0.89246	-1.43902	-1.71878
2491.791	-6.77325	0.04269	-1.27614	-1.47644
2495.816	-5.57127	0.50209	-1.09137	-2.02400
2499.793	-4.24038	-1.85506	-0.78305	-1.15857
2503.795	-3.71977	-0.86371	-0.47564	-0.33289
2507.790	-3.95118	-1.31910	0.16600	-0.44235
2511.820	-4.13485	-1.07344	0.18953	0.07909
2515.796	-4.17833	-1.78653	0.25463	0.21999
2519.793	-4.14707	-1.42051	0.13099	0.08553
2523.755	-4.18161	-0.98973	-0.09379	0.39032
2527.797	-4.17080	-1.11890	-0.15181	0.66140
2531.794	-4.19563	-0.67462	-0.25401	0.76697
2535.794	-4.12436	-0.69684	-0.22306	1.28418
2539.795	-4.41859	-0.64747	0.19777	1.12042
2543.795	-4.34840	-0.73204	0.19177	1.04677
2547.793	-4.51662	-0.72395	0.09150	0.20548
2551.792	-4.38539	-0.56107	0.16459	-1.93625
2555.792	-4.37367	-0.05342	0.28873	-2.25360
2559.798	-4.31037	0.45429	0.39822	-2.69604
2563.793	-4.29349	0.05570	0.63501	-3.08374
2567.811	-4.24263	0.08458	0.73424	-2.72663
2571.793	-4.53393	0.11984	0.68106	-2.65220
2575.798	-4.54207	0.32212	0.77600	-2.54610
2579.795	-4.41299	0.33159	0.77317	-2.71949
2583.796	-4.22093	0.32818	0.71064	-2.76392
2587.795	-4.34689	0.58238	0.76139	-2.88156
2591.798	-4.37631	0.53729	0.75724	-2.78435
2595.796	-4.38169	0.45754	0.84605	-2.59153
2599.797	-4.39284	0.41269	0.90103	-2.60439
2603.778	-4.29490	0.22861	0.94428	-2.62161
2607.795	-4.51090	0.18824	0.95286	-2.63115
2611.794	-4.47627	0.11037	0.90416	-2.33610
2615.756	-4.36081	-0.25498	1.09830	-2.06116
2619.795	-4.31171	-0.51390	1.14164	-1.93890
2623.797	-4.33572	-0.11462	1.25364	-2.20246
2627.796	-4.37320	-0.17696	1.15632	-2.19418
2631.795	-4.31889	-1.66980	0.91748	-2.03425
2635.798	-4.35807	-1.80809	0.79131	-1.76915
2639.797	-4.33019	-2.10664	0.80558	-1.66039
2643.795	-4.36079	-1.75373	0.35481	-1.93031
2647.761	-4.30865	-1.62556	0.51582	-1.85697
2651.798	-4.22333	-1.65436	0.34037	-1.86801
2655.800	-4.28069	-1.82667	0.23276	-1.83499
2659.794	-4.40142	-1.55799	0.49106	-1.62223
2663.797	-4.33619	-1.56266	0.54411	-1.80397
2667.795	-4.28273	-1.35423	0.56277	-1.82223
2671.797	-4.28888	-1.28542	0.76503	-1.69563
2675.796	-4.31546	-1.63686	0.73171	-1.70538
2679.796	-4.36962	-1.75576	0.59424	-2.01413
2683.799	-4.27521	-1.40061	0.45669	-1.64123
2687.778	-4.32200	-1.10149	0.47448	-1.68493
2691.801	-4.37098	-0.95127	0.16608	-1.80136
2695.793	-4.38396	-0.78061	0.04142	-1.49324
2699.793	-4.47499	-0.76288	0.53682	-1.69824
2703.798	-4.44487	-0.47100	0.47808	-1.56525
2707.792	-4.41894	-0.56117	0.24105	-1.32891
2711.791	-4.39020	-0.66189	0.47460	-1.39657
2715.795	-4.31338	-0.67836	0.56175	-1.34068
2719.794	-4.19701	-0.57573	0.69027	-1.12085
2723.795	-4.54422	-0.39177	1.08753	-1.61582
2727.791	-4.43813	-0.22983	1.04893	-1.69840
2731.786	-4.16818	-0.25799	0.57855	-1.52063
2735.800	-4.18028	-0.30604	0.38918	-1.73494
2739.794	-4.20494	-0.27285	-0.11280	-1.04906
2743.795	-4.31440	-0.18762	0.47438	-1.39004
2747.796	-4.31240	0.16743	0.50148	-0.79676
2751.763	-4.10187	0.29641	0.36124	-0.03904
2755.797	-4.08737	0.13714	0.58667	-0.58587
2759.795	-4.36876	0.19985	0.75104	-0.40734
2763.798	-4.33352	0.34644	1.20847	-0.63043
2767.799	-4.31129	0.47760	1.40177	-1.13869
2771.768	-4.20800	0.44047	0.90058	-0.61919
2775.808	-4.18055	0.60213	0.59766	-0.63926
2779.796	-4.29261	0.39178	0.62285	-0.42270
2783.805	-4.14248	-1.90122	1.13655	-0.66972
2787.796	-3.63483	0.51256	2.97458	-0.41561
2791.799	-3.72847	2.82472	3.25268	-1.17187
2795.799	-2.00509	2.01137	3.85093	1.12315
2799.800	-1.67544	2.61643	3.87529	2.20087
2803.797	-1.70229	2.38175	4.01952	0.42139
2807.760	-0.81925	2.48001	4.99817	1.80820
2811.758	-0.51977	3.11958	6.05300	4.07676
2815.799	-0.71702	3.35610	7.67279	2.42607
2819.760	-0.88652	3.50113	6.27886	2.75037
2823.796	-0.53054	3.59457	7.86169	2.82501
2827.799	0.08823	3.76592	6.93660	1.21734
2831.802	-0.72858	3.71082	4.27772	1.97725
2835.798	-0.74124	4.00517	4.45876	2.24397
2839.798	-0.55798	4.00584	4.81101	0.49975
2843.796	-0.45539	4.15772	6.48935	0.07437
2847.698	-0.43172	4.12338	6.35273	0.97189
2851.797	-0.48775	4.06769	6.28283	0.34802
2855.763	-0.53930	4.13948	6.35594	1.49286
2859.798	-0.58210	4.26710	6.29570	1.32844
2863.801	-0.48547	4.32671	6.49362	1.90621
2867.801	-0.34186	4.43467	6.39682	1.33430
2871.798	-0.53932	4.25126	6.44723	1.49479
2875.802	-0.45199	4.24736	6.68198	2.01422
2879.802	-0.23688	2.95582	6.51069	1.93339
2883.803	-0.26714	1.76203	5.64100	0.67422
2887.799	-0.40457	2.55567	5.52637	1.43349
2891.800	-0.27202	2.50270	5.65725	1.73934
2895.781	-0.18099	2.75626	5.24949	1.65567
2899.797	-0.11870	2.96253	5.90823	2.59439
2903.796	-0.23956	2.95693	5.10669	3.89455
2907.797	-0.14928	3.30808	4.97618	3.29967
2911.800	-0.18102	3.48589	4.87912	3.90460
2915.798	0.04648	3.58668	4.99930	4.11306
2919.798	0.15243	3.11794	5.30495	4.14441
2923.800	-0.58622	3.53192	5.27853	4.30015
2927.800	-0.58952	3.88929	5.61003	3.87843
2931.798	-0.15990	4.09191	5.81484	4.12480
2935.802	-0.31002	4.77484	6.14457	3.64968
2939.792	-0.54071	4.09468	5.36789	4.59905
2943.696	-0.48952	4.25574	5.08318	4.55927
2947.799	-0.43564	4.54906	5.86538	3.82271
2951.796	-0.22271	4.41767	6.14675	4.09013
2955.799	-0.65121	4.60159	6.20128	4.30791
2959.803	-0.30553	4.40480	5.61927	4.80529
2963.798	-0.52739	4.32819	6.01522	4.77868
2967.801	-0.46391	4.40533	5.87899	4.91217
2971.798	-0.28691	4.50234	5.70753	4.05881
2975.804	-0.38449	3.85789	5.57749	4.92771
2979.800	-0.45085	3.19532	5.56406	5.02625
2983.810	-0.29736	3.25296	5.63724	5.07036
2987.811	-0.40380	2.84751	7.34030	4.00359
2991.670	-0.27992	2.30195	8.40269	4.16424
2995.798	-0.14625	2.50664	6.41883	4.68405
2999.800	-0.18556	2.33447	6.60458	4.48132
3003.800	-0.19589	2.64399	5.64383	5.15665
3007.801	-0.32977	2.89222	4.98824	1.97450
3011.801	-0.31938	2.79312	5.47109	-0.05293
3015.763	-0.49681	3.02494	4.98263	1.26016
3019.785	-0.55788	4.13971	5.63449	1.48013
3023.804	-0.63084	4.93670	5.36339	3.48094
3027.799	-0.87699	5.15740	4.42881	5.10830
3031.803	-0.89728	3.77511	4.31800	6.89795
3035.799	-1.31039	5.35070	3.43845	1.57709
3039.697	-1.66033	5.26842	3.15805	2.83153
3043.801	-1.64605	5.56414	3.79912	2.86592
3047.805	-1.32649	5.49551	4.02821	3.83681
3051.801	-1.93571	5.47902	4.76714	3.53185
3055.697	-1.91177	5.74684	4.93664	3.92922
3059.802	-2.57759	7.25577	3.87546	4.95830
3063.769	-2.22869	6.43461	4.11974	4.95713
3067.804	-2.27255	7.55213	4.01821	5.01873
3071.803	-2.34136	7.04260	3.60114	5.86783
3075.801	-2.39822	6.80768	3.84661	5.25997
3079.802	-2.55908	6.71006	3.74955	5.11403
3083.675	-2.52696	6.94330	3.85321	5.05384
3087.767	-2.40055	6.51377	3.24145	5.11937
3091.678	-2.50234	5.69539	3.28429	5.07316
3095.679	-2.41321	5.75024	3.12722	5.23585
3099.675	-2.42116	7.02390	3.45727	5.24898
3103.635	-2.46580	7.01553	3.23361	5.15045
3107.667	-2.35328	6.99101	3.39010	4.94692
3111.666	-2.22698	6.87243	3.16485	5.51364
3115.638	-2.54990	5.58428	3.27759	5.50795
3119.807	-2.40981	4.93613	3.21676	5.92036
3123.677	-2.41222	4.93050	3.62912	5.26092
3127.675	-2.33281	4.71095	3.68597	5.57530
3131.634	-2.26990	4.77693	3.78605	5.26528
3135.701	-2.25506	4.77062	3.36809	5.68261
3139.677	-2.31896	5.48394	3.60047	5.64681
3143.677	-2.44204	5.30581	3.80307	5.05660
3147.679	-2.39309	5.51504	3.99981	5.61016
3151.807	-2.44348	5.84885	3.67381	6.10678
3155.677	-2.58710	5.48486	3.34012	6.05709
3159.677	-2.57377	5.71437	3.13244	6.11701
3163.677	-2.53684	5.90398	3.56089	6.06293
3167.676	-2.37446	5.89071	3.00512	8.60563
3171.678	-2.36242	6.23516	2.88916	8.38951
3175.679	-2.32758	6.25666	2.64624	6.34629
3179.677	-2.62650	6.56163	3.16139	7.33594
3183.669	-2.66063	6.26959	3.15515	5.84802
3187.683	-2.54497	6.76863	2.84930	8.33674
3191.662	-2.28457	6.54879	2.84187	8.01204
3195.679	-2.33846	6.44153	2.94926	6.57349
3199.670	-2.08000	6.51962	3.37509	6.31349
3203.676	-2.26465	6.59919	3.35006	6.27453
3207.678	-2.42131	6.79173	5.23017	5.51917
3211.676	-2.54021	6.85958	3.22438	6.15713
3215.670	-2.44663	6.81351	3.61500	3.99455
3219.677	-2.23236	6.73173	3.47571	3.61595
3223.677	-2.53471	6.59976	3.46261	4.58292
3227.683	-2.46097	6.68323	3.32377	3.41055
3231.703	-2.64985	6.81161	3.47772	2.89526
3235.644	-2.48381	6.60913	3.43202	5.53500
3239.678	-2.37149	6.60119	3.47332	5.91728
3243.679	-2.26277	4.50134	3.35058	8.43305
3247.702	-2.29223	5.03546	3.28981	6.96111
3251.681	-2.01865	4.18725	3.76996	6.00081
3255.678	-2.15289	4.48326	3.05449	6.55153
3259.681	-2.09033	4.33689	2.90940	6.82508
3263.703	-2.31163	5.64460	3.44396	1.31469
3267.681	-1.85688	4.75550	5.32087	5.45578
3271.680	-1.33981	4.91980	2.57424	7.02894
3275.658	0.92951	4.64389	7.42234	6.28171
3279.650	1.92966	4.74279	7.62431	7.29297
3283.680	2.77304	4.17275	9.27071	5.95297
3287.679	2.98252	4.42590	9.27540	5.64418
3291.679	3.30032	5.39533	8.32058	4.72527
3295.677	3.28048	4.62580	9.52072	4.34169
3299.683	3.41820	4.73074	9.80809	4.48273
3303.690	3.08882	4.77281	9.99934	5.13784
3307.640	3.26960	4.01706	9.89788	5.14220
3311.707	3.21579	4.51957	10.34672	5.18524
3315.668	3.60054	3.55870	9.92832	5.14019
3319.670	3.34519	3.56680	10.32217	4.89632
3323.679	3.36893	3.85797	10.39866	4.43183
3327.703	3.48781	3.90167	10.55507	3.89632
3331.677	3.35518	3.83007	9.86799	4.61730
3335.679	3.48615	3.56250	10.15680	4.37415
3339.680	3.44369	3.52883	9.84558	4.52437
3343.702	3.58494	3.46346	9.45204	4.98118
3347.682	3.63962	3.46076	10.12214	4.57723
3351.682	3.60136	3.33079	9.51121	4.78984
3355.680	3.35254	3.66721	9.40402	5.09841
3359.702	3.44936	3.79212	10.20527	4.43505
3363.684	3.48870	3.81278	10.35373	4.54182
3367.643	3.42567	4.06578	10.09980	4.45834
3371.683	3.25854	3.86937	9.48311	4.07450
3375.680	3.31450	3.70510	9.58142	4.38099
3379.682	3.46024	3.80286	9.18218	4.34878
3383.681	3.37752	3.86261	9.50672	3.69402
3387.684	3.34756	4.11917	9.83462	3.43027
3391.675	3.34848	3.96435	10.34581	4.02751
3395.680	3.15186	4.36588	9.46218	5.13600
3399.681	3.17596	4.19722	9.80173	4.82991
3403.684	3.41303	4.19117	10.49553	3.97499
3407.705	3.16861	4.76836	10.73509	3.72451
3411.681	3.17665	4.48434	9.96607	3.67462
3415.644	3.09948	4.58502	9.06804	4.16341
3419.683	3.08745	4.74759	8.81351	4.53177
3423.704	3.19986	4.74602	9.32403	4.47279
3427.680	3.21688	4.96425	9.86823	4.13164
3431.641	3.22045	5.12804	11.02306	4.36821
3435.682	NaN	NaN	10.81588	10.28948
3439.675	NaN	NaN	9.49996	11.26815
3443.645	NaN	NaN	NaN	NaN
3447.683	NaN	NaN	NaN	NaN
3451.682	NaN	NaN	NaN	NaN
3455.678	NaN	NaN	NaN	NaN
3459.682	NaN	NaN	NaN	NaN
3463.681	NaN	NaN	NaN	NaN
3467.680	NaN	NaN	NaN	NaN
3471.679	NaN	NaN	NaN	NaN
3475.683	NaN	NaN	NaN	NaN
3479.680	NaN	NaN	NaN	NaN
3483.682	NaN	NaN	NaN	NaN
3487.681	NaN	NaN	NaN	NaN
3491.681	NaN	NaN	NaN	NaN
3495.685	NaN	NaN	NaN	NaN
3499.648	NaN	NaN	NaN	NaN
3503.683	NaN	NaN	NaN	NaN
3507.683	NaN	NaN	NaN	NaN
3511.683	NaN	NaN	NaN	NaN
3515.645	NaN	NaN	NaN	NaN
3519.683	NaN	NaN	NaN	NaN
3523.671	NaN	NaN	NaN	NaN
3527.683	NaN	NaN	NaN	NaN
3531.682	NaN	NaN	NaN	NaN
3535.647	NaN	NaN	NaN	NaN
3539.682	NaN	NaN	NaN	NaN
3543.684	NaN	NaN	NaN	NaN
3547.677	NaN	NaN	NaN	NaN
3551.683	NaN	NaN	NaN	NaN
3555.657	NaN	NaN	NaN	NaN
3559.685	NaN	NaN	13.95829	10.59491
3563.676	NaN	NaN	NaN	NaN
3567.651	NaN	NaN	15.69316	2.39374
3571.689	NaN	NaN	15.52550	1.02922
3575.683	NaN	NaN	15.81413	2.52202
3579.681	NaN	NaN	14.75238	3.25647
3583.682	NaN	NaN	14.76960	1.29432
3587.686	NaN	NaN	15.40468	1.10536
3591.683	NaN	NaN	15.06906	0.44718
3595.685	NaN	NaN	15.01763	-0.40517
3599.685	-3.11490	14.11870	14.73267	-1.09379
3603.688	-4.93339	14.61311	10.08524	-0.09676
3607.670	-3.00104	10.94130	10.36927	-0.41194
3611.683	-2.19908	9.99479	6.35780	0.91154
3615.687	-1.01429	7.65528	6.08338	2.09727
3619.688	-2.12664	8.69213	6.40376	0.60884
3623.644	-2.22790	7.92910	5.42193	1.72023
3627.683	-1.99463	7.37681	4.38319	2.10790
3631.686	-1.61944	6.92932	3.51483	2.13128
3635.686	-1.85202	6.78477	3.56230	2.18684
3639.686	-1.92119	6.79594	3.56339	2.78394
3643.687	-1.93831	6.52546	4.57095	2.75800
3647.685	-1.79462	6.41797	3.95130	2.60105
3651.680	-1.73599	6.49853	4.01107	2.58206
3655.686	-1.58728	5.62431	4.02954	2.51906
3659.687	-1.70889	5.64830	3.86237	3.09961
3663.687	-1.64729	5.15785	3.90516	2.94738
3667.687	-1.56603	5.64688	3.97039	3.63042
3671.686	-1.58547	5.67533	4.02576	3.18305
3675.688	-1.56712	5.17220	3.96276	3.52958
3679.686	-1.55107	5.36007	4.18556	3.32703
3683.688	-1.50609	5.33620	4.27410	3.27209
3687.690	-1.43530	5.56164	4.38240	3.44740
3691.685	-1.33311	5.34740	4.32148	2.94805
3695.687	-1.44036	5.31246	4.49149	3.42176
3699.690	-1.49607	5.42070	4.53519	3.33632
3703.654	-1.44932	5.34234	4.52005	3.23768
3707.684	-1.40259	5.36040	4.41297	3.45684
3711.684	-1.56057	5.53241	4.82089	3.25204
3715.688	-1.43501	5.43697	4.74562	3.31729
3719.689	-1.51794	5.37074	4.69588	3.30094
3723.685	-1.57838	5.41941	4.59689	3.32359
3727.685	-1.57002	5.39161	4.71065	2.93128
3731.677	-1.47275	5.31364	4.45047	3.45316
3735.679	-1.41596	5.25752	4.52057	3.24276
3739.686	-1.43290	5.41566	4.20676	4.11069
3743.689	-1.46812	5.44014	4.24196	3.65209
3747.691	-1.47263	5.47868	4.27614	3.39173
3751.687	-1.48731	5.51227	4.12122	3.36894
3755.686	-1.68198	5.57228	3.61683	3.18513
3759.690	-1.89751	5.48593	3.77404	3.12331
3763.689	-2.33081	5.73337	3.91734	2.92202
3767.687	-1.60846	5.67205	3.39584	4.09801
3771.645	-1.37503	5.87911	3.55607	4.06643
3775.657	-1.46397	5.94074	3.64279	3.96449
3779.688	-1.61248	5.92667	3.59488	4.00281
3783.688	-1.77700	5.93258	4.20800	4.00056
3787.692	-2.01379	5.99725	4.05463	4.40691
3791.688	-2.07308	6.14104	4.34388	3.80356
3795.584	-1.99885	5.85475	4.38896	3.90557
3799.685	-2.03685	5.90454	3.88940	4.99525
3803.688	-1.45824	5.68147	4.11826	5.71881
3807.648	-1.50906	5.84740	3.59975	5.22044
3811.689	-1.66314	6.01382	3.61703	4.75508
3815.671	-2.06513	6.16209	3.46434	5.55337
3819.685	-2.41519	6.00769	3.34405	6.03541
3823.687	-3.08805	6.45749	2.96465	4.54619
3827.690	-4.88042	6.67271	0.05537	4.00348
3831.686	-5.62158	7.20977	-1.31131	3.50489
3835.687	-5.28743	7.24725	-1.08162	3.43454
3839.650	-6.53081	7.21959	-1.53952	3.31881
3843.690	-6.73764	7.30824	-3.41657	3.91255
3847.688	-6.32583	7.12481	-2.99757	3.14427
3851.690	-6.54670	6.90803	-2.90572	3.01132
3855.685	-6.50511	7.23563	-2.46835	3.67483
3859.591	-6.67003	7.25125	-1.18249	4.04995
3863.688	-6.28935	7.39582	-1.24513	4.27231
3867.688	-6.55535	7.00623	-3.03415	4.44984
3871.688	-6.50058	7.18029	-2.69455	5.20221
3875.565	-6.64829	6.99243	-3.14172	5.38763
3879.691	-6.51082	7.21123	-3.01648	5.06355
3883.688	-6.47507	6.99498	-3.07657	4.98272
3887.690	-6.43033	6.88445	-2.88628	4.87620
3891.691	-6.43863	6.94493	-3.15538	5.10550
3895.691	-6.38381	6.42443	-3.03393	5.31408
3899.668	-6.38043	6.60050	-2.99240	6.01894
3903.688	-6.43033	6.69485	-3.15238	6.10272
3907.690	-6.42131	6.68106	-2.86096	6.54598
3911.690	-6.51150	6.23891	-2.85022	6.13482
3915.688	-6.62877	6.14672	-3.07357	6.56337
3919.689	-6.65101	6.30268	-3.14508	6.33764
3923.690	-6.88905	6.37494	-3.25810	4.84791
3927.686	-7.00194	6.22279	-2.56946	4.55702
3931.690	-7.09367	6.11081	-3.37188	5.31760
3935.691	-7.15994	6.12054	-2.66038	2.50732
3939.590	-7.30271	6.18462	-3.32459	3.09208
3943.681	-7.32946	6.15987	-3.56356	3.11715
3947.687	-7.39681	6.17896	-3.23630	3.27024
3951.686	-7.41319	6.10551	-3.40712	3.41614
3955.691	-7.50983	6.14609	-3.31311	3.44880
3959.694	-7.52449	6.14953	-3.46533	3.06576
3963.694	-7.58859	6.02637	-3.43046	3.45452
3967.692	-7.59298	6.07804	-3.33085	3.10574
3971.693	-7.58376	5.87599	-3.25800	3.29059
3975.653	-7.59732	6.08273	-3.26443	3.14481
3979.692	-7.61273	6.00969	-3.33549	3.21840
3983.656	-7.56296	5.81197	-3.40593	5.59742
3987.702	-7.57798	5.98154	-3.34460	3.33303
3991.688	-7.63077	5.91425	-3.42972	5.95338
3995.691	-7.56583	5.74127	-3.42772	6.00992
3999.691	-7.51532	5.69691	-3.40959	6.01437
4003.587	-7.34960	5.52693	-3.23252	6.16523
4007.691	-7.32981	5.67662	-2.66932	5.70544
4011.693	-7.24283	5.57752	-3.52791	7.34681
4015.653	-7.20485	5.66169	-3.58623	8.85036
4019.588	-7.18767	6.08960	-3.73104	8.48349
4023.673	-7.09402	5.65319	-3.25446	6.28342
4027.686	-6.97631	5.64355	-3.68147	6.60442
4031.692	-6.98169	6.28862	-3.45252	6.70002
4035.591	-6.43660	5.96992	-2.86074	7.00567
4039.691	-6.14749	5.83833	0.27031	7.55216
4043.691	-5.24969	6.11322	-0.60124	8.18089
4047.689	-1.79043	6.25483	0.81310	7.30745
4051.695	-1.89387	6.31623	1.11524	7.07781
4055.690	0.25391	5.60526	2.63428	7.55438
4059.689	-1.45589	5.78922	3.00485	6.65047
4063.695	-1.37873	6.33975	3.16114	6.82825
4067.593	-1.13129	6.27246	3.47309	6.43372
4071.691	-1.09185	6.51805	3.52104	6.35768
4075.691	-1.28574	6.45888	3.43746	6.42147
4079.692	-1.16304	6.47323	3.26025	6.72210
4083.590	-1.04143	6.24127	3.39245	6.71673
4087.694	-1.03501	5.48412	4.10789	5.99366
4091.697	-0.43959	4.47206	4.57869	5.15843
4095.692	-0.84384	3.96915	4.96783	3.22100
4099.692	-0.67516	4.06093	4.41442	3.89900
4103.694	-0.53379	4.23236	4.41492	4.49072
4107.691	-0.52143	4.05126	4.31425	3.54135
4111.654	-0.54515	4.19306	4.15640	3.46997
4115.627	-0.32099	4.20141	4.73093	3.35512
4119.566	-0.20698	4.53259	3.78054	2.89521
4123.568	-0.13220	4.84813	4.51403	3.58062
4127.568	0.06572	4.17673	4.42397	3.99268
4131.556	-0.14848	4.34889	4.31489	3.28965
4135.570	-0.50354	4.86010	4.30882	3.26621
4139.569	-0.30153	5.04438	3.97812	3.28395
4143.567	-0.03604	4.94196	4.42328	3.53424
4147.671	0.05730	4.72701	3.86704	3.38211
4151.568	-0.29381	5.01546	4.29779	4.61081
4155.533	-0.22266	5.00992	3.84997	4.31319
4159.568	-0.18941	5.12898	3.49792	3.42387
4163.695	-0.21331	5.15799	3.49896	3.65007
4167.569	-0.19889	4.99754	3.58717	3.44996
4171.569	-0.19209	5.16980	3.68362	3.25935
4175.570	-0.11270	5.18838	3.45784	3.41613
4179.567	0.07125	5.15065	3.50390	3.34839
4183.570	0.10346	5.11505	3.36807	3.18704
4187.568	0.20824	4.95793	3.56917	3.19376
4191.576	-0.05636	4.99703	3.35130	3.02336
4195.576	-0.12183	5.15954	3.23858	2.96941
4199.565	-0.09791	5.12578	3.27838	2.13497
4203.567	-0.23356	5.15369	3.30067	3.05565
4207.567	-0.34747	5.19175	3.16663	2.73051
4211.561	-0.50761	5.08491	3.14404	2.71822
4215.532	-0.49299	4.99157	3.12915	4.42419
4219.569	-0.70680	5.10757	3.11294	4.60496
4223.571	-0.78476	4.92258	3.13338	7.18036
4227.562	-0.83627	5.00469	3.20471	7.18668
4231.568	-0.81364	5.16495	2.99260	7.41677
4235.565	-0.79928	5.05582	3.04383	7.51671
4239.559	-0.81570	4.86776	3.06511	7.51323
4243.559	-0.65345	4.97930	3.07313	7.53341
4247.569	-0.50661	4.88018	3.13016	7.35463
4251.570	-0.56257	4.75011	3.12984	7.30933
4255.569	-0.25329	4.78701	3.02479	6.59467
4259.559	-0.18132	4.84783	2.74591	6.61973
4263.569	-0.03899	4.65336	2.87611	6.45554
4267.569	-0.06887	4.66120	2.75685	6.66948
4271.568	-0.48314	4.76006	3.06073	6.60672
4275.569	-0.22457	4.79193	3.31838	6.94615
4279.569	-0.12555	4.65804	5.38011	6.48193
4283.572	-0.05112	4.74646	4.75090	6.81645
4287.570	-0.07398	4.90967	5.96753	6.35509
4291.573	-0.22614	4.97734	5.26728	6.66887
4295.570	-0.16442	4.84455	3.63544	6.17029
4299.573	-0.33121	4.88236	5.37005	6.22934
4303.573	-0.31880	5.02265	5.09441	6.01778
4307.536	-4.82202	5.80062	4.43527	6.49055
4311.571	-3.44495	5.06792	6.72048	5.32258
4315.534	NaN	NaN	4.70116	5.01835
4319.557	NaN	NaN	1.68384	7.79220
4323.564	NaN	NaN	NaN	NaN
4327.570	NaN	NaN	NaN	NaN
4331.567	NaN	NaN	NaN	NaN
4335.569	NaN	NaN	NaN	NaN
4339.567	NaN	NaN	NaN	NaN
4343.568	NaN	NaN	NaN	NaN
4347.567	NaN	NaN	NaN	NaN
4351.570	NaN	NaN	NaN	NaN
4355.571	NaN	NaN	NaN	NaN
4359.567	NaN	NaN	NaN	NaN
4363.536	NaN	NaN	NaN	NaN
4367.568	NaN	NaN	NaN	NaN
4371.571	NaN	NaN	NaN	NaN
4375.571	NaN	NaN	NaN	NaN
4379.568	NaN	NaN	NaN	NaN
4383.547	NaN	NaN	NaN	NaN
4387.570	NaN	NaN	NaN	NaN
4391.573	NaN	NaN	NaN	NaN
4395.572	NaN	NaN	NaN	NaN
4399.578	NaN	NaN	NaN	NaN
4403.535	NaN	NaN	NaN	NaN
4407.569	NaN	NaN	NaN	NaN
4411.569	NaN	NaN	NaN	NaN
4415.533	NaN	NaN	NaN	NaN
4419.572	NaN	NaN	NaN	NaN
4423.573	NaN	NaN	NaN	NaN
4427.570	NaN	NaN	NaN	NaN
4431.560	NaN	NaN	NaN	NaN
4435.600	NaN	NaN	15.01184	10.10294
4439.575	NaN	NaN	16.08894	11.04619
4443.570	NaN	NaN	14.82729	5.68149
4447.566	NaN	NaN	12.23587	2.98281
4451.566	NaN	NaN	13.21794	6.01566
4455.574	NaN	NaN	11.90376	6.15427
4459.572	NaN	NaN	11.89217	5.79680
4463.583	21.22223	5.82083	14.42742	6.73787
4467.562	12.17677	4.45414	12.22592	5.39904
4471.572	NaN	NaN	14.89138	5.54700
4475.572	1.23243	9.05870	15.77651	5.35203
4479.571	NaN	NaN	14.46277	3.99583
4483.598	6.12487	13.23845	4.58049	5.19650
4487.548	0.64094	14.34042	11.95242	4.39916
4491.542	NaN	NaN	12.45111	3.65379
4495.575	NaN	NaN	11.11719	3.29650
4499.573	NaN	NaN	9.12827	3.27157
4503.573	NaN	NaN	9.63054	2.66689
4507.571	NaN	NaN	12.58425	2.71218
4511.575	NaN	NaN	12.08670	3.89581
4515.565	NaN	NaN	10.51259	3.69235
4519.536	NaN	NaN	10.48267	4.16692
4523.576	NaN	NaN	11.85440	4.55732
4527.572	NaN	NaN	8.06747	4.77867
4531.595	NaN	NaN	7.93403	4.70067
4535.572	NaN	NaN	9.44547	2.60660
4539.573	NaN	NaN	8.31214	4.60532
4543.572	NaN	NaN	9.71095	4.27163
4547.573	6.69211	5.00075	10.94057	3.84383
4551.573	NaN	NaN	11.11760	3.13895
4555.535	NaN	NaN	10.23651	7.61271
4559.573	NaN	NaN	11.27548	3.29862
4563.568	4.70547	4.99758	10.16305	4.23901
4567.580	4.50784	5.37159	8.49224	4.70503
4571.542	5.36654	5.25545	9.55027	-0.05129
4575.576	5.96706	5.30195	9.54752	1.50228
4579.573	6.19540	5.25640	9.86204	1.21102
4583.573	5.61460	5.43258	9.56455	2.95732
4587.536	6.03231	5.45480	9.81573	5.62804
4591.574	6.07913	5.47401	11.03430	5.71653
4595.567	6.14155	12.88079	10.87575	6.31053
4599.573	5.71431	5.50464	9.87594	5.68009
4603.574	5.48386	5.56358	10.87338	4.79040
4607.576	5.61591	5.59891	11.25130	5.27787
4611.572	5.93063	5.49391	9.34887	5.44783
4615.575	6.03157	5.52973	9.45672	3.79445
4619.539	6.30433	5.54391	8.96542	5.01341
4623.615	5.39861	5.68988	10.04851	5.64471
4627.578	5.65533	5.65853	10.25173	6.37915
4631.577	5.70229	5.61513	9.03781	7.20005
4635.576	5.55541	5.65852	8.68654	6.87169
4639.577	5.31979	5.60786	9.66764	6.45596
4643.566	5.23699	5.73490	9.78660	6.81269
4647.577	5.56057	5.73989	10.08113	6.30425
4651.578	5.69089	5.62217	10.25583	6.33351
4655.538	5.85863	5.76845	10.90980	5.45809
4659.572	5.47710	5.96147	11.36138	6.29511
4663.571	5.69391	5.72262	10.20142	6.44203
4667.576	5.79833	5.69598	10.36651	6.82408
4671.578	6.14212	5.54353	9.38929	7.74299
4675.578	6.15078	5.65385	9.56779	6.71558
4679.574	5.70500	5.84552	9.78749	6.78092
4683.576	5.45840	5.88013	9.66894	6.71871
4687.577	5.32129	6.27332	9.34587	6.56756
4691.575	4.86101	6.48772	8.86153	6.56420
4695.577	5.69084	6.51290	9.23420	6.27699
4699.576	4.98280	6.76077	11.03179	6.59819
4703.575	4.81121	6.61764	9.29543	6.45170
4707.580	4.89868	6.41548	7.23047	6.31785
4711.575	3.16997	6.44089	6.42089	4.26243
4715.575	2.44303	6.28933	5.39824	5.25984
4719.575	2.10203	6.45420	4.10335	6.03752
4723.578	1.43119	6.25870	3.83972	5.15644
4727.579	0.14250	6.09586	2.28737	3.85474
4731.580	0.26207	5.39236	3.61970	4.06733
4735.563	-0.08924	5.75415	3.96234	3.49293
4739.567	0.43537	5.22747	4.08174	3.53667
4743.577	0.31200	5.45654	5.11457	3.38939
4747.579	0.20772	5.15644	4.88545	2.80951
4751.580	0.54416	5.10337	3.01007	2.31563
4755.577	0.15072	5.07372	5.17154	2.79408
4759.578	0.29932	4.97931	3.50136	2.75668
4763.578	0.23874	4.90544	3.51285	2.71619
4767.577	0.37134	4.70026	4.19148	2.87191
4771.569	0.43549	4.72567	5.03629	3.01797
4775.587	0.42204	4.71607	3.86400	2.83167
4779.542	0.80148	4.62397	5.32752	2.76996
4783.576	0.09120	4.67001	3.73502	2.70004
4787.580	0.13307	4.70414	3.77565	2.69330
4791.539	0.52401	4.51063	5.46768	2.75308
4795.583	0.67526	4.54355	3.75931	2.62823
4799.576	0.80141	4.48983	5.53409	2.61332
4803.580	0.87203	4.46716	3.87082	2.63195
4807.579	0.88820	4.42718	4.27501	2.43738
4811.581	0.79052	4.47165	5.64380	2.31831
4815.540	0.74206	4.44754	3.89854	2.26356
4819.583	0.89240	4.43239	3.90605	2.12578
4823.578	0.76263	4.49071	3.68419	1.05485
4827.581	0.81198	4.41311	3.46862	1.88670
4831.577	0.87689	4.39896	2.99685	1.72223
4835.476	0.89872	4.33785	3.42534	1.81741
4839.577	0.99109	4.17186	3.34546	2.26695
4843.578	0.91004	4.12137	3.52546	2.00032
4847.578	-0.07746	4.28829	3.24518	3.37626
4851.580	0.43321	4.42622	3.07374	5.30161
4855.577	0.86823	4.47069	3.53374	3.99370
4859.542	3.36651	3.88085	5.79261	1.77802
4863.581	4.35866	4.08010	5.95820	1.36136
4867.478	4.75903	2.89405	9.27791	-1.44737
4871.578	6.76310	0.01782	10.13474	3.04783
4875.578	6.11140	0.93855	11.77382	1.64569
4879.581	6.97707	0.53465	12.05677	1.12434
4883.480	7.22392	1.34700	11.65094	-0.59451
4887.577	7.74313	0.28028	11.74351	-0.67211
4891.578	8.11695	0.91013	12.22556	-0.79640
4895.582	7.71389	1.54359	12.51634	-1.03711
4899.582	7.52662	1.32286	12.10300	-1.13454
4903.554	7.73589	1.09232	12.40526	-1.47098
4907.582	8.11085	0.63285	12.82153	-1.62004
4911.576	8.32920	0.41692	11.50792	-1.62799
4915.454	8.35255	0.40519	12.67140	-1.76813
4919.580	5.35323	0.51828	12.61493	-1.93458
4923.581	5.43740	0.93397	12.59512	-1.56498
4927.542	5.53596	0.89347	12.02936	-1.64380
4931.475	7.02580	0.96239	12.72837	-1.77231
4935.541	6.95995	0.90919	12.59399	-1.77533
4939.581	7.28603	0.83493	12.41170	-1.73948
4943.567	7.75483	0.86086	12.67886	-1.62372
4947.480	8.10781	0.90216	13.53237	-1.68419
4951.578	7.07845	1.56100	14.40391	-1.78816
4955.579	7.57176	1.23505	14.53170	-1.70883
4959.579	7.50129	1.41372	14.69973	-1.44835
4963.479	7.47199	1.17121	15.25420	-1.08995
4967.581	7.07718	1.44547	13.22342	-1.09629
4971.581	7.63184	1.54394	13.15273	-1.85814
4975.579	7.28500	1.35246	13.94139	-1.94269
4979.477	7.34812	1.56849	12.78845	-1.63282
4983.582	7.29450	1.92847	13.03399	-1.96282
4987.556	7.63842	1.86275	12.68834	-1.43000
4991.579	7.39393	1.94874	13.12343	-1.49262
4995.482	7.86695	1.73271	12.92958	-1.58597
4999.578	7.76391	1.90170	14.43959	-2.13014
5003.580	7.98795	1.80123	15.27372	-2.46327
5007.582	7.06628	2.11810	15.09758	-1.82180
5011.478	7.20661	1.88479	15.58716	-2.38764
5015.583	7.58486	1.95621	15.04235	-1.77644
5019.580	7.39657	2.19055	11.87693	-2.15922
5023.585	7.37055	2.09190	10.45689	-2.22160
5027.484	7.59024	2.01931	10.68727	-1.68605
5031.581	7.49734	2.05131	10.67713	-1.90561
5035.580	7.92106	1.93559	10.68945	-0.80674
5039.580	7.93956	1.81907	12.92130	-0.64950
5043.477	7.53757	1.85666	12.45035	0.24917
5047.582	7.36118	1.93134	12.84439	-0.18575
5051.581	7.35808	1.81365	13.06852	-0.06030
5055.582	7.51991	1.69799	11.81769	-0.90440
5059.478	7.61665	1.76024	12.47785	-0.45415
5063.584	7.37724	1.71110	12.95360	-0.11300
5067.576	7.30651	1.64417	12.58042	-0.08670
5071.573	7.52049	1.71707	11.97821	-0.11230
5075.478	7.38932	1.56428	12.03577	-0.43781
5079.584	7.43784	1.57248	12.49112	-0.40632
5083.583	7.29001	1.66603	12.16626	-0.34384
5087.585	7.47300	1.63183	12.75984	-0.27054
5091.479	7.58305	1.57203	12.80424	-0.65167
5095.588	7.80363	1.62710	12.77159	-0.63971
5099.583	7.74625	1.60904	13.00177	-0.74286
5103.581	7.59456	1.61922	13.47399	-1.27694
5107.482	7.58639	1.71631	13.37470	-1.07828
5111.557	7.84847	1.64547	13.23981	-0.92136
5115.543	7.52671	1.90940	12.29744	-0.99461
5119.580	7.75514	1.80126	12.39184	-0.83260
5123.446	7.38136	2.27808	12.24668	-0.09718
5127.585	7.27751	2.89345	12.44131	-0.68802
5131.540	7.26080	2.01184	12.86815	-0.35385
5135.583	7.92181	1.94156	12.34174	-0.03680
5139.479	7.48602	2.48846	12.58460	-0.30608
5143.581	7.49310	2.45335	12.40638	0.02077
5147.585	7.57374	1.92363	12.32454	0.23172
5151.459	7.77500	1.74283	12.50747	0.06011
5155.449	7.64722	0.85192	12.29796	0.72699
5159.424	7.65700	1.25470	12.68945	1.23558
5163.457	7.71272	1.24705	13.80891	0.97139
5167.458	7.43142	1.12713	12.32205	0.60037
5171.457	7.23196	0.98347	11.37641	-0.66814
5175.459	6.18294	0.85027	11.42298	-1.79016
5179.459	6.21308	0.76425	10.63439	-0.76572
5183.459	5.69644	0.77122	10.00492	-0.94490
5187.450	5.59066	0.75615	10.06119	-1.13999
5191.459	5.67561	0.73678	10.21769	-1.44374
5195.465	5.53146	0.76019	9.80380	-1.66247
5199.422	5.56492	0.81326	12.07310	-1.97569
5203.487	6.38310	0.80340	10.82004	-2.33544
5207.458	6.36709	1.05447	11.21935	-2.75937
5211.458	5.70590	0.92156	10.39054	-2.50733
5215.421	5.74868	0.95127	10.14718	-2.48199
5219.451	5.63230	0.86860	10.31261	-2.77358
5223.460	5.58801	1.04475	12.02432	-1.96484
5227.460	5.60258	1.03797	11.41385	-2.38777
5231.460	5.53419	1.01077	11.66344	-1.85719
5235.458	5.64661	1.15778	11.49853	-1.54705
5239.453	5.52136	1.49860	11.61804	-1.12434
5243.419	5.50237	1.26386	11.22379	-1.14284
5247.420	5.35345	1.29798	11.67439	-1.51400
5251.480	5.47574	1.27423	11.31481	-1.19216
5255.460	5.51032	1.46677	11.13394	-0.84039
5259.463	5.48327	1.58627	11.79270	-0.82577
5263.459	5.42774	1.71288	11.03007	-0.55825
5267.426	5.47417	1.75646	10.45447	0.60649
5271.462	5.44785	1.76637	9.48362	0.65099
5275.462	5.43927	1.77235	9.64005	1.14833
5279.460	5.30348	1.92182	9.38371	1.22028
5283.458	5.21338	2.00374	9.85488	1.30868
5287.461	5.38021	2.14218	10.48574	1.36967
5291.459	5.20654	2.18503	10.39599	1.48323
5295.460	5.35384	2.28893	9.58924	1.70760
5299.450	5.45646	2.17673	9.48504	1.88608
5303.431	5.20511	2.13193	10.59035	1.75574
5307.458	5.40636	2.32104	10.71154	1.83315
5311.462	5.24233	2.18068	10.73926	1.79142
5315.452	5.20629	2.20685	10.76096	1.90518
5319.463	4.95098	2.25543	10.53617	2.17100
5323.445	4.76137	2.29800	10.76882	1.93232
5327.460	4.65619	2.43792	10.79404	1.97241
5331.456	5.14559	2.13688	10.90947	2.11509
5335.423	5.01731	2.16360	10.81844	2.17237
5339.461	5.65017	1.95840	10.83319	2.12530
5343.458	5.25446	1.94560	10.81058	2.16039
5347.453	5.27882	2.11905	10.89738	2.07976
5351.460	5.08298	1.89539	10.72194	2.16627
5355.460	5.37109	2.15718	10.66656	2.31993
5359.460	5.05801	2.07826	10.45161	2.16347
5363.483	4.95388	1.88063	10.30122	2.17364
5367.458	5.36476	1.66255	10.52789	2.13573
5371.423	5.34939	1.70521	10.47657	2.03467
5375.429	5.31856	1.35985	10.58025	1.85839
5379.488	5.25340	1.52565	10.32263	1.85346
5383.459	5.22443	1.23082	10.55301	0.84379
5387.462	5.18670	1.32098	11.07128	1.09393
5391.460	5.13520	1.22033	12.70300	-0.28941
5395.483	5.14180	1.23380	11.27588	-0.01677
5399.463	5.20593	1.15445	12.21146	-0.46827
5403.463	5.25399	0.96302	12.23516	0.01178
5407.438	5.32107	0.98563	11.54451	-0.35755
5411.499	5.29068	0.97717	12.07517	-0.00525
5415.462	5.17545	0.99551	11.94121	-0.60310
5419.460	5.21904	1.06913	12.22606	-0.42635
5423.462	5.27156	1.04327	12.18244	-0.07855
5427.455	5.29260	1.01746	12.25585	0.14565
5431.460	5.34403	0.99526	12.27322	-0.12296
5435.462	5.40073	0.93722	12.33027	0.05387
5439.462	5.47997	0.96425	12.21625	0.17285
5443.461	5.48659	0.94789	12.12805	1.42793
5447.462	5.37205	1.15787	12.12331	0.54310
5451.452	5.30008	1.15727	11.58408	2.19979
5455.461	5.50532	1.22400	12.02693	2.09422
5459.455	5.43723	1.38201	12.20921	0.22580
5463.462	5.53913	1.39309	12.22113	-2.76037
5467.462	5.51317	1.10029	12.60571	-2.78200
5471.425	5.63641	1.60991	13.34230	-2.61815
5475.453	5.28505	1.69552	11.75517	-2.50142
5479.463	5.69885	1.99508	11.90124	-2.44218
5483.464	5.30077	2.33414	11.65097	-2.00269
5487.463	5.52450	2.69305	11.55621	-0.94851
5491.428	5.31140	2.11291	11.26818	-1.26877
5495.462	4.96549	2.10158	8.74661	1.15967
5499.466	4.33174	2.66547	10.86665	0.80336
5503.462	3.40079	2.88795	8.59293	3.05680
5507.461	1.18798	4.93629	8.27606	-0.02818
5511.466	3.36389	7.74227	5.93470	0.55592
5515.464	0.45728	5.76349	7.62952	1.38187
5519.464	0.72476	6.04144	7.33674	1.73975
5523.457	0.79545	6.17446	5.98977	2.80252
5527.463	0.49728	7.14166	4.49699	4.21508
5531.463	0.40355	6.91297	4.16712	2.77647
5535.462	0.06222	7.07612	3.74674	3.88459
5539.428	-0.42189	6.54341	4.04090	3.68701
5543.462	-0.73863	6.62830	4.14016	3.95474
5547.462	-1.15915	6.38053	4.28320	4.24420
5551.464	0.38909	6.07915	3.82432	4.42548
5555.455	0.15769	5.82403	3.47749	4.91833
5559.463	0.24058	5.07670	4.67448	4.68019
5563.463	-0.11374	4.26180	6.05346	5.00340
5567.467	-0.22569	4.58057	6.66518	4.67988
5571.468	-0.76739	4.62406	6.41297	5.12565
5575.460	-0.65918	4.48484	6.27501	5.20988
5579.464	-0.60454	4.90600	6.39697	4.70507
5583.466	-0.41844	5.03638	6.64070	2.24675
5587.457	-0.38266	5.30500	6.25931	1.08699
5591.465	-0.50418	5.32294	6.23503	2.41217
5595.465	-0.64637	5.56179	6.06178	2.71052
5599.466	-0.62707	5.54222	6.21446	3.22635
5603.487	-0.82396	5.90337	3.75153	4.19404
5607.467	-0.73235	5.42202	4.23071	4.38729
5611.468	-1.11427	5.18387	3.95271	5.59506
5615.443	-1.27500	5.11885	3.66483	5.81328
5619.491	-0.75938	4.62002	6.02823	6.44859
5623.468	-0.50121	5.01462	6.06954	4.69089
5627.466	-0.62588	5.28024	5.74340	2.25551
5631.464	-0.82218	5.59251	6.20141	1.61480
5635.465	-0.82094	5.40189	5.78271	1.93769
5639.467	-0.77434	5.59201	5.83702	1.91128
5643.467	-0.70938	5.64148	5.41234	3.12820
5647.464	-0.88947	5.73684	4.28755	4.18693
5651.465	-0.89766	5.52828	3.93900	4.58049
5655.464	-0.44103	6.03093	4.02732	4.11547
5659.456	-0.74833	6.85953	5.21963	4.66679
5663.464	-0.73312	6.28104	5.92243	4.63226
5667.456	-1.56469	6.60039	5.16118	5.27227
5671.466	-0.16538	6.32667	6.47708	4.49981
5675.428	-0.35246	6.40755	5.69209	5.66160
5679.467	-0.05619	5.30255	4.36084	4.86535
5683.461	-0.19876	5.99160	5.18555	4.81444
5687.468	-0.15054	6.19274	4.83264	1.78349
5691.468	-0.24507	6.22755	4.67167	0.68954
5695.466	-0.37457	6.37553	4.65331	0.74783
5699.473	-0.81684	5.73316	4.16053	1.65083
5703.468	-0.90919	5.46423	4.71121	0.94305
5707.465	-0.41723	4.59964	4.36481	2.43758
5711.467	-0.31401	4.73560	4.81086	1.65787
5715.466	-0.19278	4.94669	5.39923	1.91173
5719.468	-0.13503	4.61197	4.87981	2.27733
5723.467	-0.27297	5.10204	5.25037	1.86839
5727.467	-0.56337	4.84964	5.26128	2.29938
5731.466	-0.63350	4.85197	4.90161	2.64290
5735.469	-0.56238	4.79072	5.09881	2.89267
5739.458	-0.25095	4.69799	3.79361	3.00266
5743.429	-0.28786	4.95914	4.42141	3.11736
5747.466	-0.21519	4.94999	4.32479	3.30296
5751.469	-0.27006	4.85974	5.24294	3.35685
5755.430	-0.37350	5.00297	5.42274	3.41358
5759.466	-0.07123	4.99646	4.89629	3.17003
5763.459	-0.39737	5.26217	5.19778	3.68027
5767.466	-0.50488	5.19859	3.90800	6.32641
5771.467	-0.63712	5.13286	3.84389	6.07984
5775.466	-0.11855	5.31213	3.75983	6.32600
5779.458	-0.27547	5.37598	3.45047	6.26219
5783.432	-0.22251	5.67738	3.21928	6.35201
5787.469	0.24388	5.49998	6.25080	4.13194
5791.469	-0.12394	5.63139	5.47390	6.41753
5795.472	-0.21266	5.77084	4.30951	3.59898
5799.470	-0.37372	6.26497	4.98731	3.06991
5803.467	-0.34444	6.30407	4.84036	1.53390
5807.467	-0.46011	6.07910	4.00843	2.03890
5811.463	-0.17913	6.42251	5.40673	3.25834
5815.430	0.62352	10.73439	5.90671	4.02770
5819.425	8.85424	14.92602	7.50361	12.40547
5823.449	NaN	NaN	6.67764	12.32683
5827.471	NaN	NaN	NaN	NaN
5831.469	NaN	NaN	NaN	NaN
5835.470	NaN	NaN	NaN	NaN
5839.463	NaN	NaN	NaN	NaN
5843.466	NaN	NaN	NaN	NaN
5847.467	NaN	NaN	NaN	NaN
5851.466	NaN	NaN	NaN	NaN
5855.467	NaN	NaN	NaN	NaN
5859.462	NaN	NaN	NaN	NaN
5863.456	NaN	NaN	NaN	NaN
5867.467	NaN	NaN	NaN	NaN
5871.471	NaN	NaN	NaN	NaN
5875.470	NaN	NaN	NaN	NaN
5879.435	NaN	NaN	NaN	NaN
5883.468	NaN	NaN	NaN	NaN
5887.467	NaN	NaN	NaN	NaN
5891.369	NaN	NaN	NaN	NaN
5895.426	NaN	NaN	NaN	NaN
5899.433	NaN	NaN	NaN	NaN
5903.469	NaN	NaN	NaN	NaN
5907.369	NaN	NaN	18.67822	13.28516
5911.470	NaN	NaN	17.53592	8.72528
5915.432	NaN	NaN	19.28702	5.77429
5919.469	NaN	NaN	20.84534	6.08954
5923.371	NaN	NaN	NaN	NaN
5927.473	NaN	NaN	17.11698	2.41946
5931.471	NaN	NaN	20.86805	2.26858
5935.472	14.55546	0.10186	20.33086	1.93624
5939.469	11.87275	1.95214	NaN	NaN
5943.471	19.59862	5.67420	20.66811	1.13844
5947.471	14.86497	4.61686	20.54426	1.31155
5951.473	2.94146	5.63047	17.14701	-0.47626
5955.475	14.95459	6.00130	16.66899	-2.45878
5959.470	14.15885	5.88110	15.77288	0.19800
5963.471	13.85234	5.64109	14.11288	0.89993
5967.473	11.12323	5.31974	13.48228	0.83115
5971.367	8.64485	5.20233	13.38705	0.87798
5975.470	9.86143	5.14031	14.04073	0.89641
5979.471	8.15783	5.10823	13.41392	0.87766
5983.472	8.25810	5.01984	12.99331	1.19023
5987.368	6.34400	4.79351	13.49859	1.09917
5991.437	7.65042	4.55600	13.06560	0.69240
5995.431	8.93614	5.37630	14.55100	0.10292
5999.470	8.60783	5.77074	14.42146	0.47462
6003.374	7.46453	5.74045	14.51293	0.06452
6007.473	7.53959	4.40249	14.83968	-0.41502
6011.470	6.42594	4.00342	14.23247	0.31278
6015.472	6.58602	3.78389	14.31165	0.07763
6019.368	6.53372	4.28635	14.30053	-0.15574
6023.470	6.52476	4.55130	14.59472	-1.23413
6027.470	6.41819	4.43232	14.74038	-0.92138
6031.451	6.69975	4.59872	14.52909	-0.71421
6035.478	6.61229	5.13470	14.54849	-0.53330
6039.471	6.98044	3.31445	14.35654	-0.58850
6043.473	6.74643	3.32567	14.67920	-0.94358
6047.473	6.74244	3.31542	14.47173	-0.63393
6051.372	6.72582	3.52848	14.59228	-0.65157
6055.474	6.81740	3.59540	14.43438	-0.90353
6059.469	6.96685	3.26899	14.50283	-0.70723
6063.472	6.86902	3.32443	14.49123	-0.12578
6067.486	7.04780	2.85102	14.61255	-0.40785
6071.461	7.11154	2.88358	14.50146	-0.46812
6075.462	7.05281	2.44598	12.47021	-0.52930
6079.472	6.95465	1.87018	11.61313	-0.40324
6083.341	6.99524	1.99995	10.78834	0.04799
6087.473	6.97599	1.79883	11.02593	0.55913
6091.474	7.00651	1.91964	10.61826	0.88060
6095.474	7.10022	1.74906	11.07613	0.40542
6099.371	7.16371	2.06051	11.03057	1.23665
6103.479	7.20582	2.14348	10.87072	1.16373
6107.468	7.15249	1.95521	11.70887	1.14506
6111.471	7.01861	2.33631	11.03925	1.49731
6115.363	7.09006	2.06840	11.39358	1.03309
6119.433	7.07950	2.06170	11.70485	0.93460
6123.471	7.03540	2.19661	11.52669	1.62954
6127.473	7.08473	2.37224	12.11244	1.22642
6131.432	7.09250	2.37584	12.04669	1.66863
6135.476	7.24571	2.62275	12.33240	1.13850
6139.476	7.33361	2.72754	12.39693	1.68425
6143.475	7.31054	2.63944	12.56699	1.89072
6147.369	7.18335	2.73785	12.94568	1.88139
6151.436	7.34057	2.83116	12.75743	1.81867
6155.475	7.30017	3.14057	13.05764	2.07145
6159.474	7.18806	3.80946	13.24384	1.80153
6163.374	7.10311	4.05645	13.63353	1.75096
6167.475	6.87274	4.23348	13.07446	1.70621
6171.475	7.11987	4.03695	13.31232	2.36947
6175.476	7.45384	3.59516	13.37418	2.55165
6179.349	7.67940	3.29184	13.86680	3.03461
6183.459	7.64518	3.01396	14.01001	1.11762
6187.349	7.45960	2.82743	12.98534	-0.85872
6191.349	7.18577	3.39728	12.75892	1.63362
6195.342	6.84272	4.24913	12.05366	2.44747
6199.350	6.77274	4.46073	11.86129	3.74626
6203.332	6.72761	4.96532	11.89112	4.01045
6207.349	6.53838	5.03116	12.06845	4.43954
6211.340	6.80624	4.68779	12.10881	4.16969
6215.350	6.96719	4.67126	12.08827	4.33981
6219.310	7.14160	4.72349	12.07711	4.21997
6223.348	6.81414	4.96115	11.82942	4.40186
6227.343	6.88379	5.02759	11.82385	4.64400
6231.350	6.81781	5.03883	11.61370	4.37499
6235.351	6.80440	4.90783	11.57417	4.35276
6239.353	6.93858	4.98135	11.83367	4.29685
6243.309	7.27252	4.86129	11.93921	4.15545
6247.346	7.41050	4.78758	12.07092	3.87180
6251.349	7.48695	4.52494	11.86626	3.82977
6255.349	7.69076	4.51551	12.00488	2.88651
6259.343	6.72305	5.39931	12.24929	2.78477
6263.350	6.61714	5.08121	12.85036	2.35925
6267.353	6.75823	4.71613	13.52210	2.29403
6271.351	6.74763	5.01174	11.87800	2.70972
6275.342	7.13649	4.86154	11.21279	2.94724
6279.353	7.20372	4.69192	11.79620	2.84788
6283.350	7.71389	4.77589	12.06147	2.73545
6287.313	6.66217	5.14321	11.88276	2.87029
6291.345	6.60179	5.45028	11.41781	3.41242
6295.350	6.93318	5.23085	11.40205	3.49846
6299.349	6.83685	5.49137	12.41180	3.41430
6303.355	7.06395	5.42408	11.15988	4.01551
6307.317	7.33964	5.91795	11.17629	4.06949
6311.391	6.94477	5.36893	11.55519	4.09431
6315.312	6.86687	4.83384	11.49264	4.69289
6319.314	6.96306	3.95399	11.51552	4.38850
6323.345	7.15447	4.15767	11.82880	3.97813
6327.330	6.87230	3.89901	12.15251	4.04068
6331.348	6.84979	4.12155	12.47678	4.02190
6335.349	7.02768	3.80625	13.17494	4.32359
6339.349	6.81042	3.69176	13.72559	4.32158
6343.352	7.00910	3.57658	11.62428	4.43094
6347.350	6.89245	3.71410	11.97035	4.88425
6351.350	8.82749	3.80322	13.15772	3.17487
6355.341	8.73863	6.78464	13.88205	4.25133
6359.351	11.22420	6.16412	14.77115	5.49074
6363.354	12.28566	5.92380	16.17402	9.29444
6367.352	14.01342	5.68362	17.44569	9.38924
6371.343	12.62507	6.65285	19.02564	7.46692
6375.313	15.13485	6.51868	19.29169	5.06076
6379.319	14.62029	6.61236	20.18296	5.43437
6383.351	14.47052	6.85137	20.04170	4.49515
6387.346	14.66243	6.82163	19.39975	4.47622
6391.352	15.79016	6.86044	19.32654	4.89231
6395.363	15.25656	6.95801	20.18604	4.77592
6399.351	15.54971	5.73203	20.17004	5.19876
6403.349	14.97280	5.47799	17.74141	5.90318
6407.353	14.75586	5.37925	19.32630	5.28323
6411.330	15.28797	6.45095	17.98389	7.20442
6415.354	14.93462	6.42740	19.33306	7.55961
6419.345	15.08993	6.00757	19.62533	7.50733
6423.351	15.38740	6.26983	19.85043	6.63366
6427.352	15.17186	6.65684	20.08009	7.54633
6431.352	15.13394	6.70951	21.10467	7.43901
6435.351	14.40826	7.38133	20.27521	6.88329
6439.351	14.51291	7.41324	20.07116	7.46584
6443.353	14.81222	7.20947	19.48112	9.90556
6447.354	14.70762	6.77307	19.72596	9.17044
6451.343	14.78164	6.76823	19.12291	8.72486
6455.345	15.03189	7.02157	19.70775	9.24960
6459.352	14.99040	7.17463	17.95876	8.60724
6463.314	14.56130	7.07687	19.30544	8.81969
6467.351	14.14221	7.12660	19.42759	9.52738
6471.352	14.13253	6.85449	19.48129	7.62524
6475.353	14.63973	6.55272	20.06984	6.17273
6479.351	14.49821	6.48259	21.97251	5.50298
6483.375	14.63894	6.70943	16.61229	6.61443
6487.353	14.58268	6.71528	19.63055	3.54554
6491.317	14.70523	6.70924	17.81747	6.03489
6495.319	14.69761	6.51357	17.66445	5.90647
6499.351	14.98417	6.65925	18.71659	6.51646
6503.359	15.02388	6.63835	19.25080	6.17344
6507.352	14.97361	6.80298	19.58549	5.90662
6511.353	15.08076	6.50449	18.36532	6.02328
6515.346	15.09793	6.55751	19.09364	5.94346
6519.354	15.11232	6.69137	19.60703	6.07273
6523.352	14.74300	6.84882	18.25679	6.20462
6527.353	14.35048	6.95551	19.08856	6.09648
6531.376	14.45626	6.94890	18.97423	6.02399
6535.334	14.04790	7.12729	19.29078	5.96164
6539.354	14.00746	7.16468	19.58897	6.09757
6543.354	14.33618	7.02618	19.70794	5.91974
6547.344	14.51619	7.08851	20.16953	6.16118
6551.354	14.47306	7.09587	22.11802	5.80466
6555.353	14.30841	7.09776	21.12581	6.05895
6559.354	14.36295	7.11852	20.39305	6.14182
6563.346	14.35116	7.08300	20.28290	6.19759
6567.351	14.41231	6.87863	20.57777	6.10638
6571.355	14.41040	6.96488	20.29866	5.88520
6575.350	14.46026	6.92077	20.72022	5.62692
6579.349	14.46638	6.81274	18.08704	5.82299
6583.357	14.48853	6.82153	18.69831	5.62288
6587.357	14.41988	6.91452	20.42762	5.48559
6591.358	14.40891	6.80703	18.40251	5.92160
6595.356	14.40982	6.81602	18.38656	6.14364
6599.357	14.35319	6.83394	19.30628	5.53606
6603.367	14.17283	6.84886	18.42246	5.49936
6607.356	14.12518	6.88285	19.28963	5.22708
6611.347	14.07931	6.94192	19.61991	5.17936
6615.355	14.12429	7.00275	21.41183	5.35621
6619.355	14.09766	6.88018	20.32732	5.72648
6623.356	13.78410	7.15796	19.19251	6.00569
6627.343	13.40950	7.37077	16.77141	6.51303
6631.359	11.04690	7.36792	14.92266	6.21330
6635.356	9.13202	7.19936	14.96506	5.76340
6639.354	8.78537	6.98152	12.19716	5.13540
6643.355	6.18375	6.83619	9.80913	8.86588
6647.355	5.62997	6.08845	9.21210	6.56124
6651.361	4.68595	7.06496	8.57629	7.09857
6655.358	2.22237	7.75592	6.79124	6.54561
6659.344	2.39007	7.92636	3.61045	6.73099
6663.352	1.40953	7.67728	3.40380	5.57885
6667.356	1.03660	7.70049	4.64884	4.68339
6671.358	0.86724	7.83137	4.61413	4.53636
6675.349	1.04523	6.99577	4.91733	4.56849
6679.357	1.01389	6.93887	4.15586	4.35565
6683.357	0.92356	6.73105	4.70747	4.41758
6687.356	1.34192	6.30196	3.62583	4.86843
6691.355	1.21313	6.42746	3.93912	4.91112
6695.358	1.35794	6.44624	3.65082	5.18940
6699.361	1.23501	6.46171	3.42065	5.00521
6703.356	0.95996	6.58776	3.36151	5.22109
6707.355	0.97663	6.47914	3.50469	5.30890
6711.355	1.06912	6.44984	3.49720	4.51310
6715.319	1.04024	6.54715	3.33065	4.29529
6719.355	1.02097	6.41873	3.35793	4.49778
6723.355	1.13531	6.24454	3.31224	4.80277
6727.356	1.15913	6.28796	3.38785	4.28971
6731.356	1.26284	6.16983	4.82308	4.11554
6735.358	1.19103	6.23585	5.41135	3.08990
6739.358	1.14771	6.11807	5.50107	2.74239
6743.357	0.96400	6.06328	5.41817	2.51667
6747.354	1.00191	5.88570	5.53517	2.83543
6751.358	0.94410	5.61182	5.48723	2.75198
6755.363	0.86721	4.83057	4.15628	2.78694
6759.356	1.04786	5.18245	4.39799	3.28007
6763.359	0.93649	5.71138	3.76260	2.69149
6767.357	0.89669	5.88558	4.06058	2.79363
6771.352	0.96142	7.52306	3.86316	2.37378
6775.358	0.99869	6.92757	4.75021	2.38145
6779.361	0.95080	7.28953	3.96145	2.25151
6783.355	0.68794	7.31851	4.63814	2.65818
6787.350	0.81709	7.24309	4.43453	3.14724
6791.358	1.12931	7.17619	4.71649	5.66506
6795.357	1.10817	7.07514	4.65442	3.08894
6799.361	0.95395	7.19121	4.66970	2.89649
6803.362	0.86297	7.12777	4.37367	2.18510
6807.324	0.79642	7.15369	4.62074	1.95607
6811.359	1.06113	7.11654	4.83319	1.57474
6815.360	1.64379	6.44454	4.39037	3.25795
6819.365	1.34103	6.61413	4.98206	5.79760
6823.354	1.04257	6.66190	4.84805	5.79006
6827.356	1.58907	6.12191	4.84861	5.66856
6831.321	1.13022	5.97227	4.45826	3.72079
6835.352	1.21087	5.27475	4.46549	6.92644
6839.358	-1.31498	7.04057	3.01002	6.25719
6843.359	-1.48064	6.03026	-0.30977	2.70437
6847.358	-3.73912	5.10386	-2.61855	2.60687
6851.353	-3.43259	4.44310	-1.28276	1.37623
6855.358	-4.67436	3.54784	-2.51945	-0.49083
6859.360	-5.51250	5.43960	-3.29961	-0.80730
6863.359	-5.74625	5.11451	-4.46058	-0.70238
6867.318	-6.13790	4.50198	-5.05378	-0.96449
6871.350	-6.98199	4.17804	-6.41577	-1.00075
6875.359	-8.48430	3.43409	-6.89967	-0.78056
6879.361	-7.88105	3.51444	-7.72049	-0.99581
6883.258	-7.56549	3.03751	-6.91540	-0.79585
6887.362	-8.25024	2.76722	-7.79756	-1.29183
6891.359	-8.10583	3.02884	-7.52571	-1.10689
6895.362	-7.68035	1.47685	-7.29653	-0.55091
6899.259	-7.86332	1.60402	-7.08820	-0.80438
6903.363	-8.10489	2.44179	-7.69122	-0.96348
6907.364	-8.56816	2.73275	-7.20555	-0.85783
6911.326	-7.57310	3.96644	-7.19004	-0.73467
6915.363	-8.46762	3.33279	-7.15156	-0.51231
6919.363	-8.14346	3.04038	-7.20490	-0.41959
6923.362	-7.96931	3.21736	-7.12667	-0.42343
6927.370	-8.23119	3.19785	-7.10304	-0.64967
6931.326	-8.49362	3.28335	-7.01450	-0.48496
6935.364	-8.37380	3.02756	-7.04501	-0.20208
6939.360	-8.23636	2.55579	-7.08825	-0.11087
6943.359	-8.38746	2.89415	-6.90701	-0.21600
6947.258	-8.17128	1.98548	-6.88979	0.09172
6951.341	-8.15805	1.41784	-6.93570	0.38532
6955.360	-8.25875	1.46400	-6.85782	1.01766
6959.362	-8.16017	1.19119	-6.83174	0.63769
6963.260	-8.05341	1.58417	-6.64031	1.38738
6967.323	-8.28551	2.75103	-6.68969	2.22906
6971.361	-8.17250	1.73251	-6.86249	0.82016
6975.360	-7.97391	2.71305	-6.82459	1.03537
6979.259	-8.17196	2.98613	-7.01526	0.40940
6983.362	-7.70531	3.37201	-6.73297	1.01223
6987.363	-7.97013	2.51371	-6.86085	-0.39155
6991.361	-7.89836	3.62764	-6.64236	-1.25095
6995.262	-8.19487	3.39555	-6.68252	0.11025
6999.360	-8.66004	2.56887	-7.67041	-0.56160
7003.364	-10.52228	1.69421	-9.87533	-1.12968
7007.364	-10.85653	1.42446	-10.34033	-0.41613
7011.260	-11.33521	-0.59893	-11.53498	-1.88961
7015.362	-12.25043	-0.64591	-12.10725	-2.51101
7019.364	-12.70090	0.85175	-12.06116	-2.83056
7023.325	-12.37200	0.75023	-12.19664	-3.72544
7027.262	-11.74620	-0.08240	-11.54742	-3.92835
7031.366	-12.46722	-0.55139	-12.08864	-2.90071
7035.324	-13.53221	-0.74228	-11.87477	-3.36823
7039.362	-12.49169	-0.73982	-11.72303	-3.94031
7043.263	-12.76425	-0.93764	-11.95812	-3.21860
7047.363	-13.38668	-1.11131	-11.97242	-3.01188
7051.362	-12.80339	-1.27659	-11.92415	-3.45077
7055.325	-12.67955	-1.59312	-12.14186	-3.21914
7059.259	-13.37134	-1.57904	-12.01205	-3.90127
7063.364	-12.70343	-1.84058	-11.69012	-3.38608
7067.358	-12.77676	-1.85489	-11.79075	-5.00400
7071.360	-12.92684	-1.69840	-11.87748	-3.86253
7075.258	-13.29459	-2.04563	-11.69271	-3.88082
7079.356	-12.73649	-1.95796	-11.79565	-3.97946
7083.362	-12.89345	-2.22808	-11.64947	-4.16779
7087.363	-13.18910	-2.24531	-11.34452	-4.82589
7091.262	-12.89223	-2.41435	-11.61759	-4.01588
7095.363	-12.75469	-2.39020	-11.53317	-4.33921
7099.362	-12.93776	-2.60743	-11.52555	-4.33185
7103.325	-12.86765	-2.93378	-11.31209	-4.62242
7107.263	-12.82283	-3.03618	-11.25571	-4.23391
7111.364	-12.86496	-2.92227	-11.44969	-4.26852
7115.370	-12.89371	-3.25048	-11.12226	-4.24558
7119.325	-12.84944	-2.69973	-11.08046	-4.05882
7123.260	-12.83158	-0.54954	-11.10161	-3.67035
7127.363	-12.73883	-2.91788	-11.32820	-3.62880
7131.322	-12.78871	-2.63183	-11.06279	-3.83282
7135.363	-12.80624	-2.48346	-10.95028	-3.12035
7139.260	-12.78654	-1.17276	-10.82081	-2.64495
7143.363	-12.86978	-0.84030	-11.18621	-2.87520
7147.362	-12.88032	-0.68085	-11.20018	-2.77906
7151.363	-13.04879	-2.19554	-11.21025	-2.59998
7155.261	-12.73637	-0.42801	-11.11045	-2.39087
7159.344	-12.93302	-0.41999	-11.18659	-1.61175
7163.364	-12.80568	-0.22588	-11.27799	-1.67250
7167.367	-12.82429	-0.58272	-11.26851	-1.87619
7171.229	-12.19882	-0.37308	-11.15081	-2.39178
7175.363	-10.31922	-0.92955	-9.56142	-2.56324
7179.362	-9.94322	-2.40533	-7.90535	-2.33859
7183.390	-9.24286	-2.62515	-7.82908	-2.22952
7187.366	-8.27178	-2.51101	-7.33337	0.62953
7191.364	-8.04832	-0.73000	-7.45872	0.82658
7195.368	-7.41577	-0.10372	-7.42280	0.89235
7199.359	-6.43920	-0.53413	-9.36032	-1.05917
7203.265	-6.22728	-0.25330	-9.67828	0.49575
7207.372	-4.71789	-0.90335	-4.06663	0.35271
7211.363	-5.53473	-0.76184	-4.21331	0.34157
7215.367	-6.02595	-1.24600	-7.40430	0.15147
7219.265	-8.94191	-1.67553	-7.41897	0.43368
7223.367	-5.86028	2.38811	-7.48131	0.24386
7227.365	-4.19064	1.24033	-6.52211	0.32949
7231.241	-4.09352	1.22220	-7.32314	-0.07342
7235.231	-7.22661	-1.24110	-6.53985	0.32283
7239.202	-7.98359	-1.28832	-6.92736	-2.50726
7243.244	-8.55231	-1.27559	-6.99815	-2.50489
7247.203	-9.23406	-1.27000	-6.74670	-3.38553
7251.231	-8.87292	-1.36080	-6.50278	-3.64615
7255.240	-5.66909	1.71993	-6.18461	-2.91477
7259.243	-6.23655	1.58066	-5.98744	-3.91594
7263.242	-7.60724	-1.20568	-6.60331	-3.18063
7267.232	-7.96675	-1.08283	-8.07402	-4.03754
7271.240	-7.85214	-1.07075	-5.91698	-2.98748
7275.243	-8.51321	-0.60239	-6.46461	-2.84657
7279.240	-8.51785	-1.19725	-6.13505	-3.39167
7283.236	-8.76908	-1.22397	-6.62388	-3.60698
7287.236	-8.79819	-1.11869	-6.03999	-3.64480
7291.233	-8.80180	-1.56183	-5.71224	-3.57594
7295.244	-8.37106	-1.70588	-6.12710	-3.56248
7299.234	-7.99557	-1.33964	-6.56924	-4.09108
7303.242	-8.14312	-1.21359	-7.01396	-4.22554
7307.208	-8.23972	-1.43122	-6.33988	-2.43474
7311.249	-8.57954	-1.74369	-6.44557	-3.68049
7315.207	-8.42194	-1.75607	-6.20131	-3.20321
7319.240	-8.56872	-1.96001	-6.05273	-3.06638
7323.242	-8.77010	-1.88466	-6.01358	-3.35258
7327.242	-8.76321	-1.96383	-6.31093	-3.56992
7331.236	-8.96426	-2.04101	-5.95685	-3.97677
7335.241	-8.66261	-1.99839	-6.06262	-3.72206
7339.245	-8.47104	-2.70565	-6.38133	-3.93574
7343.242	-8.66920	-2.25049	-6.58643	-3.60455
7347.274	-8.74821	-2.78662	-6.50479	-3.54312
7351.241	-8.38041	-2.66412	-6.51474	-3.60008
7355.243	-8.51994	-2.78615	-6.08360	-3.02392
7359.241	-8.59192	-3.26056	-5.98221	-2.89999
7363.236	-8.49758	-3.07340	-6.20168	-3.38492
7367.242	-8.98576	-3.45783	-5.95498	-3.55246
7371.234	-8.59019	-3.55306	-5.65867	-3.41468
7375.205	-8.58342	-3.54808	-5.80312	-3.34462
7379.239	-8.50768	-4.05607	-6.11108	-3.30445
7383.243	-8.58408	-3.75442	-6.51760	-3.05653
7387.243	-8.52901	-4.16229	-6.26441	-3.14247
7391.240	-8.31948	-3.84592	-6.18838	-2.93530
7395.240	-8.35755	-3.83302	-5.96581	-2.68697
7399.242	-8.49685	-3.69911	-5.81024	-2.37218
7403.243	-8.49284	-3.92031	-5.80666	-2.13615
7407.242	-8.56350	-3.99897	-5.62716	-1.79707
7411.236	-8.65378	-4.21341	-5.51787	-2.17817
7415.215	-8.62857	-4.07119	-5.86062	-1.85160
7419.242	-8.41733	-4.14095	-5.92194	-1.85742
7423.244	-8.64798	-4.00940	-6.09327	-1.90237
7427.208	-8.33153	-3.34214	-5.76246	-2.21433
7431.243	-7.39947	-3.78571	-5.55214	-1.61461
7435.245	-6.06480	-3.30617	-4.01146	-2.98293
7439.242	-5.71944	-2.16714	-3.33535	-0.82498
7443.210	-4.41294	-2.19733	-2.32833	-0.92983
7447.245	-4.50234	-1.84954	-0.86746	-1.97773
7451.245	-4.40651	-1.63045	-0.78049	-0.96829
7455.237	-4.10495	-1.46304	-0.98030	-2.71646
7459.240	-4.18632	-1.80934	-1.18825	0.16779
7463.243	-4.13001	-1.81108	-0.51240	0.59827
7467.244	-4.27676	-2.88507	-0.13141	0.37884
7471.242	-4.28498	-3.01825	-0.21445	0.27244
7475.233	-4.43505	-3.36305	-0.20343	-0.05566
7479.243	-4.18507	-1.90627	-0.14245	0.10983
7483.243	-4.11110	-2.39773	-0.04140	-0.40933
7487.244	-4.22283	-0.17818	-0.31841	-0.70465
7491.203	-4.20896	0.14656	-0.08478	-1.12962
7495.246	-4.12591	-0.44973	0.13878	-1.62134
7499.208	-4.08772	-0.18671	-0.41894	-1.40997
7503.244	-4.03522	-0.28208	-0.32005	-1.81179
7507.235	-3.85738	-0.56816	-0.31019	-1.99810
7511.209	-3.86319	-0.40957	-0.59302	-1.98159
7515.243	-3.80648	-0.46399	-0.68459	-2.19439
7519.247	-3.69479	-0.55775	-0.86049	-3.18998
7523.233	-3.46461	-0.79399	-0.95356	-3.26992
7527.244	-3.40650	-0.57311	-0.95638	-2.98410
7531.245	-3.33441	-0.80380	-0.77414	-3.14276
7535.244	-3.42000	-0.82828	-0.73635	-2.82551
7539.238	-3.21881	-0.85246	-0.72235	-2.79758
7543.245	-3.20652	-1.14705	-0.15918	-3.09504
7547.248	-3.24662	-0.97332	-0.65213	-3.04077
7551.249	-3.24556	-1.08719	0.34692	-2.94010
7555.238	-3.81726	-0.89866	-0.83426	-3.01629
7559.245	-3.44614	-0.81764	-0.57731	-2.91257
7563.245	-3.48355	-0.69790	-0.44706	-3.00963
7567.244	-3.44340	-0.54717	-0.15680	-3.00923
7571.267	-3.67044	-0.25547	-0.18546	-2.95885
7575.245	-3.58250	-0.39160	-0.04177	-3.04129
7579.207	-3.60489	-0.23421	0.07661	-3.20837
7583.233	-3.45316	-0.57801	0.03934	-3.25152
7587.211	-3.45846	-0.26795	-0.28466	-3.51193
7591.245	-3.20607	-0.46585	-0.19613	-3.94833
7595.246	-4.03053	-0.50962	0.01760	-4.11116
7599.244	-4.02942	-0.32301	-0.24430	-4.15201
7603.247	-4.12794	-0.35471	0.17003	-5.07463
7607.245	-3.99356	-0.48027	0.05852	-4.78754
7611.249	-4.14589	-0.90425	0.05653	-0.60625
7615.208	-3.81041	-0.96515	0.00196	-0.29078
7619.245	-3.80396	-1.17197	-0.02705	-0.55243
7623.208	-4.03574	-1.64586	-0.13029	-0.44273
7627.247	-4.02332	-2.47549	-0.15280	-0.45826
7631.244	-4.17472	-2.66532	-0.00079	-0.62985
7635.238	-4.12690	-2.81180	0.24574	-0.88353
7639.245	-3.98002	-1.53347	0.11496	-0.98515
7643.248	-3.92223	-0.30307	0.17509	-1.57233
7647.246	-3.90308	-1.08827	-0.11999	-1.91605
7651.246	-3.65062	-0.79043	0.20390	-2.24517
7655.247	-3.68082	-0.82023	-0.04586	-2.61301
7659.254	-3.69837	-0.87387	-0.28026	-3.16644
7663.229	-3.63320	-0.77964	-0.19360	-4.08325
7667.238	-3.56957	-0.98594	-0.29575	-2.96143
7671.245	-3.66100	-1.14635	-0.25215	-3.03737
7675.246	-3.66263	-0.86017	-0.58416	-4.42024
7679.245	-3.75600	-0.87076	-3.99010	-4.39787
7683.237	-4.79440	-0.65803	-1.72540	-3.46995
7687.250	-6.51618	-0.52062	-3.61500	-3.12407
7691.248	-6.79601	0.01517	-3.87033	-2.63022
7695.246	-7.23350	-0.98653	-7.36603	-2.26861
7699.245	-8.40949	0.23906	-5.86398	0.16868
7703.246	-8.78382	0.39874	-6.25382	0.58461
7707.212	-9.30984	0.78845	-7.08128	-2.06267
7711.253	-9.65167	1.50928	-6.79261	-2.61218
7715.271	-9.88995	1.49555	-6.54227	-2.02310
7719.249	-9.22985	1.33079	-8.11175	-2.15964
7723.249	-9.54563	0.52780	-6.81400	-1.83142
7727.214	-10.26028	0.36063	-6.78571	-1.85364
7731.239	-10.21498	0.01137	-6.65360	-1.48608
7735.250	-10.12229	-0.08305	-6.84497	-1.18478
7739.248	-10.26638	0.59720	-6.82300	-1.38942
7743.253	-10.12383	0.58475	-6.79330	-1.13824
7747.242	-10.04543	0.21669	-6.67652	-0.94163
7751.250	-10.03508	0.61214	-6.72212	-1.39482
7755.248	-10.29743	0.04870	-6.55136	-1.26088
7759.249	-10.29375	0.51146	-6.74648	-0.40665
7763.252	-10.26835	0.58338	-7.04376	-0.71789
7767.247	-10.30372	0.56066	-6.82359	-0.14056
7771.248	-10.26345	0.18520	-6.83881	-0.14483
7775.248	-10.21286	0.32215	-7.42927	-0.81466
7779.250	-10.13078	0.38840	-6.89233	0.35968
7783.210	-10.11801	1.13340	-6.73162	0.50105
7787.248	-10.12527	1.88120	-7.25321	0.29403
7791.239	-10.10932	1.19320	-7.04963	0.19315
7795.241	-10.16730	0.79574	-7.48463	0.23299
7799.246	-10.17175	1.09094	-7.23670	0.10753
7803.209	-10.10930	1.09404	-7.17631	-0.18863
7807.251	-10.05556	1.13292	-6.90657	-0.09391
7811.247	-9.98025	1.14250	-6.57573	-0.11422
7815.251	-9.95714	1.18808	-6.77910	-0.24628
7819.251	-9.97057	0.95006	-6.52152	-0.32048
7823.249	-9.93756	1.09946	-7.50142	-0.24484
7827.249	-9.95235	1.19082	-7.72035	0.13745
7831.223	-10.00574	1.24774	-8.38913	-0.21520
7835.251	-10.15841	1.33841	-8.03129	0.34221
7839.250	-11.15391	1.95776	-8.70379	1.58028
7843.254	-15.52145	3.68800	-5.81329	3.71441
7847.251	NaN	NaN	-11.80169	6.86327
7851.210	NaN	NaN	-14.20159	12.44264
7855.251	NaN	NaN	NaN	NaN
7859.248	NaN	NaN	NaN	NaN
7863.245	NaN	NaN	NaN	NaN
7867.250	NaN	NaN	NaN	NaN
7874.616	NaN	NaN	NaN	NaN
7883.250	NaN	NaN	NaN	NaN
7887.252	NaN	NaN	NaN	NaN
7891.247	NaN	NaN	NaN	NaN
7895.248	NaN	NaN	NaN	NaN
7899.251	NaN	NaN	NaN	NaN
7903.252	NaN	NaN	NaN	NaN
7907.248	NaN	NaN	NaN	NaN
7911.217	NaN	NaN	NaN	NaN
7915.213	NaN	NaN	NaN	NaN
7919.250	NaN	NaN	NaN	NaN
7923.248	NaN	NaN	NaN	NaN
7927.207	NaN	NaN	NaN	NaN
7931.251	NaN	NaN	NaN	NaN
7935.252	NaN	NaN	NaN	NaN
7939.252	NaN	NaN	NaN	NaN
7943.214	NaN	NaN	NaN	NaN
7947.252	NaN	NaN	NaN	NaN
7951.250	NaN	NaN	NaN	NaN
7955.252	NaN	NaN	NaN	NaN
7959.213	NaN	NaN	-1.09557	11.91750
7963.251	NaN	NaN	-1.71228	11.67895
7967.251	NaN	NaN	0.33017	5.44387
7971.253	-20.27093	7.71388	-1.31535	9.05801
7975.252	-20.02547	-12.07506	-0.10366	6.36019
7979.256	-20.02525	-12.07507	-3.74231	6.64077
7983.252	-20.02488	-12.07510	-0.41008	5.34464
7987.248	-20.02438	-12.07514	-1.49088	6.70156
7991.250	-20.02372	-12.07519	-7.65546	4.57000
7995.241	-20.02293	-12.07525	-0.03115	2.78325
7999.243	-3.21602	-1.65948	2.23001	2.05314
8003.251	-5.86907	3.61540	-7.12322	3.04498
8007.253	-6.20133	3.29902	0.28436	2.35898
8011.250	-5.37800	3.37187	0.26361	2.21658
8015.255	-4.80024	3.91656	0.23299	2.66997
8019.252	-5.45703	5.59997	0.14091	2.52028
8023.152	-4.83124	4.61778	-2.64064	4.57536
8027.249	-4.39005	7.31914	-3.13501	3.96568
8031.255	-4.24018	7.00001	-3.40497	4.24380
8035.253	-4.38048	5.91570	0.23400	3.05078
8039.153	-4.42572	6.44550	0.18524	2.95486
8043.254	-4.21123	5.67895	-0.02881	3.11542
8047.252	-4.22202	5.39030	-0.50026	3.50622
8051.251	-4.39123	5.90130	-0.37812	2.75057
8055.254	-4.32286	5.48843	-2.50432	3.30684
8059.251	-4.41946	5.64418	-3.41597	3.83346
8063.252	-4.36192	5.55372	-3.53335	4.38562
8067.251	-4.35496	5.55350	-0.65531	4.36283
8071.258	-4.50338	5.50765	-0.68245	4.39217
8075.254	-4.52777	5.48454	-1.11025	4.77409
8079.237	-4.58540	5.42205	-2.69695	5.03768
8083.249	-4.88434	5.38517	-0.80459	4.93987
8087.149	-5.08274	5.32158	-0.94586	5.27656
8091.253	-5.45553	5.21941	-0.60712	4.99473
8095.257	-5.22495	5.13114	-0.43748	5.20953
8099.248	-5.15285	4.89206	-0.42306	5.16321
8103.149	-5.23268	4.65699	-1.85740	5.42118
8107.252	-5.21080	4.92196	-0.13009	5.13376
8111.256	-5.20418	5.04549	-0.78466	4.85053
8115.254	-5.26472	4.84705	-1.48372	5.14490
8119.154	-5.12435	4.84085	-1.95195	5.35888
8123.216	-5.24949	4.79496	-1.84376	5.14450
8127.252	-5.14828	4.65082	-1.83690	5.08618
8131.212	-5.01898	4.41210	-2.16872	5.10745
8135.256	-4.67786	4.63502	-2.38861	5.08231
8139.254	-4.65957	4.79228	-2.40848	4.51842
8143.251	-4.77320	4.74608	-2.84831	5.00929
8147.256	-4.68932	4.66376	-3.26191	4.95002
8151.256	-4.79657	4.75121	-2.92106	4.45538
8155.256	-4.80613	4.56793	-2.86059	4.84861
8159.255	-4.89789	4.40274	-2.93549	5.04981
8163.253	-5.07503	4.34590	-1.47960	4.82757
8167.147	-5.16575	4.09885	-1.73906	4.74803
8171.254	-5.53530	4.08073	-0.37551	4.49954
8175.253	-5.99905	4.34258	-0.61890	4.54026
8179.253	-5.94902	4.39037	-0.74603	4.78660
8183.152	-5.50690	4.32625	-0.85287	3.93971
8187.255	-5.22306	4.36524	-2.24111	4.20769
8191.255	-4.49649	4.44213	-2.42644	0.82380
8195.257	-4.55038	4.73267	-2.08944	2.53859
8199.261	-4.50229	4.62210	-0.83158	3.08383
8203.244	-4.58737	4.78911	-0.83642	2.90455
8207.254	-4.40103	4.68324	-1.27852	4.15124
8211.257	-4.37285	4.88760	-2.08468	4.04539
8215.156	-4.36101	4.91491	-1.90138	3.97753
8219.255	-4.27844	5.07716	-2.08121	4.02215
8223.257	-4.09068	4.80984	-1.93232	4.02380
8227.255	-4.18465	4.99627	-1.79024	4.42884
8231.151	-3.93581	4.76159	-1.41501	4.52273
8235.257	-3.84248	5.04889	-1.25758	4.77387
8239.255	-3.61565	5.06822	-0.65627	5.31485
8243.215	-3.54776	4.85183	0.75593	5.52873
8247.156	-3.35934	4.91295	0.96494	5.72380
8251.257	-3.28192	4.67038	-0.64895	6.29426
8255.254	-3.24927	4.88140	-1.31213	6.46404
8259.219	-3.08367	4.65796	-0.95988	6.60196
8263.124	-3.12576	4.83759	-1.13923	6.78080
8267.129	-3.14642	4.74532	-1.02498	7.04469
8271.131	-3.10487	4.77543	-0.94636	6.98345
8275.133	-3.17507	4.90651	-0.77990	7.04753
8279.259	-3.17794	4.90319	-0.86029	6.85859
8283.132	-3.22064	4.77800	-1.22474	6.94460
8287.132	-3.31098	4.98494	-0.82057	6.91466
8291.094	-3.31130	4.69412	-1.31270	7.10856
8295.125	-3.58776	4.74328	-0.69317	7.07718
8299.132	-3.60062	4.91061	-0.58486	7.00719
8303.134	-3.67371	4.69143	-0.83550	7.04837
8307.131	-3.73364	4.85777	-0.70134	6.87493
8311.155	-3.57995	4.84210	-1.00154	6.80639
8315.139	-3.61149	4.59074	-0.77379	6.58782
8319.132	-3.60877	4.63032	-1.00826	6.38215
8323.133	-3.63315	4.64764	-1.13973	6.34693
8327.128	-3.56539	4.90728	-1.16530	6.24182
8331.131	-3.60398	4.72852	-1.26314	6.39523
8335.132	-3.67296	5.09462	-1.37908	6.13094
8339.132	-3.62598	5.00883	-1.39919	6.19952
8343.097	-3.61928	5.13785	-1.11829	6.08794
8347.134	-3.66782	5.23198	-1.19222	6.09427
8351.134	-3.66063	5.40716	-1.34408	5.99459
8355.135	-3.83398	5.32497	-0.58994	6.00420
8359.154	-4.06705	5.50169	-0.40139	6.00547
8363.131	-4.20513	5.52430	0.28627	5.93493
8367.134	-4.24771	5.47195	0.49575	5.95489
8371.136	-4.14221	5.36871	0.59401	5.93377
8375.146	-4.19089	5.40181	-0.22934	6.02366
8379.121	-4.35642	5.60544	-0.69166	6.04470
8383.133	-4.24302	5.38816	-0.57967	6.25626
8387.132	-4.29147	5.37569	-0.79481	6.12836
8391.132	-4.32323	5.55149	-0.99688	6.59566
8395.133	-4.32923	5.46516	-0.98206	6.92246
8399.134	-4.24048	5.45459	-1.34383	7.19486
8403.131	-4.10421	5.27227	-0.46113	6.23593
8407.124	-4.15791	5.26184	-0.50520	6.16651
8411.133	-4.07653	5.44201	-0.89158	6.20311
8415.138	-3.96353	5.23850	-0.79704	6.38593
8419.099	-3.75126	5.32936	-0.84803	6.52077
8423.100	-3.92062	5.18273	-1.00742	5.44121
8427.133	-3.49483	5.13345	-0.99779	4.92523
8431.136	-3.13751	4.90700	-0.29252	5.50459
8435.137	-2.89247	4.67016	-0.77027	4.87751
8439.131	-3.03452	4.99361	-0.81657	4.83211
8443.132	-2.94666	4.65894	-0.40594	5.23708
8447.131	-3.01650	4.44698	-0.72476	6.80742
8451.134	-3.04217	4.36051	-0.69221	6.92579
8455.126	-3.37816	4.43509	-0.48535	6.91083
8459.114	-3.56808	4.43326	-0.39060	6.75990
8463.134	-4.03737	4.31624	-0.60650	6.54837
8467.134	-4.13547	4.45611	-0.43636	6.32904
8471.133	-4.41252	4.48199	-0.87905	5.68327
8475.132	-4.51603	4.46363	-0.50840	5.79535
8479.136	-4.92341	4.70618	-0.85476	5.43853
8483.134	-5.50928	4.76423	-0.92187	5.95963
8487.127	-5.69512	4.87925	-1.16907	5.47100
8491.093	-4.26408	6.74198	-0.82168	5.30068
8495.131	-4.35351	6.37898	-1.54934	5.31801
8499.130	-4.32767	6.87234	-1.43057	4.79581
8503.125	-4.30430	6.68862	-1.24312	4.59078
8507.136	-4.13747	6.22324	-1.35829	4.47973
8511.137	-4.05917	6.49310	-1.53240	4.05633
8515.142	-4.08167	6.60665	-1.50294	3.87965
8519.159	-3.67586	6.37074	-1.65473	3.95762
8523.097	-3.98435	6.56751	-1.66844	3.42568
8527.133	-3.54178	6.46361	-1.74489	3.67373
8531.136	-3.59906	6.35575	-1.87094	3.58594
8535.128	-3.62430	6.20459	-1.61681	2.95236
8539.134	-3.71098	6.20823	-1.37064	3.52795
8543.135	-3.54200	6.00635	-1.29539	3.44333
8547.134	-3.43984	5.97056	-1.46564	3.42633
8551.163	-3.52811	5.80561	-0.53855	3.38053
8555.134	-3.61577	5.93541	-0.76600	3.14165
8559.136	-3.44406	6.00194	-0.52987	3.01021
8563.131	-3.61604	5.92548	-0.47679	2.98174
8567.128	-3.51748	5.89369	-0.74213	3.09299
8571.139	-3.60786	5.84335	-0.41775	2.96989
8575.138	-3.63085	5.91368	-0.26245	2.88270
8579.135	-3.68124	6.06054	-0.27609	2.92443
8583.094	-3.73616	6.12082	-0.13871	2.98418
8587.132	-4.03083	6.11262	-0.42949	3.01528
8591.139	-10.01166	3.59861	6.57788	4.74676
8595.137	NaN	NaN	-0.22239	5.53830
8599.126	NaN	NaN	NaN	NaN
8603.134	NaN	NaN	NaN	NaN
8607.134	NaN	NaN	NaN	NaN
8611.134	NaN	NaN	NaN	NaN
8615.135	NaN	NaN	NaN	NaN
8619.107	NaN	NaN	NaN	NaN
8623.101	NaN	NaN	NaN	NaN
8627.136	NaN	NaN	NaN	NaN
8631.134	NaN	NaN	NaN	NaN
8635.134	NaN	NaN	NaN	NaN
8639.137	NaN	NaN	NaN	NaN
8643.138	NaN	NaN	NaN	NaN
8647.134	NaN	NaN	NaN	NaN
8651.135	NaN	NaN	NaN	NaN
8655.134	NaN	NaN	NaN	NaN
8659.136	NaN	NaN	NaN	NaN
8663.139	NaN	NaN	NaN	NaN
8667.126	NaN	NaN	NaN	NaN
8671.132	NaN	NaN	NaN	NaN
8675.092	NaN	NaN	NaN	NaN
8679.137	NaN	NaN	NaN	NaN
8683.168	NaN	NaN	NaN	NaN
8687.136	NaN	NaN	NaN	NaN
8691.100	NaN	NaN	NaN	NaN
8695.138	NaN	NaN	NaN	NaN
8699.135	NaN	NaN	NaN	NaN
8703.137	NaN	NaN	NaN	NaN
8707.133	NaN	NaN	NaN	NaN
8711.099	NaN	NaN	-2.51054	4.72173
8715.128	NaN	NaN	-1.99892	6.60652
8719.142	NaN	NaN	-2.94634	2.02865
8723.101	NaN	NaN	2.74160	4.96410
8727.138	NaN	NaN	-1.23630	3.23923
8731.164	NaN	NaN	-1.27195	2.97337
8735.138	NaN	NaN	-2.33990	4.82714
8739.137	NaN	NaN	-2.70376	5.52279
8743.100	NaN	NaN	-1.12224	3.01192
8747.135	7.95733	-1.24000	-0.90279	3.80390
8751.113	9.85377	4.30812	-2.90789	4.27440
8755.169	NaN	NaN	-0.42497	7.05974
8759.136	-11.27152	-0.24818	-2.22280	5.70806
8763.101	-9.48763	-1.22243	-0.60429	5.25794
8767.141	-7.80182	0.03848	0.00839	5.33029
8771.139	-5.24617	8.52529	6.88900	4.88512
8775.128	-7.39188	9.07950	3.57543	4.46379
8779.138	-5.36353	8.94241	-0.71005	4.73186
8783.141	-7.11239	3.76809	-1.45170	4.65204
8787.142	-6.82373	3.85038	-0.43452	4.99718
8791.145	-6.92127	3.87469	0.26535	5.32726
8795.132	-5.79008	5.01534	-0.50763	5.35686
8799.139	-2.30667	3.96061	-0.83218	4.82094
8803.139	-2.45218	4.20125	0.91182	4.76101
8807.108	-2.44601	4.10327	0.85945	5.01255
8811.141	-2.44791	4.18445	1.12482	4.49025
8815.140	-2.49971	4.09298	0.97914	5.05484
8819.141	-2.44727	4.16966	0.83056	4.77619
8823.131	-2.32384	4.07960	0.83230	4.80298
8827.140	-2.28380	4.30507	1.03531	4.86517
8831.140	-1.76896	4.18095	1.02062	5.04612
8835.105	-1.09192	4.32312	1.29616	4.78339
8839.133	-0.34255	6.09803	1.29238	4.94125
8843.141	-0.12865	5.51388	1.36365	4.72634
8847.141	-0.22636	6.45647	1.39877	4.97970
8851.142	0.11970	6.77879	1.48002	4.98844
8855.138	-1.89501	5.65704	1.66614	5.08045
8859.140	-2.04270	4.33255	1.65371	5.17244
8863.139	-1.93638	2.22181	1.60610	5.46443
8867.139	-1.89513	2.54905	1.53136	4.78846
8871.143	-1.79443	2.72088	1.13620	2.43027
8875.118	-1.81466	2.99763	1.72607	2.40699
8879.136	-1.67521	2.84242	1.75347	2.58520
8883.141	-1.66658	2.29937	1.25342	1.74455
8887.143	-1.78302	2.60761	1.40175	0.56280
8891.144	-1.78746	2.77055	1.26872	1.61872
8895.144	-1.72865	2.59562	1.43630	1.22107
8899.153	-1.70231	2.56610	1.22871	1.00690
8903.139	-1.64052	2.55213	1.28683	1.52124
8907.140	-1.65017	2.56754	1.28105	1.52681
8911.142	-1.58368	2.63210	1.07039	1.52958
8915.137	-1.59214	2.62450	1.31210	1.46974
8919.149	-1.63038	2.74381	1.37181	1.48932
8923.140	-1.62810	2.86677	0.60280	1.29961
8927.142	-1.68548	3.28272	0.64886	1.45051
8931.138	-1.77481	3.06390	0.85957	1.46542
8935.133	-1.68287	3.23740	0.35978	1.44238
8939.143	-1.77643	3.52002	0.30123	1.63933
8943.140	-1.79770	3.51265	0.18894	1.56147
8947.140	-1.52880	3.37160	0.25828	1.67171
8951.040	-1.70021	3.95372	0.13665	1.74781
8955.142	-1.57486	3.84298	0.08969	1.97194
8959.142	-1.62487	3.86719	0.09962	2.16914
8963.143	-1.55006	4.44612	0.06326	2.64138
8967.040	-1.82185	4.08811	0.04271	2.32614
8971.142	-2.34624	4.70578	0.12503	2.98753
8975.143	-2.27575	4.29305	0.22358	2.98167
8979.142	-2.31450	4.61514	0.87451	2.89959
8983.144	-1.79294	4.99388	0.58022	3.01157
8987.141	-1.88202	5.14491	1.15007	3.49634
8991.146	-2.76270	4.21135	0.77580	3.83037
8995.142	-2.54011	4.03713	0.88470	3.87753
8999.102	-2.67078	3.93553	1.32188	3.97161
9003.130	-2.76990	5.05351	0.91872	3.84210
9007.103	-2.76218	4.00672	0.94966	4.05599
9011.120	-2.68487	4.32978	0.97385	4.01423
9015.040	-2.84343	4.30707	0.91272	4.20124
9019.146	-2.88992	3.85788	1.01501	4.17243
9023.106	-2.88430	3.63315	1.07031	4.27040
9027.142	-2.84596	3.45335	0.88446	4.27207
9031.040	-2.89807	2.94108	0.82106	4.32875
9035.141	-2.83393	3.37551	0.88086	4.34177
9039.142	-2.78533	2.05006	0.91530	4.42571
9043.109	-2.70877	2.69919	0.82885	4.42344
9047.020	-2.72771	2.11101	0.85826	4.61589
9051.144	-2.60334	1.93827	0.87709	4.61033
9055.142	-2.64782	2.31482	0.91433	4.67098
9059.107	-2.59879	2.07836	0.93532	4.65311
9063.044	-2.56433	2.22968	0.94413	4.78433
9067.142	-2.47653	2.33974	0.95460	4.78782
9071.139	-2.38058	2.33403	0.94519	4.84771
9075.107	-2.41908	1.99246	0.97529	4.85275
9079.148	-2.38608	2.17747	0.94222	4.93106
9083.125	-2.23660	2.20788	0.91840	4.89573
9087.144	-2.28427	2.03483	0.89294	4.93838
9091.143	-2.18168	2.28303	0.80404	4.96853
9095.042	-2.18035	2.30825	0.88091	4.95938
9099.146	-2.08917	2.30422	1.00700	4.86664
9103.146	-1.98142	2.58075	0.94634	4.73777
9107.145	-1.92877	2.39898	1.17272	4.60036
9111.042	-1.92094	2.49592	1.22605	4.55885
9115.144	-1.91107	2.38812	0.91061	4.59439
9119.110	-1.80286	2.36489	0.90527	4.53688
9123.140	-1.74278	2.43409	1.38022	4.67541
9127.041	-1.71570	2.38300	0.87148	4.53460
9131.109	-1.51100	2.38026	0.86386	4.46023
9135.141	-1.50309	2.42109	0.97993	4.54663
9139.144	-1.46276	2.39197	0.91996	4.70938
9143.110	-1.48265	2.30875	0.87954	5.03341
9147.144	-1.57860	2.33421	0.91664	5.20545
9151.144	-1.37915	2.28169	0.83558	5.47936
9155.146	-1.56605	2.27290	0.77761	5.42620
9159.040	-1.41888	2.28347	0.80521	5.54459
9163.146	-1.39951	2.27557	0.78970	5.94263
9167.123	-1.60456	2.36858	0.75417	5.98704
9171.144	-1.52707	2.50613	-1.30442	3.92397
9175.146	-1.58420	2.51925	-1.68429	4.11887
9179.147	-1.62986	2.69083	-1.30218	5.20973
9183.147	-1.72408	2.96890	-1.49941	4.82395
9187.108	-1.84828	3.05145	-1.53324	1.98538
9191.044	-1.85423	2.94612	-1.57967	2.87333
9195.145	-1.86898	3.32156	-1.61240	2.81119
9199.148	-1.82172	3.26090	-1.24840	2.78202
9203.148	-1.80353	3.46419	0.87235	0.95602
9207.049	-1.88574	3.70741	0.80838	1.59857
9211.107	-1.83687	3.48239	0.41115	1.45231
9215.143	-1.91972	3.53364	0.55744	1.80995
9219.152	-2.65607	3.84053	-0.54925	2.03144
9223.146	-3.75798	3.71237	-1.69778	1.82130
9227.146	-5.93743	4.14792	-1.56037	1.65316
9231.145	-4.53768	3.09197	-1.76500	1.31205
9235.147	-4.60801	3.42664	-1.91997	1.14418
9239.146	-5.04147	2.44451	-1.65664	1.77362
9243.143	-5.02718	2.52748	-1.52397	1.58022
9247.150	-5.00154	2.37001	-2.06285	2.57623
9251.146	-5.03093	2.70868	-2.57600	2.36300
9255.023	-4.81567	2.48768	-2.48203	1.94024
9259.147	-4.61410	3.15542	-2.78812	1.88726
9263.146	-4.68343	3.27994	-2.87044	1.98925
9267.145	-4.73808	2.65582	-2.97824	1.96894
9271.147	-5.20127	2.84849	-2.97344	1.81994
9275.150	-5.49812	2.85357	-3.03888	2.80402
9279.109	-5.71944	2.72726	-2.77193	2.88981
9283.148	-5.77944	3.26130	-2.89200	4.95077
9287.151	-5.74959	3.38379	-2.48252	5.33140
9291.102	-5.78168	3.28371	-2.02577	4.94224
9295.013	-5.78627	3.29063	-1.85787	4.92443
9299.010	-5.72809	3.20074	-2.31817	4.77226
9303.016	-5.78890	3.64096	-2.02277	5.03112
9306.984	-5.90583	3.47358	-2.57110	4.78899
9311.019	-5.89596	3.48017	-2.39099	4.67949
9315.026	-5.78467	3.96515	-2.32972	4.45333
9319.022	-5.75097	3.78245	-2.29795	4.65336
9323.024	-5.68391	3.67637	-2.28705	4.57963
9327.025	-5.64432	3.78699	-2.19093	4.47392
9331.022	-5.59664	3.74541	-2.30365	4.47175
9335.020	-5.59504	3.73624	-2.36911	4.58415
9339.022	-5.56519	3.83384	-2.37602	4.55926
9343.023	-5.63011	3.80272	-2.46362	4.42753
9347.024	-5.65479	3.74196	-2.41767	4.47867
9351.023	-5.59715	3.77301	-2.41246	4.42365
9355.024	-5.63525	3.81866	-2.18154	4.55748
9359.022	-5.70345	3.75425	-1.87961	4.58148
9363.023	-5.70448	3.81220	-1.44736	4.58751
9367.043	-5.76151	3.76212	-1.60231	4.59683
9371.023	-5.72642	3.84075	-1.80395	4.63066
9375.027	-5.78185	3.86526	-1.63211	4.62147
9379.021	-5.82194	3.87727	-1.95812	4.56935
9383.048	-5.85477	3.89269	-1.72113	4.49447
9387.024	-5.80970	3.66111	-1.43791	4.57067
9391.023	-5.69598	3.66571	-1.68920	4.56697
9395.023	-5.76013	3.84934	-1.42938	4.58622
9399.045	-5.87705	3.94322	-1.51980	4.53005
9403.021	-5.60089	3.90675	-1.52131	4.51536
9407.025	-5.64653	3.72527	-1.53505	4.54016
9411.023	-5.56942	3.99862	-1.61761	4.54865
9414.990	-5.54786	4.03517	-1.65200	4.53522
9419.026	-5.59113	3.88973	-1.73651	4.51727
9422.987	-5.48032	3.78504	-1.74841	4.37736
9427.040	-5.58729	3.69693	-1.74871	4.36180
9431.044	-5.53790	3.71663	-1.93103	4.33546
9435.024	-5.60246	3.67184	-1.75208	3.89304
9439.023	-5.57208	3.63676	-1.82170	3.33627
9443.023	-5.43689	3.51694	-2.02126	4.01071
9447.023	-5.56337	3.46149	-1.86533	3.42730
9451.021	-5.51496	3.55773	-2.11901	3.24071
9455.023	-5.50992	3.43588	-1.96600	3.15449
9459.027	-5.53513	3.42868	-1.92612	3.27959
9463.023	-5.47665	3.35783	-1.72691	3.01536
9467.027	-5.53232	3.32247	-1.74030	3.15675
9471.023	-5.54619	3.33124	-1.78882	3.15343
9475.025	-5.65803	3.48838	-2.15507	3.08007
9479.022	-6.52069	3.52131	-1.63110	3.47148
9483.025	-11.21649	3.60386	1.48692	3.18134
9487.023	-11.40128	3.60562	-0.34402	3.10818
9490.986	NaN	NaN	-3.23524	4.64247
9495.021	NaN	NaN	NaN	NaN
9499.049	NaN	NaN	NaN	NaN
9503.012	NaN	NaN	NaN	NaN
9507.025	NaN	NaN	NaN	NaN
9511.022	NaN	NaN	NaN	NaN
9515.021	NaN	NaN	NaN	NaN
9519.021	NaN	NaN	NaN	NaN
9522.989	NaN	NaN	NaN	NaN
9527.018	NaN	NaN	NaN	NaN
9531.025	NaN	NaN	NaN	NaN
9535.024	NaN	NaN	NaN	NaN
9539.027	NaN	NaN	NaN	NaN
9542.994	NaN	NaN	NaN	NaN
9546.996	NaN	NaN	NaN	NaN
9551.013	NaN	NaN	NaN	NaN
9554.988	NaN	NaN	NaN	NaN
9559.026	NaN	NaN	NaN	NaN
9563.025	NaN	NaN	NaN	NaN
9567.051	NaN	NaN	NaN	NaN
9570.987	NaN	NaN	NaN	NaN
9575.028	NaN	NaN	NaN	NaN
9578.986	NaN	NaN	-2.45215	12.33656
9583.053	NaN	NaN	NaN	NaN
9587.025	NaN	NaN	-3.61614	6.55245
9591.028	NaN	NaN	1.58182	8.83704
9595.028	NaN	NaN	-0.27622	7.21943
9599.054	NaN	NaN	-2.14778	8.75526
9603.027	NaN	NaN	-0.95041	2.54997
9607.024	NaN	NaN	1.10631	1.20848
9611.026	9.47966	-1.02666	4.56173	5.88864
9614.989	-5.66504	-4.46882	2.50885	5.47127
9619.024	-5.58754	-4.12697	-0.61903	0.71125
9623.030	-7.98943	-1.83786	-1.51367	0.76373
9627.028	-3.61775	0.72389	1.99867	4.40086
9631.027	-11.73559	0.18972	-0.49423	1.04304
9635.030	-8.70553	0.81300	2.27003	4.24701
9638.987	2.34468	5.49014	1.86806	4.74064
9643.026	2.51178	4.60133	2.08471	5.04044
9647.027	-1.81562	5.11295	2.11428	4.74904
9651.027	-0.72553	5.32194	2.23578	4.71980
9655.021	-5.72841	4.05739	1.81525	2.59825
9659.028	-2.32612	3.50367	2.06138	3.34590
9663.028	-1.71399	3.45804	0.41048	4.63808
9667.029	-2.55212	4.35678	3.74936	1.80348
9671.049	-2.80337	3.58950	0.47882	2.30200
9675.025	-2.92941	3.57345	1.89627	2.35125
9678.987	-2.81707	3.40709	0.49885	2.55152
9683.026	-3.07884	3.44862	1.86528	2.69706
9687.018	-3.18903	3.42737	0.10808	3.48295
9691.026	-3.21782	3.53960	-1.15019	2.56523
9695.028	-2.93822	3.58989	1.51112	2.77108
9699.027	-2.99111	3.50545	0.07664	2.51004
9703.021	-2.35070	3.64554	0.52294	2.85745
9707.028	-2.74457	3.68626	-0.09322	2.52956
9711.015	-2.54343	3.62900	-0.11572	2.89231
9715.019	-2.43330	3.66644	-0.54508	2.65475
9719.021	-2.44839	3.80543	-0.31637	2.76861
9723.035	-2.29929	3.76649	-0.39142	2.62610
9727.027	-2.22163	3.86090	0.06559	2.24107
9731.029	-2.20966	3.86758	-0.11749	1.73153
9735.027	-2.27848	3.97245	-0.15881	2.21886
9739.028	-2.25890	4.34909	0.03102	1.41708
9743.029	-2.23214	4.13003	-0.15444	1.73361
9746.989	-2.19544	3.98689	-0.13908	1.45559
9751.020	-2.18409	4.22832	-0.39896	1.36132
9755.001	-2.24839	4.24999	-0.23676	1.17929
9759.029	-2.23149	4.35705	-0.28778	1.11088
9763.032	-2.24215	4.41959	-0.04579	1.15240
9767.023	-2.22213	4.55129	0.21142	1.38536
9771.029	-2.30652	4.78445	-0.30401	1.17200
9775.026	-2.36321	4.67134	-0.17946	1.33872
9779.029	-2.33940	4.59962	0.00409	1.15523
9783.029	-2.23732	4.74500	-0.15685	1.24983
9787.028	-2.18726	4.59953	-0.11324	1.16092
9791.032	-2.31004	4.63445	-0.27612	1.38076
9795.012	-2.26581	4.55624	-0.44534	1.29354
9799.029	-2.25417	4.75711	0.08671	1.34379
9803.029	-2.33631	4.73178	0.19732	1.38444
9807.028	-2.30509	4.65622	0.05671	1.48043
9811.030	-2.30543	4.75716	0.01482	1.35932
9815.028	-2.28809	4.68666	-0.00338	1.33992
9819.028	-2.21179	4.72950	-0.16094	1.44233
9823.030	-2.88977	4.79167	-0.23716	1.54811
9827.029	-2.91490	4.77086	-0.19363	1.43406
9831.032	-2.99193	4.77361	-0.21336	1.58767
9835.031	-3.13286	4.82561	-0.03534	1.65437
9838.992	-2.70171	4.90513	-0.00697	1.54954
9843.031	-2.38942	4.93219	2.74977	0.98277
9847.029	-1.83957	4.60818	3.01304	0.71205
9851.032	1.09046	2.95394	2.81962	0.66428
9855.032	0.97249	2.30351	4.65809	0.72150
9859.033	1.11874	2.64023	5.93672	2.41016
9863.040	2.19576	1.77008	6.20222	1.10251
9867.030	1.75803	1.35979	6.28935	1.43119
9871.028	1.86446	1.51787	5.85278	1.82609
9875.031	2.04909	1.77965	5.22719	1.58976
9879.031	1.51891	1.84267	6.17806	1.82492
9883.030	1.86885	2.07634	6.96049	1.82600
9887.028	2.00710	1.67675	6.38851	1.66456
9891.032	1.38895	2.32494	6.62508	1.91653
9895.035	1.45978	2.03688	6.55675	1.97215
9899.033	1.76329	2.28281	6.66097	1.84339
9903.029	1.15729	2.39854	6.80529	1.70014
9907.030	0.74263	2.64359	6.53360	1.76834
9911.030	0.65392	2.63018	6.76970	1.76974
9915.031	0.39112	2.82354	6.60507	1.66877
9919.021	0.69097	2.77274	6.72807	1.71715
9923.026	0.47140	2.74937	7.33691	1.87140
9927.034	0.54927	2.81416	6.72357	1.56791
9931.030	0.50121	2.76641	7.38842	1.75860
9935.031	0.64426	2.67600	6.57389	1.57125
9939.029	0.59332	2.64751	7.36965	1.68151
9943.030	0.68590	2.70248	6.59922	1.75889
9947.030	0.71543	2.56845	6.65279	1.72730
9951.030	0.68131	2.52839	8.15248	1.54195
9955.032	0.81354	2.58540	7.64883	1.27021
9959.005	0.79635	2.47114	7.55396	1.20031
9963.004	0.81255	2.40020	6.23182	-0.15288
9967.037	0.86290	2.33196	6.09859	-3.54458
9971.032	0.94969	2.35281	6.79462	-3.24243
9974.930	0.94978	2.38741	5.98297	-3.53189
9979.034	1.02888	2.24545	5.89203	-3.61483
9983.034	1.03374	2.12850	5.99713	-3.66844
9987.032	1.11306	2.13087	5.83029	-3.56389
9991.025	1.25748	2.04993	5.84060	-3.21289
9995.031	1.26304	1.97308	6.14997	-3.44270
9999.036	1.33388	1.95124	6.16837	-3.19764
10003.016	1.88209	1.78799	5.93227	-2.86549
10007.038	2.29775	1.65589	5.89259	-2.91966
10011.032	1.57689	1.92411	5.96834	-2.49789
10015.034	1.41735	1.88720	5.85062	-2.48231
10019.034	1.71932	1.79192	5.95258	-2.78422
10022.998	1.73403	1.78427	6.10043	-2.35132
10027.035	1.94372	1.88453	5.95164	-2.73173
10031.032	1.97007	1.90849	5.99745	-2.33230
10035.035	2.01241	1.88086	6.29440	-2.24314
10038.930	1.90247	1.93457	6.26294	-2.33563
10043.034	2.01692	1.86647	6.04676	-2.11286
10046.998	1.94533	1.90956	6.31708	-2.25423
10051.034	2.03380	1.93628	6.21941	-2.06074
10054.933	1.87004	1.97412	6.13611	-2.08179
10059.035	1.94156	1.93807	6.56929	-2.19346
10063.033	1.92161	1.96312	6.39959	-2.08609
10067.036	1.68704	1.88155	6.34214	-2.07903
10071.037	1.76757	1.88070	6.49362	-2.20851
10075.034	1.57867	1.86932	6.18703	-1.99714
10079.031	1.43205	1.91878	5.91766	-2.41730
10083.037	1.49500	1.69272	6.02818	-1.13923
10086.936	0.64283	1.55190	5.83429	-0.87731
10091.034	-1.32637	1.39734	4.20642	-0.08191
10095.023	-2.15621	-1.27318	0.42844	0.72566
10099.031	-2.97416	-0.95561	0.09036	-2.64458
10102.933	-3.22967	-0.02697	-1.30419	-0.87348
10107.035	-4.02416	1.18757	-1.08869	-0.30047
10111.035	-4.41608	1.97406	-2.08860	-0.93956
10115.035	-4.38689	1.09946	-3.36668	-1.10850
10118.932	-4.74627	1.14701	-3.29377	-1.07335
10123.037	-4.59361	1.28559	-1.82698	-0.79884
10127.025	-4.82328	1.41756	-2.34086	-1.12463
10130.991	-4.88151	1.24974	-1.79822	-0.85554
10135.039	-4.82949	1.28213	-1.76500	-0.79209
10139.034	-4.84797	0.61463	-1.74159	-1.07137
10143.036	-4.91760	0.72105	-1.51749	-1.02230
10147.034	-4.91388	1.17299	-1.22863	-0.82750
10150.933	-4.88264	0.83080	-2.06709	-0.96586
10155.031	-4.87076	0.78987	-1.83387	-0.98852
10159.038	-4.88387	1.01563	-1.51491	-0.96784
10163.037	-4.87796	0.68461	-1.21117	-0.89812
10166.938	-4.85408	0.37763	-1.66909	-0.61009
10171.009	-4.80544	0.58332	-1.67355	-0.90743
10175.036	-4.74952	0.57054	-1.68540	-0.77585
10179.034	-4.70177	0.52095	-1.55571	-0.54274
10182.944	-4.55297	0.31218	-1.81736	-0.85347
10186.998	-4.52335	0.19203	-1.26882	-0.75442
10191.037	-4.50769	-0.13897	-1.64015	-0.54018
10195.034	-4.52876	-1.36773	-1.24992	-0.43261
10199.040	-4.52841	-0.98529	-1.53451	-0.72982
10203.038	-4.56609	-0.77640	-1.74005	-0.37790
10207.040	-4.59874	-1.25201	-1.71094	-0.16078
10211.018	-4.51282	-1.12112	-1.69946	-0.82283
10214.929	-4.50631	-1.10003	-1.56305	-2.80534
10219.037	-4.62468	-1.22827	-1.54009	-0.79277
10222.998	-4.65501	-1.19012	-1.14895	-2.24050
10227.038	-4.69773	-1.04153	-1.45073	-2.68466
10230.937	-4.75428	-1.09650	-1.25426	-2.63971
10235.036	-4.75048	-0.91861	-1.44200	-2.81813
10239.038	-4.78084	-0.72645	-1.83938	-2.92123
10243.036	-4.81690	-0.75562	-1.54634	-2.95950
10247.038	-4.85783	-0.97418	-1.60265	-2.94711
10251.036	-4.90380	-0.89640	-0.95884	-1.45172
10255.035	-4.91996	-0.52306	-1.16590	-2.89521
10259.038	-4.94940	-0.42105	-1.00335	-1.69880
10263.043	-4.90582	-0.49914	-0.79424	-1.31292
10267.038	-4.96455	-0.46038	-1.22355	-2.71356
10271.038	-4.93297	-0.35885	-1.22075	-2.41128
10275.039	-4.94351	-0.68075	-0.92924	-1.41618
10278.939	-4.82680	-0.37317	-0.81640	-1.54310
10283.040	-4.86455	-0.24752	-1.28184	-1.56174
10287.035	-4.84221	-0.32141	-1.10569	-1.90070
10291.034	-4.82205	-0.14337	-1.07495	-2.35277
10295.020	-4.79285	-0.05797	-1.04166	-1.13333
10299.037	-4.68745	-0.03881	-0.86543	-0.95905
10303.037	-4.71881	0.00983	-0.93621	-0.98089
10306.999	-4.71045	0.02670	-0.94150	-1.35014
10310.938	-4.76768	0.06357	-0.95182	-1.57162
10315.038	-5.06319	0.10822	-1.30094	-1.17552
10319.039	-4.58979	0.40044	-1.14702	-1.02439
10323.037	-3.31712	0.70708	-0.46455	-1.81737
10326.906	-1.78002	0.94919	2.12238	-2.18300
10330.911	0.17159	2.66091	2.62739	-1.86115
10334.910	0.70598	2.50487	6.23037	-1.42503
10338.915	1.93628	2.71464	6.41562	-0.71822
10342.938	2.99982	1.62909	7.58744	-1.53061
10346.912	3.91052	1.82707	8.48318	-0.18588
10350.914	4.54239	1.73476	10.22207	-0.08498
10354.914	5.07244	0.96342	10.53305	-0.10908
10359.040	4.93758	0.80378	10.73615	0.23906
10362.915	4.98354	1.19543	10.90841	-0.04941
10366.913	4.88762	1.21587	10.77129	0.18733
10370.914	5.09874	0.99120	10.44905	0.12930
10375.042	5.07183	0.85150	10.72357	0.21759
10378.915	4.72982	0.81041	9.31646	0.33962
10382.899	4.75938	0.67745	10.41935	0.22851
10386.909	4.79531	0.63559	10.67675	0.16195
10391.040	4.82124	0.58061	10.61075	0.24151
10394.912	4.83242	0.24265	10.55059	0.18617
10398.882	4.67589	0.26809	10.21603	0.30070
10402.914	4.69968	0.38064	10.52564	0.16845
10406.912	4.75923	0.24105	10.48924	0.34894
10410.915	4.70633	0.31724	10.73452	0.31770
10414.912	4.66526	0.00852	10.36125	0.28895
10418.916	4.65308	-0.05340	10.58829	0.18784
10422.880	4.73754	-0.02127	10.45793	0.26066
10426.905	4.74459	-0.16364	10.66699	0.26373
10430.915	4.79960	-0.06795	10.55972	0.38616
10434.914	4.85970	-0.23918	10.41566	0.39653
10438.912	4.96687	-0.21287	10.46681	0.28177
10442.913	5.00876	-0.17236	10.31922	0.41770
10446.912	5.07633	-0.21239	10.17973	0.57672
10450.913	5.05471	-0.23564	10.03797	0.56876
10454.905	5.11772	-0.21938	10.29548	0.33436
10458.915	5.15160	-0.23541	10.55020	0.56644
10462.914	5.23864	-0.19856	10.30572	0.30264
10466.890	5.18173	-0.27405	10.68164	0.33165
10470.913	5.09889	-0.17712	10.83706	0.27557
10474.915	5.09874	-0.22149	10.96057	0.00466
10478.914	5.14269	-0.12436	10.73255	0.05024
10482.915	5.04203	-0.22310	11.14125	-0.05137
10486.906	4.90481	-0.16595	11.08624	0.03777
10490.915	4.77486	-0.07966	10.97186	0.12034
10494.913	4.60439	-0.00077	11.20063	-0.05748
10498.877	4.54442	0.00436	11.16528	0.01426
10502.908	4.53228	0.11752	11.18384	0.02226
10506.900	4.58118	0.06906	10.75495	-0.01355
10510.906	4.33194	0.17902	10.07343	0.23091
10514.911	2.51336	0.26032	8.98261	0.10971
10518.908	1.36025	0.39444	4.52802	3.74170
10522.878	-0.37995	0.56462	4.31454	0.48877
10526.916	-1.66547	0.52788	1.26356	2.54383
10530.911	-3.30144	0.69573	0.46118	0.10961
10534.913	-3.57162	0.71815	-2.12141	0.44319
10538.915	-5.84836	0.54624	-3.36236	0.53243
10542.916	-6.33753	0.52725	-3.20540	-0.60718
10546.915	-6.40810	0.73902	-4.47982	-0.68713
10550.913	-6.29318	0.57424	-4.38033	-0.38943
10554.918	-6.87910	0.60832	-3.58905	-0.57617
10558.913	-6.94152	0.60950	-3.54905	0.66458
10562.916	-6.88609	0.68448	-4.24895	-2.36221
10566.941	-6.87829	0.66891	-4.21728	-4.38771
10570.920	-6.81605	0.66539	-3.89108	-2.24851
10574.919	-6.74087	0.93065	-3.88628	-3.60300
10578.918	-6.61947	0.77023	-3.57926	-2.71268
10582.938	-6.63847	0.81847	-3.53614	-2.23238
10586.922	-6.51540	1.03871	-4.25060	-3.44056
10590.897	-6.37998	1.24800	-3.69669	-2.51906
10594.915	-6.83756	1.01450	-3.41372	-2.03544
10598.942	-6.50060	1.27539	-3.79927	-2.35742
10602.917	-6.46446	1.54650	-3.84997	-2.09044
10606.915	-6.56782	1.64867	-3.39992	-1.84129
10610.918	-6.69397	1.50549	-3.22359	-1.76052
10614.940	-6.81517	1.62183	-3.55192	-1.62222
10618.922	-6.70724	1.63548	-3.27791	-1.50097
10622.918	-6.66594	1.55998	-2.64106	-1.41831
10626.880	-6.64427	1.58903	-3.41741	-0.11299
10630.882	-6.91241	1.75477	-3.45893	0.37553
10634.916	-7.07324	1.69525	-3.39653	-0.81684
10638.916	-7.11782	1.75594	-3.43741	-0.84604
10642.919	-7.21024	1.48307	-2.69960	-1.11604
10646.920	-7.21315	1.48776	-3.24466	-0.74739
10650.920	-7.19356	1.34687	-1.27031	-0.58548
10654.917	-7.20692	1.21505	-1.59792	-0.02295
10658.917	-7.19156	1.10410	-3.36312	0.31023
10662.942	-7.16402	1.38991	-3.50138	0.82498
10666.919	-7.17079	1.35788	-3.17507	0.75937
10670.916	-7.14980	1.28234	-3.70052	2.08944
10674.920	-7.10299	1.32658	-1.55469	1.43255
10678.914	-7.05210	1.42147	-1.57585	1.74324
10682.919	-7.02807	1.47944	-3.69432	1.04240
10686.882	-6.99384	1.53422	-3.88759	1.19076
10690.920	-6.88925	1.56357	-3.30708	0.53943
10694.945	-6.86547	1.72642	-3.53080	-1.40844
10698.918	-6.86393	1.57897	-3.39151	-1.40295
10702.918	-6.78718	1.84604	-2.88299	-3.15291
10706.920	-6.74790	1.63342	-3.00737	-2.26903
10710.918	-6.71038	1.61742	-2.94475	-2.09808
10714.917	-6.75509	1.26983	-2.87854	-2.31038
10718.907	-6.71588	0.14778	-2.83967	-1.83518
10722.920	-6.78299	0.12145	-3.03051	-2.48118
10726.940	-6.73899	-0.23878	-2.82167	-1.77397
10730.922	-6.48100	-1.02257	-2.81461	-1.96508
10734.918	-6.52446	-0.82544	-3.01764	-2.02654
10738.917	-6.14631	-0.90714	-2.76361	-2.32550
10742.924	-6.47103	-1.16838	-2.75693	-1.46146
10746.918	-6.32564	0.31126	-2.75846	-2.16425
10750.920	-6.15205	-1.14334	-2.70020	-1.83270
10754.918	-6.49038	0.19409	-2.82338	-2.43977
10758.921	-6.48088	-0.38188	-2.56129	-1.84503
10762.920	-6.31041	1.08979	-2.74125	-1.91678
10766.921	-6.39677	0.92374	-2.55621	-1.98962
10770.915	-6.45468	0.79969	-2.69245	-2.43300
10774.884	-6.53218	1.09179	-2.83029	-1.99317
10778.920	-6.35145	0.92871	-2.15361	-1.68037
10782.923	-6.24764	1.58558	-2.08533	-1.00686
10786.915	-5.12654	1.51156	0.42105	-0.38848
10790.910	-4.13554	1.36098	0.51654	-0.15933
10794.920	-3.91247	2.39743	0.62995	0.42302
10798.903	-3.04447	2.51780	0.62605	1.08606
10802.925	-3.17235	2.75204	1.22578	0.99175
10806.910	-3.14174	2.80427	1.11767	0.78123
10810.920	-3.13039	2.88702	0.76091	0.49054
10814.921	-3.09208	3.02031	0.79804	0.48410
10818.920	-3.42895	2.90833	1.24890	0.39547
10822.924	-3.17119	2.92287	1.45222	0.43864
10826.919	-2.87465	2.88769	1.21576	0.32515
10830.923	-2.72498	3.15771	1.37255	0.19538
10834.923	-2.42584	3.02609	0.16025	0.73480
10838.907	-3.09198	3.08566	1.67588	0.61970
10842.882	-3.10515	3.04838	-0.11714	1.84421
10846.920	-3.65413	3.00230	-0.91944	2.49301
10850.920	-3.71189	2.89737	-0.87701	2.47417
10854.911	-3.90247	2.77532	-0.51833	2.51131
10858.922	-3.82724	2.68345	-0.51051	2.18967
10862.920	-3.84317	2.69045	-0.08391	4.18279
10866.922	-3.69615	2.60078	1.36595	3.72221
10870.920	-3.83292	2.98240	-0.36829	5.35937
10874.921	-3.44364	3.09623	0.79248	5.46575
10878.923	-3.55105	4.04602	0.25736	5.30450
10882.894	-3.41384	3.96495	0.99861	4.63733
10886.918	-3.32137	4.29952	1.26708	2.97737
10890.920	-3.30601	3.95899	1.42290	3.55131
10894.920	-3.62810	4.68253	0.16576	3.07646
10898.921	-1.98229	7.61061	0.45778	4.49134
10902.922	5.76883	7.42239	5.15862	5.91980
10906.926	NaN	NaN	1.33478	6.13594
10910.923	NaN	NaN	NaN	NaN
10914.919	NaN	NaN	NaN	NaN
10918.925	NaN	NaN	NaN	NaN
10922.883	NaN	NaN	NaN	NaN
10926.915	NaN	NaN	NaN	NaN
10930.922	NaN	NaN	NaN	NaN
10934.919	NaN	NaN	NaN	NaN
10938.921	NaN	NaN	NaN	NaN
10942.920	NaN	NaN	NaN	NaN
10946.921	NaN	NaN	NaN	NaN
10950.920	NaN	NaN	NaN	NaN
10954.919	NaN	NaN	NaN	NaN
10958.879	NaN	NaN	NaN	NaN
10962.884	NaN	NaN	NaN	NaN
10966.885	NaN	NaN	NaN	NaN
10970.922	NaN	NaN	NaN	NaN
10974.921	NaN	NaN	NaN	NaN
10978.878	NaN	NaN	NaN	NaN
10982.925	NaN	NaN	NaN	NaN
10986.920	NaN	NaN	NaN	NaN
10990.884	NaN	NaN	NaN	NaN
10994.921	NaN	NaN	NaN	NaN
10998.886	NaN	NaN	NaN	NaN
11002.924	NaN	NaN	NaN	NaN
11006.886	NaN	NaN	9.69858	10.64610
11010.818	NaN	NaN	9.62437	13.16368
11014.923	NaN	NaN	11.14842	10.35897
11018.921	NaN	NaN	12.06520	10.33787
11022.887	NaN	NaN	11.96978	10.45053
11026.827	NaN	NaN	10.47468	10.40842
11030.927	18.38039	12.12742	13.40457	6.64656
11034.923	16.19329	9.71896	11.53239	7.31755
11038.886	16.77555	9.33362	11.99407	7.32889
11042.929	14.99989	7.27667	11.70844	5.22705
11046.914	17.14964	12.79180	15.33336	8.14643
11050.912	16.78626	8.25646	15.04101	8.57960
11054.920	15.95142	9.25190	14.62061	9.10224
11058.886	14.41960	9.03722	16.54526	8.83180
11062.922	13.95787	7.46014	16.51477	8.61988
11066.923	10.46976	6.36041	15.90444	9.57920
11070.924	10.48677	6.76375	16.63911	8.98328
11074.824	11.28524	6.92210	15.12425	10.06333
11078.923	10.87596	6.70219	15.39167	9.78542
11082.922	8.51819	7.21398	15.95087	8.86400
11086.927	8.45317	6.96024	15.31230	8.73938
11090.823	8.34820	7.06951	15.21668	8.91786
11094.923	8.32738	6.80051	14.94298	8.25827
11098.922	8.44523	6.78305	13.56076	5.51252
11102.924	8.48877	6.76659	13.83086	5.43039
11106.927	8.51469	6.82759	13.73081	5.53146
11110.927	8.53756	6.73571	13.43648	4.70887
11114.923	8.61593	6.55035	13.18412	4.15853
11118.924	8.61142	6.43155	13.40762	3.19737
11122.823	8.56035	6.37478	12.07125	5.46034
11126.887	8.56945	6.17458	11.44761	5.35749
11130.888	8.52273	6.21008	11.77869	4.77460
11134.917	8.23527	6.05583	13.02634	4.58091
11138.828	8.55384	5.91392	11.51657	4.79159
11142.928	8.30179	5.83743	11.74527	3.60292
11146.923	7.39110	5.89796	12.32959	4.74873
11150.925	7.55476	5.89437	12.34363	5.13408
11154.824	8.23272	5.84212	12.80910	5.73907
11158.924	7.76406	6.11858	13.27137	7.89897
11162.923	7.38905	5.99918	11.58539	8.22445
11166.926	5.30813	5.80371	10.14405	8.25221
11170.826	4.49842	5.21185	8.38782	5.63105
11174.890	2.59401	4.90294	5.41123	5.52685
11178.919	0.07850	4.07216	5.49222	4.58426
11182.888	0.03055	5.27900	3.93356	3.58337
11186.826	-0.11798	5.62622	3.55770	3.41142
11190.928	-0.38504	5.97973	3.26955	3.25717
11194.924	-0.01052	6.21965	4.80376	3.06786
11198.925	0.16799	5.56138	4.08510	3.02557
11202.823	-0.41887	5.70458	3.84453	2.48919
11206.926	-0.43271	5.58694	4.04982	2.41257
11210.927	-0.88250	4.28193	3.71162	2.27785
11214.929	-0.69702	3.79627	3.95439	1.95775
11218.823	-0.50974	3.05175	3.88801	2.03476
11222.928	-0.46463	3.11443	3.90827	2.30564
11226.928	-0.46053	3.42150	3.61085	2.19663
11230.934	-0.24820	3.87944	4.02831	2.21111
11234.928	-0.44172	3.86489	4.05799	2.33826
11238.926	-0.04465	3.73653	4.10740	2.05484
11242.892	-0.27892	3.99156	4.15564	2.74360
11246.890	-0.27853	3.84205	4.33169	2.53714
11250.827	-0.14833	3.86709	3.72536	2.28754
11254.924	-0.06860	3.54480	4.15873	2.37290
11258.927	0.01757	3.78040	4.58599	2.67839
11262.927	0.16092	3.80329	4.39582	2.72588
11266.829	0.18683	3.84856	4.24058	2.69319
11270.926	0.38477	3.76166	4.29626	2.61458
11274.928	0.38060	3.65226	4.27953	2.62723
11278.930	0.35258	3.68870	4.42348	2.56870
11282.929	0.37231	3.51888	4.39279	2.44318
11286.928	0.51818	3.50111	4.27062	2.50405
11290.927	0.51324	3.41216	4.16324	2.19163
11294.929	0.59399	3.45391	4.08648	1.59558
11298.932	0.63900	3.51131	4.06335	1.60026
11302.927	0.56560	3.90610	4.24450	1.37426
11306.930	0.73637	3.56765	4.20040	1.15763
11310.930	0.73032	3.82917	4.17369	1.33377
11314.828	0.65429	4.18245	4.10377	1.55436
11318.931	0.84808	3.42443	3.95044	1.44731
11322.928	0.80419	3.84602	4.21400	1.05681
11326.929	0.81473	3.79637	4.17332	1.11082
11330.825	0.80158	3.99745	3.99255	1.54962
11334.928	0.76704	4.30160	4.29717	1.87042
11338.916	0.81243	3.74078	4.18758	2.37637
11342.918	0.79848	4.12032	4.18047	2.28871
11346.778	0.90547	3.99794	4.33480	2.50233
11350.928	0.95939	3.52044	3.87490	1.97178
11354.930	0.95939	4.05051	4.19193	2.75433
11358.930	1.01419	3.91920	3.78165	1.97783
11362.797	1.02074	4.22053	3.70747	2.09975
11366.801	1.05724	4.30918	3.92615	2.30077
11370.805	1.17175	3.24166	3.80809	2.16990
11374.804	1.16014	3.20239	3.44921	2.01641
11378.828	0.74682	3.26239	2.00338	1.65696
11382.804	0.12344	3.64281	2.39322	1.56570
11386.783	0.36506	3.61517	2.11398	1.49570
11390.802	0.17611	4.04666	2.46974	1.97198
11394.934	-0.13012	3.80834	2.40610	1.76101
11398.804	-0.32330	3.78415	2.01367	1.62258
11402.802	-0.21646	4.02158	2.03858	2.37287
11406.805	-0.31488	3.78425	2.03491	2.82116
11410.831	-0.42797	4.44295	2.27060	3.12318
11414.803	-0.77216	4.20070	2.09807	3.08353
11418.805	-0.46798	4.22022	2.09152	3.24183
11422.804	-0.65558	4.57815	2.25429	3.39779
11426.828	-0.52342	4.34015	2.29495	3.47500
11430.794	-0.70809	4.54574	2.31207	3.40797
11434.805	-0.66791	4.66400	2.29921	3.51373
11438.803	-0.56729	4.66209	2.43040	3.62464
11442.803	-0.44676	4.78913	2.55822	3.51405
11446.805	2.04240	4.93674	5.11221	3.54474
11450.808	4.23703	4.65763	5.41453	3.91213
11454.805	4.07587	4.89606	5.61045	5.10133
11458.797	3.63095	5.03632	6.85148	4.15173
11462.808	3.78620	5.06614	7.23255	4.41178
11466.817	3.80073	5.11796	7.40418	4.44982
11470.778	3.85911	5.08867	7.70558	4.23167
11474.830	3.87598	5.21465	7.46099	4.56132
11478.804	3.74965	5.24101	7.38065	4.58211
11482.804	3.71918	5.23448	6.96132	4.95085
11486.804	4.06357	5.07040	7.18201	4.57865
11490.804	3.80312	5.30065	7.23792	4.48999
11494.807	3.83445	5.16415	7.24615	4.47722
11498.804	3.78514	5.14548	7.31406	4.45457
11502.805	3.90140	5.24535	7.41704	4.35276
11506.831	4.17912	5.19989	7.36271	4.27635
11510.790	4.28473	5.21680	7.29594	4.47425
11514.801	3.93122	5.25082	7.36257	4.41136
11518.804	3.66080	5.51431	7.16165	4.47472
11522.798	3.58017	6.49273	7.24412	4.62468
11526.784	3.49525	5.91160	7.15516	4.46123
11530.805	3.31464	6.07768	7.22861	4.66652
11534.808	3.27724	6.16128	6.27790	4.55688
11538.803	3.31635	6.39548	6.97695	4.80869
11542.807	3.13227	6.40016	6.80475	5.16024
11546.802	2.96044	6.04263	6.86953	5.25342
11550.803	2.95968	5.79541	6.74846	5.65948
11554.800	2.89351	6.26814	6.80954	5.64320
11558.766	2.89906	5.95292	6.44138	5.65350
11562.805	2.80981	6.29542	6.37111	5.76618
11566.808	2.96733	6.33468	6.32458	6.25353
11570.833	2.98059	5.63209	6.38327	6.30360
11574.806	3.08884	5.11353	6.00958	6.42556
11578.806	3.14377	4.64316	6.14325	6.77376
11582.804	3.19323	4.54586	5.48101	5.87036
11586.804	3.01435	5.03172	6.06105	2.49036
11590.769	3.20523	4.90750	5.91459	2.44213
11594.786	3.25966	4.41451	5.96385	5.25022
11598.805	3.30195	4.59519	5.85468	2.56030
11602.806	3.39102	4.35382	5.74421	2.24869
11606.806	3.55506	4.28412	5.94828	1.96292
11610.805	3.43798	4.43644	5.77293	2.09946
11614.807	3.38372	4.49110	5.73772	2.19608
11618.807	3.62417	4.27854	5.79084	1.86867
11622.806	3.64775	4.35566	5.32629	1.33025
11626.808	3.69600	4.26042	5.17191	1.22875
11630.811	3.62306	4.37898	5.68521	1.38869
11634.835	3.68693	4.29378	5.73392	0.96059
11638.798	3.95688	4.21815	5.53867	0.84903
11642.808	4.06520	4.10573	5.38676	0.57307
11646.809	4.17946	4.09498	5.61854	0.45630
11650.768	4.06098	4.48739	5.37800	4.83086
11654.807	3.76285	4.75844	5.43701	4.45606
11658.810	3.66209	4.71824	5.15967	4.30411
11662.809	3.68490	5.18099	5.40188	4.39644
11666.808	3.92341	5.67601	5.62807	5.72178
11670.809	3.54761	5.88280	6.07513	5.23790
11674.821	3.50415	5.81474	6.22169	4.91302
11678.780	3.56442	5.87788	6.17288	4.47731
11682.779	3.60974	6.60233	6.50650	4.38863
11686.807	3.45435	6.65790	6.95934	4.70684
11690.807	3.57921	6.42650	6.02381	4.24681
11694.808	3.29854	6.89067	7.06860	4.39492
11698.809	3.26218	6.92397	6.30318	4.33244
11702.810	3.23242	6.60779	6.32549	4.11214
11706.807	3.42443	6.70318	6.96132	4.18953
11710.810	3.25738	6.88572	6.60287	4.09442
11714.801	3.24387	6.85959	6.57771	4.02145
11718.794	3.26384	7.03156	6.85921	3.98341
11722.806	3.28927	7.05450	6.65086	3.89806
11726.772	3.36129	7.05531	6.76341	3.84536
11730.802	3.28155	6.98471	6.60419	3.82002
11734.812	3.19989	7.03554	6.90177	3.96695
11738.808	3.11698	6.70184	6.66834	3.83476
11742.808	2.96527	6.76528	6.70511	3.92004
11746.832	3.05892	6.76373	6.79861	4.36277
11750.770	2.97205	6.82259	6.73909	4.01898
11754.812	2.98079	6.83321	6.63534	4.52093
11758.810	2.93282	6.60021	6.66638	4.10980
11762.803	2.87695	6.53237	6.64770	4.17220
11766.811	2.84120	6.53014	6.79538	4.16375
11770.808	2.70755	6.59239	6.59236	4.65858
11774.807	2.78206	6.55399	5.93534	4.21321
11778.801	2.71211	6.42214	6.79971	4.47154
11782.809	2.83695	6.65801	6.62677	4.18937
11786.808	2.99438	6.83415	6.54105	4.17759
11790.808	2.86559	6.89266	6.80477	4.01807
11794.802	3.00754	7.09451	6.36371	3.85350
11798.812	2.98678	7.03411	6.41709	3.79408
11802.789	2.93733	7.13423	6.32699	3.75916
11806.772	2.90423	7.05577	5.49232	3.56967
11810.804	2.83048	7.10632	6.43942	3.45590
11814.810	2.90903	6.98976	5.71517	3.50981
11818.771	2.84697	7.08792	5.73959	3.50456
11822.812	3.09282	7.04999	5.89893	3.29739
11826.802	3.04840	7.09808	6.02934	3.28284
11830.809	3.02611	6.87008	5.69391	3.06541
11834.813	3.16379	6.77608	6.98692	2.90571
11838.813	2.17420	6.59248	5.71099	3.03892
11842.801	1.04543	6.41817	4.68858	2.61204
11846.801	1.77767	5.48212	3.94505	-0.20497
11850.809	1.06791	4.65349	4.12433	-0.53724
11854.813	0.69315	3.71599	4.69852	-0.19751
11858.811	0.22358	3.59665	3.87835	-0.64903
11862.812	-0.01243	3.50400	3.81461	-0.42891
11866.809	-0.08053	3.41628	4.89924	-0.81346
11870.813	0.32007	3.46909	3.59641	-0.45723
11874.810	0.32081	3.62630	3.47287	-0.54606
11878.811	0.28421	3.45868	3.78598	-0.60815
11882.814	0.06443	3.47694	3.58282	-0.52968
11886.785	0.14355	3.34902	4.41201	-0.78977
11890.810	0.08857	3.34340	3.50845	-0.83031
11894.813	0.07639	3.30105	3.72968	-0.77380
11898.810	0.08480	3.26370	3.58141	-0.70743
11902.813	0.22802	3.20532	3.77429	-0.64661
11906.802	0.40353	3.19655	3.94792	-0.63039
11910.809	0.54391	3.11768	4.05194	-0.55856
11914.811	0.74997	3.07542	3.75052	-0.51986
11918.813	0.62302	3.01370	3.95046	-0.56520
11922.805	0.46083	2.99079	3.32681	-0.55673
11926.793	0.54022	2.78982	4.13142	-0.67498
11930.808	0.58880	2.88007	4.18119	-0.59970
11934.819	0.50376	2.89974	4.17171	-0.57000
11938.819	0.36519	2.84898	4.13705	-0.46542
11942.812	0.34854	2.86054	3.84809	-0.50800
11946.812	0.34486	2.76163	4.30583	-0.56950
11950.814	0.20072	2.72696	3.63987	-0.74809
11954.803	0.14359	2.49000	3.73379	-0.73877
11958.811	0.23870	2.62346	3.43019	-0.84218
11962.813	0.23266	2.66737	3.40793	-1.03970
11966.815	0.21765	2.70464	3.50773	-1.05645
11970.804	0.31528	2.65662	3.45438	-0.92920
11974.812	0.16417	2.64755	3.62887	-0.95362
11978.813	0.64268	2.60323	3.42433	-0.96618
11982.814	0.49520	2.67357	3.29194	-0.89260
11986.804	0.39799	2.82049	3.37225	-0.85701
11990.813	0.45301	2.72275	3.55399	-0.90133
11994.813	0.50669	2.67810	3.34858	-0.70854
11998.824	0.44934	2.94371	3.33164	-0.43838
12002.814	0.40452	3.08556	3.67077	-0.57004
12006.812	0.73786	2.73518	3.47270	-0.11410
12010.792	0.90478	3.12893	3.46488	0.14294
12014.813	0.81463	2.83510	3.43017	0.02709
12018.820	0.99196	2.89337	3.76680	0.12489
12022.813	0.86503	2.85620	3.55641	0.29426
12026.812	1.01608	2.83980	3.87539	0.33529
12030.812	0.84280	2.94519	3.77253	0.35192
12034.805	0.69762	2.96023	3.78136	0.42389
12038.812	0.95986	2.95791	3.97810	0.34975
12042.815	0.83667	3.06366	4.11448	0.35043
12046.816	0.94177	2.90325	4.01779	0.32965
12050.813	0.70317	3.04131	3.60645	0.18982
12054.806	0.79218	2.78038	4.02892	-0.06204
12058.814	0.75548	2.83422	3.88006	-0.10646
12062.817	0.63727	2.56026	3.90810	-0.31378
12066.780	0.61372	2.48257	3.95046	-0.74961
12070.777	0.43475	2.58794	3.59271	-0.91510
