time (ms)	lx (deg)	ly (deg)	rx (deg)	ry (deg)
0.000	3.22037	4.46743	5.00177	1.05841
3.966	3.07560	4.60172	4.83430	0.93711
8.000	3.70462	4.26206	5.11184	1.14111
11.999	3.55421	4.49064	5.35155	1.54966
16.003	3.81973	4.60727	5.16947	1.24661
20.003	3.50571	4.56499	4.82077	1.30581
24.000	3.35971	4.74046	4.93223	1.42181
28.002	3.48059	4.60028	5.52878	1.24375
32.002	3.47910	4.58703	6.06006	1.59901
35.896	3.39985	4.81729	5.49721	1.60959
39.991	3.08738	4.85479	6.83602	1.66064
43.998	3.40338	4.73825	5.89176	1.55694
47.997	3.17435	4.81680	5.86064	1.75850
51.898	3.88863	4.71566	6.46985	1.56067
56.002	3.05120	4.64028	5.91563	1.69170
59.998	0.81583	4.27944	4.25976	1.63410
64.000	0.76496	2.11602	3.16065	-0.61875
67.897	-0.00449	1.75892	2.66414	1.50059
72.002	-0.16834	2.58952	2.54355	1.38381
76.000	-1.49763	3.36826	2.83380	-0.34647
79.979	-0.13471	3.13211	2.80384	0.25919
83.869	-0.93723	3.32575	2.61486	0.63699
88.000	-1.12057	3.55642	2.74923	0.14627
92.010	-1.02781	3.10159	2.66729	0.43500
95.997	-1.35516	2.29300	2.97963	0.65026
100.007	-1.13268	2.55669	2.93309	-0.29244
104.000	-1.27363	2.44434	2.92423	-1.00279
108.001	-1.37421	2.22200	2.62474	-0.96123
112.002	-1.35050	2.62530	3.94641	-0.85299
116.007	-1.32247	2.59395	2.80481	-0.99813
119.984	-1.19120	2.49760	2.88064	-0.95348
124.000	-1.28383	2.25373	3.29545	-0.98039
127.999	-1.35256	2.30352	2.97985	-1.03440
131.895	-1.32401	2.33854	2.80058	-0.92432
136.000	-1.32165	2.36488	2.64044	-1.00765
139.999	-1.24669	2.27266	3.00047	-1.01138
143.963	-1.10894	2.32601	2.68747	-0.96047
147.907	-1.14806	2.30683	2.78396	-1.02376
152.004	-1.15558	2.32361	2.86643	-0.99716
156.001	-1.06193	2.16949	2.94371	-0.98032
160.001	-0.99102	2.37920	2.79429	-0.96807
163.898	-1.01973	2.48656	3.03558	-0.95737
168.001	-1.02754	2.71067	2.73863	-0.82206
171.877	-0.98330	2.50874	3.09797	-0.78019
175.875	-0.99606	2.55487	2.83883	-0.80162
179.872	-1.01613	2.45237	2.82145	-0.61353
183.839	-1.06570	2.56454	2.77931	-0.30124
187.878	-1.12191	2.61948	2.92819	-0.30080
191.876	-1.24411	2.74728	2.82660	-0.09617
195.869	-1.09534	2.89040	2.77837	-0.23470
199.838	-1.31265	2.97283	2.94844	0.05462
203.879	-1.39056	3.11290	2.80011	0.18669
207.865	-1.19271	3.25359	2.73083	0.16945
211.875	-1.18430	2.98631	2.56094	0.32443
215.879	-1.23893	2.76815	2.61909	0.34362
219.877	-1.08081	3.05115	2.60609	0.28954
223.878	-1.07101	3.11381	2.48294	0.34627
227.875	-1.13181	3.06019	2.68910	0.28465
231.877	-1.12328	2.96162	2.54764	0.26691
235.877	-1.08897	3.00045	2.71597	0.02889
239.877	-0.96207	3.04708	2.49602	0.19587
243.868	-0.95189	2.92277	2.57360	0.06601
247.878	-0.90170	2.89952	2.66493	0.02254
251.847	-1.06083	2.81812	2.37674	-0.03841
255.880	-1.16525	2.85958	2.17192	-0.11765
259.875	-1.37354	2.91391	2.45237	-0.13237
263.878	-1.35172	2.91649	2.63200	-0.12109
267.876	-1.32892	2.88931	2.45733	-0.08550
271.880	-1.43600	2.85707	2.48346	-0.11539
275.877	-1.60275	3.00832	2.35310	-0.05492
279.878	-1.60511	3.13936	2.59146	0.31218
283.877	-1.45643	2.99859	2.47209	0.12522
287.880	-1.41945	2.81823	2.25075	0.31802
291.870	-1.66753	2.91604	1.80008	0.32218
295.875	-1.53530	2.85615	1.74928	0.51286
299.881	-1.61672	2.91721	2.02614	0.46480
303.881	-1.60097	2.98541	1.89716	0.78600
307.871	-1.62046	3.14541	1.54718	0.88819
311.880	-1.72508	2.90151	1.55864	1.28431
315.877	-1.36980	2.47087	1.90480	1.46989
319.878	-1.37240	2.22165	1.77204	1.61077
323.904	-1.16476	2.16705	1.33406	1.90203
327.880	-1.17495	1.78116	1.42166	1.93901
331.872	-1.08011	1.77030	1.17232	1.96833
335.873	-1.01630	1.36327	1.43401	1.99043
339.871	-0.89312	1.33045	1.17465	2.07334
343.879	-0.84689	1.15667	1.44646	2.07860
347.883	-0.63704	1.30214	1.97592	2.03546
351.878	-3.12477	1.40377	1.46881	1.87195
355.879	-3.55367	1.37292	1.66921	1.43631
359.879	-3.57271	1.60048	1.74883	1.20348
363.882	-3.02145	3.41056	1.78012	0.68522
367.877	-2.08776	2.69045	1.81634	0.59608
371.871	-1.37067	2.61881	1.89340	0.48364
375.860	-0.52848	2.79344	0.99879	0.23720
379.880	-0.26106	2.72932	1.33994	-0.08571
383.880	-0.12404	2.64586	0.78541	-0.65846
387.903	-0.48130	2.67441	0.67327	-0.65840
391.880	-1.01114	2.49155	0.99305	-1.04175
395.879	-0.66503	1.96824	0.78292	-1.35338
399.842	-0.66327	2.16100	0.98392	-2.09821
403.902	-0.94048	2.10635	0.78536	-1.92610
407.875	-0.86223	2.26952	0.94524	-2.18162
411.881	-0.90170	1.86394	0.58692	-2.42122
415.872	-0.99668	1.77635	0.72119	-2.44103
419.903	-0.75675	1.64909	0.60843	-0.40879
423.880	-1.10948	2.04589	0.76650	1.74315
427.843	-0.94775	1.59429	0.72144	0.24601
431.879	-1.11720	1.63199	0.85860	1.91889
435.839	-1.04354	1.69590	1.04704	2.63762
439.882	-1.17329	2.07930	1.16463	0.44743
443.881	-1.17297	2.66879	1.06252	-0.47868
447.883	-1.14970	2.02296	1.24543	0.63529
451.840	-1.31769	2.34716	1.35457	0.31236
455.879	-1.26217	2.64414	0.96256	1.20215
459.880	-1.24114	2.85157	1.37769	1.75975
463.882	-1.25490	2.65044	1.28874	1.53877
467.901	-1.49455	2.90172	1.18512	1.78249
471.882	-1.52481	2.83790	1.33753	1.21923
475.881	-1.42724	2.85049	1.43456	3.44029
479.881	-1.54324	2.77751	1.60990	2.71594
483.881	-1.67722	2.89490	0.88088	3.70739
487.882	-1.61367	2.71333	1.40073	2.71555
491.881	-1.77484	2.83774	1.58200	2.49608
495.885	-1.65121	2.25894	1.68332	2.48938
499.894	-1.85361	2.89517	1.86950	2.53680
503.879	-1.78615	3.12315	2.21311	2.41005
507.880	-1.80881	3.00289	2.55725	1.76793
511.884	-1.82470	3.10528	2.20800	1.66637
515.841	-1.74080	2.74118	2.20644	1.49536
519.882	-1.72307	2.89574	2.45500	1.24745
523.882	-1.55216	2.45860	2.49832	0.91085
527.884	-0.98549	2.66390	2.77926	1.12700
531.907	-1.84121	3.99971	2.66132	2.17796
535.881	-2.06451	4.19347	2.75044	1.62633
539.880	-2.33938	3.49703	2.64339	1.23692
543.876	-2.38279	3.44824	-0.04375	-0.33976
547.872	-2.50033	3.69669	0.70603	-0.72821
551.880	-2.35786	3.63242	1.20169	-0.80575
555.883	-2.18042	3.56737	0.96484	-0.67863
559.881	-2.02041	3.15744	1.27782	-0.63720
563.910	-1.89570	3.43860	1.05758	-0.15208
567.845	-2.08077	2.71130	1.10606	-0.33170
571.882	-1.91048	2.62589	1.43806	-0.12609
575.886	-2.31790	2.40579	1.18599	0.12298
579.910	-1.85309	2.54713	1.85695	0.03032
583.861	-2.00455	3.36908	1.18805	0.20489
587.883	-1.94032	3.31003	1.32617	1.01257
591.845	-1.85294	3.05290	1.34886	1.02843
595.884	-1.74506	2.44824	1.50782	1.35522
599.882	-1.70001	2.36140	1.50941	1.28372
603.884	-3.13511	2.10519	1.61543	1.00298
607.885	-2.56590	2.31826	1.76772	1.00755
611.884	-2.43687	2.21493	1.02595	1.43831
615.883	-2.37322	2.09397	0.65064	1.55803
619.886	-1.94233	2.11284	0.76464	1.64533
623.883	-1.96846	2.30166	1.04801	1.88550
627.909	-1.91980	2.10054	0.80771	2.12994
631.881	-1.72768	2.42377	1.49708	2.25459
635.883	-1.69007	2.51825	1.32676	2.16015
639.883	-2.06520	3.31941	1.76512	2.00815
643.906	-1.81156	3.09750	1.09882	2.23714
647.882	-1.63192	3.13355	0.98516	2.01332
651.881	-1.41102	3.01495	1.56087	2.12994
655.882	-1.40785	2.48370	1.50470	2.02235
659.891	-3.31954	2.58606	1.30863	2.13389
663.886	-3.25832	3.03648	1.39931	2.00979
667.849	-2.61630	2.78516	1.48089	2.00982
671.884	-2.58068	2.83927	1.59132	1.63445
675.876	-2.02267	2.78469	1.39066	1.91544
679.886	-2.05375	2.78605	0.75967	2.05965
683.882	-1.26793	3.03056	1.26249	2.04474
687.882	-1.55876	3.07085	0.74501	2.19476
691.884	-1.33324	3.03957	1.22826	2.36983
695.887	-1.94042	3.55442	1.47523	2.39570
699.883	-2.38982	3.68792	1.38793	2.04367
703.884	-1.80298	3.77720	1.38897	2.17575
707.874	-1.85737	3.89191	1.52541	1.89339
711.881	-1.75694	3.99916	0.86369	2.02150
715.884	-1.37079	3.76384	1.26222	2.35353
719.882	-1.17572	3.27223	1.30188	1.85925
723.892	-2.76515	3.60484	0.99559	1.54561
727.884	-2.89443	3.22143	1.33800	1.42871
731.884	-2.70676	3.12450	1.59269	1.14982
735.882	-2.52317	2.80089	1.41767	1.13672
739.878	-2.57060	2.64928	1.32654	1.16552
743.884	-1.79128	2.51740	1.18383	0.81130
747.880	-1.92951	2.50627	0.91272	0.80324
751.877	-1.76738	2.73968	1.04590	0.15588
755.885	-2.14389	2.70051	-0.64784	0.10848
759.884	-1.95004	2.65571	1.13891	0.21204
763.884	-1.81669	2.65282	0.85577	0.17293
767.884	-2.00980	3.21088	1.08165	0.08740
771.885	-1.70586	2.91205	1.17460	-0.02144
775.884	-1.86072	3.25493	1.66534	0.10251
779.886	-1.87371	3.49048	1.06897	0.46705
783.883	-1.70303	3.59020	1.72880	0.35401
787.876	-1.75917	4.22794	1.37612	0.49638
791.867	-1.55896	3.69577	1.24126	0.59398
795.886	-1.60166	3.65468	1.21353	0.43783
799.888	-1.63011	3.66648	1.79631	0.75619
803.890	-1.50028	3.68014	2.07735	0.67547
807.887	-1.51831	3.62296	1.44133	0.85664
811.889	-1.31377	3.63038	1.43796	0.96788
815.888	-1.59720	3.50252	1.80412	1.10282
819.883	-1.22124	3.48138	1.50046	1.06658
823.890	-1.66457	3.37762	2.04783	0.98775
827.888	-1.23206	3.63460	1.78461	1.06981
831.875	-1.11333	3.29521	2.28849	1.08722
835.792	-0.90676	3.16319	2.06047	1.06390
839.886	-1.10643	3.21820	1.90867	1.12115
843.885	-0.98005	2.72757	1.59581	0.55480
847.885	-0.79781	2.63292	1.53711	0.06829
851.785	-0.69908	2.68827	1.98105	-0.34259
855.885	-0.83697	2.83436	1.88343	-0.21686
859.888	-0.72389	2.47954	1.82279	-0.98691
863.886	-0.70317	2.40090	2.00936	-0.84759
867.785	-0.60094	2.36637	1.92996	-2.01453
871.886	-0.42130	2.21997	1.97443	-2.02773
875.853	-0.58592	2.25348	1.83035	-0.05156
879.886	-0.48577	2.17866	1.68049	0.25606
883.785	-0.31223	2.23327	1.77566	0.93705
887.885	-0.37851	2.47165	1.84426	1.28648
891.886	-0.31307	3.62809	1.60392	2.98543
895.887	-0.29116	3.20613	1.67261	2.45798
899.772	-0.29873	3.41032	1.44669	2.58573
903.912	-2.20466	3.90390	1.27408	2.31647
907.865	-0.15094	3.63191	1.55544	2.28055
911.888	-2.44536	3.54460	1.56801	2.61905
915.873	-0.41450	3.95765	1.49790	2.21897
919.893	-0.28823	3.90705	1.64107	2.96598
923.889	-2.60862	3.28218	1.28336	2.69139
927.886	-3.04546	3.33261	1.60843	2.73229
931.785	-2.99945	3.50342	1.25468	2.73058
935.884	-2.09036	3.40352	1.61582	2.67724
939.887	-2.30370	2.20056	2.20466	2.95009
943.889	-2.55361	3.15654	1.63675	3.24757
947.785	-2.11440	2.00801	1.97406	2.29566
951.891	-2.28383	2.04698	2.55113	0.00420
955.848	-1.90847	2.37816	1.81835	1.59127
959.882	-0.82297	1.98199	2.22882	0.96238
963.889	-0.25775	2.89621	2.00547	-2.31919
967.887	-0.60354	3.13413	2.05965	-1.23890
971.891	0.54997	3.03498	2.62553	0.44063
975.887	2.05110	3.37926	2.69933	1.03654
979.788	2.49902	3.94054	2.15202	1.46244
983.887	2.54341	4.25101	5.31106	1.36644
987.850	2.95171	4.53522	2.75111	1.41014
991.889	3.05006	4.39001	4.76882	1.04902
995.788	3.02670	4.69149	4.28323	1.04861
999.864	3.10178	4.71068	4.72098	0.72272
1003.890	3.11490	4.77324	4.98753	0.92920
1007.888	3.18452	4.43935	5.08618	0.77420
1011.891	3.31640	4.47398	5.38208	0.75934
1015.888	3.38879	4.23775	1.62520	2.22638
1019.856	3.32204	4.15464	1.53538	1.12641
1023.889	3.38991	4.20378	1.77459	1.61005
1027.791	3.29169	4.04094	5.17703	1.05018
1031.890	3.29961	3.95956	5.29925	1.23555
1035.895	3.52598	3.63023	4.78868	1.32918
1039.889	3.21033	3.71549	5.11036	2.53988
1043.896	3.53770	3.10428	4.82900	1.82553
1047.888	3.51189	3.03420	4.57882	2.04965
1051.890	3.26047	3.10237	4.56493	1.67499
1055.891	2.39374	2.83484	3.99926	2.18716
1059.894	2.43285	3.29015	2.70436	2.03272
1063.890	3.54556	3.14550	4.96413	5.00356
1067.853	3.29137	3.04494	4.56967	4.43203
1071.892	3.41333	3.94895	3.29510	4.47755
1075.894	2.74816	3.71680	4.31657	3.40113
1079.888	3.41748	3.32754	3.81600	2.86205
1083.854	3.85968	3.19150	4.55618	2.46516
1087.892	3.60217	3.50416	4.53879	2.28641
1091.789	3.05768	4.46487	4.73739	2.48472
1095.888	2.42639	4.47499	4.15246	2.65771
1099.893	3.08582	4.57576	1.38565	4.24033
1103.889	3.03365	4.80339	1.34038	4.56474
1107.893	3.13034	4.79389	7.94835	4.31286
1111.892	3.29080	4.75811	6.75918	4.89565
1115.891	3.18400	4.91398	4.52954	7.08301
1119.860	11.45395	5.14282	6.03491	7.82312
1123.794	11.17799	7.65171	13.70575	6.31151
1127.854	8.80679	11.46046	6.67884	7.49510
1131.893	NaN	NaN	-1.40651	7.58261
1135.853	NaN	NaN	NaN	NaN
1139.790	NaN	NaN	NaN	NaN
1143.892	NaN	NaN	NaN	NaN
1147.853	NaN	NaN	NaN	NaN
1151.899	NaN	NaN	NaN	NaN
1155.900	NaN	NaN	NaN	NaN
1159.889	NaN	NaN	NaN	NaN
1163.885	NaN	NaN	NaN	NaN
1167.891	NaN	NaN	NaN	NaN
1171.890	NaN	NaN	NaN	NaN
1175.888	NaN	NaN	NaN	NaN
1179.890	NaN	NaN	NaN	NaN
1183.854	NaN	NaN	NaN	NaN
1187.890	NaN	NaN	NaN	NaN
1191.788	NaN	NaN	NaN	NaN
1195.893	NaN	NaN	NaN	NaN
1199.855	NaN	NaN	NaN	NaN
1203.868	NaN	NaN	NaN	NaN
1207.825	NaN	NaN	NaN	NaN
1211.781	NaN	NaN	NaN	NaN
1215.763	NaN	NaN	NaN	NaN
1219.768	NaN	NaN	NaN	NaN
1223.768	NaN	NaN	-9.70196	5.15883
1227.765	NaN	NaN	-10.42019	6.97920
1231.763	NaN	NaN	-9.78103	9.78510
1235.766	-3.48284	-1.61823	-9.21181	7.30935
1239.766	-6.05695	0.78463	-8.30371	7.19506
1243.766	-3.89360	6.01219	-9.92972	5.08192
1247.768	-3.59251	5.05386	-9.66882	3.10215
1251.769	-1.71141	6.79657	-7.61187	5.06917
1255.769	1.11851	4.47885	-6.80404	7.14350
1259.771	-5.90924	4.91198	-4.18630	4.94714
1263.770	-3.19729	4.44358	-3.58882	3.67262
1267.767	-4.53805	4.22001	-3.77659	3.38744
1271.792	-0.97390	7.24885	-2.98445	3.52898
1275.772	-5.24021	6.54768	-2.33591	3.50058
1279.768	-4.86450	3.69017	-3.17475	5.91567
1283.769	-6.03722	3.61715	-0.53577	3.30396
1287.766	-6.71451	3.42628	-3.35083	2.86489
1291.770	-7.02546	3.85574	-3.98274	1.94693
1295.748	-6.52199	4.25519	-2.49662	2.98414
1299.732	-5.84623	6.96868	-2.50249	2.09964
1303.764	-2.11485	6.09919	-2.50192	2.39045
1307.771	-5.89348	3.67762	-2.31946	3.08940
1311.769	-5.94921	3.89073	-3.15656	4.03841
1315.768	-5.70610	3.38804	-1.95401	3.13560
1319.795	-5.89719	3.44312	-1.86097	3.02931
1323.767	-5.64852	3.69953	-1.82834	3.21127
1327.771	-5.47262	3.33106	-1.97790	2.89716
1331.769	-5.60811	2.71404	-3.38234	2.34327
1335.761	-5.54764	2.50917	-3.07412	2.91512
1339.762	-6.05633	2.32516	-4.64625	2.45222
1343.767	-6.28055	2.76238	-4.25290	2.91131
1347.768	-6.49435	2.97421	-4.38985	2.57594
1351.768	-6.30222	2.73250	-4.08234	2.62400
1355.770	-6.27346	2.70845	-3.74955	2.79897
1359.768	-6.51015	3.04601	-3.48842	2.56551
1363.772	-6.52711	2.87789	-3.72242	2.66425
1367.794	-6.40859	2.97026	-3.53528	2.96598
1371.770	-6.57279	3.01614	-3.43543	3.36245
1375.772	-6.54781	3.30356	-3.34578	4.03938
1379.743	-6.47948	3.17586	-3.40581	4.37403
1383.793	-6.53289	3.28730	-3.63016	5.15570
1387.768	-6.60238	3.67674	-3.27900	4.49829
1391.772	-6.94071	3.14942	-3.36144	0.07005
1395.733	-6.58293	2.80776	-3.03504	0.55560
1399.771	-6.37619	2.98961	-2.95101	1.75359
1403.772	-6.47818	2.86376	-3.19618	2.40018
1407.735	-6.46581	3.34251	-3.39829	3.21014
1411.770	-6.50065	3.40478	-3.41325	3.77927
1415.770	-6.52000	3.78173	-2.98770	5.08746
1419.754	-6.46056	2.51480	-2.98195	2.56094
1423.771	-6.34322	2.49817	-2.88059	0.72275
1427.772	-6.41312	2.61460	-3.65070	1.96423
1431.795	-6.51192	2.96862	-3.49104	2.81692
1435.769	-6.43947	3.42369	-2.98888	5.37905
1439.768	-6.35611	2.63653	-3.23836	2.88672
1443.771	-6.36942	2.36005	-2.86131	1.49079
1447.761	-6.69723	2.32916	-3.14041	2.05188
1451.770	-6.42650	2.60391	-3.00764	3.17230
1455.769	-6.44527	2.85885	-3.59177	3.81788
1459.772	-6.39391	1.32130	-3.28538	1.28119
1463.739	-6.40484	2.08200	-3.28021	0.69589
1467.734	-6.59691	2.67729	-3.22782	1.48312
1471.774	-6.55498	3.50127	-3.22047	3.03837
1475.769	-6.49149	2.65002	-3.18967	4.50346
1479.796	-6.47220	2.10488	-3.25679	0.46469
1483.771	-6.56662	2.30449	-3.01168	0.16075
1487.773	-6.52669	2.65136	-3.18841	0.99704
1491.772	-6.44103	2.71846	-2.77391	1.16338
1495.794	-5.46168	2.65508	-1.59522	1.27736
1499.734	-5.33222	2.81486	-1.18733	1.11912
1503.750	-4.20911	3.36738	-1.21060	1.22751
1507.773	-5.52905	2.57187	0.48254	1.82104
1511.796	-5.11194	2.51356	0.46242	2.13433
1515.773	-4.50774	1.44154	-1.74385	0.06381
1519.768	-4.32427	1.93332	-0.62273	0.09228
1523.780	-5.10103	2.07247	-0.71995	-0.43186
1527.795	-4.97487	2.44834	-0.86324	0.33912
1531.770	-4.85448	2.19971	-0.38643	0.17324
1535.771	-4.80017	2.57087	-0.64918	1.46390
1539.771	-4.59322	2.32667	-0.64794	1.44418
1543.786	-4.40557	1.92200	-0.59635	1.91267
1547.756	-4.23364	2.11759	-0.48118	2.49461
1551.770	-4.18277	1.88671	-0.23125	2.17054
1555.773	-3.71004	1.48038	-0.58315	2.20806
1559.794	-3.80883	1.06945	-0.37541	0.71436
1563.774	-3.47107	0.37696	-0.31565	0.43631
1567.771	-3.43862	1.39854	-0.09691	0.66615
1571.771	-3.20028	1.25357	0.03544	0.51732
1575.800	-3.31356	0.48341	-0.23140	0.28057
1579.773	-3.35335	0.22227	-0.20551	0.86783
1583.768	-3.48200	0.10154	-0.15786	0.04776
1587.747	-3.65176	0.08062	-0.06937	0.36617
1591.799	-3.68409	0.08322	-0.04177	0.71095
1595.772	-3.55288	-0.07597	-0.15159	0.25169
1599.775	-3.71481	0.00320	0.13749	0.51026
1603.775	-3.91346	0.00930	0.01412	1.88209
1607.795	-3.67615	0.04970	0.05941	0.98477
1611.771	-3.99052	0.49061	0.13148	1.01359
1615.772	-4.06253	-0.03904	0.18462	1.54809
1619.774	-4.09481	0.05862	0.27595	1.29242
1623.781	-4.17954	-0.09819	0.28481	1.60688
1627.772	-4.25354	-0.07870	0.66590	1.02361
1631.768	-4.15248	-0.38194	0.51530	1.35916
1635.772	-4.21501	-0.26125	0.63077	1.03444
1639.797	-4.17771	-0.43746	0.80848	0.92459
1643.773	-4.16774	0.71316	0.78776	1.54572
1647.775	-4.23352	0.93073	0.95842	1.02040
1651.775	-4.26158	0.43194	1.17862	0.69599
1655.800	-4.24784	1.89049	1.13179	0.74775
1659.774	-4.23011	2.22104	1.30486	0.16786
1663.776	-4.24673	2.42827	0.99707	0.62831
1667.777	-4.27350	2.27302	1.03764	-0.05615
1671.798	-4.24900	2.54149	1.05739	-0.35573
1675.774	-4.24729	2.37476	1.19108	-0.77481
1679.774	-4.10685	2.15363	1.06952	-0.92273
1683.774	-4.13080	2.10495	1.23389	-1.04716
1687.777	-4.05727	2.11257	0.97713	-1.11758
1691.737	-4.05127	1.29731	1.20765	-0.61838
1695.777	-4.00119	0.82045	0.91649	-0.57285
1699.739	-3.96874	0.98328	0.67930	-1.02857
1703.779	-3.95076	0.47115	0.76114	0.34641
1707.776	-3.82220	0.21432	0.67161	0.56054
1711.754	-3.95004	0.76282	0.55161	1.09417
1715.774	-3.76510	1.54895	0.29766	2.33040
1719.765	-4.03053	2.15566	0.29719	2.07002
1723.778	-4.27975	2.34796	0.29855	1.72856
1727.775	-4.19709	1.99369	0.20646	1.56383
1731.775	-4.23865	2.63939	0.31047	0.92581
1735.775	-4.34598	2.66564	0.35030	1.32191
1739.775	-4.23641	2.66778	0.51887	-0.45282
1743.776	-4.22276	2.61444	0.67640	-0.04935
1747.776	-4.25391	2.42092	1.01055	-0.56591
1751.766	-4.16344	2.35552	0.91805	-0.42521
1755.765	-4.32965	2.36481	0.85352	-0.38091
1759.774	-4.32128	1.87001	0.93232	0.92275
1763.774	-4.21612	2.04124	0.86366	0.94678
1767.766	-4.16080	1.23936	0.96713	1.68057
1771.774	-4.01991	1.57305	1.03595	0.98461
1775.775	-4.34228	1.80066	1.03168	0.23431
1779.775	-4.53662	1.76271	1.09902	-0.47922
1783.780	-4.51127	1.82121	1.17136	-0.73258
1787.777	-4.53894	1.46448	1.30561	-1.22523
1791.775	-4.41109	1.76022	1.10867	-1.12611
1795.747	-4.29875	1.13776	1.14121	-1.42462
1799.742	-4.21567	1.52791	1.22395	-1.22385
1803.778	-4.32957	1.67711	1.29896	-1.53770
1807.777	-4.26321	2.32338	1.19175	-0.90215
1811.776	-4.34813	1.78745	1.28145	-0.85848
1815.798	-4.27407	1.93565	0.36280	-0.72909
1819.775	-4.05648	2.11742	0.44611	0.53554
1823.775	-4.31104	2.69603	0.73670	1.02888
1827.777	-3.76065	2.64958	1.78590	-0.59219
1831.773	-3.85244	3.36075	1.83137	-0.35717
1835.737	-2.44286	1.63845	2.18610	0.71626
1839.772	-1.17056	2.16965	3.22975	0.72039
1843.775	-1.17585	1.42148	6.52966	0.22979
1847.778	-0.12032	1.34096	6.47794	-0.56300
1851.776	-0.19529	1.17495	6.51611	0.67960
1855.777	0.38266	0.76718	5.03413	1.21973
1859.778	0.24785	0.76155	6.38070	0.98534
1863.780	0.85103	0.63974	6.47068	1.93924
1867.775	0.74151	1.12441	6.40959	1.82697
1871.777	0.56769	0.96269	6.37645	2.54736
1875.780	0.52153	0.83012	6.27513	3.53862
1879.779	0.79456	0.62482	6.26230	3.20173
1883.777	1.02097	1.05131	6.67948	1.11357
1887.777	0.95433	0.95640	6.29207	2.28376
1891.775	0.95921	1.04994	6.43074	1.10003
1895.778	0.93976	1.45687	6.85945	1.20297
1899.780	0.97063	1.98938	6.76726	-0.04461
1903.778	0.66595	2.06783	7.60834	0.68509
1907.753	0.57066	1.33253	7.10565	0.75563
1911.652	0.31181	2.34452	7.27121	-0.42396
1915.781	0.72439	1.22771	6.83413	-0.03536
1919.779	0.87624	1.23939	7.40489	0.19635
1923.776	0.65469	1.52361	7.10382	0.20363
1927.782	0.58627	1.21475	6.98216	0.09592
1931.778	0.54503	1.74372	7.01778	0.32089
1935.778	0.49597	1.92437	7.04154	0.60720
1939.776	0.58176	2.08811	7.13502	1.77186
1943.779	0.51131	2.74105	7.04892	1.33527
1947.776	0.70769	2.02952	6.97062	2.07351
1951.740	0.90416	0.35751	6.93645	-3.03611
1955.777	0.94606	-0.24431	6.73488	-1.09040
1959.778	0.65087	0.07586	6.59589	0.35997
1963.769	0.67841	1.35664	6.73397	0.20164
1967.777	0.93517	1.28337	6.89514	1.04856
1971.743	1.05835	1.83370	6.82586	2.04800
1975.781	0.69216	3.06421	6.75735	2.49455
1979.779	0.50252	1.66528	6.84837	0.63712
1983.779	0.49996	0.31184	5.83296	-0.88774
1987.778	0.95700	0.12905	6.63590	-1.40841
1991.781	0.99906	0.87571	6.96665	-1.00359
1995.778	1.05342	1.19425	7.04420	-0.98269
1999.781	1.11417	1.39755	6.95942	0.57640
2003.780	1.09142	2.17569	7.00228	0.56436
2007.786	0.68960	2.73716	6.92579	0.95150
2011.783	0.68496	2.58528	6.76271	2.47386
2015.781	0.61076	1.79988	6.81852	2.50436
2019.741	0.55146	2.06177	6.91860	2.26004
2023.782	0.76905	0.96727	6.99299	1.64547
2027.780	0.78764	1.20688	7.01198	1.96837
2031.781	0.69982	1.36378	7.32465	1.00017
2035.780	0.69434	1.44111	7.11105	-1.33235
2039.785	0.68307	1.55179	8.15010	-1.70250
2043.777	1.31654	1.82894	6.89414	-0.67234
2047.776	1.20308	3.10421	7.61865	0.37488
2051.776	3.48919	1.51958	11.65337	0.17763
2055.778	4.62271	1.82867	11.68657	1.07232
2059.777	5.11450	1.52198	13.65952	1.50940
2063.775	5.69214	1.31666	13.79922	1.14993
2067.783	6.60397	0.57389	14.03309	0.03857
2071.781	6.82099	0.97776	14.01854	1.29938
2075.779	7.00455	0.71242	14.56213	0.60656
2079.778	7.08021	0.71749	15.11005	0.51282
2083.780	6.96020	0.61436	14.42223	0.97812
2087.785	7.08483	0.82628	14.89008	1.04167
2091.781	7.12271	0.91032	15.25667	1.16346
2095.778	7.01553	0.62686	15.17489	1.08561
2099.780	7.12745	0.44434	15.04320	1.04642
2103.781	6.95778	0.72344	15.32059	0.83542
2107.780	7.05748	0.59004	15.11632	0.81318
2111.781	7.10587	0.61698	14.99616	1.02376
2115.781	7.28070	0.44784	15.07776	1.26206
2119.785	7.28574	0.67322	15.11674	1.26206
2123.781	7.40596	0.38825	14.99290	1.27866
2127.763	7.67682	0.16507	15.70236	1.08233
2131.782	7.62699	0.18553	15.44594	1.11218
2135.783	7.29164	0.21326	15.07739	1.14358
2139.781	7.26493	0.37642	15.05792	1.39768
2143.780	7.41848	0.36601	15.28078	0.80996
2147.782	7.33610	0.27280	15.58836	0.13140
2151.784	7.31203	0.15937	15.24260	-0.09667
2155.782	7.40804	0.15438	15.87345	-0.70717
2159.780	7.48680	0.07502	15.70344	-0.76600
2163.781	7.44032	0.09449	15.88415	-0.95674
2167.784	7.27795	0.15329	15.96824	-1.79100
2171.783	7.25135	0.16161	15.90672	-1.46387
2175.783	7.25611	0.20553	16.29541	-1.80992
2179.780	7.38395	0.43600	15.74628	-0.45410
2183.786	7.47856	0.33923	16.10999	-0.82777
2187.781	7.43871	0.21932	16.33706	-1.23023
2191.782	7.34702	0.37790	16.43925	-1.69684
2195.780	7.25401	0.39519	16.87450	-1.88024
2199.748	7.14086	0.65988	17.18840	-2.15772
2203.784	7.05841	0.41373	17.29941	-2.34906
2207.781	6.76004	0.89960	17.09560	-2.15827
2211.752	6.70736	0.99733	17.11505	-1.52115
2215.786	6.34393	0.96852	17.12607	-1.13844
2219.782	6.44873	1.03152	17.25676	-0.55924
2223.783	6.42802	1.17238	17.26201	-1.91754
2227.787	6.46642	1.07273	17.33949	-1.83961
2231.788	6.44946	1.20494	12.97776	-0.90688
2235.784	6.55001	1.12867	13.41930	-2.22694
2239.658	6.64217	1.26277	12.13600	-0.75265
2243.671	6.72964	1.19932	14.14273	-2.18120
2247.679	6.76966	1.30281	14.48488	-2.55196
2251.657	6.82532	1.24742	16.92415	-3.73197
2255.652	6.73818	1.14224	14.49472	-2.70346
2259.657	6.72729	1.04690	15.40512	-3.42068
2263.681	6.83567	0.90679	14.76031	-2.69243
2267.658	6.90253	1.08420	15.25076	-3.03682
2271.655	6.99771	0.65774	13.49026	-2.92822
2275.659	6.07979	0.94216	12.43911	-2.42596
2279.651	4.51171	0.78585	14.73467	-2.77376
2283.661	4.74166	1.85953	12.47134	2.25678
2287.661	3.85708	1.02356	12.08544	-0.19713
2291.660	3.46872	1.37416	10.45514	0.45151
2295.652	3.41187	1.11460	11.19901	0.31886
2299.620	3.55088	1.41801	10.95959	0.11761
2303.659	3.55216	1.39057	11.92945	0.44097
2307.660	3.52764	1.29304	11.73754	-0.16053
2311.681	3.41867	1.61450	12.43497	0.52457
2315.659	3.51021	1.88394	12.29699	-0.65733
2319.658	3.41887	1.66372	12.55855	-1.31309
2323.658	3.42267	1.81129	13.06530	-1.15909
2327.683	3.27841	1.80975	12.82977	-1.24705
2331.658	3.34007	1.73211	12.70062	-1.32382
2335.660	3.38268	1.85391	11.68155	-1.03459
2339.647	3.42708	1.67372	12.24735	-0.76265
2343.680	3.45015	1.80948	11.94897	-0.68405
2347.662	3.50781	1.73362	12.42581	-1.10579
2351.661	3.55523	1.81066	12.65394	-1.61767
2355.662	3.62828	1.80613	10.76216	-0.57220
2359.681	3.88782	1.74112	12.49469	-0.98527
2363.661	3.64919	1.68055	11.57417	-0.54631
2367.659	3.74038	1.52939	11.70445	-0.71891
2371.659	3.72637	1.54939	11.02153	-0.11844
2375.681	3.42403	1.62956	11.75719	-0.18187
2379.658	3.49629	1.64252	11.01895	0.10583
2383.626	3.25416	1.69605	11.11540	1.01920
2387.658	3.34870	1.86406	10.78745	0.07006
2391.681	3.34044	1.75603	11.01641	1.63299
2395.657	3.10965	1.87211	11.02521	0.86036
2399.660	3.32696	1.69969	11.05350	0.78008
2403.662	3.18739	1.74457	11.28722	0.81697
2407.683	3.38528	1.68725	11.35127	0.83964
2411.660	3.28875	1.84970	11.53155	0.47998
2415.661	3.26886	1.43912	11.61463	0.82216
2419.664	3.31064	1.48406	12.57793	-0.13890
2423.621	3.54348	0.89150	12.04481	0.42234
2427.660	3.77859	0.52676	12.18163	0.39990
2431.662	3.55501	-0.28437	12.70754	-0.29525
2435.662	3.43575	0.18636	12.44654	0.01817
2439.662	3.59884	0.17107	13.46341	-0.19002
2443.663	3.43022	0.76054	12.50496	-0.46570
2447.660	3.68021	0.33583	13.34956	-1.36530
2451.673	3.82650	0.30575	13.97477	-2.30371
2455.624	3.97993	0.15126	12.83786	-1.67833
2459.663	3.81649	0.56687	12.60304	-1.11964
2463.657	3.93947	0.40675	12.95145	-1.19782
2467.654	3.96348	0.58145	12.52476	-1.38138
2471.653	3.92272	0.38996	12.69117	-1.29215
2475.662	3.91291	0.37288	12.36795	-1.34280
2479.659	3.84070	0.24877	12.22971	-1.11351
2483.661	3.94542	0.12953	12.54020	-1.13815
2487.663	3.91669	0.40158	12.47863	-1.23325
2491.662	3.88401	0.15002	12.33565	-1.32047
2495.661	4.00611	0.29141	12.18979	-1.28399
2499.664	3.70406	0.46824	12.13341	-1.13844
2503.623	3.71945	0.31149	10.35541	-2.26879
2507.642	3.54925	0.43253	10.21570	-1.16929
2511.663	3.58865	0.28443	10.17226	-2.31562
2515.660	3.49619	0.47462	10.30161	0.21097
2519.684	3.46998	0.56471	11.24320	-0.45943
2523.664	3.41122	0.55636	10.34912	-0.15598
2527.665	3.47890	0.58060	10.38793	-0.18779
2531.665	3.35031	0.49845	10.56615	-0.05504
2535.691	3.42270	0.62900	11.24934	-0.22600
2539.658	3.42126	0.43668	10.80615	-0.00525
2543.666	3.49886	0.45346	11.29729	-0.41702
2547.652	3.47391	0.56592	11.02239	0.09905
2551.686	3.52227	0.49427	11.37190	-0.23664
2555.669	3.46365	0.48056	11.29691	0.79258
2559.663	3.65786	0.39719	11.36849	-0.00051
2563.660	3.57777	0.42329	11.72655	-0.60510
2567.688	3.63940	0.40427	11.62866	0.23151
2571.663	3.66113	0.37167	11.80699	-0.59021
2575.661	3.78921	0.32037	11.77955	-0.09755
2579.662	3.77614	0.27877	12.13657	-0.22105
2583.663	3.74491	0.47221	12.06252	-0.53204
2587.626	3.81068	0.45906	12.14494	-0.19148
2591.665	3.93584	0.48806	12.63211	-0.18683
2595.666	3.89424	0.59803	12.36959	-0.05983
2599.685	3.96528	0.74523	12.62509	-0.33346
2603.662	3.98664	0.74779	12.58127	-0.06213
2607.662	4.01514	0.87280	12.84815	-0.45926
2611.665	4.10715	1.00417	13.84502	-0.53368
2615.686	4.16063	1.00483	12.76258	-0.56292
2619.665	4.20728	1.06955	13.43855	-0.87102
2623.665	4.19672	1.12706	13.42099	-1.66754
2627.666	4.28219	1.17222	13.97970	-3.15409
2631.675	4.33944	1.40772	13.63445	-2.93579
2635.660	4.33786	1.17223	14.02050	-3.27093
2639.664	4.37566	1.29028	14.00945	-3.14111
2643.665	4.40937	1.35250	14.14207	-3.94514
2647.686	4.43475	1.28163	14.10389	-2.27965
2651.665	4.47420	1.16880	14.09838	-1.44092
2655.665	4.44615	1.12976	13.88771	-1.32938
2659.666	4.46083	1.01770	13.54058	-1.02614
2663.687	4.49657	0.80288	13.48460	-1.41153
2667.665	4.44615	0.95142	13.58228	-1.10946
2671.661	4.47481	0.87317	13.24894	-1.37979
2675.626	4.34680	0.50689	13.16781	0.20407
2679.669	4.21395	0.57824	13.34639	-1.12645
2683.665	4.25551	0.30413	13.12505	0.19776
2687.663	4.10379	0.29276	13.02043	-0.54130
2691.666	4.00418	1.09423	13.15812	-0.80159
2695.687	4.04386	1.20404	13.10273	-0.81520
2699.665	3.91531	1.19788	13.02907	-1.08167
2703.664	3.83112	1.99461	12.93533	-1.13483
2707.664	3.71745	1.85790	13.20604	-1.38088
2711.667	3.78981	1.84130	13.50462	-2.56343
2715.635	3.76159	1.60393	13.40417	-3.08312
2719.665	3.74164	1.87756	13.32961	-2.53653
2723.663	3.64237	1.98573	12.46857	-0.67691
2727.666	3.00851	2.77514	9.17996	0.03172
2731.670	2.75103	1.98619	9.23045	-1.33358
2735.665	-0.06530	2.04446	7.16244	0.71970
2739.664	-0.12875	2.76344	3.94680	1.14907
2743.668	-1.80018	3.13214	4.06434	-0.62220
2747.666	-2.21204	2.66065	3.03412	1.07148
2751.668	-4.29320	2.24983	0.32369	1.20620
2755.655	-4.79063	2.61569	0.34154	0.79543
2759.668	-4.95534	2.30307	0.48406	0.58419
2763.664	-5.08286	2.43783	1.17865	0.33621
2767.627	-5.08645	2.70015	0.88999	0.07839
2771.664	-4.95024	2.57892	0.60707	1.02633
2775.668	-4.92496	2.61625	0.52806	0.98083
2779.667	-5.03514	2.54899	0.53334	0.13763
2783.667	-4.92257	2.25437	0.47885	1.10452
2787.667	-4.96970	2.31541	0.74191	0.53390
2791.667	-5.03169	2.37968	0.77938	0.98232
2795.663	-5.08027	2.33488	0.85319	0.74381
2799.663	-5.02172	2.13057	0.93214	0.92232
2803.669	-5.07638	2.34298	0.80965	0.57163
2807.670	-5.02578	2.28652	0.72181	0.08900
2811.666	-4.99943	2.23176	0.95636	0.46992
2815.666	-4.97078	2.10564	0.92666	0.64067
2819.667	-5.02117	2.23478	0.86617	0.59525
2823.671	-5.06974	2.22287	0.91267	0.80255
2827.665	-5.11233	2.39406	0.83873	0.81876
2831.671	-5.05715	2.25393	0.86250	0.69119
2835.632	-5.10275	2.25857	0.81776	0.80652
2839.651	-5.15423	2.28668	0.68754	0.76212
2843.664	-5.22672	2.30512	0.71258	0.96950
2847.665	-5.30924	2.22512	0.64037	1.04217
2851.669	-5.24698	2.34543	0.85843	1.01310
2855.671	-5.50023	2.31722	0.76166	-0.41717
2859.667	-5.42636	2.36890	0.71819	-0.26631
2863.668	-5.28040	2.28953	0.67054	0.13119
2867.666	-4.98623	2.30947	0.56659	-0.55422
2871.671	-4.94792	2.34472	0.65744	-0.47997
2875.669	-5.02125	2.11074	0.67387	0.04038
2879.666	-4.89799	2.06631	0.57672	0.06913
2883.662	-4.76019	2.56937	0.55151	0.16723
2887.672	-4.84070	2.36836	0.54436	3.68819
2891.666	-4.89232	2.35394	0.41192	2.86875
2895.665	-4.49351	2.57634	0.22060	2.57458
2899.668	-4.56434	2.29973	0.24001	0.06215
2903.669	-4.55120	2.71441	0.03201	2.96496
2907.659	-4.53031	2.80289	-0.12555	3.06725
2911.664	-4.53956	2.70694	-0.29831	2.81199
2915.667	-4.53620	2.69546	-0.21817	2.30452
2919.672	-4.60730	2.89833	0.21584	2.32774
2923.649	-4.61544	2.89780	0.14007	2.63927
2927.667	-4.76367	2.81595	0.27163	2.47433
2931.671	-4.76990	2.91727	0.51604	2.55374
2935.670	-4.97694	2.76736	0.01804	2.52932
2939.668	-4.71447	2.83675	-0.00020	2.19753
2943.671	-4.84802	2.78769	0.38819	1.95510
2947.667	-4.66164	2.78204	0.60836	2.44684
2951.673	-4.24051	2.80756	0.81401	2.28795
2955.668	-3.22139	2.82742	2.18451	2.20523
2959.671	-1.52603	2.71468	4.79262	2.04655
2963.658	-1.03972	2.89712	4.51038	2.61235
2967.672	0.46567	2.54540	5.32264	2.44199
2971.669	0.84836	2.60695	8.23367	1.84293
2975.672	1.18314	2.59195	7.86469	2.36248
2979.669	2.23241	1.90899	8.29839	2.49089
2983.672	1.94709	2.42449	9.31620	2.29635
2987.669	1.80090	1.51423	8.40596	2.64798
2991.668	1.87106	1.98099	8.97884	2.53016
2995.670	2.03600	1.59271	8.48012	2.68761
2999.635	2.12900	1.74403	8.78786	2.85658
3003.668	2.22416	1.71520	9.09822	2.23044
3007.634	2.18297	1.81021	11.25213	-0.86968
3011.668	2.25008	1.83228	9.65314	0.71465
3015.674	2.14283	1.54074	9.73566	-1.19603
3019.631	2.31044	1.63092	9.80127	1.68323
3023.667	2.21132	1.59449	9.69545	1.39822
3027.671	2.21286	1.58575	9.50419	0.16065
3031.675	2.23204	1.68708	9.66499	-0.42679
3035.674	2.25992	1.69675	9.67410	1.59732
3039.670	2.17336	1.65003	9.60364	1.32313
3043.671	2.11368	1.75072	9.66147	0.28688
3047.655	2.17408	1.81034	9.53883	0.66074
3051.667	1.98378	1.73620	9.26198	-0.02222
3055.673	1.87158	2.35248	9.17106	0.68746
3059.670	1.80764	2.21186	9.25011	-1.58736
3063.673	1.80276	2.45640	8.92561	-1.82329
3067.670	1.91253	2.97084	8.73982	-1.97475
3071.672	1.83362	3.15095	8.69508	-1.91024
3075.670	1.79636	2.88887	8.77766	-2.33301
3079.676	1.79306	2.69280	8.42819	-2.11400
3083.633	1.63896	2.70940	8.79303	-2.86737
3087.635	1.77990	2.36043	8.57107	-3.28729
3091.677	1.78709	2.67118	8.56241	-3.16044
3095.637	2.17477	2.60083	8.42129	-3.11518
3099.673	2.26428	2.60520	8.81656	-3.51339
3103.671	2.47841	2.20643	9.35595	-2.86836
3107.670	2.49610	2.37088	9.80853	-2.53010
3111.672	2.31854	2.19677	9.96677	-2.15726
3115.673	2.46367	2.05988	9.68131	-1.29482
3119.672	2.38427	2.20995	9.83202	-2.10249
3123.672	2.37320	2.09731	10.02331	-1.75810
3127.673	2.42668	2.17322	9.96559	-1.81139
3131.649	2.52480	1.88929	10.05645	-1.51714
3135.673	2.56602	1.78238	9.98208	-1.82485
3139.670	2.42735	1.93189	9.79074	-1.15344
3143.675	2.50801	2.00928	9.79739	-1.01254
3147.670	2.46139	1.86513	9.80139	-1.52556
3151.672	2.44769	1.73663	9.78284	-1.61388
3155.673	2.43144	1.86594	9.54691	-0.97214
3159.675	2.46674	1.73095	9.49892	-1.55453
3163.671	2.46315	1.85451	9.54501	-1.19139
3167.674	2.49359	1.75648	9.38520	-1.68806
3171.661	2.46201	1.72832	9.34196	-1.16923
3175.573	2.44504	1.86463	9.33642	-1.78462
3179.671	2.38610	2.05470	9.26333	-0.34048
3183.671	2.30509	2.03391	9.33123	0.55809
3187.671	2.29528	1.83745	9.29009	0.81524
3191.675	2.12711	2.06173	9.21766	3.35675
3195.675	2.23192	2.11146	9.34809	1.44377
3199.672	1.98901	2.20218	9.35667	1.71787
3203.673	1.59338	2.83015	9.25980	3.47094
3207.569	-4.48905	14.47267	15.50532	3.31457
3211.674	NaN	NaN	9.98251	3.68875
3215.639	NaN	NaN	8.93936	12.29166
3219.672	NaN	NaN	NaN	NaN
3223.574	NaN	NaN	NaN	NaN
3227.671	NaN	NaN	NaN	NaN
3231.669	NaN	NaN	NaN	NaN
3235.673	NaN	NaN	NaN	NaN
3239.672	NaN	NaN	NaN	NaN
3243.676	NaN	NaN	NaN	NaN
3247.671	NaN	NaN	NaN	NaN
3251.647	NaN	NaN	NaN	NaN
3255.653	NaN	NaN	NaN	NaN
3259.670	NaN	NaN	NaN	NaN
3263.671	NaN	NaN	NaN	NaN
3267.671	NaN	NaN	NaN	NaN
3271.671	NaN	NaN	NaN	NaN
3275.672	NaN	NaN	NaN	NaN
3279.549	NaN	NaN	NaN	NaN
3283.637	NaN	NaN	NaN	NaN
3287.549	NaN	NaN	NaN	NaN
3291.549	NaN	NaN	NaN	NaN
3295.550	NaN	NaN	NaN	NaN
3299.514	NaN	NaN	NaN	NaN
3303.524	NaN	NaN	17.02629	8.09660
3307.582	NaN	NaN	21.53779	10.86914
3311.551	NaN	NaN	21.67496	8.28741
3315.549	NaN	NaN	21.06420	4.75201
3319.550	NaN	NaN	NaN	NaN
3323.540	NaN	NaN	22.21225	3.46599
3327.550	17.90736	4.40069	21.33147	3.67374
3331.548	18.98076	5.66806	21.80919	2.49188
3335.514	15.17794	0.33726	21.44989	2.23445
3339.572	NaN	NaN	18.72678	2.27138
3343.537	NaN	NaN	18.98324	1.98080
3347.520	NaN	NaN	15.21418	2.48398
3351.552	NaN	NaN	13.15873	2.49052
3355.515	NaN	NaN	11.82309	3.40900
3359.550	NaN	NaN	12.13107	2.61703
3363.551	6.81534	3.52544	12.70000	2.44583
3367.551	NaN	NaN	13.63475	2.06950
3371.548	NaN	NaN	12.93872	2.29236
3375.549	6.48666	2.15354	12.80962	1.83710
3379.509	6.39989	3.15720	12.66937	2.30587
3383.554	6.23685	3.15610	12.62613	2.27271
3387.572	6.16898	2.54164	12.66039	2.32108
3391.549	4.74437	2.22460	12.87282	2.41638
3395.552	5.11506	2.53640	12.71845	2.26194
3399.514	6.16949	3.40528	12.75101	2.14665
3403.573	6.30742	3.40025	12.78880	2.23794
3407.550	3.96474	2.07817	12.80497	2.22139
3411.549	4.03060	2.70708	12.89343	1.02177
3415.554	4.61721	3.68142	12.96736	1.24080
3419.574	3.70828	2.14806	14.16233	1.40863
3423.553	3.76781	2.26500	12.78146	2.10339
3427.530	3.77896	1.99168	12.96043	0.45707
3431.552	3.86583	2.08030	13.15637	1.44183
3435.576	4.10276	2.10218	13.39985	1.13807
3439.550	3.98556	2.11818	13.25105	0.38008
3443.552	4.18504	2.06278	12.38086	1.86129
3447.549	4.13115	2.04102	11.82102	1.75595
3451.542	4.41919	2.06762	11.41261	1.84770
3455.512	4.45836	2.10457	11.40603	-0.78283
3459.549	4.71706	2.01165	11.81786	-0.88553
3463.553	5.26863	2.08556	11.85832	-0.36906
3467.552	5.18003	2.08808	11.55180	-0.38020
3471.541	4.46983	1.85202	11.06079	-1.69968
3475.549	4.78565	1.84499	11.55242	-1.64447
3479.551	4.76887	1.59228	11.55795	-1.09740
3483.543	4.65900	1.72525	11.60444	-1.74366
3487.551	4.70444	1.56189	10.64252	-1.83588
3491.552	4.81500	1.61244	11.41280	-4.46288
3495.554	4.66408	1.57208	11.28214	-2.47632
3499.543	4.65826	1.64698	11.33251	-3.70598
3503.553	4.73027	1.51536	11.22556	-2.22053
3507.553	4.58949	1.35563	11.20400	-2.88429
3511.525	4.50434	1.42115	11.12395	-3.70280
3515.573	4.51129	1.53697	11.31273	-2.73871
3519.512	4.73362	1.19218	11.27717	-1.89756
3523.554	4.52913	1.41709	11.45810	-1.40024
3527.554	4.39521	1.64191	11.42608	-1.37484
3531.513	4.28130	2.09556	11.44814	0.10041
3535.560	4.21612	1.98250	11.63947	-0.20605
3539.554	4.25551	2.50244	11.42899	0.87856
3543.565	4.28844	2.01727	11.81667	0.16114
3547.580	4.48453	2.16708	11.81422	-0.10731
3551.535	4.52580	2.24614	12.29896	0.39586
3555.542	4.71183	2.21488	11.92144	0.06876
3559.555	4.73510	2.25620	11.97714	-0.30344
3563.574	4.56696	2.19815	12.34960	-0.67299
3567.552	4.44696	2.24148	12.46933	-0.65500
3571.553	4.42405	2.22502	11.91308	0.26402
3575.555	4.58035	1.94737	11.87959	0.19327
3579.574	4.83853	2.07680	11.14749	0.33354
3583.516	4.71900	1.86263	11.30767	0.04313
3587.557	4.82387	1.98757	11.73626	0.11245
3591.557	4.63743	2.04631	11.44106	-0.53303
3595.555	4.48224	1.94741	11.55059	-0.12188
3599.553	4.51743	1.80580	11.08163	-0.46661
3603.556	4.64571	1.68541	11.49216	-0.62166
3607.553	4.55685	1.95641	11.31335	-0.74564
3611.570	4.69724	1.95276	12.29640	-1.39301
3615.556	4.82296	1.84422	12.29296	-0.75053
3619.553	4.78895	1.99349	12.56540	-0.68422
3623.556	4.70865	1.83827	12.75413	-0.65696
3627.544	4.81471	2.03528	12.56214	-0.60653
3631.555	4.71415	1.69779	12.28498	-0.77252
3635.539	4.87675	1.64833	12.50768	-0.84220
3639.554	4.92378	2.01571	13.15995	-0.96893
3643.580	4.96492	2.17866	13.21512	-1.11427
3647.554	4.88407	2.18090	13.20682	-0.65103
3651.516	4.96544	1.21848	11.44444	2.40912
3655.553	4.93398	0.95472	10.60231	-0.38359
3659.548	4.88784	1.23973	10.56610	-2.29252
3663.554	4.85871	1.77432	10.40507	-1.75326
3667.553	4.95046	1.91328	10.61732	-1.27991
3671.556	4.83070	2.35779	11.21770	-1.10056
3675.570	4.68491	2.40175	10.82986	-0.94630
3679.545	4.77875	0.64735	10.83077	-0.49532
3683.555	4.85677	1.68537	11.43138	0.57793
3687.554	4.89254	1.84744	11.34013	-0.60703
3691.556	4.89673	2.04683	11.13719	-1.35113
3695.553	4.86699	3.11033	11.34070	-1.47411
3699.555	4.79455	2.76397	12.44041	-0.90441
3703.553	4.84765	1.53032	12.62055	-0.70689
3707.579	4.81946	2.26893	12.14025	1.31790
3711.556	4.65111	3.33943	12.38249	-2.14064
3715.555	4.77599	2.20721	10.93021	-1.25002
3719.516	4.72418	2.19721	11.82050	0.90286
3723.580	5.23659	2.35778	10.16338	-1.64873
3727.555	4.86815	1.17557	11.43400	-1.60569
3731.557	4.78996	2.24947	11.34277	0.27850
3735.561	4.59931	2.70439	11.26381	-1.70375
3739.549	4.84979	1.82060	11.50327	-0.89966
3743.555	4.93561	2.19032	11.47948	-0.76135
3747.557	4.62014	2.55562	11.49316	-1.59985
3751.554	4.54294	2.02313	11.74328	-1.16715
3755.581	4.43253	2.69396	12.74853	0.42396
3759.543	4.21600	3.32257	11.58389	-1.57221
3763.547	4.47629	1.76321	11.87563	-1.18450
3767.551	4.80768	2.48141	12.49978	0.32867
3771.520	4.47045	1.53185	11.90044	-0.84192
3775.556	4.89621	1.75347	10.20103	-0.43531
3779.557	4.92023	3.31540	11.34607	1.26451
3783.555	4.54284	1.72144	11.34416	-0.62354
3787.522	4.49087	1.81910	10.04432	-0.73115
3791.557	4.50774	2.40487	10.22416	0.72421
3795.554	4.99810	2.06075	11.19000	2.50879
3799.557	5.41057	2.18384	9.66122	-0.57646
3803.558	4.72978	1.62271	9.85303	-0.69978
3807.557	5.00839	1.20412	9.81913	-0.08565
3811.556	5.15421	1.69044	11.19681	-0.43486
3815.558	4.92994	1.87333	12.24614	-0.36933
3819.561	4.95549	2.51894	12.77270	0.56527
3823.560	4.95361	2.26998	13.34134	0.54315
3827.555	5.44778	2.48191	12.02273	1.86150
3831.555	5.47454	2.39829	11.51380	1.92561
3835.522	5.30161	2.59528	11.62740	2.40433
3839.559	5.22360	2.34500	11.51013	1.96386
3843.538	5.18542	2.14354	11.46041	1.86540
3847.557	5.23416	2.08117	11.34120	2.16782
3851.557	5.23169	1.24780	11.00171	1.62303
3855.521	5.25067	1.47180	11.08672	-0.49979
3859.557	5.18678	2.04473	10.91126	1.27032
3863.558	5.28133	2.56675	10.74829	-1.41965
3867.547	5.20172	1.82679	10.92758	-2.85434
3871.560	5.10588	1.14043	11.06411	1.96470
3875.556	5.14569	0.22952	11.04542	0.62187
3879.558	5.08577	1.83970	11.22699	-0.74111
3883.561	5.14709	1.67683	11.12663	-0.77189
3887.549	5.07104	0.85855	11.32407	0.72758
3891.555	5.13863	2.10576	10.92327	-0.27890
3895.560	5.03169	2.08223	11.72479	-1.96809
3899.559	5.16418	0.53222	11.04986	0.84502
3903.559	5.05902	1.82062	11.55731	-1.47366
3907.550	5.22687	1.07711	11.47527	-2.56141
3911.546	5.20831	0.45424	10.95949	-0.01574
3915.563	5.19084	2.62597	11.05572	-1.39194
3919.559	5.21127	1.10239	11.31271	-0.50715
3923.522	5.17004	2.60546	11.00893	-0.84592
3927.530	5.16253	2.19025	10.94325	-0.60281
3931.562	5.43762	2.38943	10.96495	-0.20280
3935.561	5.22763	2.29652	11.86876	-1.45837
3939.558	5.13301	2.24917	11.80752	-0.25043
3943.559	4.95435	2.20230	12.02622	-2.04614
3947.556	4.94393	1.72613	12.43817	-0.84830
3951.558	5.24343	2.32613	11.94895	-1.42886
3955.557	4.95780	0.77445	12.61769	-0.61268
3959.522	4.88611	2.27837	12.56819	-1.33396
3963.468	4.89614	1.68176	12.60618	-0.00926
3967.541	4.89382	2.37118	12.21921	-1.09447
3971.553	4.89454	1.26530	12.53776	-0.18149
3975.558	4.91282	2.46562	12.32812	-2.66564
3979.551	5.06001	1.10963	12.32321	0.41473
3983.559	4.87190	2.57905	12.09574	-1.34498
3987.559	4.65397	2.22219	12.20470	0.16275
3991.559	4.99088	1.43796	11.88986	-1.25055
3995.561	4.99682	2.20846	12.19342	-1.56231
3999.559	5.04329	1.58445	11.95983	0.72444
4003.558	5.08200	0.84315	11.89547	-1.37847
4007.561	5.01369	2.52563	11.90649	-2.02291
4011.561	5.09569	1.46922	11.78450	1.75613
4015.562	5.16566	1.13119	11.72229	-0.42097
4019.558	5.16890	2.12143	11.76281	-1.66607
4023.562	5.24626	2.15159	11.69583	-2.47116
4027.564	5.29268	1.64228	11.92172	0.95557
4031.561	5.20519	1.39175	11.74197	0.77547
4035.561	5.07131	1.93991	11.63713	-0.95733
4039.566	5.12885	2.51500	11.50408	-1.95175
4043.459	4.74905	3.25983	11.67684	-3.31038
4047.561	4.72741	2.56294	11.79855	-1.43986
4051.540	5.01379	1.98619	11.90476	2.08436
4055.564	5.18321	2.36161	13.23323	0.06028
4059.562	6.81263	2.80954	14.11890	2.20530
4063.560	7.81454	3.02547	15.03003	3.12245
4067.559	9.62116	3.36532	15.02878	3.92996
4071.559	10.74343	3.22497	18.09818	3.83822
4075.459	12.81094	2.78353	16.77063	2.00860
4079.559	14.65741	2.76078	20.65508	1.69266
4083.560	12.40953	3.05315	19.40012	4.27019
4087.561	14.70163	3.09122	23.41718	2.88670
4091.459	16.07737	3.04597	NaN	NaN
4095.553	16.39011	3.35714	23.22064	3.58335
4099.523	16.20966	3.55936	21.32386	4.41448
4103.560	15.87947	3.54554	21.88535	4.50918
4107.565	15.99429	3.63510	22.55005	5.32296
4111.563	16.07437	3.38767	22.92963	4.40687
4115.560	15.16477	3.11497	19.49872	4.91585
4119.562	16.22384	3.30109	19.21887	4.94582
4123.459	15.64873	3.89308	20.19767	3.89182
4127.524	15.85173	3.89315	21.09977	4.82828
4131.564	16.26294	2.60549	21.99432	5.12873
4135.561	15.66284	2.74131	19.77885	4.12802
4139.567	16.20572	3.35250	21.20118	3.98111
4143.563	15.59522	4.06088	22.59438	4.04956
4147.565	15.75727	3.64294	22.87037	4.39520
4151.561	15.70094	3.14941	23.10400	3.92624
4155.461	16.08058	3.54494	NaN	NaN
4159.563	15.67370	4.17650	17.92673	5.69824
4163.564	15.81107	2.70475	20.92727	4.52478
4167.561	15.47157	3.42136	21.08931	4.49030
4171.464	15.94465	3.87512	21.20894	3.84387
4175.546	15.68366	4.27949	21.13609	4.07995
4179.560	15.68992	3.17791	22.71297	4.00623
4183.568	15.45670	3.09292	22.03290	4.41621
4187.564	15.94644	3.58720	22.96482	4.68736
4191.564	15.69999	3.40548	NaN	NaN
4195.524	15.76791	2.20718	19.83245	5.47672
4199.568	15.38392	3.64112	22.56416	4.24532
4203.462	15.87935	3.68869	21.52785	4.82076
4207.565	15.42290	3.59821	19.85109	3.71153
4211.562	15.47630	2.94528	21.11875	3.67040
4215.566	15.41397	3.49876	22.55339	3.98796
4219.466	15.63343	3.48293	22.57481	4.02269
4223.562	15.21710	3.43202	22.55041	3.34257
4227.562	15.40309	2.72731	NaN	NaN
4231.566	15.73911	3.52541	22.54382	4.01797
4235.461	15.86411	3.86122	22.67077	3.68995
4239.567	15.27376	3.63069	18.35924	4.06176
4243.566	15.41141	2.95281	22.62299	1.83240
4247.562	15.29325	3.49576	20.47873	3.82846
4251.465	15.03827	4.75261	21.17227	6.10224
4255.565	15.40270	3.73498	21.03186	3.23792
4259.545	15.27926	3.33094	22.47064	2.78591
4263.526	15.44693	3.64584	NaN	NaN
4267.462	15.34492	4.00833	22.22131	4.29076
4271.565	15.44965	4.02648	21.71063	4.62337
4275.564	15.50548	2.98493	21.99269	4.67351
4279.563	15.60132	2.58633	18.25937	4.33254
4283.462	15.17873	3.19269	18.78223	3.94060
4287.563	15.87568	2.87707	21.89685	3.04450
4291.564	16.12390	3.47539	21.83646	3.00491
4295.563	15.49621	3.88974	21.84568	3.12068
4299.432	15.40902	4.37019	22.03169	4.10489
4303.557	15.57014	3.95649	22.77995	3.32426
4307.413	15.84449	3.13526	23.00413	4.10369
4311.439	15.77775	2.26321	23.11397	3.30114
4315.464	16.16525	2.46986	22.88213	3.89029
4319.441	15.52939	2.23297	NaN	NaN
4323.439	15.86532	2.28194	18.84090	4.07827
4327.441	15.65720	2.94257	19.93196	2.51568
4331.432	15.72474	2.64272	20.03434	3.73574
4335.444	15.69956	3.43178	20.69444	3.29979
4339.443	15.45378	2.81795	20.47697	3.25760
4343.444	14.56630	2.79753	19.89183	3.67395
4347.434	14.58922	2.36646	19.83447	2.78588
4351.437	13.32618	2.73035	18.79474	0.87280
4355.443	13.24438	1.78959	18.86694	-1.29893
4359.443	13.07300	0.61377	19.33059	0.26461
4363.434	13.06066	0.65110	19.20285	-0.79225
4367.441	12.80813	0.98823	18.80837	-1.53956
4371.441	12.36393	0.86390	18.57664	-0.38155
4375.441	12.29251	0.75869	18.80597	-1.15506
4379.464	12.14826	1.80522	18.59542	-1.26703
4383.445	11.95026	2.13990	18.88254	-1.69880
4387.449	12.36999	1.17512	18.74988	-2.36730
4391.409	12.21629	0.71930	18.96300	-3.09115
4395.463	12.22106	0.85952	19.59082	-4.62182
4399.404	12.11693	0.69241	19.22903	-2.70625
4403.441	NaN	NaN	NaN	NaN
4411.440	12.05537	-0.55303	21.59991	-2.39497
4415.442	11.96627	0.46041	22.04090	-2.92147
4419.443	12.12395	0.63120	21.40533	-3.34934
4423.438	12.01402	0.92059	18.96469	-2.87459
4427.444	12.66237	0.71189	18.31837	-1.01235
4431.413	11.49996	0.98110	17.88702	-2.59782
4435.411	11.35711	0.81064	18.29866	-1.26962
4439.449	11.96375	0.52862	17.64516	-0.23441
4443.440	11.94261	0.56493	17.84642	-1.21579
4447.442	11.75672	0.21661	17.80701	-1.65073
4451.463	12.06582	-0.62072	18.32660	-2.94861
4455.443	11.81960	-0.40396	19.26511	-3.48764
4459.442	11.94482	0.59159	20.22796	-3.37943
4463.439	11.97845	0.56947	19.91149	-1.21919
4467.431	12.08653	0.56395	19.84844	-1.82138
4471.429	11.89770	0.57411	19.91557	-1.30105
4475.432	11.77810	0.60628	21.57486	-1.57126
4479.442	11.62051	1.10640	19.89598	-2.45034
4483.467	11.57174	1.63545	19.05658	-1.56833
4487.444	11.83980	0.99556	17.75366	-1.18690
4491.444	11.74161	1.18778	18.05656	-1.78949
4495.443	11.78883	1.08182	19.22414	-2.17548
4499.434	11.89540	1.06089	19.40924	-2.37433
4503.404	11.95852	0.77063	19.43518	-2.57241
4507.404	11.93277	0.86985	19.66165	-2.96118
4511.439	11.80930	0.97748	19.45405	-3.16615
4515.437	11.49343	1.02341	20.86082	-2.97717
4519.442	11.63951	0.97920	19.58344	-2.60099
4523.402	11.86369	0.98190	17.41027	-2.24466
4527.445	11.89720	0.95869	18.44895	-3.10606
4531.466	11.87505	0.97044	17.94710	-3.00220
4535.442	12.09667	0.78862	17.81630	-0.01819
4539.443	12.14715	0.76656	19.59060	-1.01758
4543.445	12.19097	0.74443	19.85169	-2.01066
4547.436	11.58284	0.81279	20.25964	-1.58471
4551.443	11.63449	0.85130	20.53865	-1.62925
4555.442	11.71951	0.94245	18.67982	-1.54085
4559.441	11.96869	0.91428	18.77763	-1.59429
4563.404	12.28491	0.89383	18.48814	-0.62807
4567.442	12.29912	0.72347	18.69321	-0.83240
4571.447	11.88936	0.88744	19.43483	-1.32187
4575.442	12.11595	0.74027	19.89532	-0.40626
4579.403	11.35718	0.98142	19.42174	-0.15062
4583.445	11.65811	1.15340	20.36018	-1.26222
4587.443	11.58306	1.15587	20.73313	-1.59921
4591.446	11.79551	1.35260	19.20132	-1.59392
4595.462	11.88969	1.24904	18.47633	-0.73953
4599.439	12.05694	1.30590	18.61784	-1.07706
4603.417	11.89366	0.78051	19.39940	-0.58397
4607.443	12.01203	1.10232	19.32542	-1.28948
4611.403	11.61318	1.43168	19.70887	-1.41520
4615.443	11.49090	1.45471	19.83280	0.66451
4619.441	11.40534	1.42784	20.32213	-1.27651
4623.443	11.69169	1.33621	21.33017	-1.59051
4627.434	11.88675	1.33297	18.06261	-1.60310
4631.443	12.04358	1.29854	18.63094	-1.24942
4635.445	12.16527	1.36124	18.93383	-1.29712
4639.416	11.95422	1.13213	18.64815	-1.00838
4643.410	12.15227	1.01881	19.59126	-0.77814
4647.445	11.79403	1.22733	19.75795	-0.88533
4651.443	11.54406	1.45079	19.57445	-1.61058
4655.444	11.63175	1.58498	20.21459	-1.67522
4659.437	11.88425	1.48431	20.49352	-1.84147
4663.444	11.91348	1.52519	20.35800	-1.65812
4667.444	11.66751	1.39725	19.12096	-0.85396
4671.406	11.72263	1.55434	18.42029	0.38214
4675.437	11.67803	1.62287	18.82911	-0.66423
4679.434	11.72826	1.58970	18.59073	-1.41489
4683.433	11.80062	1.44792	18.90918	-1.69982
4687.444	11.78902	1.51743	18.98207	-1.23166
4691.440	11.69740	1.57250	18.85048	-1.40816
4695.448	11.67829	1.46690	18.76579	-1.59953
4699.445	11.34242	1.46448	19.04418	-1.22796
4703.449	11.22616	1.40235	19.23387	-1.29519
4707.409	11.15159	1.38734	20.28205	-1.23912
4711.448	11.55733	1.41505	20.46431	-1.30465
4715.445	11.24108	1.34331	19.48118	-1.51780
4719.449	11.15859	1.15365	21.14973	-1.61654
4723.437	11.37832	0.83829	19.86350	-2.01478
4727.447	10.29699	0.76024	19.15926	-4.82300
4731.445	10.56066	-0.63970	18.27118	-3.94362
4735.444	10.37923	0.19965	17.97176	-4.89387
4739.437	10.63876	-0.79616	17.17374	-1.98748
4743.451	10.32010	-0.96858	17.43019	-2.55961
4747.447	10.33812	-1.46459	17.48270	-3.97993
4751.441	10.52624	-2.76683	17.75181	-4.03184
4755.468	10.73495	-2.22766	18.58942	-4.03752
4759.446	10.30737	-1.45430	17.60380	-4.30550
4763.428	10.35520	-1.69331	18.53295	-4.21100
4767.403	10.49008	-2.05601	18.04031	-4.64182
4771.434	10.32746	-2.24573	19.04582	-5.23321
4775.450	10.48655	-2.54287	18.61296	-4.92858
4779.447	10.51969	-2.25089	18.52224	-5.28287
4783.409	10.56486	-1.62622	19.17471	-7.10001
4787.438	10.54145	-1.52975	18.96518	-7.09171
4791.446	10.54094	-1.86639	18.99800	-6.07179
4795.447	10.68693	-1.69847	18.78795	-6.41638
4799.446	10.45231	-0.94073	18.49494	-7.08655
4803.446	10.43930	-1.12011	18.72950	-6.95326
4807.410	10.49452	-0.94642	18.50144	-6.88228
4811.448	10.41102	-1.48511	18.28955	-6.90786
4815.447	10.32549	-1.02880	18.34017	-6.25555
4819.445	10.36752	-1.08184	17.43936	-6.25173
4823.445	10.24204	-1.31726	18.80410	-5.10789
4827.450	10.17536	-1.13486	18.26805	-4.64710
4831.446	10.27996	-0.96816	17.28667	-6.63019
4835.440	10.30857	-0.88290	17.41797	-5.95899
4839.425	10.14920	-0.93401	17.60141	-6.99232
4843.413	10.18481	-0.95087	17.23077	-7.12885
4847.448	10.11700	-0.78792	17.13915	-6.63017
4851.445	10.08587	-1.01102	17.55560	-6.92615
4855.446	9.85676	-0.87576	17.24788	-6.70041
4859.447	10.02074	-0.91229	16.65558	-5.74072
4863.447	9.80559	-0.84065	16.98194	-5.49548
4867.442	10.11548	-1.69618	16.53188	-5.10027
4871.448	9.79050	-1.96010	16.28606	-4.67867
4875.410	9.77594	-1.84585	16.38655	-3.27528
4879.449	9.72373	-1.97833	16.21213	-3.33391
4883.449	9.73410	-2.21774	16.41811	-2.80900
4887.435	9.74094	-2.29690	15.95787	-3.83241
4891.436	9.69262	-2.28529	16.40210	-2.96814
4895.446	9.60968	-2.11297	16.07881	-4.08776
4899.447	9.63571	-2.13969	16.17532	-4.02992
4903.411	9.74955	-1.98175	16.31418	-4.36762
4907.442	9.63259	-2.01757	16.14558	-4.04017
4911.451	9.49772	-1.70012	16.13102	-3.74139
4915.449	9.43387	-2.02864	18.23557	-4.35850
4919.448	9.46087	-1.53643	19.15204	-4.46320
4923.448	9.52714	-1.63178	18.76975	-2.55109
4927.449	9.59086	-1.78340	18.08217	-2.76443
4931.439	9.45220	-1.58428	18.41453	-2.70651
4935.449	9.45160	-1.67520	18.50443	-2.94665
4939.447	9.44247	-1.76556	18.27338	-2.97679
4943.451	9.42235	-1.88814	18.21446	-3.09436
4947.451	9.41520	-1.81383	17.98919	-3.40190
4951.447	9.35165	-1.53096	17.51611	-2.98480
4955.449	9.04977	-1.42984	17.86693	-3.10848
4959.413	9.29925	0.50709	17.74434	-3.60716
4963.414	9.26466	-0.98041	17.70741	-3.09492
4967.452	9.04219	-0.38425	18.50729	-3.10764
4971.431	8.89262	-0.37984	17.73455	-3.28817
4975.446	9.15480	-0.26927	17.98137	-4.82138
4979.451	9.51730	-1.40586	16.47778	-6.70768
4983.451	9.39533	-3.77997	16.05060	-5.12075
4987.448	9.85177	-4.16044	16.13013	-6.32907
4991.451	9.32862	-3.91517	16.55498	-6.72372
4995.455	9.51211	-4.20846	16.40139	-8.92031
4999.453	9.27815	-5.49381	16.14478	-9.36653
5003.454	9.12669	-5.38226	16.69853	-10.94092
5007.446	9.25313	-5.11559	17.08651	-11.06197
5011.418	9.21498	-5.20213	15.71262	-10.77022
5015.452	9.54406	-4.54659	16.41073	-9.49388
5019.450	9.54645	-4.75180	15.63295	-9.96787
5023.451	9.34674	-3.93166	16.26081	-9.33541
5027.452	9.02234	-4.12414	15.95491	-6.79216
5031.450	8.90049	-4.23130	16.01688	-7.13498
5035.452	9.17749	-4.45185	15.86849	-8.57401
5039.450	9.11820	-4.49155	15.62241	-7.49607
5043.453	9.22535	-4.43406	16.14002	-8.52738
5047.454	8.91531	-4.19658	15.61739	-8.35721
5051.452	9.05705	-4.15692	15.72798	-8.78400
5055.424	9.12045	-4.16595	16.26596	-9.16979
5059.338	9.14177	-4.00309	15.61430	-9.36862
5063.452	9.07704	-3.85402	15.78926	-9.57873
5067.452	9.19457	-4.08345	16.07283	-10.28545
5071.452	9.27412	-4.22740	15.23315	-9.66230
5075.350	9.26991	-4.33463	13.20157	-9.36079
5079.413	8.98905	-4.41673	13.21138	-9.72365
5083.415	8.87670	-4.39192	16.56360	-9.41348
5087.412	9.36049	-4.48775	16.29694	-7.77274
5091.351	9.10652	-4.41895	16.18734	-8.13654
5095.440	8.85468	-3.97578	16.61994	-7.33333
5099.444	9.04236	-3.91691	16.58519	-7.36645
5103.414	9.26307	-4.38402	16.41809	-7.51151
5107.353	9.64002	-4.46964	16.44097	-7.84796
5111.450	9.75989	-4.40154	16.92399	-8.14093
5115.453	9.86567	-4.25762	16.71836	-8.17062
5119.453	9.57286	-3.93491	17.50110	-9.28837
5123.349	9.89985	-3.97066	16.91384	-8.96980
5127.452	9.55352	-3.80263	16.62181	-9.46121
5131.452	9.63544	-3.90668	16.40658	-9.87127
5135.455	9.76874	-4.16435	16.79709	-9.09335
5139.352	9.72310	-4.36297	16.45519	-9.53718
5143.460	9.46500	-4.17293	15.85859	-9.57897
5147.415	9.72086	-4.36835	16.35753	-9.86574
5151.452	9.69607	-4.52817	16.39703	-9.52438
5155.352	9.31738	-4.55614	16.24661	-9.82356
5159.452	9.34155	-4.83725	15.66974	-9.82062
5163.451	9.28424	-4.72073	15.77913	-9.84964
5167.455	9.08166	-4.85088	14.60009	-9.70419
5171.350	9.56709	-4.82164	16.41706	-10.21069
5175.453	9.21261	-4.85775	16.33866	-10.18402
5179.435	9.17510	-4.81983	16.17491	-10.60528
5183.450	9.04435	-4.79142	16.68871	-10.45482
5187.348	9.16983	-4.80346	16.65437	-10.24420
5191.452	9.02290	-4.56725	16.42460	-10.60889
5195.452	9.38069	-4.69613	17.17694	-10.15456
5199.453	9.12336	-4.72280	17.02089	-10.04572
5203.353	9.27825	-4.74948	17.09304	-9.88688
5207.417	9.30955	-4.66532	17.15113	-9.87839
5211.416	9.59812	-4.83560	16.97295	-9.69368
5215.455	9.89106	-4.69638	17.11521	-9.18784
5219.354	9.77517	-4.67136	17.32330	-9.63932
5223.447	9.75119	-4.55702	17.28115	-9.57146
5227.455	9.98299	-4.44593	16.99942	-9.28061
5231.453	9.85491	-4.27285	16.96591	-8.82953
5235.359	9.64907	-4.46657	15.94220	-8.95286
5239.455	9.14723	-4.22669	14.38616	-7.96577
5243.455	8.40771	-3.94087	15.59669	-8.04430
5247.457	5.53495	-3.00373	12.39080	-8.91088
5251.352	5.55435	-3.62103	8.73502	-8.63045
5255.457	5.51319	-3.95548	9.61052	-7.17723
5259.451	2.87326	-1.68180	8.23199	-5.41692
5263.428	2.81573	0.03475	7.38920	-1.67383
5267.419	1.90420	1.20839	7.74308	-6.61114
5271.452	1.71600	-0.29460	6.86437	-4.97922
5275.452	1.69483	-0.77461	6.52819	-3.25635
5279.454	1.51355	-0.25240	6.17815	-2.51467
5283.323	1.72133	-0.02171	5.95432	-2.35496
5287.454	1.59331	0.33302	6.37160	-2.33287
5291.454	1.45447	0.49636	5.92783	-2.58253
5295.453	1.31731	0.83786	6.02504	-2.56183
5299.351	1.40695	1.13628	5.88169	-2.55613
5303.417	1.26406	1.43243	3.05548	-3.74270
5307.445	1.25662	1.38340	4.71974	-3.75371
5311.453	1.45606	0.60553	5.80408	-3.73872
5315.353	1.22052	0.83881	5.56728	-3.67364
5319.453	1.23719	0.71771	4.56728	-3.54307
5323.455	1.16401	0.33832	7.23250	-3.77144
5327.457	1.17376	1.04576	6.88132	-3.51803
5331.350	1.34405	0.80355	7.23841	-3.46318
5335.456	1.34797	0.65914	7.67172	-3.99617
5339.457	1.38637	0.61844	6.46647	-3.79199
5343.329	1.42392	-0.40240	6.89862	-4.17971
5347.330	1.35298	-0.60615	7.33054	-3.70298
5351.332	1.38560	-0.81486	5.71593	-4.03703
5355.331	1.31364	-0.16630	6.91434	-3.68413
5359.330	1.36471	-0.35062	6.38114	-3.59278
5363.354	1.34229	-0.11273	6.60416	-3.14320
5367.328	1.33406	0.20950	6.48330	-2.62631
5371.330	1.22243	0.26478	6.46363	-2.13870
5375.329	1.26493	0.40290	6.43790	-1.78340
5379.321	1.44912	0.39584	6.46534	-2.61795
5383.333	1.58148	0.48342	4.39602	-2.81418
5387.332	1.32041	0.62174	4.35654	-2.67362
5391.326	1.32686	1.00125	5.30183	-3.85177
5395.322	1.19539	1.00577	5.97011	-2.68182
5399.329	1.07654	1.30350	6.45569	-3.49242
5403.332	1.16553	0.94155	7.29985	-3.22726
5407.293	1.16860	0.41956	7.78455	-3.42717
5411.355	1.44512	0.19821	8.06025	-3.58678
5415.330	1.41628	-0.63490	7.43513	-3.48014
5419.333	1.59995	-0.60730	7.47182	-2.84580
5423.332	1.34688	-0.68127	7.14489	-2.99885
5427.333	1.28814	-0.90694	7.24158	-3.08337
5431.330	1.25977	-1.03912	7.11086	-2.65195
5435.330	1.34311	-0.99474	6.89546	-2.78825
5439.330	1.43069	-0.81936	5.63717	-2.44868
5443.354	1.46764	-0.76319	5.80157	-2.34835
5447.334	1.39356	-0.98841	5.96424	-2.17197
5451.331	1.28971	-0.84852	6.04801	-2.36706
5455.332	1.13623	-0.81412	6.70553	-2.31104
5459.324	1.19038	-0.58855	5.89070	-2.29519
5463.335	1.10447	-0.56129	5.93591	-2.31894
5467.333	1.02863	-0.72529	6.18752	-2.34531
5471.331	1.10638	-0.24246	5.74372	-2.52547
5475.359	0.97318	-0.56199	8.24035	-2.68762
5479.324	1.12340	0.21063	7.76606	-2.88192
5483.328	1.04240	0.52804	7.36984	-2.73915
5487.335	0.93954	1.74359	7.42449	-2.75167
5491.325	0.89130	0.92921	6.52679	-2.90431
5495.332	0.99621	0.55222	6.91569	-2.79045
5499.333	1.11058	0.64831	6.32179	-2.63281
5503.334	1.21467	1.22495	6.32981	-2.12448
5507.332	1.27455	1.40390	5.92866	-2.59148
5511.333	1.18423	1.50807	5.97401	-2.57255
5515.334	1.10519	1.40639	6.31308	-2.70216
5519.335	1.09738	1.48239	6.13755	-2.46934
5523.355	1.18301	1.27723	6.07260	-2.42302
5527.300	1.30211	0.80177	5.49672	-2.55236
5531.337	1.27882	0.78924	5.41509	-2.71299
5535.333	1.37523	0.94215	6.95981	-3.72020
5539.324	1.46400	0.73049	7.25116	-2.59549
5543.332	1.58227	0.85537	6.98113	-3.43056
5547.339	1.39621	0.46652	6.58016	-3.18694
5551.330	1.26894	0.59519	7.42400	-3.58278
5555.333	1.20430	0.92465	6.54582	-3.68989
5559.311	1.20375	0.75560	7.00912	-3.59346
5563.335	1.41201	0.57275	6.79985	-4.25763
5567.332	1.41985	0.43795	6.04190	-3.81090
5571.332	1.25066	0.17532	5.77276	-4.04691
5575.334	1.21159	0.25412	6.72521	-4.87493
5579.334	1.14672	-0.61718	5.79162	-4.71934
5583.333	1.06091	-0.30233	6.33640	-5.81153
5587.332	1.02367	0.37801	5.58724	-3.66886
5591.334	1.04950	-0.05334	7.51647	-1.68499
5595.337	1.10227	1.85003	6.85368	-0.22848
5599.325	1.08934	1.05722	7.04939	-0.46865
5603.294	1.28229	1.98994	6.13032	-0.92762
5607.334	1.09299	1.29411	6.05430	-0.75553
5611.359	1.17083	1.40690	6.75869	-1.16080
5615.332	1.14412	1.17847	7.13197	-1.05170
5619.355	1.03565	1.27973	6.13081	-0.78452
5623.334	1.42910	0.72272	6.43785	-0.90209
5627.335	1.41968	1.05863	5.97082	-1.02082
5631.332	1.37446	1.04581	6.13792	-1.04658
5635.359	1.32937	0.84856	6.12327	-0.51768
5639.339	1.18994	0.68764	7.23599	-1.34455
5643.308	1.36630	0.71974	6.85505	-1.32421
5647.336	1.57042	0.54494	6.49991	-1.50364
5651.355	1.87217	0.18451	6.46600	-1.40736
5655.336	1.55053	0.15808	6.36425	-1.20965
5659.337	1.20804	0.43866	6.64564	0.17253
5663.335	1.20648	0.49761	6.51422	-0.18255
5667.330	1.52218	0.43974	6.78608	-0.45248
5671.336	1.56541	0.42279	6.48561	-0.25196
5675.335	1.27889	0.37696	7.35024	-0.32896
5679.338	1.24947	0.09825	6.50783	-0.64522
5683.351	-0.67325	0.01754	4.75004	-2.02959
5687.335	-1.30171	0.39345	3.40262	-0.27489
5691.297	-1.92674	0.43284	0.92671	-5.97437
5695.335	-3.93164	0.01408	-1.04640	-2.79927
5699.361	-4.80406	0.36555	-2.08280	-5.14766
5703.337	-6.15549	-0.20400	-2.90044	-4.94177
5707.336	-7.37758	-0.15106	-5.57222	-5.30268
5711.338	-8.61402	-0.40174	-6.36091	-5.00436
5715.362	-9.46664	-0.40535	-8.07185	-4.61721
5719.342	-9.55891	-0.78056	-9.09771	-5.21919
5723.338	-12.22288	-1.99277	-9.94898	-4.82385
5727.303	-12.57529	-1.61875	-11.15986	-4.85390
5731.369	-12.57332	-1.54204	-10.58750	-5.01764
5735.334	-12.60800	-2.00606	-11.59034	-4.84358
5739.338	-12.46155	-0.96539	-11.31629	-4.75917
5743.337	-12.18782	-1.64144	-11.48192	-4.58212
5747.361	-12.21857	-1.83265	-11.63787	-4.62654
5751.338	-12.52133	-2.33900	-11.33001	-4.48616
5755.336	-12.48002	-1.89560	-11.02395	-4.57571
5759.299	-12.78722	-1.52164	-11.50010	-4.75110
5763.358	-12.83387	-1.80524	-11.28679	-4.67928
5767.315	-12.74173	-0.62469	-11.45164	-4.31869
5771.338	-12.54032	-0.71363	-11.40937	-4.20701
5775.339	-12.87322	-0.23442	-11.51721	-4.25389
5779.360	-12.69273	-0.02979	-11.32089	-3.92433
5783.335	-12.99988	-0.71899	-11.00137	-4.14273
5787.338	-12.97681	-0.43508	-10.88257	-4.16679
5791.336	-13.23375	-1.62980	-11.11286	-3.74429
5795.362	-12.84324	-0.51136	-11.07006	-3.60288
5799.335	-13.09346	-0.36413	-11.27495	-3.56828
5803.337	-13.03534	-0.45623	-11.14118	-3.30255
5807.331	-13.08524	-0.63835	-10.90152	-3.25942
5811.361	-13.08157	-0.46590	-10.93916	-3.16566
5815.337	-13.26161	-0.46606	-10.71506	-3.11109
5819.337	-13.32858	-0.45846	-10.84999	-3.00262
5823.341	-13.13468	-0.67510	-11.02615	-2.94423
5827.340	-13.17063	-0.59434	-10.95335	-3.03136
5831.337	-13.08430	-0.59712	-10.92562	-3.17563
5835.339	-13.25592	-0.58688	-11.15405	-3.09014
5839.341	-13.20032	-1.07120	-10.91033	-2.25754
5843.338	-13.06358	-0.62723	-10.77584	-3.06256
5847.344	-13.04996	-3.08201	-10.76012	-3.64495
5851.311	-12.84038	-2.82559	-10.63216	-3.37826
5855.339	-12.86338	-2.84017	-10.69273	-4.06967
5859.339	-12.90272	-2.66873	-10.80022	-3.63520
5863.337	-12.88548	-2.77801	-10.68355	-3.17257
5867.336	-12.78396	-2.40690	-10.59251	-3.55353
5871.341	-12.67986	-2.55997	-10.54965	-2.71895
5875.342	-12.78873	-2.04166	-10.55426	-2.73173
5879.340	-13.10808	-1.86865	-10.49718	-2.89327
5883.338	-12.85324	-1.14542	-10.42723	-2.27384
5887.339	-13.07488	-1.44391	-10.48883	-2.77321
5891.323	-12.93222	-1.33231	-10.48420	-2.51014
5895.336	-13.40812	-1.17232	-10.51837	-4.74032
5899.338	-12.92288	-0.92926	-10.40992	-3.57975
5903.341	-13.17659	-0.92332	-10.03878	-3.04434
5907.342	-13.31478	-1.07067	-10.29104	-2.63198
5911.343	-13.15605	-1.80812	-10.37518	-2.44561
5915.339	-13.27696	-3.00281	-10.04901	-2.21928
5919.338	-13.12416	-3.19748	-10.17781	-2.00262
5923.343	-13.13771	-2.85790	-10.22096	-2.26121
5927.339	-13.11924	-2.88587	-10.10644	-1.59405
5931.340	-13.35724	-2.46590	-10.20094	-1.83807
5935.305	-13.38325	-2.71367	-10.26170	-1.66748
5939.343	-13.07453	-2.63378	-10.03758	-2.77289
5943.339	-13.16645	-2.12171	-10.24286	-2.89452
5947.337	-13.26321	-1.62827	-10.23642	-3.71316
5951.345	-13.64956	-1.59771	-10.16569	-2.84857
5955.343	-13.43521	-0.80770	-9.96901	-3.13541
5959.340	-13.11606	-0.92497	-10.06253	-1.84889
5963.339	-13.35952	-0.86831	-10.00791	-1.50012
5967.342	-13.55177	-2.81563	-10.07800	-1.72378
5971.347	-14.36146	-2.10663	-10.38401	-1.32148
5975.321	-13.56029	-0.31420	-10.48159	-1.18493
5979.342	-13.49040	-0.10127	-10.09008	-1.21702
5983.340	-13.51079	0.00358	-10.11524	-1.19956
5987.344	-13.67044	-0.48661	-10.34585	-0.95071
5991.339	-14.09322	-2.03998	-10.55382	-0.27240
5995.342	-13.79260	-1.66967	-10.72175	-0.17694
5999.340	-13.43463	-0.61252	-10.74745	-0.36551
6003.343	-13.61234	-0.93486	-10.14215	-0.76250
6007.340	-13.68267	0.12816	-10.52278	-1.24350
6011.340	-13.81574	0.21510	-10.79227	-1.22037
6015.334	-13.76930	0.64119	-10.55646	-0.82101
6019.345	-13.90543	0.90714	-10.55622	-1.36357
6023.343	-13.68085	0.43710	-10.72539	-0.84719
6027.332	-13.66866	0.09571	-10.70706	-0.97230
6031.344	-13.57865	0.66420	-10.57018	-1.12467
6035.345	-13.53183	-0.52808	-10.23514	-0.75477
6039.341	-13.55130	0.05375	-10.18644	-0.82651
6043.341	-13.58221	-1.00814	-10.10858	-0.87279
6047.343	-13.52454	-1.62778	-10.35640	-1.15735
6051.347	-13.47836	-1.40075	-10.35253	-0.95228
6055.341	-13.45655	-1.14860	-10.30704	-0.90104
6059.315	-13.50420	-1.44486	-10.44746	-1.02914
6063.340	-13.54544	-1.60444	-10.35777	-0.83579
6067.343	-13.85746	-0.26837	-10.39429	-0.95564
6071.341	-13.72521	-0.23152	-10.37448	-1.00829
6075.339	-13.66402	-0.00975	-10.22668	-0.89090
6079.339	-13.62404	0.10254	-10.36684	0.24441
6083.346	-13.46132	0.14410	-10.40236	-0.01344
6087.304	-13.41028	0.31082	-10.45553	0.63860
6091.304	-13.45719	0.40312	-10.41402	-0.24000
6095.342	-13.52276	0.46754	-10.44014	-0.09680
6099.329	-13.54115	0.61085	-10.41770	-0.28550
6103.344	-13.57928	0.49692	-10.23608	0.98636
6107.343	-13.62938	0.45743	-10.05645	0.96263
6111.342	-13.58106	0.56647	-9.93607	0.94852
6115.345	-13.50532	0.57927	-9.89101	0.85078
6119.340	-13.49108	0.75069	-10.05972	1.27436
6123.342	-13.48085	0.62108	-10.09301	1.29760
6127.342	-13.55560	0.62339	-9.96713	1.07916
6131.344	-13.55635	0.61515	-9.97965	1.17873
6135.345	-13.57539	0.50159	-9.82968	1.07988
6139.345	-13.64251	0.41061	-9.91426	0.17984
6143.307	-13.65762	0.41939	-9.91849	1.04758
6147.344	-13.57680	0.35087	-10.13804	0.82225
6151.348	-13.71193	0.27957	-10.19286	0.96002
6155.345	-13.70669	0.31309	-10.21517	0.72117
6159.353	-14.03213	0.24059	-10.44105	0.54768
6163.239	-14.09775	0.24491	-10.56363	0.38630
6167.345	-13.92898	0.23293	-10.48116	0.49589
6171.343	-14.04498	0.25731	-10.57961	0.07995
6175.345	-14.11143	0.18720	-10.56217	0.03918
6179.346	-14.03022	0.16719	-10.49946	-0.20895
6183.322	-14.11584	0.06586	-10.67018	-0.71914
6187.345	-13.92204	0.02470	-10.59680	-0.52232
6191.305	-13.87784	-0.05836	-10.48356	-0.86970
6195.345	-13.78082	0.04013	-10.48797	-0.91825
6199.344	-13.84563	0.01373	-10.48715	-0.58281
6203.305	-13.79040	0.01979	-10.21558	-0.64884
6207.343	-13.78630	-0.05082	-10.23685	-0.70076
6211.340	-13.86502	-0.25102	-10.09171	-0.49660
6215.343	-13.77630	-0.21465	-9.95598	0.01850
6219.346	-13.71823	-0.41089	-10.00853	1.02924
6223.334	-13.66580	-0.21516	-9.88930	0.61895
6227.347	-13.59450	-0.26380	-9.81303	0.32007
6231.340	-13.64321	-0.34787	-9.80585	1.04432
6235.344	-13.71118	-0.54888	-9.98735	0.78535
6239.345	-13.83718	-0.71398	-10.01436	0.66011
6243.346	-13.75233	-0.25368	-9.94582	0.74304
6247.343	-13.74992	-0.33861	-9.92801	0.72595
6251.343	-13.92449	-0.41366	-10.09369	0.73130
6255.344	-14.00889	-0.69947	-10.09489	0.62030
6259.348	-14.10805	-0.75734	-10.09179	1.27345
6263.346	-13.77584	-0.37449	-10.04312	1.97988
6267.323	-13.29765	-0.06933	-9.45730	1.84000
6271.305	-11.34704	0.64110	-7.52110	3.88524
6275.349	-8.80498	1.38628	-6.40361	3.95774
6279.346	-8.47901	0.77813	-5.92324	3.96936
6283.343	-6.61261	1.12255	-4.70446	4.25802
6287.343	-6.56983	1.84277	-2.18773	4.05911
6291.346	-3.76838	1.71845	-1.73995	4.45360
6295.344	-3.84061	2.21725	0.58558	4.22528
6299.346	-3.75086	2.38617	-1.11316	4.32319
6303.347	-3.48662	2.90597	0.62116	4.59083
6307.330	-3.01613	2.65561	0.84582	4.40552
6311.342	-2.87755	2.45410	0.65273	4.42868
6315.344	-2.43228	2.49250	0.74558	4.58481
6319.347	-2.93455	2.65456	0.92765	4.57289
6323.244	-2.69723	2.54170	0.74429	4.63248
6327.343	-3.11393	2.85150	0.94368	4.72287
6331.346	-2.88774	2.70314	1.20507	4.69461
6335.345	-2.74648	3.55597	1.21988	4.62276
6339.347	-3.04110	2.99383	1.43163	4.61988
6343.349	-2.99958	2.99323	1.35507	4.59386
6347.350	-3.05672	2.82113	1.47975	4.57896
6351.317	-2.97520	2.48760	1.68446	4.54378
6355.351	-3.12848	2.24727	1.72798	4.54847
6359.347	-3.08609	2.28720	1.79931	4.39507
6363.356	-3.00685	1.91064	1.87495	4.45734
6367.345	-3.06736	1.74021	1.87750	4.74599
6371.247	-3.03274	1.89096	1.93722	4.89137
6375.344	-3.04499	2.01866	1.71687	5.66657
6379.221	-2.93104	1.75788	1.88125	6.20300
6383.223	-2.82254	1.83947	1.64079	5.06738
6387.243	-2.48448	1.98693	-0.38946	2.51190
6391.222	-3.00487	2.09811	-0.08709	4.08213
6395.207	-2.96678	1.94834	0.82473	3.34918
6399.221	-2.92846	2.09751	-0.00757	3.21285
6403.212	-2.94497	2.26906	0.83205	3.20895
6407.220	-2.76737	1.92103	0.47686	2.89390
6411.222	-3.00774	2.12777	0.76059	3.00576
6415.221	-3.01180	2.34570	0.78796	3.24886
6419.214	-2.96168	2.36900	0.76523	3.15362
6423.224	-2.85928	2.59590	0.79136	2.87492
6427.222	-3.01175	2.46626	0.82262	2.29065
6431.223	-3.14815	2.75373	0.79550	1.78811
6435.217	-3.13086	2.70796	0.91604	2.82099
6439.223	-2.98591	2.66635	1.02970	3.24741
6443.223	-2.96624	2.78945	1.24610	3.46709
6447.225	-2.80251	2.82915	1.41373	4.69227
6451.225	-3.03425	2.87129	1.41397	5.05064
6455.224	-3.15696	2.98286	1.22467	5.48640
6459.185	-3.07585	3.06270	1.40125	4.99547
6463.225	-2.91814	2.89412	2.00961	5.18445
6467.223	-2.94785	2.94124	2.15812	3.77374
6471.184	-2.91502	3.14099	0.53533	1.87504
6475.226	-3.04212	3.18612	0.90756	2.94799
6479.205	-2.92629	3.29337	1.22973	1.81820
6483.242	-2.97765	3.50860	1.40395	2.21614
6487.224	-2.90126	3.41602	1.48719	2.11165
6491.224	-3.08708	4.36038	1.39989	4.07684
6495.224	-2.98002	3.82291	1.63921	3.69162
6499.249	-2.85390	3.69674	2.16230	2.96706
6503.223	-2.83432	3.85026	2.56250	3.95929
6507.223	-2.40156	3.33305	1.77943	6.31756
6511.224	-3.02564	3.71359	1.68813	6.50497
6515.248	-3.01546	3.42694	1.97290	5.87617
6519.220	-3.16151	3.61799	0.96199	2.44797
6523.219	-3.20671	3.35416	0.92368	2.59584
6527.222	-3.30077	3.48728	1.65852	1.99861
6531.246	-3.18541	3.83793	1.31612	2.34748
6535.223	-3.23764	3.62315	1.59013	5.26925
6539.223	-3.20577	3.97274	1.38354	4.72598
6543.223	-3.25852	3.84981	1.51439	4.70388
6547.244	-3.10567	3.58835	1.77010	4.06126
6551.221	-3.04848	3.68856	1.57602	3.42437
6555.224	-3.04350	3.84742	1.79718	4.46294
6559.223	-3.24677	3.86304	1.90091	3.11780
6563.191	-3.12296	3.80553	1.60680	2.76811
6567.225	-2.96624	3.81191	1.64407	3.71630
6571.226	-2.98601	4.18970	1.50698	3.45010
6575.224	-3.08149	3.89517	1.55663	3.11373
6579.223	-3.22408	4.07453	1.67987	2.75475
6583.223	-3.11012	4.04064	1.62968	2.81806
6587.261	-2.94064	3.90286	1.82606	2.54928
6591.224	-3.06904	4.22151	1.77377	2.47617
6595.217	-3.12497	4.00335	1.90014	2.36245
6599.227	-3.02039	3.88332	1.92800	1.98085
6603.223	-3.12069	4.22844	1.86370	1.64811
6607.214	-2.78916	4.03968	2.09427	1.24138
6611.300	-2.67395	4.33698	2.02227	1.00636
6615.226	-0.13133	3.87110	3.13798	1.45399
6619.226	0.54401	3.96181	4.38228	1.03322
6623.223	1.32833	3.73605	4.20632	3.55189
6627.219	2.92158	3.69140	7.42759	3.51898
6631.226	10.75133	2.44647	10.31131	5.85503
6635.224	NaN	NaN	17.93270	6.12959
6639.224	10.88283	11.81301	20.84144	9.75841
6643.247	NaN	NaN	10.65712	5.26737
6647.189	NaN	NaN	NaN	NaN
6651.227	NaN	NaN	NaN	NaN
6655.228	NaN	NaN	NaN	NaN
6659.253	NaN	NaN	NaN	NaN
6663.224	NaN	NaN	NaN	NaN
6667.224	NaN	NaN	NaN	NaN
6671.224	NaN	NaN	NaN	NaN
6675.212	NaN	NaN	NaN	NaN
6679.227	NaN	NaN	NaN	NaN
6683.229	NaN	NaN	11.38542	-4.15328
6687.223	NaN	NaN	16.55359	-1.75779
6691.250	NaN	NaN	16.88912	-2.11238
6695.230	NaN	NaN	17.52320	-2.51914
6699.224	14.09502	-1.09179	16.97452	-3.74370
6703.229	14.13269	0.44003	17.52426	-5.33873
6707.224	-3.45601	2.02225	10.15295	-5.27451
6711.251	-3.52385	2.02780	15.49421	-6.71845
6715.225	1.03379	4.98700	8.64815	-4.93272
6719.229	2.87237	3.98385	7.29724	-5.05519
6723.225	3.32629	3.32654	5.93448	3.36262
6727.225	3.87791	3.63158	7.58388	2.83072
6731.220	3.32209	3.49264	7.42554	3.25457
6735.226	3.54756	2.88124	10.96789	-0.14971
6739.225	3.67205	2.99707	8.62612	2.24695
6743.249	3.28699	3.31666	9.11685	3.20535
6747.226	2.65013	3.37081	10.33065	2.87670
6751.226	2.92792	3.10795	10.34545	2.31831
6755.232	3.52576	3.14749	6.15384	2.57778
6759.249	3.44124	3.06609	8.67857	-1.12560
6763.228	3.42730	3.13368	8.64997	-0.09485
6767.229	2.82937	3.42163	9.01452	-0.27983
6771.203	2.92396	3.50437	8.65960	-0.00715
6775.253	3.17532	3.57424	9.25963	0.32076
6779.191	2.94733	3.63556	9.41045	0.28219
6783.226	2.94153	2.42453	9.41491	0.23328
6787.229	3.19635	2.74742	9.91965	0.07767
6791.228	3.27074	2.65847	9.54488	0.49163
6795.227	3.53458	2.13346	9.59773	1.76809
6799.226	3.30282	1.76494	9.22020	0.14864
6803.229	2.92547	1.54266	8.50974	0.69781
6807.250	3.21864	1.77810	8.88014	0.86782
6811.216	3.34425	1.69999	9.26478	0.90397
6815.216	3.19434	2.17563	9.21950	1.26045
6819.228	3.40932	1.77253	9.28693	0.90688
6823.251	3.53817	1.91629	9.53535	0.66276
6827.229	3.42057	1.80213	9.74629	0.87309
6831.229	3.43219	1.95714	9.37694	1.81028
6835.190	3.41746	2.00528	9.71081	0.83530
6839.249	3.26844	2.63722	8.93777	1.31534
6843.229	3.38664	3.16183	8.68992	1.30051
6847.226	3.31472	2.76425	8.89783	1.39425
6851.229	3.37979	3.04939	8.54091	1.84965
6855.254	3.25486	3.18493	8.40883	1.65917
6859.228	3.30149	3.07914	9.56414	1.21449
6863.230	3.19430	3.12058	9.31023	1.32605
6867.226	3.04400	3.22931	9.89306	0.63277
6871.230	3.15689	3.32183	10.60836	-0.47348
6875.230	3.14392	3.29148	8.52401	0.75248
6879.231	2.91245	3.83028	8.84910	0.36861
6883.229	2.82472	4.29206	9.83387	0.56422
6887.230	2.70889	5.13355	10.61771	1.16851
6891.234	-3.66295	7.74817	10.75464	7.63002
6895.223	NaN	NaN	4.39059	6.97298
6899.193	NaN	NaN	NaN	NaN
6903.230	NaN	NaN	NaN	NaN
6907.222	NaN	NaN	NaN	NaN
6911.229	NaN	NaN	NaN	NaN
6915.228	NaN	NaN	NaN	NaN
6919.228	NaN	NaN	NaN	NaN
6923.227	NaN	NaN	NaN	NaN
6927.227	NaN	NaN	NaN	NaN
6931.232	NaN	NaN	NaN	NaN
6935.225	NaN	NaN	NaN	NaN
6939.226	NaN	NaN	NaN	NaN
6943.228	NaN	NaN	NaN	NaN
6947.228	NaN	NaN	NaN	NaN
6951.231	NaN	NaN	NaN	NaN
6955.230	NaN	NaN	NaN	NaN
6959.228	NaN	NaN	NaN	NaN
6963.228	NaN	NaN	NaN	NaN
6967.230	NaN	NaN	NaN	NaN
6971.229	NaN	NaN	NaN	NaN
6975.232	NaN	NaN	NaN	NaN
6979.192	NaN	NaN	NaN	NaN
6983.188	NaN	NaN	NaN	NaN
6987.228	NaN	NaN	NaN	NaN
6991.229	NaN	NaN	NaN	NaN
6995.193	NaN	NaN	NaN	NaN
6999.230	NaN	NaN	NaN	NaN
7003.227	NaN	NaN	NaN	NaN
7007.231	NaN	NaN	NaN	NaN
7011.231	NaN	NaN	NaN	NaN
7015.233	NaN	NaN	NaN	NaN
7019.222	NaN	NaN	NaN	NaN
7023.222	NaN	NaN	13.18762	5.99714
7027.230	NaN	NaN	NaN	NaN
7031.233	NaN	NaN	15.46274	4.92616
7035.231	-4.19032	6.77219	15.67032	0.00782
7039.236	0.43100	13.00880	15.68168	-1.23621
7043.233	2.83756	10.84468	15.77481	-1.74766
7047.244	3.18917	4.10706	11.62454	-1.40866
7051.229	-1.54212	7.29542	3.19412	-1.74057
7055.238	2.24760	10.80200	5.67698	-1.37677
7059.233	-1.94588	4.15074	6.92244	-1.82292
7063.197	-1.85618	4.21596	3.84117	-0.79024
7067.234	-2.12744	4.11621	2.85163	-1.61602
7071.129	-2.28868	3.89473	2.98359	-1.84608
7075.230	-2.94426	2.80328	3.30814	-2.16127
7079.195	-2.57365	2.39819	0.52783	-1.39134
7083.229	-2.76737	2.81916	2.91911	-2.45966
7087.236	-3.22235	2.92279	2.98455	-2.52267
7091.231	-3.25137	2.88460	2.96020	-2.30738
7095.234	-3.33426	3.56914	2.85908	-2.56939
7099.236	-2.50937	5.71176	2.63757	-1.28715
7103.215	-2.72518	5.45477	2.08025	3.26010
7107.230	-2.73647	4.52775	1.35529	1.75565
7111.232	-2.73709	4.68725	1.17718	2.26925
7115.233	-2.80162	4.84410	1.31900	2.92310
7119.233	-2.82756	4.82889	1.09780	2.57115
7123.231	-2.33643	3.71029	2.47591	2.57525
7127.233	-2.70171	4.52758	2.45929	2.67448
7131.234	-2.44484	4.12474	2.35206	2.97141
7135.234	-2.46996	4.56460	2.02584	2.88155
7139.232	-2.30040	4.36632	3.83104	2.84405
7143.232	-2.23799	4.09916	3.53411	2.88515
7147.235	-2.35372	4.59128	3.82156	3.15491
7151.236	-2.26693	4.40920	3.76440	2.90793
7155.239	-2.39267	4.15118	3.30574	2.77009
7159.235	-2.34077	4.42447	3.38360	-1.58290
7163.231	-2.21368	3.44652	3.18467	-1.31065
7167.236	-2.31438	3.77572	3.27578	-0.87466
7171.235	-2.36301	3.22023	3.09379	-1.04126
7175.232	-2.35893	4.22944	3.15404	-1.41080
7179.237	-2.40570	3.75678	3.02972	-0.96194
7183.236	-2.46803	4.22431	2.61890	-1.27558
7187.210	-2.43434	4.38918	2.51306	-1.81846
7191.235	-2.43444	4.33329	2.19643	-1.14986
7195.234	-2.44388	4.34958	2.87633	-0.41735
7199.234	-2.36502	4.04549	2.48780	0.22192
7203.234	-2.27399	3.53942	3.58900	0.78635
7207.234	-2.35514	3.92492	3.52005	2.74671
7211.233	-2.26814	3.88134	3.78882	1.69099
7215.235	-2.23655	3.58091	3.57456	0.75546
7219.234	-2.26566	2.93011	4.09340	1.55515
7223.237	-2.23301	2.08768	3.68241	0.55994
7227.221	-2.03670	2.71103	3.61693	0.85942
7231.237	-2.18273	3.85188	3.45952	0.25932
7235.234	-2.14084	2.99090	3.58591	-1.39954
7239.236	-2.13819	3.30809	2.56689	-0.43469
7243.234	-2.11209	2.80378	2.67038	1.99457
7247.240	-2.06359	1.96015	2.72736	0.41805
7251.233	-2.23828	2.59184	2.05588	0.13812
7255.197	-2.16074	3.49476	1.82921	0.22758
7259.240	-2.14233	3.86006	2.38940	-0.05139
7263.235	-2.32275	2.99774	2.57085	-0.32460
7267.234	-4.10137	2.94913	0.41988	-0.57791
7271.201	-4.25080	2.70875	-0.03571	0.92635
7275.232	-5.24132	2.85275	-1.88422	0.27895
7279.235	-5.41908	3.14898	-1.80841	0.06448
7283.232	-5.26883	3.35286	-2.07403	1.60522
7287.236	-5.28473	3.59558	-2.42460	1.40708
7291.237	-5.19441	3.16628	-3.01242	0.87589
7295.236	-5.44721	2.95177	-2.81305	0.01000
7299.235	-5.58039	2.96768	-2.84063	-0.37781
7303.197	-5.78826	2.89673	-2.73335	-0.53197
7307.239	-6.17487	2.65334	-2.72328	-0.60936
7311.223	-5.92962	2.40402	-2.70181	-0.53965
7315.230	-5.87091	2.19556	-2.43201	-0.50923
7319.236	-5.81663	2.57375	-2.61010	-0.03381
7323.192	-5.73731	3.24145	-2.74375	-0.27576
7327.240	-5.69249	2.72857	-2.64032	-0.23003
7331.235	-5.67821	2.88405	-2.67704	0.69831
7335.234	-5.63550	2.73530	-2.69864	0.43474
7339.237	-5.69104	2.77234	-2.52302	2.85686
7343.239	-5.86651	2.49803	-2.48032	2.29613
7347.236	-5.95628	1.69451	-2.58551	2.03854
7351.235	-5.92046	1.92660	-2.47571	0.38646
7355.231	-5.77922	1.35930	-2.58888	0.64936
7359.245	-5.92488	1.82242	-2.53610	0.81139
7363.217	-6.06821	2.55484	-2.58009	0.65168
7367.238	-6.06887	2.07208	-2.61664	0.14263
7371.239	-6.08917	2.72157	-2.66580	0.09264
7375.237	-6.22201	2.62604	-2.56429	0.01065
7379.235	-6.07103	2.30282	-2.60815	0.01122
7383.235	-6.12575	2.17986	-2.42540	-0.53893
7387.237	-5.69502	2.87257	-2.65850	-0.82201
7391.242	-5.52920	2.94707	-1.64127	-0.20033
7395.238	-5.48543	3.02990	-2.22550	-0.55800
7399.237	-5.93129	2.82799	-1.93465	-0.33877
7403.237	-5.69482	2.92221	-1.80727	-0.04063
7407.203	-5.48460	2.91492	-1.81590	-0.36278
7411.233	-5.52522	2.94776	-1.77824	-0.32149
7415.113	-5.27252	3.30567	-1.82420	-0.35439
7419.113	-5.29728	3.34403	-1.83950	-0.13431
7423.133	-5.24816	3.49689	-1.77692	-0.32969
7427.114	-5.20531	3.61344	-1.97012	-0.35083
7431.112	-5.31760	3.60320	-2.04795	-0.39226
7435.114	-5.43460	3.37626	-2.17304	-0.01058
7439.104	-5.65150	3.57910	-2.26071	-0.04720
7443.078	-5.91145	3.21300	-2.30464	0.30011
7447.115	-5.75534	3.29641	-2.40493	0.51937
7451.112	-5.93625	3.04820	-2.45505	0.31919
7455.104	-6.11398	3.02836	-2.64629	-0.02073
7459.079	-6.17992	2.68312	-2.59188	0.92892
7463.114	-6.27765	2.84790	-2.75603	0.50111
7467.114	-6.47184	2.85882	-2.65758	0.53719
7471.134	-6.38810	2.66135	-2.56312	0.40473
7475.114	-6.53485	2.51404	-2.38046	0.47566
7479.116	-6.51731	2.70957	-2.24108	0.28651
7483.111	-6.58940	2.76928	-2.09338	0.11190
7487.135	-6.41145	2.95362	-2.43191	0.16356
7491.112	-3.96753	4.31412	-1.57121	-0.21519
7495.114	-3.66713	3.21788	-0.41130	0.58355
7499.116	-1.10155	2.95089	0.16399	0.62970
7503.104	-1.41581	2.71167	1.70524	2.50001
7507.113	0.21668	2.44673	3.77337	1.86687
7511.114	-0.75970	2.61519	3.68396	0.62458
7515.115	-1.20100	2.41794	3.04388	1.00070
7519.114	-0.75114	2.53279	4.06132	2.51194
7523.109	-0.84669	3.14337	4.29004	2.27908
7527.104	-0.69374	2.64203	4.67392	2.53839
7531.116	-0.25438	2.84609	4.29996	2.05522
7535.134	-0.39894	3.03532	4.36313	3.23725
7539.116	-0.49374	2.67292	4.04740	0.88999
7543.113	-0.35032	3.24143	4.05056	0.53487
7547.115	-0.07604	3.35395	4.03981	-1.84870
7551.134	-0.29007	3.09405	3.98395	0.19658
7555.114	-0.21432	3.63153	4.10594	-1.07710
7559.121	-0.25468	3.43796	4.13441	-1.68362
7563.115	-0.29200	3.77110	4.11794	-0.89167
7567.139	-0.22812	3.47699	4.10202	-1.44167
7571.121	-0.24138	3.39464	4.00277	-1.80906
7575.119	-0.25190	3.58944	3.94979	-0.07385
7579.114	-0.36866	3.40170	3.90597	0.34591
7583.136	-0.27557	3.40173	3.90921	0.41669
7587.113	-0.30717	3.16782	3.86232	3.54909
7591.114	-0.31062	2.76871	3.78333	3.26237
7595.113	-0.36194	2.45248	3.69182	3.42641
7599.106	-0.32407	2.66653	3.66659	3.24436
7603.116	-0.29888	2.15209	3.55988	3.37330
7607.100	-0.21666	2.17607	3.59686	3.39862
7611.114	-0.23197	2.29673	3.50583	3.28397
7615.107	-0.19688	1.82847	3.33438	3.17684
7619.115	-0.15992	2.23183	3.31427	3.22846
7623.114	-0.09994	1.83570	3.28177	3.26917
7627.115	-0.14662	2.00217	3.20659	3.42694
7631.141	-0.10619	1.93196	3.26928	0.53732
7635.111	-0.08902	2.04704	3.26594	-0.11226
7639.115	-0.07780	2.43214	3.50244	-0.23171
7643.113	-0.08984	2.74214	3.48976	-2.69547
7647.146	-0.08505	3.09872	3.39735	-0.49287
7651.082	-0.12945	3.03057	3.32382	-0.95247
7655.116	-0.08892	2.91517	3.03843	-0.55299
7659.121	-0.01643	2.87544	3.09297	-0.09024
7663.108	-0.10069	2.51719	3.34262	-0.12344
7667.117	-0.04517	2.75819	2.94096	0.22801
7671.115	-0.02780	2.72722	2.41398	0.42717
7675.118	-0.04537	2.95294	2.83811	0.71898
7679.076	-0.07274	2.93911	2.80897	0.97454
7683.114	-0.08669	2.48904	2.88834	1.21826
7687.117	0.01452	1.83031	2.99703	0.77252
7691.097	0.00988	2.15797	2.78112	0.60744
7695.084	-0.02544	2.69831	2.94245	0.74393
7699.116	0.01710	2.34750	2.90537	0.71095
7703.080	-0.09485	2.06000	3.09463	0.78439
7707.118	-0.27009	2.43117	3.23979	0.81742
7711.109	-0.29766	2.07437	3.19274	0.70330
7715.115	-0.55384	2.18499	3.37964	0.58292
7719.114	-0.43031	2.47786	3.39846	0.48171
7723.117	-0.54123	2.85176	3.36228	0.19485
7727.109	-0.79444	2.49054	3.49156	0.13101
7731.113	-0.77459	2.33766	3.63490	-0.04729
7735.111	-1.07369	2.77964	3.46444	-0.19044
7739.081	-0.83801	2.48545	3.61036	-0.36480
7743.107	-1.08691	2.82052	3.84824	-0.46315
7747.118	-1.08827	2.84538	4.09972	-1.72307
7751.115	-1.01057	2.57438	4.44228	-0.42609
7755.120	-1.08614	2.82860	4.60794	-1.98643
7759.119	-1.23126	2.78491	4.52557	-0.80082
7763.116	-1.19088	2.89653	4.82345	-0.92970
7767.115	-1.25222	2.79129	4.70606	-0.53046
7771.116	-1.15605	2.78259	4.40685	-0.65021
7775.119	-1.18480	2.68447	4.58636	-0.68901
7779.118	-1.23250	2.68837	3.81995	-2.27105
7783.119	-1.21340	2.78020	3.29988	-0.37430
7787.118	-1.10621	2.59540	3.45353	-1.67399
7791.110	-1.02652	2.57523	3.40623	-0.49451
7795.118	-0.96152	2.66744	3.94340	-1.59792
7799.116	-0.74243	2.67917	3.63357	-2.60418
7803.117	-0.74092	2.50892	3.67593	-1.23782
7807.140	-0.38258	2.56648	3.82274	-0.96099
7811.118	-0.98787	2.86379	3.59644	-0.43677
7815.099	-0.80545	2.71034	3.58319	-0.72139
7819.107	-0.90195	2.47415	3.45695	4.16771
7823.121	-0.66077	2.38562	3.45415	3.94205
7827.118	-0.51436	2.54360	3.51884	1.77240
7831.117	-0.70337	2.84548	3.96903	0.33061
7835.081	-0.80513	3.13340	3.61607	-0.71615
7839.152	-0.87007	3.03967	5.17516	-1.52067
7843.118	-0.88473	3.35254	3.41268	-2.43687
7847.117	-0.85625	3.37252	3.47834	-1.45232
7851.118	-0.92019	3.00125	3.42042	-1.53545
7855.113	-0.81312	3.35671	2.74110	-0.23016
7859.093	-0.79196	3.02841	3.15387	1.09502
7863.119	-0.83942	3.00065	3.70804	-0.29216
7867.117	-0.80900	2.71366	2.54965	0.83477
7871.111	-0.76627	2.21174	3.33334	0.84098
7875.118	-0.74235	2.16921	2.76829	0.63247
7879.082	-0.57746	1.12157	3.33352	0.15844
7883.121	-0.81913	1.23474	3.55402	0.50400
7887.121	-0.76600	1.15468	3.56536	-0.79886
7891.121	-0.68037	0.92322	3.76705	0.05544
7895.123	-0.58865	1.49063	3.80718	0.21774
7899.101	-0.60995	1.49733	3.94858	-0.06232
7903.089	-0.66712	1.26252	3.87534	0.13608
7907.112	-0.57637	1.58956	4.26462	-0.97003
7911.121	-0.68047	2.30474	3.67554	-1.56043
7915.120	-0.53488	2.51150	3.37252	-1.33403
7919.118	-0.70784	2.66818	4.05754	-1.97545
7923.119	-0.87540	3.52483	3.78691	-2.07279
7927.120	-0.80707	3.62283	3.64103	-2.55882
7931.122	-0.70345	3.14563	3.67561	-2.40660
7935.085	-0.56947	2.98295	3.17210	-1.51903
7939.120	-0.52349	2.86716	3.30920	-1.37141
7943.109	-0.70392	2.51608	3.43667	-1.47165
7947.118	-0.84858	2.94843	3.71528	-0.82665
7951.122	-0.66191	3.10907	3.19961	1.14133
7955.122	-0.60635	3.23351	3.28278	2.96010
7959.084	-0.69146	3.21161	3.33844	2.93619
7963.123	-0.94844	3.60837	3.30153	2.81116
7967.119	-0.94145	3.41216	3.53310	2.42534
7971.120	-0.87922	3.26461	3.68352	2.35769
7975.122	-0.85041	3.46775	4.17885	2.32652
7979.122	-0.90939	3.63667	4.70150	-0.87346
7983.121	-1.03863	3.55944	4.11253	-1.60192
7987.122	-0.87359	2.61571	4.11466	-2.07512
7991.123	-0.63496	2.52023	3.60922	-1.87336
7995.121	-0.83582	2.78127	4.03241	-2.03924
7999.130	-0.65970	0.71815	4.27042	-1.63589
8003.117	-0.51202	1.50034	3.95320	-1.08810
8007.121	-0.61335	1.50779	2.51685	0.32675
8011.123	-0.43279	1.46268	2.02282	-0.14314
8015.112	-0.32967	1.57630	1.77645	-0.32790
8019.083	-0.20313	1.61188	3.07078	0.65554
8023.082	-0.31173	1.74799	2.79766	0.64002
8027.111	-0.56833	1.38813	2.27397	0.18920
8031.126	-0.71925	1.37267	2.10748	-0.94412
8035.120	-1.28070	1.10704	2.37830	-1.05595
8039.123	-1.38195	1.21213	2.00212	-1.04373
8043.120	-1.78101	1.14951	2.01114	-0.62931
8047.123	-2.08176	1.08712	2.05754	-0.58406
8051.123	-2.00016	1.12742	2.08823	-1.16834
8055.123	-1.84111	1.14053	1.90344	-0.16900
8059.123	-1.68845	1.01457	1.73995	-0.69050
8063.123	-1.59469	0.89989	2.23135	-0.65177
8067.121	-1.64379	0.96756	1.40584	-1.00991
8071.122	-1.81887	0.69778	2.36775	-1.11297
8075.121	-1.74952	0.77362	1.79976	-0.83625
8079.122	-2.19306	0.74176	2.10724	-1.17083
8083.120	-1.98539	0.73672	2.37032	-1.28172
8087.124	-1.93737	0.63264	2.33864	-0.94126
8091.124	-1.68074	0.55189	2.44440	-1.20016
8095.126	-1.81892	0.62586	2.60290	-1.23609
8099.122	-1.78129	0.69630	2.35890	-1.36496
8103.125	-1.77080	0.55681	2.48361	-1.44927
8107.125	-1.73842	0.53876	2.44539	-1.61625
8111.093	-1.95254	0.75421	2.33177	-1.70686
8115.121	-1.89067	0.54873	2.30734	-1.91534
8119.120	-1.85757	0.60188	2.37956	-2.00410
8123.125	-1.86228	0.41602	2.45198	-1.64008
8127.126	-1.91806	0.47111	2.48324	-1.60998
8131.121	-1.92205	0.63789	2.40805	-1.81994
8135.120	-1.96377	0.56469	2.48069	-1.35864
8139.122	-1.91749	0.50841	2.35481	-1.49511
8143.087	-1.85998	0.36849	1.89525	-1.39109
8147.123	-1.88132	0.53919	1.45457	-1.12186
8151.125	-1.88737	0.60175	1.52461	-1.54998
8155.122	-1.96883	0.66995	1.58133	-1.31903
8159.089	-1.79829	0.77626	1.65994	-1.34306
8163.130	-1.70809	0.60851	1.74799	-1.03316
8167.123	-1.65523	0.94751	1.24344	-0.88559
8171.122	-1.77248	0.87634	1.65612	-0.27998
8175.115	-1.73926	1.12865	1.47605	0.14654
8179.122	-1.82309	1.24903	1.70244	0.97038
8183.123	-1.62683	1.35462	1.92495	0.73384
8187.122	-1.59142	1.44126	3.21174	0.89332
8191.029	-1.68471	1.48324	3.53394	1.60074
8195.125	-1.71563	1.97746	2.91309	2.08508
8199.123	-1.71251	2.28858	1.85507	2.22832
8203.126	-1.77114	2.00301	2.72669	2.40771
8207.023	-1.80737	2.40607	2.39857	-1.14258
8211.125	-1.88628	2.69636	2.23962	-1.78794
8215.127	-1.90458	3.09345	2.19948	-2.02196
8219.134	-1.88204	2.64452	2.55723	-1.82495
8223.020	-1.83828	3.03182	2.09259	-1.14056
8227.127	-1.70975	1.79027	1.95911	-0.42240
8231.123	-1.69656	1.95456	2.29238	-0.73553
8235.112	-1.61208	1.06653	1.63963	-0.38507
8239.023	-1.61595	0.70108	1.79269	-0.46144
8243.124	-1.56342	0.65281	2.05420	0.04356
8247.123	-1.58145	0.40058	1.73648	-0.13648
8251.124	-1.49455	0.31306	1.47680	-0.23181
8255.029	-1.31692	0.27359	2.02381	-0.36813
8259.127	-1.36724	0.51789	1.59554	-0.05703
8263.127	-1.50217	-0.02636	1.73073	-0.20841
8267.122	-1.30943	-0.46686	1.14623	-0.30732
8271.021	-1.33207	-0.05152	1.03627	-0.01491
8275.092	-1.14360	0.70070	2.65793	0.13039
8279.125	0.41440	0.46153	4.09226	0.02355
8283.124	1.40098	0.60559	3.75032	1.41477
8287.022	2.20220	0.48925	5.57653	0.58285
8291.123	2.26507	0.07459	6.36082	0.87776
8295.124	2.56619	-0.06640	7.27751	0.11353
8299.129	3.08419	-0.13523	7.63964	0.35743
8303.092	2.38487	0.59155	7.29802	-0.01760
8307.127	2.46327	0.00127	7.44847	1.13883
8311.130	2.58378	0.18615	7.46899	1.08541
8315.125	2.58960	0.42252	7.33972	0.66501
8319.128	2.58531	0.39467	7.10966	1.17216
8323.123	2.51366	0.27238	7.23465	1.86653
8327.125	2.47308	0.28264	7.31005	1.65989
8331.123	2.46142	0.43137	7.29931	2.12499
8335.126	2.24240	1.46826	7.25179	2.58474
8339.128	2.35372	1.82537	7.19432	3.71719
8343.088	2.31443	1.60675	7.51381	2.87276
8347.125	2.40102	2.47737	7.06347	1.56435
8351.029	2.33192	2.45320	7.01724	1.56761
8355.121	2.17844	2.83014	6.91386	-0.41275
8359.118	2.18159	2.93877	7.16613	-1.63123
8363.133	1.94161	2.96715	7.02814	-2.32235
8367.023	2.17874	2.97686	7.03973	-1.86055
8371.128	2.10344	2.80315	7.01372	-1.73051
8375.130	2.03955	2.76784	6.91302	-1.11687
8379.129	2.02894	2.96774	7.04526	-2.03547
8383.027	2.28747	2.45712	6.84786	-1.81653
8387.126	2.15611	2.39832	6.84852	-1.77507
8391.128	2.15083	2.45663	6.85684	-1.38476
8395.127	2.13254	2.46352	7.00624	-1.89010
8399.028	2.19569	2.19207	6.95641	-1.94426
8403.129	2.28053	1.94273	6.89028	-1.93596
8407.130	2.40501	2.18154	6.92207	-1.85806
8411.131	2.27357	2.10148	6.83335	-2.01741
8415.025	2.35276	2.28760	6.73373	-2.07168
8419.123	2.37612	3.28929	6.82992	-2.04754
8423.131	2.63920	2.73984	6.76518	-2.03042
8427.132	2.48168	3.03277	6.89155	-3.02272
8431.026	2.51643	3.39006	7.48424	-2.11057
8435.131	2.56225	3.19376	7.36435	-2.22341
8439.112	2.57610	3.42605	7.88441	-0.61036
8443.090	2.59200	3.15513	7.42773	0.12377
8447.024	2.56560	3.14958	8.55311	1.81179
8451.002	2.63294	2.96100	8.65334	0.10893
8455.003	2.68237	3.03967	8.32254	3.78212
8459.001	2.62152	3.01591	8.43528	3.72405
8462.997	2.66023	2.66631	8.77732	3.27377
8467.005	2.58900	2.77960	8.34854	3.42845
8471.005	2.55403	2.79347	8.86301	2.77047
8475.006	2.50982	2.77202	8.56292	3.10553
8479.025	2.46565	2.65985	8.40859	3.42582
8483.005	2.44405	2.73386	8.92355	3.07629
8486.977	2.36609	2.70137	8.56081	3.19592
8491.003	2.38819	2.67363	8.47126	3.05388
8495.005	2.27367	2.60350	8.38311	3.29522
8499.006	2.28598	2.61701	8.44669	3.22767
8502.967	2.26044	2.61532	8.67354	2.95079
8507.006	2.26225	2.58950	8.80010	3.00989
8511.028	2.21013	2.60072	8.38262	3.14698
8515.005	2.23090	2.58598	8.44941	3.00902
8519.006	2.30075	2.65244	8.42925	3.01903
8523.006	2.17757	2.71074	8.43523	2.71733
8526.995	2.09125	2.52109	8.42619	2.18779
8530.996	2.09004	2.62753	8.80808	2.27192
8535.006	2.10530	2.70576	8.57922	2.19303
8539.005	2.23945	2.49866	8.75999	0.42838
8543.026	2.38427	2.32126	8.68819	0.12284
8547.004	2.50917	2.25570	8.72525	-1.17096
8551.001	2.52131	2.34481	8.86161	-1.08379
8555.007	2.41526	0.03307	8.85087	-1.03635
8558.994	2.86014	1.66198	8.88019	-0.83633
8563.007	2.32788	0.73300	8.47284	-0.38673
8567.003	2.04106	0.44786	6.89492	-0.20939
8570.976	1.48047	-0.32305	4.24631	0.49932
8575.027	0.35650	1.55261	4.42146	-0.18497
8579.003	-2.12463	0.44228	3.16401	0.22732
8583.003	-2.62147	2.65031	1.80868	-0.13134
8587.003	-2.42872	2.70206	1.00390	-0.52226
8590.997	-2.44432	1.20746	1.44904	-0.07887
8595.003	-2.55364	1.87289	1.59159	-0.44693
8599.008	-2.50739	2.62793	1.62185	-0.10437
8603.008	-2.50457	1.91616	1.40911	-0.25236
8607.033	-2.41707	1.46728	1.40559	-0.51493
8611.005	-2.39131	0.80414	1.52032	-0.50929
8615.003	-2.39455	0.88324	1.60749	-0.49983
8619.003	-2.36918	1.13789	1.69612	-0.47651
8622.999	-2.45666	1.25733	1.73529	-0.56504
8627.006	-2.41036	1.73628	1.77467	-0.58929
8631.009	-2.46151	1.53074	1.97567	-0.77173
8635.006	-2.48255	1.86793	1.67204	-0.63927
8639.000	-2.54224	1.32831	1.29752	-0.55219
8643.004	-2.84920	1.05387	0.56838	-0.40603
8647.006	-2.78258	1.03073	1.07463	0.00017
8651.006	-3.16555	1.13469	1.43463	-0.18705
8654.997	-2.79637	0.72961	0.45753	0.76049
8659.004	-3.00571	0.71275	0.72747	0.82102
8663.007	-3.06471	0.97845	0.70878	1.12218
8667.008	-3.04157	0.75039	1.21415	0.87870
8671.005	-3.05791	0.83562	0.60377	1.22252
8675.008	-2.98515	1.55289	0.67034	-0.70034
8679.008	-2.93052	1.32686	0.80568	-0.57250
8683.006	-3.10062	1.61139	0.64583	0.50735
8687.005	-2.99381	1.68839	0.93445	0.67185
8691.007	-2.96693	2.01278	1.10800	-0.90066
8694.985	-2.93775	2.35931	1.28837	-1.40302
8699.006	-2.94215	2.39257	1.22395	0.06010
8703.000	-3.09119	2.69199	1.09877	-1.08662
8707.005	-3.04628	2.88220	1.19877	-1.48242
8711.004	-3.06125	2.42417	1.27108	-1.07563
8715.007	-3.08097	2.81988	1.28958	-0.95932
8719.027	-3.30319	2.65269	1.35286	-0.58124
8723.010	-3.30314	2.38940	1.38887	-0.93593
8727.007	-3.36448	2.91597	1.45304	-0.50545
8731.009	-3.47636	2.72590	1.58435	-0.33680
8735.025	-3.40472	2.82801	1.55350	-0.46477
8739.008	-3.33631	2.75679	1.52283	-0.57263
8743.007	-3.37245	3.03712	1.32751	-0.91152
8747.008	-3.19595	2.71071	1.55407	-1.64113
8751.029	-3.23784	3.30646	1.55455	-1.92882
8755.006	-3.14887	3.24074	2.10374	-1.84679
8759.006	-2.97688	2.87741	1.78877	-1.39202
8763.006	-2.97250	3.49799	2.02215	-2.14041
8767.030	-2.96000	3.32718	2.01536	-2.27189
8770.965	-2.98958	3.39696	1.27867	-2.25783
8775.004	-3.03571	2.85015	1.39401	-1.97925
8778.975	-3.04120	2.79340	0.81245	-0.98028
8783.029	-2.99626	3.09660	0.91924	-1.28283
8787.008	-3.04875	3.05874	0.95058	-0.84350
8791.008	-3.06330	3.02520	0.97422	-1.26833
8795.008	-3.16748	2.91372	1.11459	-1.41391
8799.005	-3.10500	2.46030	1.03794	-0.69493
8802.970	-3.08213	2.45070	1.34772	1.30524
8807.009	-3.28303	2.35136	0.83642	2.29958
8811.008	-3.41921	2.51710	0.89341	2.48065
8815.011	-3.61401	2.49773	1.29286	2.51204
8818.990	-3.32753	2.31811	1.06803	2.28625
8823.006	-2.86014	3.07703	3.21406	2.43560
8827.007	-2.02869	2.54052	2.98166	2.66282
8831.028	-1.30102	3.34839	3.42994	2.34744
8835.011	-0.09215	3.34603	5.95010	3.35600
8839.009	0.59972	2.35372	3.57061	1.62536
8843.010	0.75248	3.05495	3.53236	1.17793
8847.003	1.32210	2.76737	3.75721	1.56236
8851.009	0.84486	2.96035	4.00519	0.79189
8855.010	0.80607	3.22108	3.77950	0.42989
8859.009	1.00127	3.30613	4.48211	0.69438
8863.001	1.08428	2.94986	4.04159	0.46857
8867.014	1.14585	2.75446	4.31760	0.35691
8871.012	1.11928	2.41253	5.18020	-0.37522
8875.011	0.94991	2.16175	4.86554	0.24829
8879.002	0.94249	2.32290	5.04282	-0.88252
8883.008	0.80640	1.61126	4.75940	-0.07444
8886.971	0.84821	1.24776	5.11260	-0.61547
8891.010	0.84726	1.38137	5.30732	-0.48311
8895.000	0.71786	1.43736	5.61694	-0.37238
8899.013	0.90612	1.48407	5.77833	-0.61011
8902.972	0.66776	1.36494	5.60170	-0.07686
8907.008	0.72623	1.14513	6.01949	-0.19710
8910.990	0.73541	1.28974	6.15917	-0.04306
8915.011	0.76042	1.25010	5.75863	0.41773
8919.011	0.66694	1.22119	5.90590	0.32579
8923.014	0.74325	1.27092	6.08416	-0.06760
8927.003	0.70533	1.27023	6.83687	-0.02378
8931.010	0.79253	1.22352	6.60208	0.38023
8935.009	0.85883	1.13538	6.30960	0.26563
8939.015	0.76677	1.18754	6.13988	0.63404
8942.970	0.76104	0.98921	6.11586	0.40530
8947.014	0.80022	0.80590	6.23172	0.15409
8951.009	0.83185	0.77690	6.89267	0.57308
8954.973	0.76655	1.11715	6.40790	0.75391
8959.003	0.72853	1.11073	6.38800	0.32066
8962.973	0.77280	1.86621	6.43809	1.05385
8967.017	0.78709	1.79268	6.74166	0.76120
8971.010	0.72948	1.92064	6.71050	0.62751
8975.011	0.71744	2.60537	6.77648	0.90895
8979.010	0.74297	2.67099	6.68925	0.66756
8983.009	0.82893	2.45180	6.84093	0.29836
8986.983	0.80928	2.56534	6.84204	0.35431
8991.012	0.86156	2.21655	6.80064	0.58713
8995.011	0.94383	2.74371	6.44493	0.26798
8999.010	0.98514	2.83303	6.05633	0.57643
9002.975	1.03511	2.69871	5.95579	0.33689
9007.013	1.09619	2.90453	5.47783	0.38703
9011.014	0.98015	2.98388	5.59253	0.35936
9015.012	1.00638	2.96175	5.46074	0.00581
9019.012	1.01839	3.00563	5.84031	-0.44834
9023.031	1.07247	3.10415	5.63476	-0.54897
9026.974	1.04553	3.19065	5.59189	-0.25661
9031.008	1.02307	3.32084	5.47643	-0.00002
9035.011	1.00238	3.46906	5.50582	-0.64522
9039.005	0.90885	3.44856	5.63832	-0.78116
9043.014	0.80607	3.55985	5.53333	-0.79510
9047.013	0.95901	3.37364	6.11689	-0.98559
9051.014	-0.05594	3.60854	5.52450	-0.39927
9055.016	-1.77762	3.49188	2.46771	-0.64652
9059.015	-2.29193	3.79597	0.53056	0.04152
9063.013	-3.27301	3.51933	0.63208	-0.41184
9067.012	-3.67405	3.32447	-0.42822	-0.38326
9071.004	-3.63016	3.38599	-0.59382	-0.06075
9075.013	-4.39686	2.52201	-1.06661	-0.05451
9079.014	-4.22910	3.18915	-1.09341	-0.11580
9083.012	-4.34620	2.97437	-0.99866	-0.05237
9087.015	-4.19817	2.93710	-0.91125	-0.06689
9091.012	-4.14692	2.59377	-0.92686	-0.07347
9095.014	-4.28740	2.45416	-0.87959	-0.08873
9099.014	-4.34810	2.44758	-0.59270	-0.24994
9103.004	-4.37187	2.32826	-0.74159	-0.44515
9107.011	-4.46956	2.28408	-0.62595	-0.91481
9110.993	-4.59238	2.10272	-1.02650	-0.78568
9115.014	-4.62441	2.04531	-0.98774	-1.62096
9119.012	-4.69536	1.95079	-0.96648	-1.75976
9123.013	-4.79753	1.85238	-0.79042	-1.44411
9127.015	-4.88732	1.89319	-0.69097	-1.38338
9131.014	-4.90659	1.67297	-0.80799	-1.44597
9135.018	-4.90491	1.69821	-0.80069	-1.43907
9139.012	-5.04920	1.42413	-0.73881	-1.18782
9143.017	-5.00253	1.84313	-0.91423	-1.63206
9147.015	-4.99536	1.37845	-0.94835	-1.59516
9151.020	-5.03851	1.68983	-0.98008	-1.45469
9155.005	-5.00650	1.66782	-0.93006	-2.05375
9158.976	-5.08820	1.50774	-0.88413	-1.62287
9163.014	-5.11753	1.60935	-0.87222	-1.64328
9167.018	-5.08500	1.55039	-0.95753	-1.60968
9171.014	-5.11201	1.74040	-0.95450	-1.86084
9175.012	-5.06220	1.36953	-1.04052	-1.89650
9179.013	-5.10251	1.68323	-0.81292	-1.95934
9183.019	-5.06850	1.34893	-0.72489	-1.97735
9187.012	-5.02226	1.35049	-0.93259	-2.06286
9191.014	-5.00452	1.44708	-0.77670	-1.97943
9194.981	-4.84679	1.38843	-0.51366	-1.02937
9199.019	-4.62919	1.47536	-0.63223	-1.29869
9203.016	-4.56617	1.52244	-0.71010	-0.40259
9207.013	-4.61206	1.52831	-0.64168	0.01687
9211.014	-4.59287	1.68042	-0.84647	0.13484
9215.018	-4.61154	1.74603	-0.90428	0.24272
9219.013	-4.61852	1.86201	-0.75548	-0.05118
9223.015	-4.56984	1.92689	-0.55776	-0.25782
9226.976	-4.40757	2.10949	-0.29481	0.61210
9231.015	-4.48932	2.07734	-0.35496	-0.00027
9234.999	-4.46936	2.14100	-0.50825	0.50525
9239.009	-4.26479	2.17700	-0.68446	0.58054
9243.017	-4.14001	2.35423	-0.83461	0.57612
9246.913	-4.33986	2.58523	-0.90168	0.85410
9251.015	-4.52266	2.80658	-0.74280	0.64478
9255.014	-5.00810	3.52674	-0.70948	0.58555
9259.017	-5.02425	4.31139	-0.75226	1.11765
9263.019	NaN	NaN	1.00496	3.40828
9267.016	NaN	NaN	0.40703	3.62805
9271.007	NaN	NaN	-3.01081	4.30406
9274.981	NaN	NaN	NaN	NaN
9279.013	NaN	NaN	NaN	NaN
9282.982	NaN	NaN	NaN	NaN
9287.014	NaN	NaN	NaN	NaN
9290.974	NaN	NaN	NaN	NaN
9294.997	NaN	NaN	NaN	NaN
9299.015	NaN	NaN	NaN	NaN
9303.015	NaN	NaN	NaN	NaN
9307.014	NaN	NaN	NaN	NaN
9311.015	NaN	NaN	NaN	NaN
9315.014	NaN	NaN	NaN	NaN
9318.994	NaN	NaN	NaN	NaN
9323.014	NaN	NaN	NaN	NaN
9326.978	NaN	NaN	NaN	NaN
9331.016	NaN	NaN	NaN	NaN
9335.015	NaN	NaN	NaN	NaN
9338.918	NaN	NaN	NaN	NaN
9343.018	NaN	NaN	NaN	NaN
9346.984	NaN	NaN	NaN	NaN
9351.018	NaN	NaN	NaN	NaN
9355.017	NaN	NaN	NaN	NaN
9359.009	NaN	NaN	NaN	NaN
9362.981	NaN	NaN	4.34031	9.24442
9367.018	NaN	NaN	NaN	NaN
9370.918	NaN	NaN	4.31775	4.30618
9375.018	NaN	NaN	6.13868	7.89133
9379.018	NaN	NaN	12.51929	0.79012
9383.019	5.61079	7.14855	15.84307	7.34600
9387.021	NaN	NaN	8.55928	3.58686
9391.018	0.99055	-0.89518	17.84296	-0.66018
9394.980	-1.96186	3.00754	12.82278	4.19436
9399.031	-0.48589	5.56044	13.30237	3.12371
9402.982	7.76016	13.19651	9.93415	3.79694
9407.017	1.40780	5.95969	7.91602	4.04052
9411.019	7.85853	5.33963	5.63353	3.35147
9415.017	-2.92480	5.74101	5.60148	3.69495
9418.917	4.43830	5.26822	5.35665	2.95542
9423.017	2.86903	5.90583	4.66874	3.71790
9427.019	0.25172	5.82469	4.65742	2.37247
9430.979	1.28427	5.57754	5.31421	2.44776
9434.916	0.94517	5.10663	4.90181	2.81372
9439.019	0.63756	5.30146	4.76887	2.50221
9443.002	0.61637	5.17427	4.53041	2.85955
9447.018	0.33704	4.81128	4.96169	2.51140
9450.920	0.41666	4.72397	4.54787	2.13503
9455.018	0.36566	4.76282	4.60340	2.15480
9459.018	0.32938	4.36237	4.53433	2.53293
9463.019	0.24592	4.35403	4.26368	2.40118
9466.915	0.20747	4.29674	4.29631	2.73955
9471.018	0.16387	4.00008	4.02907	2.40793
9475.017	0.16787	4.19820	4.80610	2.30905
9479.019	0.04477	4.27216	4.98403	2.46316
9482.918	-0.04772	4.18895	4.98672	2.32056
9487.020	-0.08947	4.14052	5.12533	2.54219
9490.893	-0.24219	4.08437	6.35018	2.62512
9494.899	-0.26652	3.87048	5.28768	3.05144
9498.885	-0.29168	3.94319	5.43910	3.41307
9502.897	-0.35270	4.08324	5.20762	2.37666
9506.894	-0.40251	4.36802	5.27656	2.39058
9510.892	-0.38983	4.34621	4.17702	2.38954
9515.020	-0.43646	4.50570	3.56156	-0.04553
9518.893	-0.47314	4.30144	4.84413	2.05856
9522.896	-0.48167	4.73862	4.13826	2.01154
9526.897	-0.44547	4.66637	4.36594	1.90260
9531.024	-0.40256	4.79811	4.22819	1.83281
9534.885	-0.35427	4.99854	4.70338	1.97733
9538.894	-0.37219	4.85179	5.22119	1.78507
9542.895	-0.40539	4.86899	4.15924	1.86937
9546.917	-0.52282	4.92239	1.27400	0.92828
9550.890	-0.56528	4.92098	2.15157	0.73607
9554.896	-0.64501	4.86457	1.98108	0.92301
9558.895	-0.62419	4.90277	1.80581	1.11121
9563.024	-0.67213	4.84658	1.90510	0.83622
9566.858	-0.54771	4.85362	2.02396	0.99342
9570.901	-0.56389	4.74105	3.00660	0.91678
9574.861	-0.72886	4.84179	2.05286	1.14223
9578.886	-0.73479	4.64478	2.45066	0.93235
9582.896	-0.75340	4.83325	2.20310	1.03295
9586.898	-0.76345	4.75070	2.20327	0.87574
9590.898	-0.79491	4.84610	2.25315	1.03068
9594.888	-0.80843	4.83528	2.21058	1.09046
9598.894	-0.80848	4.82462	2.14107	1.21963
9602.896	-0.82947	4.81964	2.32117	1.33220
9606.896	-0.80560	4.87680	2.61053	1.27658
9610.895	-0.72836	4.71126	2.24829	1.42225
9614.896	-0.83823	4.55829	2.18612	1.37468
9618.898	-0.57148	4.81304	2.28918	1.44985
9622.894	-0.71608	4.65460	2.22641	1.53356
9626.895	-0.51334	4.64710	2.18357	1.68388
9630.898	-0.80652	4.42171	2.36916	1.73457
9634.896	-0.84069	4.23296	1.98901	2.38033
9638.895	-0.69449	4.08270	2.35410	2.26149
9642.859	-0.61265	3.61031	2.34015	1.88231
9646.894	-0.43877	2.38132	2.09177	1.91986
9650.897	-0.30843	2.63872	2.07093	2.17836
9654.891	-0.26763	2.61242	2.13859	1.94738
9658.897	-0.31513	2.20442	2.02782	2.07645
9662.898	-0.30640	2.39157	1.92860	2.36018
9666.895	-0.16722	2.22364	2.00202	2.38467
9670.900	-0.17859	2.35751	1.98189	2.34065
9674.887	-0.07820	2.37057	2.12104	2.35812
9678.895	-0.07726	2.36107	4.15510	0.63885
9682.896	-0.10940	2.29927	2.34052	2.33303
9686.896	-0.09932	2.24806	2.24361	2.24669
9690.890	-0.14474	2.29753	2.13331	2.07849
9694.897	-0.22112	2.42143	2.15165	2.18658
9698.870	-0.31119	2.45287	1.91253	2.33122
9702.897	-0.06597	2.31433	2.23588	2.29544
9706.890	-0.13399	2.26248	2.02579	2.39269
9710.862	-0.06974	2.32426	2.01332	2.41220
9714.934	-0.03606	2.23990	2.01166	2.45097
9718.897	-0.17903	2.28130	1.91531	2.06458
9722.895	-0.15461	2.61015	2.03360	2.40778
9726.895	-0.18832	2.34106	2.09695	2.37295
9730.899	-0.19005	2.49790	2.64678	1.56190
9734.901	-0.01670	2.41138	3.07867	1.16004
9738.857	-0.10376	2.26642	3.47703	1.13091
9742.888	0.00285	2.29347	3.70769	1.09483
9746.896	0.04450	2.26070	3.29980	1.05655
9750.898	0.14615	2.34263	3.35093	1.02141
9754.890	0.02072	2.42698	3.91163	1.05515
9758.897	0.08892	2.57686	3.82301	0.98023
9762.900	0.05023	2.46334	3.82707	1.13583
9766.897	0.03671	2.42867	3.63824	1.16783
9770.899	0.01549	2.51059	4.02724	0.99367
9774.903	0.06492	2.65477	4.13495	0.91085
9778.898	0.03872	3.06532	4.13342	1.03040
9782.864	-0.03053	2.90687	4.08676	1.11885
9786.892	-0.11240	3.25062	3.99736	1.26657
9790.898	-0.08656	3.43879	4.01697	1.55750
9794.899	-0.08718	3.37260	4.15342	1.69849
9798.897	-0.04693	3.47754	4.20264	1.75988
9802.865	-0.18025	3.41389	4.35171	1.46480
9806.900	-0.08736	3.51964	4.33308	1.90120
9810.901	-0.11729	3.50612	4.31412	1.93453
9814.900	-0.29481	3.55663	4.26193	2.11870
9818.894	-0.30074	3.61190	4.18756	2.12707
9822.879	-0.19430	3.56646	4.26543	1.97208
9826.901	-0.14898	3.58803	3.97899	1.44208
9830.896	-0.06100	3.51237	4.26121	1.88410
9834.890	-0.08773	3.46988	4.30924	1.55950
9838.862	-0.03618	3.44815	4.17462	1.23827
9842.898	-0.23698	3.38426	4.41884	1.37075
9846.901	-0.11215	3.27237	4.46283	0.91794
9850.890	-0.15067	3.01927	4.58084	0.47975
9854.897	-0.22016	2.99289	2.69963	1.68926
9858.902	-0.05003	2.80546	1.85656	1.97873
9862.894	-0.04708	2.41733	1.49681	2.03553
9866.892	-0.13709	3.02017	1.08031	2.32513
9870.906	-0.09756	2.87831	0.73598	2.21059
9874.900	-0.08766	3.80098	1.29229	2.33934
9878.901	-0.21810	4.50696	1.04642	2.24345
9882.891	-0.43105	4.78618	4.48873	3.37667
9886.902	-0.52006	4.89220	4.22296	3.86436
9890.898	-0.50125	5.03198	4.25879	2.64169
9894.902	-0.28880	5.03677	4.24796	2.56472
9898.890	-0.30851	4.89130	4.31363	3.49941
9902.902	-0.34633	4.97327	4.29224	4.05206
9906.865	-0.35139	4.78529	4.33243	3.80969
9910.899	-0.40492	4.92447	4.40118	4.09461
9914.892	-0.36380	4.84746	4.24347	4.04119
9918.900	-0.43110	5.04261	4.31990	4.07223
9922.900	-0.43574	4.98917	3.90484	4.22549
9926.902	-0.43127	5.13217	4.15092	3.99913
9930.898	-0.38521	4.95549	3.97696	4.17604
9934.901	-0.42179	5.02220	4.13172	4.42987
9938.902	-0.36658	4.93915	3.84938	4.44075
9942.901	-0.29265	5.07185	4.13651	4.39094
9946.860	-0.36856	4.98689	4.27257	4.47506
9950.901	0.22239	4.95712	3.89029	4.63704
9954.899	0.02097	4.85870	4.48332	3.04304
9958.898	-0.17362	4.86359	4.22789	4.34251
9962.900	0.08622	4.52138	4.46519	2.99257
9966.901	0.63575	4.63483	4.80647	2.63134
9970.900	0.39258	4.51711	4.98408	2.40793
9974.906	0.36618	4.53174	4.62394	2.22857
9978.899	0.45331	3.84621	4.66194	2.34476
9982.902	0.58550	4.02941	4.72827	2.33455
9986.902	0.53369	3.08694	4.78225	2.19055
9990.866	0.53049	3.05496	4.74161	2.03040
9994.902	0.53883	3.90861	4.90513	2.02272
9998.902	0.56476	3.58121	4.85642	2.03728
10002.905	0.65275	3.81499	4.92457	1.77595
10006.902	0.63759	4.21590	4.80391	1.82109
10010.896	0.56027	4.32315	4.77599	2.11446
10014.902	0.48572	4.67235	4.73350	1.99919
10018.904	0.50356	4.57843	4.59756	2.66018
10022.900	0.44073	4.58656	4.59919	2.91879
10026.892	0.38598	5.08857	4.43352	2.52052
10030.881	0.35898	4.66526	4.45402	1.95642
10034.902	0.20524	4.91531	4.42353	2.71229
10038.907	0.28811	5.06986	4.40317	2.41043
10042.922	0.13029	5.16619	4.15959	2.74037
10046.902	-0.06093	5.16142	4.01890	2.60687
10050.902	-0.09701	5.04494	4.16050	2.23200
10054.905	-0.26535	4.95135	4.02428	2.41836
10058.903	-0.28108	4.94390	3.55105	2.54635
10062.902	-0.37941	4.86351	3.79339	2.52104
10066.903	-0.14208	4.91683	3.42517	2.41800
10070.902	-0.29984	4.86996	3.33656	2.15045
10074.909	-0.22182	4.75600	3.46543	2.05000
10078.903	-0.21882	4.88114	2.97633	2.17940
10082.904	-0.21869	4.71636	2.92376	2.08300
10086.905	-0.31404	4.48620	2.87311	2.19506
10090.908	-0.16089	4.23666	2.80590	2.23311
10094.903	-0.24301	3.92075	2.75928	2.33019
10098.904	-0.15928	4.15534	2.67444	2.50405
10102.903	-0.16328	4.18310	2.51175	2.36969
10106.894	-0.09652	3.86015	2.48019	2.60614
10110.865	-0.07485	3.80459	2.36730	2.80486
10114.902	0.20368	4.25506	2.43488	2.78371
10118.903	-0.20544	3.87059	5.39608	2.00057
10122.906	-0.18261	4.12599	3.21488	0.83120
10126.904	-3.23222	3.81701	1.98021	1.85542
10130.904	-2.15983	3.57736	-0.51103	2.26391
10134.907	-4.51467	4.14761	-2.45208	2.02797
10138.907	-4.93607	3.74078	-4.11629	1.40184
10142.902	-7.89435	3.60900	-6.47708	1.86868
10146.904	-7.97563	3.52232	-6.66205	1.72434
10150.872	-9.87557	3.44489	-7.61963	1.71330
10154.884	-10.18668	3.62450	-9.06475	2.41936
10158.894	-11.02074	1.71492	-9.52355	1.71946
10162.904	-12.27647	1.76879	-9.66887	1.76721
10166.903	-12.08155	2.51280	-9.75680	1.85516
10170.907	-12.15460	1.93469	-9.90306	1.77697
10174.908	-12.00300	2.34321	-9.86818	1.68463
10178.867	-11.08125	2.37533	-9.85221	1.87776
10182.904	-12.02375	2.13283	-9.95478	1.77143
10186.801	-12.10283	1.93356	-10.06828	1.82610
10190.905	-12.14938	2.00002	-9.99412	1.75877
10194.906	-12.20024	1.93462	-9.92745	1.62005
10198.869	-12.15049	1.80960	-9.91004	1.69600
10202.906	-12.15872	2.05806	-9.90599	1.77169
10206.904	-12.21350	2.02207	-9.78428	1.81939
10210.908	-12.24983	2.24598	-9.86575	2.19782
10214.907	-12.06582	2.00091	-9.82614	2.33486
10218.896	-11.83279	2.34281	-9.70502	1.94382
10222.904	-11.36911	2.46871	-9.65100	1.91164
10226.905	-11.10412	2.82114	-9.63397	1.84524
10230.906	-11.60668	2.73721	-9.36916	1.67746
10234.803	-10.89968	2.81800	-9.39830	1.88217
10238.885	-11.04991	2.84674	-9.33292	1.75520
10242.905	-11.02715	2.74177	-9.23906	1.84887
10246.868	-11.07907	2.80685	-9.29355	1.73986
10250.808	-11.32462	2.76707	-9.40040	1.73957
10254.904	-11.34738	2.88859	-9.38448	1.68775
10258.904	-11.52367	2.88276	-9.24530	1.70726
10262.907	-11.49097	2.81277	-9.27547	1.79312
10266.903	-11.75562	2.55595	-9.36653	1.60942
10270.907	-12.02508	2.61360	-9.24926	1.67539
10274.913	-12.89136	1.78319	-9.33591	1.62279
10278.904	-12.07920	1.88482	-9.30341	1.70152
10282.805	-12.16252	2.24932	-9.42767	1.86673
10286.905	-12.15502	1.85956	-9.43916	1.90200
10290.908	-12.13965	1.54445	-9.39885	2.01714
10294.904	-12.27867	1.59869	-9.45892	2.28851
10298.805	-12.26204	1.57994	-9.37424	2.25661
10302.905	-12.47425	1.66375	-9.37856	2.64529
10306.908	-12.43528	1.52019	-9.42854	2.31693
10310.904	-12.36603	1.49864	-9.31421	2.15286
10314.785	-12.47503	1.39256	-9.19962	2.51817
10318.908	-12.38535	1.37121	-9.21307	2.59700
10322.906	-12.45142	1.13750	-9.25067	2.44491
10326.905	-12.43045	1.13303	-9.23696	2.61092
10330.773	-12.35931	1.29653	-9.20748	2.49383
10334.908	-12.48073	1.33868	-9.34606	2.33745
10338.908	-11.47639	1.95252	-9.25637	2.43167
10342.906	-12.35888	1.82267	-9.26897	2.33189
10346.804	-11.96360	1.59732	-9.15309	2.24044
10350.907	-12.03598	1.48950	-9.17807	2.27942
10354.908	-11.24041	1.91633	-9.13419	2.25308
10358.907	-11.37615	1.94131	-9.16685	2.19053
10362.805	-11.35141	1.97029	-9.18572	2.12964
10366.906	-10.72069	2.00230	-9.14697	2.18269
10370.905	-10.90954	2.30232	-9.21428	2.23954
10374.913	-10.90920	2.44333	-9.12524	2.15538
10378.911	-10.84616	2.22798	-9.08394	2.22500
10382.871	-10.90298	2.35014	-8.98980	2.36594
10386.907	-11.02748	2.35777	-9.12268	2.22728
10390.906	-11.10636	2.19994	-9.11039	2.33203
10394.810	-11.15527	2.25914	-9.12868	2.51899
10398.913	-11.31438	2.34866	-8.96692	2.68140
10402.870	-11.31557	2.31070	-8.96598	2.89883
10406.880	-11.43550	2.14283	-8.98240	3.19888
10410.785	-11.75125	2.06434	-9.03273	3.42068
10414.910	-11.88482	1.98129	-8.87568	3.66614
10418.910	-12.01870	2.12001	-8.95152	2.39060
10422.910	-11.84135	1.94328	-9.01912	2.48466
10426.806	-11.76749	1.70510	-9.05613	2.46971
10430.908	-11.70766	1.75927	-9.09042	3.12547
10434.908	-12.01231	1.81012	-9.26336	1.92440
10438.910	-12.11581	1.63939	-8.96978	1.22985
10442.812	-12.26071	1.78047	-8.73882	1.25623
10446.887	-12.28280	1.60177	-8.50646	1.22155
10450.871	-12.44874	1.65531	-8.64383	1.33291
10454.908	-12.35943	1.66928	-8.69445	1.31053
10458.878	-12.37444	0.07350	-8.55287	1.10819
10462.910	-12.46171	1.05909	-9.02607	0.76447
10466.909	-12.59065	0.06870	-8.63246	0.64026
10470.908	-12.55793	-0.30738	-8.57668	0.88209
10474.808	-12.58798	0.52489	-8.47260	0.80723
10478.908	-12.68238	0.59895	-8.51741	1.04808
10482.910	-12.60706	0.00354	-8.59669	1.03701
10486.907	-12.00098	0.08232	-8.58087	1.01522
10490.810	-12.18844	-0.19764	-8.63379	1.01318
10494.909	-12.04142	-0.22390	-8.80488	1.01937
10498.912	-11.49979	-0.13003	-8.75281	1.18103
10502.908	-11.45808	-0.27775	-8.81545	1.15160
10506.910	-11.33387	-0.27985	-8.80595	1.40083
10510.908	-11.28639	0.03680	-8.84843	1.28010
10514.912	-11.25280	-0.09127	-8.90383	1.38512
10518.786	-11.09783	-0.04267	-8.95225	1.45223
10522.775	-11.24853	-0.18912	-8.99046	1.39203
10526.785	-11.07262	0.02685	-8.97065	1.58465
10530.786	-11.18243	-0.13271	-9.02379	1.71965
10534.769	-11.11846	0.08761	-9.04212	2.06606
10538.775	-11.06019	0.17435	-9.04737	2.21251
10542.787	-11.00694	0.24887	-9.03675	1.75230
10546.786	-10.98210	0.58812	-9.05366	1.95406
10550.746	-10.93509	0.64445	-9.07104	2.44825
10554.781	-10.90638	0.56414	-9.13303	2.58801
10558.786	-10.94251	0.66343	-9.05855	2.70178
10562.789	-10.90286	0.70151	-9.07593	2.58669
10566.787	-10.88946	0.85458	-9.03793	2.74865
10570.785	-10.91026	0.92673	-9.08007	2.71241
10574.789	-10.83323	1.07734	-9.11452	2.97027
10578.781	-10.96808	1.46181	-9.18393	2.95215
10582.745	-10.88262	1.11460	-9.10535	2.93581
10586.778	-11.19447	1.37863	-9.01571	2.96034
10590.785	-11.77294	1.29365	-8.93861	3.08045
10594.783	-10.41489	1.60300	-8.59075	3.15952
10598.788	-7.50108	2.01289	-6.00673	3.18434
10602.752	-7.58534	2.09375	-6.11790	3.11900
10606.785	-5.24964	2.73476	-3.93275	2.64667
10610.783	-5.20817	2.41937	-3.16824	3.06799
10614.786	-4.88818	2.18652	-1.05419	3.31073
10618.793	-3.68260	2.26215	-0.86741	1.51162
10622.786	-3.53701	2.14495	-0.93534	2.50810
10626.787	-3.45034	2.10148	-0.92376	2.43240
10630.786	-3.27131	2.06648	-0.96462	2.16856
10634.809	-3.16300	2.22711	-0.90875	2.19139
10638.785	-3.23544	2.06938	-0.82183	2.10354
10642.786	-3.20446	2.07933	-0.93046	2.22604
10646.749	-3.17564	1.77382	-0.90168	2.07034
10650.752	-3.27029	1.94936	-0.75096	2.07724
10654.786	-3.18338	2.02897	-0.77694	1.94208
10658.774	-3.16797	2.07693	-0.90081	1.97900
10662.777	-3.15107	1.94912	-0.94304	2.05166
10666.781	-3.17111	2.17697	-0.83550	1.99509
10670.791	-3.17044	2.00979	-0.63526	1.93296
10674.787	-3.17571	2.13422	-0.40757	1.83478
10678.788	-3.19031	2.13248	-0.63481	1.56727
10682.781	-3.20951	2.23382	0.73585	1.93232
10686.787	-3.19699	2.17171	0.60826	1.75502
10690.785	-3.27658	2.40732	-0.35710	1.72452
10694.788	-3.23195	2.20711	-0.13903	1.89303
10698.782	-3.23650	2.31761	1.19750	1.88928
10702.758	-3.22764	2.28543	0.65848	1.74393
10706.752	-3.25540	2.34258	0.64029	1.84891
10710.749	-3.27118	2.29870	0.95656	1.70749
10714.779	-3.26693	2.34941	0.46463	1.84860
10718.789	-3.32305	2.28523	0.57664	1.80996
10722.788	-3.31623	2.38434	0.54175	1.76666
10726.787	-3.32387	2.47322	0.61573	1.62729
10730.786	-3.33389	2.38531	1.05411	1.95062
10734.789	-3.35958	2.31900	0.91651	1.99428
10738.788	-3.34032	2.32400	0.69695	1.84999
10742.789	-3.30866	2.29134	0.54225	1.69092
10746.781	-3.36817	2.43881	0.75330	1.76805
10750.789	-3.34136	2.31944	0.53299	1.68747
10754.790	-3.37536	2.27582	0.67444	1.56341
10758.787	-3.33562	2.52598	0.52664	1.40868
10762.784	-3.32041	2.36625	0.82024	1.33330
10766.787	-3.29916	2.13292	0.79781	1.16910
10770.796	-3.33240	2.64573	0.82119	1.13405
10774.788	-3.35293	2.35741	0.52766	1.02828
10778.783	-3.35491	2.30695	0.85870	0.44810
10782.786	-3.40776	2.73990	0.53361	0.85998
10786.783	-3.41644	2.45907	0.65216	-0.06162
10790.790	-3.43862	2.53697	0.84706	0.14955
10794.813	-3.49656	2.53484	0.63910	-0.25459
10798.790	-3.48009	2.47421	0.56925	0.43654
10802.792	-3.44589	2.61827	0.96956	0.30587
10806.785	-3.38498	2.47415	0.88989	-0.33082
10810.784	-3.46293	2.30692	0.73064	-0.33461
10814.788	-3.43229	2.51417	0.84242	-0.17942
10818.788	-3.33896	2.53998	0.82766	-0.05014
10822.790	-3.20600	2.09122	0.83687	0.23810
10826.782	-3.30114	2.31278	0.86347	-0.06858
10830.790	-3.17015	2.19209	1.00320	0.90757
10834.789	-3.12828	1.90698	0.55982	0.75576
10838.791	-3.04704	2.26808	0.96919	1.46599
10842.811	-3.02195	2.00928	0.84922	1.41298
10846.789	-2.95334	2.10924	0.90522	1.18121
10850.790	-2.95094	1.96133	0.79461	1.29152
10854.789	-2.93087	2.12876	0.74486	1.72617
10858.785	-2.92978	2.00953	0.51609	1.83726
10862.789	-2.92292	2.10164	0.67516	1.84255
10866.776	-2.90948	2.07195	0.57930	2.65513
10870.782	-2.89076	2.27326	0.98107	2.99282
10874.789	-2.97762	2.45690	0.88490	3.52656
10878.797	-3.05298	4.44964	1.16386	2.48820
10882.791	-3.18007	4.90013	1.21675	3.03481
10886.793	-3.05226	5.04299	1.52774	3.58920
10890.782	-3.14330	3.35661	0.64771	3.38794
10894.750	-3.59251	8.08913	0.44376	4.64539
10898.788	NaN	NaN	2.62484	7.06020
10902.792	NaN	NaN	8.97063	10.37318
10906.844	NaN	NaN	1.15250	3.83175
10910.763	NaN	NaN	NaN	NaN
10914.790	NaN	NaN	NaN	NaN
10918.788	NaN	NaN	NaN	NaN
10922.785	NaN	NaN	NaN	NaN
10926.753	NaN	NaN	NaN	NaN
10930.793	NaN	NaN	NaN	NaN
10934.789	NaN	NaN	NaN	NaN
10938.789	NaN	NaN	NaN	NaN
10942.791	NaN	NaN	NaN	NaN
10946.793	NaN	NaN	NaN	NaN
10950.776	NaN	NaN	NaN	NaN
10954.788	NaN	NaN	NaN	NaN
10958.758	NaN	NaN	NaN	NaN
10962.759	NaN	NaN	NaN	NaN
10966.792	NaN	NaN	NaN	NaN
10970.793	NaN	NaN	NaN	NaN
10974.793	NaN	NaN	NaN	NaN
10978.756	NaN	NaN	NaN	NaN
10982.791	NaN	NaN	NaN	NaN
10986.791	NaN	NaN	NaN	NaN
10990.789	NaN	NaN	NaN	NaN
10994.757	NaN	NaN	NaN	NaN
10998.792	NaN	NaN	NaN	NaN
11002.787	NaN	NaN	NaN	NaN
11006.794	NaN	NaN	9.28332	6.19692
11010.792	NaN	NaN	8.74147	8.45886
11014.792	NaN	NaN	8.64315	7.68358
11018.786	NaN	NaN	6.64425	-1.43154
11022.790	NaN	NaN	10.41357	2.86009
11026.754	NaN	NaN	9.68358	3.46504
11030.795	NaN	NaN	11.78083	3.63577
11034.754	NaN	NaN	11.45202	3.63545
11038.792	NaN	NaN	15.20755	3.57219
11042.793	14.96925	-5.77462	15.03797	3.57683
11046.791	-3.76277	-3.35952	15.00994	3.64630
11050.794	2.24711	-1.56452	11.72020	3.71273
11054.795	-4.44181	0.47905	12.28915	3.60515
11058.793	-2.64027	0.61298	9.86445	3.59200
11062.755	9.44576	6.09404	8.22168	3.66826
11066.795	-4.91462	13.34215	7.95825	3.70339
11070.788	-2.05725	3.52162	2.46635	3.18462
11074.782	3.76890	5.06310	7.69931	3.92339
11078.783	0.45914	5.39867	8.67357	4.08761
11082.792	1.60630	4.39076	9.05374	4.25512
11086.787	1.84376	4.38698	8.98528	4.02068
11090.793	1.89394	4.54709	7.98233	5.03480
11094.792	1.66703	4.63499	7.88480	4.83625
11098.793	1.83367	4.40975	7.74432	4.83902
11102.760	1.43146	4.36240	7.77266	4.82948
11106.796	1.46283	3.94804	7.88271	3.84616
11110.793	1.47124	3.85515	7.67984	5.24027
11114.795	1.48104	3.57433	7.52901	3.68539
11118.792	1.33453	3.51001	7.61177	5.05307
11122.794	1.45462	3.40023	7.50059	3.84596
11126.793	1.61044	3.52937	7.79590	2.99322
11130.793	1.44500	3.43805	7.49427	2.87633
11134.792	1.46836	3.37422	7.77795	2.72008
11138.794	1.51985	3.28955	7.21611	1.16735
11142.792	1.64441	3.16384	6.49301	1.15905
11146.794	1.57265	3.10784	6.86278	1.28426
11150.784	1.62760	3.13958	7.65654	2.84687
11154.796	1.64241	3.01160	6.81835	1.33545
11158.776	1.73157	2.96227	7.09778	1.03499
11162.789	1.76564	3.02568	6.79824	1.76251
11166.787	1.87369	2.95865	6.75962	2.36545
11170.796	1.81146	2.83137	6.65230	1.06369
11174.796	1.81183	2.85740	6.06762	2.00563
11178.801	1.86823	2.67463	6.17359	1.47427
11182.793	1.88831	2.76303	6.59432	1.06271
11186.794	1.85356	2.79622	6.55839	1.45368
11190.796	2.00274	2.74724	7.26686	0.52539
11194.798	1.94875	2.72193	6.68658	1.23409
11198.797	2.03695	2.64933	6.45682	0.88068
11202.756	2.13646	2.71775	6.55895	1.07369
11206.784	2.08629	2.67581	6.67297	0.81012
11210.757	2.16741	2.61429	6.53911	0.87602
11214.695	2.23273	2.59703	7.02274	0.94211
11218.795	2.16887	2.88619	6.96592	0.65872
11222.796	2.26472	2.65949	7.12926	0.88746
11226.795	2.29324	2.77689	6.79033	0.72222
11230.693	2.33633	2.56067	7.14511	0.63891
11234.794	2.35184	2.52186	7.11955	0.93949
11238.798	2.28194	2.47232	6.94088	0.73533
11242.775	2.30712	2.79197	7.04357	0.88957
11246.794	2.23308	2.70001	7.34465	0.76765
11250.794	2.09071	2.58179	7.27218	0.88366
11254.758	2.06810	2.51540	7.47141	-1.35406
11258.796	2.09058	2.67536	6.44606	0.54499
11262.700	2.12959	2.66094	7.41490	0.76546
11266.795	2.13460	2.79083	7.23924	0.83273
11270.756	2.01466	2.95241	6.73639	0.82373
11274.795	1.95321	3.24025	7.19178	0.53462
11278.694	1.75627	3.31874	7.24463	1.88427
11282.783	1.79185	3.15543	7.50625	1.26686
11286.796	1.83489	3.26434	7.26491	1.19810
11290.796	1.76505	3.31838	7.06586	0.61853
11294.797	1.84161	3.36171	7.14621	0.57045
11298.793	1.85760	3.48460	7.66102	0.56887
11302.759	1.92461	3.58875	7.45377	0.72852
11306.794	1.80003	3.53897	6.98886	1.12569
11310.697	1.75843	3.84368	6.87912	0.76488
11314.796	1.83900	3.73053	6.93746	0.56170
11318.796	1.79284	3.75602	6.95289	-0.50683
11322.796	1.83881	3.76075	6.79944	-0.12167
11326.695	1.85219	3.79467	6.98592	-1.40787
11330.796	1.85071	3.95696	6.79029	-1.53453
11334.797	1.83945	3.86035	6.91667	-1.71068
11338.797	1.84352	3.84602	6.89343	-1.70739
11342.696	1.84461	3.88857	6.84879	-1.59356
11346.798	1.91846	3.89328	6.95061	-1.27586
11350.796	1.93058	4.03935	7.15887	-1.42077
11354.797	2.08270	3.72069	7.53735	-1.29764
11358.696	2.08134	3.59765	7.62138	-1.13806
11362.797	2.09618	3.09990	8.03961	-1.16965
11366.781	2.22173	2.31319	8.35167	0.38083
11370.795	2.39108	2.60792	8.39754	-0.94296
11374.701	2.42995	1.76827	8.36766	-0.10171
11378.797	2.44393	2.69824	7.72651	1.01650
11382.799	1.68615	3.82541	4.70379	1.71079
11386.799	-0.43614	4.42054	2.52218	1.76557
11390.802	0.42522	3.17365	1.51625	1.26492
11394.798	-0.09483	3.36458	1.87004	1.15618
11398.800	-0.28617	3.98832	1.80147	1.17536
11402.766	-0.53091	3.92375	3.53233	0.51279
11406.696	-0.42472	4.25845	3.71446	0.84874
11410.794	-0.36980	4.33708	3.82161	1.02363
11414.797	-0.57535	4.66354	4.02715	0.94849
11418.800	-0.50026	4.71869	4.07219	1.47518
11422.804	-0.53245	4.98471	3.84206	1.03248
11426.799	-0.50054	4.06776	3.95273	0.91802
11430.798	-0.39159	3.94233	3.87243	1.15262
11434.800	-0.29796	3.59181	3.94552	1.14689
11438.698	-0.05698	3.71245	3.87092	0.79373
11442.799	0.34288	3.22652	4.00139	1.32702
11446.801	0.05445	3.41517	3.96768	1.36751
11450.777	0.66625	3.31537	4.04137	1.41329
11454.690	0.08915	2.96114	3.99386	1.52551
11458.796	0.00777	2.80539	3.98546	1.86611
11462.798	0.31034	2.13218	3.97590	2.24759
11466.797	0.35566	2.23691	4.00633	2.90126
11470.662	0.49919	2.20253	3.84347	2.35480
11474.801	0.35687	2.64478	3.78538	2.91404
11478.799	0.51805	2.26050	3.88159	2.55151
11482.801	0.45611	2.41363	3.83502	2.87460
11486.802	0.42949	2.32124	3.89071	1.85577
11490.788	0.40197	2.37441	3.74975	-0.13546
11494.791	0.34111	2.31355	3.59028	0.65696
11498.802	0.37047	2.65132	3.51164	0.73230
11502.695	0.33260	2.63549	3.48004	0.60029
11506.801	0.35769	2.67773	3.24800	0.67674
11510.799	0.30664	2.80200	3.19331	0.38932
11514.799	0.19648	2.72480	3.25201	0.51205
11518.800	0.21696	2.74262	3.42448	0.00625
11522.801	0.19137	2.72071	3.37643	-0.22181
11526.801	0.04164	2.65762	3.27027	0.32901
11530.800	-0.01784	2.55871	2.96381	0.75431
11534.700	0.08939	2.22191	2.63707	0.80091
11538.762	0.26818	2.92228	3.40675	3.35047
11542.803	0.31322	2.87304	3.49584	3.49866
11546.801	0.04569	3.32047	3.94105	3.81986
11550.668	-0.05256	4.31525	3.59523	2.83770
11554.687	-0.13275	4.04506	3.58838	1.88319
11558.674	0.02889	3.01658	3.77646	2.18219
11562.674	0.01561	2.92630	3.86835	1.68045
11566.676	0.02454	2.86153	3.08233	1.81716
11570.674	0.03517	2.79210	3.73349	1.33341
11574.676	0.31446	2.52583	4.00692	0.48857
11578.675	0.18390	3.38153	3.40282	-0.22126
11582.633	0.13776	3.78056	2.52223	1.43873
11586.678	-0.13833	4.63441	3.01188	1.34767
11590.675	0.06884	3.83314	4.26975	1.89445
11594.638	0.08880	3.55584	3.20924	2.82438
11598.672	0.30575	2.91592	4.12226	2.15554
11602.678	0.40976	2.51566	3.89765	1.49609
11606.639	0.36511	1.48770	4.41901	1.57598
11610.675	0.55458	3.44056	4.47893	0.96463
11614.699	0.36625	3.40888	4.30968	2.28031
11618.676	0.35337	3.06625	3.82338	2.06696
11622.651	0.36000	2.43636	1.92275	1.77063
11626.677	0.20420	3.50767	1.79346	1.93077
11630.698	0.21162	2.91423	4.07350	3.03898
11634.675	0.49681	2.33588	3.67615	1.10977
11638.677	0.25287	4.92260	2.73432	1.06447
11642.677	0.62962	2.54682	3.69024	1.49798
11646.677	0.62459	3.45577	3.64761	1.57666
11650.639	0.68441	2.72237	4.06268	1.84325
11654.679	1.15583	3.26550	5.06597	0.94356
11658.680	0.25555	3.07661	3.74461	1.98522
11662.679	-0.11642	3.91892	2.99475	1.46839
11666.675	-1.90269	3.59451	0.84481	1.80703
11670.676	-2.64166	3.91776	0.56848	2.24299
11674.639	-3.04160	2.49710	-1.46559	0.99185
11678.698	-4.85655	3.74125	-2.74682	2.00228
11682.680	-5.07690	3.69571	-3.67526	1.45387
11686.679	-5.33231	2.33548	-3.58803	2.55892
11690.676	-5.22798	3.63246	-4.00383	0.61756
11694.671	-5.31969	1.67916	-4.02134	2.04397
11698.681	-5.22584	2.50212	-4.81244	0.54040
11702.681	-5.27858	3.66482	-4.85051	1.53674
11706.647	-5.30200	1.50973	-4.22824	2.49635
11710.642	-5.48563	2.26381	-4.38146	0.19435
11714.678	-5.57903	3.03184	-4.10732	1.14310
11718.679	-5.74979	1.83862	-3.76604	0.62423
11722.679	-5.69856	1.80885	-3.68992	0.64573
11726.669	-6.13211	1.66727	-4.39348	1.14176
11730.678	-6.71419	1.99119	-4.13601	0.84422
11734.677	-6.13481	2.08794	-3.82156	0.89759
11738.678	-6.29006	2.58676	-4.89540	1.45860
11742.671	-6.11508	1.62173	-4.01174	0.01995
11746.658	-6.27417	3.00584	-3.63169	1.42460
11750.682	-6.12264	2.31610	-3.43148	0.57815
11754.679	-5.62227	1.49817	-3.08444	0.51491
11758.671	-5.42874	1.90311	-0.36171	3.34901
11762.680	-5.68045	4.23048	-0.94284	1.57761
11766.681	-5.53176	3.07756	-4.94543	1.68532
11770.677	-5.34070	2.47153	-3.17312	1.66768
11774.704	-5.95002	2.83601	-5.07047	1.83080
11778.683	-5.95992	2.58367	-5.11132	1.51363
11782.679	-5.87764	2.64557	-3.06914	1.59547
11786.672	-5.95167	2.47157	-3.41775	2.07435
11790.669	-6.04421	2.98824	-1.85470	2.00505
11794.678	-5.27944	2.53932	-2.63561	2.21008
11798.680	-5.06570	3.17756	-2.82274	3.13122
11802.678	-6.41915	2.89927	-2.32545	0.53795
11806.705	-8.03978	2.99415	-3.79608	-0.19369
11810.642	-4.88865	2.78762	-4.68200	1.14635
11814.677	-4.84425	2.50411	-2.54405	2.62166
11818.679	-5.77047	2.37600	-2.64512	2.35194
11822.705	-5.72202	2.86972	-2.79283	0.74241
11826.678	-5.60964	2.30630	-2.39131	0.94406
11830.661	-5.80039	1.73092	-2.81471	2.86470
11834.680	-6.04077	2.32397	-3.52796	3.04738
11838.670	-6.51907	2.12162	-2.45185	-0.14916
11842.677	-6.42351	2.38438	-2.05554	2.66360
11846.680	-8.08479	1.98873	-1.13980	2.88791
11850.680	-4.55401	1.90659	-2.08052	2.74165
11854.680	-5.37005	2.43765	-1.52407	0.86244
11858.681	-5.99895	2.35655	-3.56828	1.16554
11862.683	-6.01679	2.31406	-4.18736	2.64638
11866.682	-6.85368	1.66178	-4.57312	2.70627
11870.679	-6.63188	1.65445	-4.21249	-0.07060
11874.671	-6.86322	2.22466	-0.88150	-0.27748
11878.653	-6.92917	2.22189	-0.76516	1.53689
11882.687	-5.47240	1.98162	-1.04774	2.91183
11886.700	-5.99956	2.84165	-0.73263	1.67385
11890.679	-5.36929	2.73936	-1.23769	0.69389
11894.678	-5.70261	2.57019	-3.97276	1.59182
11898.684	-5.81029	1.54138	-3.30792	3.79442
11902.638	-5.99794	2.40895	-1.14583	0.00937
11906.684	-6.69304	1.88715	-1.33123	1.31888
11910.681	-5.71898	2.65547	-3.30742	2.66095
11914.648	-6.53681	2.23800	-1.18341	3.49464
11918.678	-5.94529	2.30222	-1.35732	1.43801
11922.683	-6.04330	1.96455	-1.15054	3.16882
11926.680	-6.80942	2.77709	-1.83392	1.48111
11930.680	-6.45537	2.76036	-1.22903	0.84571
11934.679	-5.84719	2.54393	-1.39349	2.66571
11938.681	-6.27243	2.58455	-1.35606	1.91730
11942.681	-6.26365	1.95071	-2.09747	1.08081
11946.644	-6.04708	3.24435	-1.20251	2.22748
11950.682	-6.17531	2.68495	-0.93182	2.71764
11954.659	-6.26049	1.83322	-1.08257	1.48121
11958.681	-6.21610	2.33004	-2.08634	1.53092
11962.684	-6.25066	2.70337	-2.31596	2.67317
11966.703	-6.20982	3.01207	-1.56734	0.98696
11970.681	-5.80666	1.46071	-2.11356	0.89866
11974.681	-5.54742	1.94975	-5.12984	1.48625
11978.683	-5.67814	1.92190	-4.78523	2.51092
11982.687	-5.62144	2.70482	-1.95178	4.70948
11986.682	-6.06006	2.72470	-1.98008	1.72219
11990.673	-6.13586	1.71562	-0.72923	0.18991
11994.681	-5.97624	1.51388	-0.10401	0.84866
11998.672	-5.84917	1.51853	-2.29401	0.90378
12002.683	-5.53065	1.31173	-2.32196	1.99409
12006.683	-5.73374	2.81325	-3.41211	1.67117
12010.681	-5.30958	2.86418	-4.53157	2.03133
12014.674	-5.92513	2.59419	-2.32481	3.28449
12018.685	-5.68755	3.16347	-1.41668	3.44868
12022.684	-5.73409	1.83808	-1.37449	3.29484
12026.684	-5.22800	1.05818	-1.02379	4.36276
12030.675	-5.28296	1.85174	-1.76599	1.12931
12034.688	-3.57058	3.04818	2.70173	1.60256
12038.656	-1.43617	3.77555	1.92381	1.54345
12042.684	-1.28492	2.48370	2.68923	1.83308
12046.674	0.07259	1.45495	2.98307	2.53521
12050.687	0.88599	2.60216	6.51393	4.34568
12054.683	0.28250	3.18237	3.15127	4.99695
12058.684	-0.19375	2.84179	3.54519	3.17324
12062.676	0.48232	2.39587	5.14453	1.23677
12066.686	0.42790	1.98611	3.97654	2.19845
12070.686	0.02102	2.40996	4.00736	3.72587
12074.687	0.21544	2.92142	4.05470	1.95654
12078.643	0.13148	2.34082	5.95847	0.96962
12082.674	0.06974	2.57844	4.37300	2.57990
12086.689	0.20447	2.58450	3.61943	3.33942
12090.685	0.15216	2.18156	3.91378	2.59486
12094.681	0.11602	1.74665	5.68163	0.65905
12098.683	0.05917	2.55186	4.06298	2.01641
12102.647	0.00022	2.29176	4.25243	2.25151
12106.686	-0.07478	2.61341	3.75543	3.97702
12110.677	-0.09912	2.19301	3.34799	2.27304
12114.687	-0.09994	1.59252	4.21365	0.79946
12118.686	-0.08570	2.25062	4.81951	0.96486
12122.683	0.01075	2.30250	3.98348	1.97672
12126.680	-0.04353	2.43757	4.42294	2.17424
12130.684	-0.16752	2.29162	3.85318	2.11896
12134.686	-0.28059	2.47879	4.81167	2.33116
12138.686	-0.35146	2.81850	4.92457	2.27577
12142.684	-0.24867	2.59402	6.02195	2.18978
12146.685	-0.28088	2.68444	4.71065	2.31913
12150.686	-0.06939	2.63612	4.45116	1.84818
12154.684	-0.09309	2.74142	4.05792	1.86119
12158.685	-0.05542	2.67071	4.08740	1.30109
12162.686	0.08344	2.45687	3.78543	1.73001
12166.687	-0.09292	1.69183	3.56875	4.63848
12170.689	0.08091	2.68011	3.48073	2.60327
12174.686	0.17573	2.98192	2.47432	1.93626
12178.687	0.73791	2.54753	4.37041	0.81067
12182.688	0.24947	2.52198	3.40071	3.85871
12186.688	0.41981	2.71512	4.31565	1.56733
12190.676	0.18425	3.29091	6.14980	0.90763
12194.698	0.16325	2.48553	3.81881	4.40633
12198.683	0.30913	2.22459	5.46062	2.83473
12202.646	0.08138	3.54725	5.61566	0.86234
12206.678	0.47976	2.88131	3.40175	5.17337
12210.647	1.00896	1.75631	3.44332	3.44031
12214.684	1.18825	3.02049	3.45848	0.24429
12218.647	0.98199	2.65562	4.36807	5.33995
12222.684	0.08644	3.10357	3.62674	1.15621
12226.684	-5.95272	2.56838	-0.86580	8.11650
12230.686	2.81107	1.30802	2.67704	4.58778
12234.686	1.92089	5.15041	2.51012	3.87495
12238.652	NaN	NaN	2.59884	-0.64164
12242.686	NaN	NaN	-0.80136	1.68278
12246.657	NaN	NaN	NaN	NaN
12250.686	NaN	NaN	NaN	NaN
12254.685	NaN	NaN	NaN	NaN
12258.685	NaN	NaN	NaN	NaN
12262.684	NaN	NaN	NaN	NaN
12266.683	NaN	NaN	NaN	NaN
12270.649	NaN	NaN	NaN	NaN
12274.676	NaN	NaN	NaN	NaN
12278.688	NaN	NaN	NaN	NaN
12282.684	NaN	NaN	NaN	NaN
12286.648	NaN	NaN	NaN	NaN
12290.684	NaN	NaN	NaN	NaN
12294.687	NaN	NaN	NaN	NaN
12298.685	NaN	NaN	NaN	NaN
12302.650	NaN	NaN	NaN	NaN
12306.687	NaN	NaN	-8.23544	10.14683
12310.688	NaN	NaN	8.13368	1.32079
12314.685	NaN	NaN	-8.70982	3.71235
12318.689	NaN	NaN	5.93733	4.73390
12322.689	NaN	NaN	-9.50890	8.70980
12326.691	NaN	NaN	2.95812	-3.12617
12330.653	NaN	NaN	9.08575	-2.53206
12334.687	NaN	NaN	NaN	NaN
12338.594	7.00751	-4.37684	NaN	NaN
12342.687	NaN	NaN	NaN	NaN
12346.689	-1.46358	2.18423	NaN	NaN
12350.687	-3.87999	-1.16272	NaN	NaN
12354.650	NaN	NaN	NaN	NaN
12358.654	-3.40024	1.93243	NaN	NaN
12362.689	-1.10189	3.89795	-2.42158	4.00429
12366.688	-3.44728	3.42376	NaN	NaN
12370.666	1.57034	3.77376	-5.10093	4.45470
12374.576	4.69477	3.84532	-1.78634	6.35319
12378.645	-3.36812	4.57445	-1.25624	6.52057
12382.689	-1.05200	4.11724	NaN	NaN
12386.691	1.46695	2.49316	NaN	NaN
12390.691	-3.40185	3.58386	NaN	NaN
12394.688	NaN	NaN	NaN	NaN
12398.688	NaN	NaN	NaN	NaN
12402.650	NaN	NaN	NaN	NaN
12406.695	-1.17302	3.18635	-4.49941	0.73699
12410.684	-3.70648	3.68486	NaN	NaN
12414.682	NaN	NaN	-1.98241	-3.91342
12418.689	-4.21496	3.72408	-1.86704	-2.88841
12422.691	-4.24793	3.44398	-1.25376	0.97950
12426.691	-4.07688	3.65680	-0.45088	-4.80803
12430.692	-4.04562	3.75854	-4.25460	-3.70220
12434.691	-4.02747	1.65787	-4.12626	-2.90812
12438.591	-3.96051	3.47506	-2.74385	-7.53815
12442.690	-4.08532	3.23841	-3.80997	-4.86525
12446.692	-3.92875	1.13091	-1.96058	-3.78499
12450.690	-3.66723	2.80010	-5.84198	-3.55623
12454.679	-3.96765	3.09808	-5.42796	-8.07908
12458.650	-3.97331	2.91389	-4.74461	-6.88614
12462.691	-3.84545	2.19501	-4.39834	-5.51241
12466.688	-3.70569	2.50735	-4.54888	-11.07833
12470.590	-3.74898	2.17517	-8.38138	-10.17039
12474.692	-3.66518	1.41037	-5.82776	-8.29971
12478.689	-3.57362	2.65694	-6.18394	-13.98451
12482.691	-3.61644	2.10863	-6.24595	-13.19802
12486.588	-3.71471	1.98153	-9.46440	-12.94987
12490.693	-3.67798	1.90289	-8.91657	-11.24775
12494.692	-3.80545	2.21977	-19.99372	-12.16260
12498.691	-3.75894	2.32199	-19.99372	-12.14221
12502.693	-3.66718	1.61994	-19.99372	-12.12926
12506.691	-3.57973	1.94814	-9.64781	-14.20055
12510.692	-3.96202	1.42623	-9.13294	-13.31082
12514.689	-3.92494	2.20547	-11.70918	-13.96903
12518.560	-3.79554	1.95975	-19.99372	-12.20203
12522.685	-3.95797	2.39390	-19.99372	-12.15926
12526.692	-4.20430	2.16769	-19.99372	-12.13480
12530.694	-3.94935	1.73550	-19.99372	-12.11839
12534.587	-3.75163	2.28039	-19.99372	-12.13446
12538.655	-3.88223	0.76194	-19.99372	-12.13241
12542.692	-4.18847	1.56754	-19.99372	-12.13013
12546.696	-4.11717	1.81819	-19.99372	-12.12770
12550.588	-4.05105	1.21743	-19.99372	-12.11777
12554.692	-4.13735	1.79093	-19.99372	-12.08439
12558.653	-4.03717	2.00432	NaN	NaN
12562.693	-4.25879	2.13349	NaN	NaN
12566.588	-3.89249	1.76100	NaN	NaN
12570.689	-3.99035	1.93382	-4.59139	1.65386
12574.694	-4.00280	2.19482	-0.93527	0.01101
12578.672	-4.05535	2.73818	1.17329	-0.07341
12582.582	-3.87240	2.79125	0.14089	1.33296
12586.700	-1.77677	2.80858	-0.36983	1.33262
12590.567	NaN	NaN	-1.89426	1.80068
12594.566	-0.23132	3.31671	1.20383	0.42892
12598.566	0.02075	2.68549	2.84185	1.64676
12602.567	-0.36221	3.44409	2.75309	2.13687
12606.565	-0.47033	3.18998	-0.80238	2.53601
12610.565	-0.04303	3.07682	1.89171	4.34163
12614.588	0.25351	2.45270	1.20663	4.31188
12618.566	-0.11307	2.06002	2.94143	3.74529
12622.568	-0.03266	2.34202	2.12853	3.27144
12626.529	-0.28173	3.08820	2.97148	1.92592
12630.536	-0.52411	2.47269	2.66887	1.73801
12634.567	-0.36050	3.09636	2.98633	2.05522
12638.565	-0.32620	3.07692	1.68463	4.60948
12642.567	-0.42770	2.63714	1.35229	4.00813
12646.561	-0.18752	2.47846	1.48280	3.81651
12650.573	-0.31987	1.84950	2.19113	1.45056
12654.569	-0.48165	3.52042	3.05256	-0.41096
12658.530	-0.24574	2.65936	1.46350	3.20483
12662.567	-0.36107	2.59404	2.33098	3.39550
12666.553	-0.05465	2.67327	3.44132	1.18657
12670.568	-0.26364	3.93632	3.05984	1.40829
12674.567	-0.35782	3.40837	1.78191	2.50259
12678.559	-0.35792	2.42356	5.05398	2.17102
12682.567	-0.60191	4.12186	3.73090	2.98003
12686.566	-0.34903	2.82946	1.08468	2.87089
12690.569	0.06326	1.99664	1.04900	0.28452
12694.566	-0.95160	4.01292	1.13638	3.15541
12698.567	-0.07602	2.46991	3.88391	1.13508
12702.570	-0.04073	2.71738	3.47191	1.49970
12706.567	-0.09401	2.61614	2.66461	2.17599
12710.558	-0.74955	2.54405	1.97198	2.26479
12714.530	-0.84022	3.67650	0.61424	2.82322
12718.530	-0.14771	2.51904	-0.36142	1.27204
12722.570	0.35501	2.94161	1.22169	3.43370
12726.590	0.14392	2.86403	3.60054	0.64135
12730.568	0.26436	2.35678	2.67838	2.06499
12734.570	0.15670	3.62008	2.70327	1.28073
12738.570	-0.34367	2.78627	3.52059	2.32881
12742.559	-0.53312	3.03734	0.56250	1.88419
12746.566	-0.35650	3.34473	1.26396	0.84505
12750.548	-0.22023	2.35560	1.20740	2.60197
12754.570	0.30714	2.04287	3.25330	1.90275
12758.562	-0.72655	4.02568	3.06949	0.83425
12762.571	-0.05926	3.29179	3.60084	0.66732
12766.568	0.15638	2.08193	3.08785	1.56527
12770.568	0.27498	2.26888	3.14093	2.04348
12774.567	-0.15697	4.40756	3.67361	1.15930
12778.568	-0.42435	4.26260	0.48895	1.62794
12782.569	-0.68630	4.34457	0.38176	2.20442
12786.568	-0.64975	3.41963	-0.03040	2.12514
12790.592	-0.46393	2.69874	0.01032	1.53496
12794.558	-0.15935	2.15342	1.40016	1.14095
12798.569	-0.17720	2.44488	1.68136	0.68188
12802.535	-0.00955	1.88142	1.30977	0.46661
12806.561	0.19814	1.97253	2.63650	0.07310
12810.571	0.48815	1.91690	1.40177	-0.10699
12814.570	0.15958	1.85267	3.76648	-0.04141
12818.571	0.20030	1.67340	3.11759	0.22946
12822.568	-0.02355	1.89994	2.93067	0.39455
12826.570	0.08622	2.00915	1.62237	0.46220
12830.532	0.25962	2.13763	3.05259	0.57224
12834.571	0.32230	1.97368	2.83338	0.43603
12838.529	0.31409	1.87243	2.46137	0.85724
12842.570	0.32769	1.97653	2.77114	0.74712
12846.568	0.32191	1.95782	2.97819	2.57858
12850.572	0.25448	2.25812	5.22756	1.61696
12854.564	0.22701	2.31216	0.42447	1.83793
12858.570	-0.06929	2.55005	0.14521	1.53327
12862.572	-0.49552	2.41660	1.18282	1.85015
12866.583	-0.66111	2.61852	1.43481	2.13889
12870.569	-0.63570	2.69658	2.56414	1.72697
12874.571	-0.71903	2.52738	2.37805	1.73002
12878.566	-0.35511	2.70468	2.05568	1.77247
12882.572	-0.49339	2.68606	2.06260	1.82580
12886.530	-0.19129	2.70467	1.93110	1.63896
12890.576	-0.18248	2.58438	2.17730	1.74795
12894.567	-0.48061	2.74862	2.68841	1.65158
12898.570	-0.02209	2.83149	2.15460	1.63700
12902.536	-0.17933	2.85964	2.46208	1.68717
12906.570	-0.52952	3.96874	0.26408	2.34257
12910.570	-0.86605	4.02817	0.09863	2.36710
12914.569	-0.04043	4.03775	0.67464	2.93804
12918.597	-0.05060	2.85871	0.63362	-0.03185
12922.573	-0.41256	3.01118	3.30250	1.23475
12926.571	-0.99879	3.29546	2.61751	1.24399
12930.570	-0.23296	2.83409	0.31533	-0.76010
12934.570	-0.48808	3.09435	5.22180	0.99652
12938.570	-0.49619	4.71198	1.30811	1.94880
12942.574	0.07686	2.59568	0.26808	2.42728
12946.574	-0.43601	3.70124	2.68262	0.73911
12950.598	-0.36117	2.81547	2.25905	-0.13051
12954.572	-0.58813	3.92562	4.70937	0.18569
12958.570	-0.37065	2.72759	0.46051	1.68617
12962.573	-0.01432	4.13323	0.64702	0.89956
12966.567	-0.36673	3.58319	-0.97837	1.01478
12970.572	0.09185	2.57058	2.01484	1.44626
12974.571	-0.60372	2.31192	4.32409	0.24134
12978.572	-0.18953	4.49758	1.27133	-7.06883
12982.563	-0.03981	4.26509	-4.90269	-9.23693
12986.572	-0.23239	3.98488	0.08083	0.78195
12990.580	-0.17437	3.08954	1.83957	1.41799
12994.574	-0.27495	2.77038	1.85341	1.42786
12998.564	-0.26575	2.79205	1.81565	-0.02648
13002.535	-0.40288	2.96206	-4.93526	-7.09441
13006.573	-0.22261	2.77946	-3.46602	-7.14165
13010.572	-0.10791	2.40287	-0.57816	1.01123
13014.571	-0.36390	2.64009	-1.22573	0.51238
13018.573	-0.33598	2.50457	-0.89907	-0.12291
13022.576	-0.50892	2.58385	2.01265	2.21784
13026.573	-0.46192	2.55163	2.26148	1.46313
13030.570	-0.22775	2.45499	-2.48430	-3.49409
13034.573	-0.36849	2.46520	-2.20666	0.77728
13038.573	-0.51776	2.55751	-2.29907	0.41561
13042.548	-0.36630	3.46727	-1.43193	-0.10230
13046.570	-0.36330	2.86656	-0.68580	2.63904
13050.572	-0.32461	2.70796	1.56593	2.22156
13054.573	-0.39107	2.87621	1.11375	-0.37897
13058.574	-0.44460	2.82117	1.22739	2.16281
13062.564	-0.58019	2.78745	1.84156	0.64470
13066.572	-0.45061	3.34491	1.74660	-0.10248
13070.573	-0.48339	2.52692	1.56784	0.58774
13074.586	-0.58994	4.14288	1.86191	0.74765
13078.569	-0.61337	3.44394	1.76172	0.89303
13082.566	-0.71322	4.68360	0.85103	2.52886
13086.537	3.45059	5.71366	1.88807	3.77763
13090.577	13.07107	7.33717	2.16486	2.28073
13094.575	12.37444	7.29840	4.73584	1.23201
13098.572	NaN	NaN	1.28678	3.64786
13102.574	NaN	NaN	NaN	NaN
13106.573	NaN	NaN	NaN	NaN
13110.577	NaN	NaN	NaN	NaN
13114.575	NaN	NaN	NaN	NaN
13118.571	NaN	NaN	NaN	NaN
13122.570	NaN	NaN	NaN	NaN
13126.571	NaN	NaN	NaN	NaN
13130.571	NaN	NaN	NaN	NaN
13134.574	NaN	NaN	NaN	NaN
13138.573	NaN	NaN	NaN	NaN
13142.575	NaN	NaN	NaN	NaN
13146.576	NaN	NaN	NaN	NaN
13150.576	NaN	NaN	NaN	NaN
13154.573	NaN	NaN	NaN	NaN
13158.573	NaN	NaN	NaN	NaN
13162.578	NaN	NaN	NaN	NaN
13166.553	NaN	NaN	NaN	NaN
13170.537	NaN	NaN	NaN	NaN
13174.575	NaN	NaN	NaN	NaN
13178.579	NaN	NaN	NaN	NaN
13182.579	NaN	NaN	-3.61760	9.25227
13186.575	NaN	NaN	-0.67975	3.69126
13190.586	NaN	NaN	-0.56640	6.37018
13194.577	NaN	NaN	-0.63032	8.65926
13198.580	NaN	NaN	-2.89950	1.97733
13202.576	-0.47746	3.97226	4.94393	5.37964
13206.562	NaN	NaN	8.10620	6.10322
13210.566	NaN	NaN	0.68183	5.80024
13214.567	-3.97313	-1.31859	1.09748	4.03143
13218.575	-3.91667	2.33463	0.97348	1.61615
13222.576	-3.98074	3.01053	0.86359	1.31727
13226.578	-2.11822	10.28514	2.97173	1.51457
13230.567	-2.36901	6.73457	0.45785	2.16679
13234.574	-1.73874	6.12106	0.50810	1.67221
13238.576	-1.28611	6.59723	0.25321	3.52917
13242.578	-0.08473	4.27470	-0.02142	1.12428
13246.579	-0.90101	4.74471	-0.47150	1.38319
13250.548	-8.90831	7.17971	0.02040	1.70430
13254.576	-3.27341	4.50275	-0.81558	0.88613
13258.573	-1.47578	4.34939	-1.23059	1.66896
13262.571	-2.36185	4.25237	0.42495	3.00564
13266.577	-2.20448	4.16827	2.11871	0.89135
13270.578	-1.90358	3.90644	-0.31526	1.33046
13274.537	-2.71669	6.24134	0.18122	1.79736
13278.474	-2.45332	3.97667	2.42948	1.37646
13282.576	-2.80196	3.56703	-0.09525	1.50424
13286.579	-1.98450	3.61536	1.46695	1.62084
13290.565	-2.67145	4.97781	1.60340	-0.23900
13294.474	-2.75725	4.25304	-0.17484	2.11506
13298.576	-2.80932	3.66327	-0.68253	2.14591
13302.578	-2.69529	3.38622	1.98460	1.33899
13306.540	-2.28977	3.61323	0.08609	0.23500
13310.582	-3.17905	3.48463	0.10994	0.91663
13314.580	-2.93245	3.53367	2.08015	1.52095
13318.579	-2.97584	4.70580	1.82961	-0.22415
13322.576	-3.07478	3.55815	-0.62479	1.64993
13326.475	-2.95985	3.49637	1.83023	1.60700
13330.575	-2.84581	3.77451	-0.16995	2.08188
13334.571	-3.14273	3.37335	-1.18612	1.48471
13338.577	-2.91416	3.69761	1.54887	1.55590
13342.483	-3.11440	5.40680	0.68762	1.57220
13346.578	-3.14211	3.43440	0.04996	4.53635
13350.581	-3.36231	3.93168	1.20088	0.98813
13354.578	-3.78360	2.76730	0.25247	1.91109
13358.479	-1.48101	3.96806	-1.87332	2.36529
13362.580	-3.14033	3.99060	0.85912	1.41156
13366.578	-2.97002	2.79927	-0.00675	1.85437
13370.577	-3.84490	3.94300	1.77055	1.97403
13374.452	-3.24298	4.15452	0.30722	2.47072
13378.581	-3.15382	4.22095	-0.29806	2.58622
13382.581	-4.02322	3.07363	1.75971	0.95774
13386.578	-2.51041	3.60835	0.68838	2.70127
13390.477	-3.41993	3.45028	2.07192	3.23049
13394.584	-2.35851	2.73601	-0.66466	1.78946
13398.581	-2.61971	2.78349	0.72389	1.23089
13402.581	-2.60215	3.74307	0.56724	2.42654
13406.477	-3.66701	3.96157	0.69005	3.60214
13410.582	-3.05838	4.21965	-0.54945	3.52620
13414.568	-2.31857	3.83041	1.34653	3.93864
13418.581	-3.87519	4.02559	1.12040	3.90690
13422.477	-3.08307	3.63536	1.02057	4.33890
13426.582	-3.22708	3.60580	-0.16931	2.94274
13430.580	-3.16765	3.58272	0.22827	3.34739
13434.580	-2.46486	3.69961	0.82441	3.04977
13438.477	-2.18716	3.80591	1.22650	2.89354
13442.541	-3.44933	4.33102	0.97345	3.98723
13446.577	-2.59007	4.38291	1.32528	3.90403
13450.581	-2.27800	4.24556	0.74754	3.29860
13454.589	-2.47412	3.96665	1.46955	2.23726
13458.541	-2.51631	3.69180	1.02464	2.26480
13462.583	-2.65248	3.14726	1.46025	1.81520
13466.578	-3.04484	2.96583	1.37441	1.34837
13470.479	-3.34074	4.05029	1.61999	0.27072
13474.581	-2.47645	4.67401	1.75354	1.98370
13478.580	-2.63019	4.58327	1.10738	4.60369
13482.579	-2.47256	4.63508	0.94884	3.98122
13486.478	-2.46005	4.51603	1.66614	4.97932
13490.580	-2.57801	4.51362	0.34228	4.64007
13494.589	-2.83895	4.16284	3.95026	2.52809
13498.579	-0.89825	4.37055	7.62375	2.69244
13502.487	NaN	NaN	12.17596	2.52258
13506.579	NaN	NaN	9.01738	2.99011
13510.544	NaN	NaN	-3.66197	0.94213
13514.584	NaN	NaN	NaN	NaN
13518.579	NaN	NaN	NaN	NaN
13522.543	NaN	NaN	NaN	NaN
13526.581	NaN	NaN	NaN	NaN
13530.580	NaN	NaN	NaN	NaN
13534.582	NaN	NaN	NaN	NaN
13538.592	NaN	NaN	NaN	NaN
13542.542	NaN	NaN	NaN	NaN
13546.578	NaN	NaN	NaN	NaN
13550.577	NaN	NaN	NaN	NaN
13554.581	NaN	NaN	NaN	NaN
13558.579	NaN	NaN	NaN	NaN
13562.578	NaN	NaN	NaN	NaN
13566.578	NaN	NaN	NaN	NaN
13570.579	NaN	NaN	NaN	NaN
13574.580	NaN	NaN	NaN	NaN
13578.543	NaN	NaN	NaN	NaN
13582.578	NaN	NaN	NaN	NaN
13586.542	NaN	NaN	NaN	NaN
13590.579	NaN	NaN	NaN	NaN
13594.543	NaN	NaN	NaN	NaN
13598.580	NaN	NaN	NaN	NaN
13602.584	NaN	NaN	NaN	NaN
13606.581	NaN	NaN	NaN	NaN
13610.545	NaN	NaN	NaN	NaN
13614.449	NaN	NaN	NaN	NaN
13618.581	NaN	NaN	NaN	NaN
13622.567	NaN	NaN	NaN	NaN
13626.455	NaN	NaN	4.96290	5.35801
13630.457	NaN	NaN	7.29352	9.46212
13634.457	NaN	NaN	5.48039	4.00707
13638.458	NaN	NaN	4.71405	2.39542
13642.420	NaN	NaN	5.28660	5.96175
13646.457	NaN	NaN	5.16876	4.19083
13650.458	NaN	NaN	4.54979	4.26665
13654.458	-3.82561	3.01348	-1.38411	5.91096
13658.460	-5.31268	13.32903	9.62591	4.55431
13662.456	-0.74496	-0.33573	9.68508	5.80589
13666.461	7.89508	4.15161	9.47297	4.57106
13670.439	-0.08177	2.28124	-6.29992	2.22896
13674.454	-2.84348	1.00974	9.37689	3.87094
13678.449	-0.47023	6.93441	9.57592	3.93748
13682.457	5.47454	3.89498	4.59850	5.66630
13686.456	7.91482	4.22079	-0.75794	5.16539
13690.460	4.70426	5.82031	-0.81191	3.95919
13694.450	5.13737	4.57556	0.19442	3.41607
13698.460	2.29899	4.34001	2.08074	2.80862
13702.461	2.28172	4.29562	3.38338	1.70180
13706.457	2.40652	4.19746	2.30724	0.44942
13710.451	2.78518	4.20826	2.37208	1.72440
13714.420	2.22081	4.18959	2.60305	1.43090
13718.420	2.34210	3.95001	3.04298	2.43305
13722.459	1.96826	4.28681	2.82870	2.45267
13726.452	0.92229	4.00909	2.35580	2.24176
13730.458	0.07768	3.81429	1.86181	2.55408
13734.461	0.99851	3.83113	2.79062	2.36613
13738.461	0.65283	3.79383	4.31131	2.61611
13742.458	0.92006	3.82187	5.64009	2.67133
13746.459	0.58332	3.70110	5.00758	2.90861
13750.462	-0.01707	3.65531	2.83521	4.12461
13754.439	0.54853	3.55533	2.47286	4.16254
13758.455	0.50073	3.40226	2.74016	4.10297
13762.461	0.76022	3.12013	5.61600	3.02593
13766.458	0.46170	3.15932	3.81681	3.57467
13770.458	0.45150	2.88965	5.78922	3.15359
13774.449	0.17685	2.58000	2.33348	3.32800
13778.459	0.43237	2.42758	2.57496	3.22833
13782.423	0.15414	1.48867	3.62059	3.42154
13786.460	0.10947	2.25841	2.71431	3.15806
13790.452	0.29903	4.43380	6.13635	2.76541
13794.448	0.34608	3.68950	5.91590	3.44882
13798.456	0.37298	4.87846	3.72921	3.55665
13802.423	0.13997	4.98234	4.33567	3.33737
13806.457	0.03378	4.87787	3.85103	3.59873
13810.459	-0.22505	4.79346	3.22025	3.23678
13814.458	-0.19941	4.70756	3.54072	3.41976
13818.459	0.05510	4.56638	2.96646	2.97372
13822.451	-0.11811	4.50651	5.96218	3.26873
13826.459	-0.32789	4.50232	5.34548	3.36842
13830.459	-0.02742	4.40758	3.93176	3.12612
13834.463	-0.17047	4.53162	3.89268	3.32244
13838.454	-0.04194	4.72716	2.48681	2.79530
13842.461	-0.19581	4.78957	3.11032	1.37777
13846.458	-0.46894	4.28971	3.35511	3.16243
13850.460	-1.79849	3.51883	2.96539	0.66404
13854.460	-2.65426	4.52640	-0.34432	1.16480
13858.460	-3.86558	3.74538	0.69620	1.26703
13862.460	-5.68096	3.49425	-0.46939	1.60652
13866.460	-4.04530	4.33828	-1.17007	1.13256
13870.457	-4.22903	3.12808	-2.21737	1.21582
13874.462	-4.32321	3.35473	-1.88147	1.62462
13878.440	-4.48305	2.16291	-1.49738	1.75330
13882.461	-4.26627	2.42885	-0.10557	2.02960
13886.430	-4.21380	2.61625	-0.49567	2.38142
13890.461	-4.35736	2.82040	0.39680	3.04986
13894.466	-4.42834	3.20131	-0.45262	3.33503
13898.462	-4.54249	3.24595	-1.04997	3.85686
13902.420	-4.70518	3.30005	-0.02827	-0.45746
13906.462	-4.53275	3.37551	0.28307	0.07701
13910.462	-4.57825	2.78410	-0.79808	2.39163
13914.462	-4.55921	3.19380	-0.02730	1.93400
13918.456	-4.41191	2.34891	-0.72843	2.08239
13922.453	-4.60037	2.65528	0.01760	2.72214
13926.464	-4.38622	2.48228	-2.28281	2.56223
13930.460	-4.63338	2.64883	-1.83546	2.36167
13934.459	-4.61763	2.78533	-1.00122	3.90119
13938.460	-4.69149	3.24092	-1.13025	3.31889
13942.460	-4.32859	3.16903	-1.22015	2.10196
13946.461	-4.07802	2.77159	-0.27247	0.24697
13950.484	-4.40500	2.85571	-1.00844	2.60135
13954.463	-4.08579	2.86678	-0.92286	3.98457
13958.461	-4.32479	2.91655	-0.84508	3.70540
13962.434	-4.32903	2.69060	-2.86727	2.73760
13966.429	-4.43431	2.59287	-2.46258	2.21563
13970.465	-4.22434	1.98102	-1.12844	2.09766
13974.464	-4.19785	3.76908	-1.23526	-0.22148
13978.463	-4.13974	3.05277	-1.07051	2.07240
13982.456	-3.86425	2.75440	-2.97334	1.97596
13986.426	-4.31383	2.99414	-1.13511	1.68641
13990.466	-4.18625	3.07784	-1.08649	4.43079
13994.466	-3.92976	2.61220	-1.04726	2.20557
13998.488	-3.79238	3.35706	-0.92373	0.12443
14002.448	-3.64746	2.53611	-0.57578	2.36063
14006.453	-4.14949	3.38549	-0.00960	0.35743
14010.464	-4.04214	2.94487	-1.62120	2.41748
14014.454	-4.07229	3.04860	-1.29834	1.43328
14018.462	-3.82529	2.76071	-0.88490	4.03401
14022.424	-4.28150	3.16107	-1.68034	0.78845
14026.465	-3.68364	2.77580	-0.84818	4.47995
14030.461	-4.08389	3.43364	-1.25644	0.80531
14034.463	-3.89698	3.05501	-0.27274	1.76610
14038.466	-3.90303	3.77407	-0.86223	1.83840
14042.462	-4.69127	3.01398	-0.25468	1.92976
14046.423	-4.01030	3.18585	-0.95241	0.74578
14050.465	-4.39550	3.71099	-0.28935	3.11674
14054.426	-4.72053	3.23812	0.04527	0.64953
14058.463	-3.90212	3.13006	-0.94554	2.68724
14062.468	-3.82499	3.52956	-1.78235	2.79177
14066.465	-4.21454	3.95195	-0.28210	0.22277
14070.464	-3.90538	3.00640	-1.07560	2.17712
14074.465	-3.68631	3.44536	-0.18524	2.73983
14078.466	-3.68994	4.22671	-0.26565	1.74559
14082.470	-4.04806	2.72978	0.27130	2.77955
14086.427	-4.28607	3.24689	-1.39314	1.82218
14090.461	-3.95661	4.28913	-1.22568	1.28476
14094.437	-4.03142	2.57848	0.19847	4.59166
14098.470	-3.91892	4.13938	-1.00166	2.37698
14102.477	-3.94248	2.94453	-0.05438	2.67233
14106.466	-4.13073	3.71367	0.42671	2.15469
14110.458	-4.16811	2.38225	0.09212	2.21291
14114.463	-4.30902	4.70702	-0.88798	2.90025
14118.464	-3.94137	3.59827	-0.91497	2.61347
14122.427	-4.12275	3.19939	-2.42728	2.29796
14126.460	-4.37159	3.03960	-6.25191	1.13777
14130.456	-4.15507	4.44085	0.10396	2.42564
14134.462	-3.84293	3.39735	-1.19383	2.82520
14138.463	-3.31284	3.78576	-0.90391	2.95704
14142.455	-4.08318	3.16602	-2.11331	3.15651
14146.466	-4.87281	3.66290	-1.55665	2.85096
14150.465	-4.08777	3.57415	-2.38375	3.03821
14154.465	-2.99089	3.19327	0.84974	1.56116
14158.465	-4.23979	2.79357	0.08324	2.53003
14162.465	-4.62981	4.39958	-1.73408	2.86748
14166.465	-4.09323	3.93750	-2.77921	3.15947
14170.465	-3.87826	3.52161	-3.41689	3.01788
14174.462	-4.78511	3.27571	-0.89852	3.05035
14178.467	-4.08071	3.35086	-1.78352	3.29273
14182.467	-3.69256	3.87863	-2.84668	2.83090
14186.464	-4.87399	3.33112	1.20271	2.97320
14190.456	-4.32187	3.20478	-0.90607	2.99861
14194.465	-2.89918	3.92566	-2.65780	3.01844
14198.466	-3.92193	4.15730	-2.88116	2.56598
14202.466	-2.89943	2.55883	-2.89596	3.95348
14206.468	-2.46905	3.91822	-1.80561	2.34007
14210.427	1.00333	3.44512	1.40839	3.33970
14214.455	1.59316	2.98745	3.51597	5.18825
14218.468	2.94641	3.41606	1.41194	5.63721
14222.459	2.70399	3.48191	-0.76950	6.27225
14226.470	NaN	NaN	1.55517	5.83734
14230.466	4.18149	2.28497	4.15858	4.96960
14234.466	-0.35799	5.82065	3.59745	3.36590
14238.474	-0.71732	4.26187	0.00908	4.69465
14242.469	4.07950	3.66588	1.95477	5.44313
14246.466	2.83786	3.64459	8.09591	3.79148
14250.470	1.25136	4.00349	4.31864	3.59301
14254.468	-0.05167	4.04996	3.23442	4.12588
14258.430	2.55651	4.75063	2.83227	4.56499
14262.467	NaN	NaN	2.69802	5.93193
14266.464	1.97914	5.36470	4.78225	2.60796
14270.468	0.05326	4.03923	4.14317	3.42121
14274.467	-0.50381	4.40027	4.22375	4.61519
14278.467	-0.46937	3.94152	-0.11026	3.59197
14282.469	3.28246	3.12568	2.96802	5.88160
14286.470	-1.20229	4.66584	2.74479	6.19405
14290.469	1.99367	4.62961	4.53712	3.17769
14294.449	0.46892	2.89611	2.33105	2.21849
14298.467	-0.37447	3.09221	2.43620	3.31466
14302.366	-0.14322	3.02339	3.43254	3.49749
14306.467	-0.59392	3.65227	2.20015	5.95313
14310.470	-0.62300	4.34521	0.33062	8.10460
14314.468	NaN	NaN	5.70760	3.57550
14318.365	1.07634	3.24322	5.92992	2.80665
14322.467	1.12521	2.82222	4.08730	3.49810
14326.430	1.11405	3.08164	2.70498	5.04233
14330.467	0.10193	3.77280	3.28617	8.51375
14334.349	-0.71618	4.74619	3.42299	2.47175
14338.460	3.80755	2.58063	5.33463	3.29360
14342.469	2.50920	2.94806	4.20010	3.06173
14346.449	2.62900	2.52673	3.66728	3.53301
14350.471	2.11955	2.77756	4.59073	7.12778
14354.468	1.30890	3.89506	4.30381	2.20598
14358.467	1.72071	4.67557	6.14464	3.00118
14362.470	3.29260	2.83269	2.19504	4.73392
14366.469	3.40989	2.64763	1.20574	7.89861
14370.468	3.61963	3.14604	0.83597	2.37962
14374.468	2.72518	2.77258	1.76646	3.51798
14378.444	2.31027	3.02151	3.65186	1.08568
14382.355	2.29475	3.06307	5.40919	1.84784
14386.469	2.73888	4.31177	5.66818	3.18692
14390.471	3.91200	2.91818	1.05108	2.21298
14394.471	3.76453	3.03034	1.56853	4.19714
14398.478	3.71864	2.76741	3.50981	2.27144
14402.432	3.07998	3.08666	5.89775	2.07651
14406.472	2.62036	2.80860	1.19450	1.08529
14410.472	3.04652	2.97085	5.03469	3.36598
14414.484	3.18616	2.64741	1.91323	2.44345
14418.451	2.81533	2.82548	5.95081	4.73769
14422.459	3.18188	2.65663	-2.92384	4.73535
14426.468	3.38973	2.52668	5.68688	1.04907
14430.369	3.36010	2.64321	5.67224	4.39048
14434.469	2.93032	2.63927	5.31625	2.24108
14438.468	2.89381	2.81080	6.33709	2.96141
14442.470	2.96186	2.61839	5.14983	4.08910
14446.472	2.44145	2.60126	1.44520	4.18147
14450.468	-0.05879	2.83258	2.17918	3.77243
14454.471	-0.20090	1.04148	1.96811	5.19214
14458.471	-1.86975	2.68379	-0.68786	1.86461
14462.471	-2.40664	3.00724	-1.26071	3.05428
14466.472	-3.68115	2.68605	-0.99459	3.86806
14470.469	-4.81416	1.91934	-3.27284	1.62949
14474.472	-4.44726	1.03283	-3.02027	1.40641
14478.473	-4.61958	1.86549	-1.30910	1.01074
14482.473	-4.12750	2.35775	-1.23511	1.32101
14486.471	-4.12004	2.07359	-1.26267	2.42917
14490.475	-3.67843	1.88612	-1.27162	1.46922
14494.474	-4.21711	2.20368	-1.26180	2.00951
14498.477	-4.19297	2.12760	-1.17981	1.83990
14502.470	-3.99719	2.26070	-2.52248	2.48108
14506.471	-4.55544	2.19672	-1.15627	3.35491
14510.476	-4.75001	2.41900	-1.70846	2.32642
14514.475	-4.64081	2.53873	-1.87939	2.76691
14518.473	-4.54116	2.58250	-1.60633	2.54426
14522.472	-4.54701	2.50661	-1.76554	3.39912
14526.473	-4.46470	2.65704	-1.31592	3.24883
14530.434	-4.25660	2.77403	-1.29199	3.64315
14534.470	-4.13986	2.75600	-0.63412	3.85903
14538.472	-3.72872	2.90612	-0.75856	4.72884
14542.372	-4.42496	3.03034	-0.61655	2.52773
14546.463	-5.14869	1.53214	-0.38167	3.00980
14550.469	-4.82294	1.51857	-0.51508	3.65650
14554.473	-4.57371	1.44042	-0.42785	3.58918
14558.473	-4.61105	0.73596	-0.40981	3.22288
14562.472	-4.30253	1.09577	-0.51607	4.36222
14566.470	-4.40167	1.60464	-0.43055	0.40530
14570.473	-4.54898	2.76466	-0.46351	0.94775
14574.472	-4.71003	2.50991	-0.45807	1.94054
14578.471	-4.80781	1.87788	-0.53113	1.99953
14582.474	-4.89974	2.26127	-0.80014	2.16794
14586.441	-4.63117	1.79081	-0.59580	2.71277
14590.361	-4.60930	1.70394	-0.60588	3.72066
14594.471	-4.58772	1.40888	-0.67556	5.60343
14598.440	-4.56747	1.96712	-0.11347	1.32693
14602.429	-4.45824	2.19692	-2.20151	1.13186
14606.373	-4.23643	2.01475	-0.80555	1.11555
14610.471	-4.10693	1.17206	-0.85816	2.07136
14614.472	-4.19427	1.64883	-0.71573	4.25846
14618.473	-4.42385	2.06597	0.03785	4.94970
14622.371	-3.67361	1.50155	0.04112	1.30036
14626.455	-3.79707	1.05162	-0.95256	1.74959
14630.469	-3.89204	1.66009	-0.52649	2.93108
14634.472	-3.55115	1.20981	-1.22734	5.53274
14638.373	-3.60025	0.73166	-1.10107	1.32184
14642.473	-4.32407	1.64766	-0.39422	2.78326
14646.470	-3.34418	1.45773	-1.12886	3.79671
14650.474	-3.47060	0.54998	-1.13035	1.74656
14654.342	-4.21886	1.15116	-1.31424	1.50492
14658.349	-3.43031	1.70806	-1.52087	3.49173
14662.348	-3.58606	2.88654	-1.69002	3.76298
14666.310	-3.42265	0.55068	-1.75131	3.93619
14670.339	-3.35998	1.62587	-1.18448	4.11337
14674.330	-3.60749	2.17819	-1.39579	4.11874
14678.350	-4.03705	2.27794	-1.54522	3.00469
14682.350	-4.80692	1.20802	-1.19671	1.47370
14686.371	-3.90135	1.50245	-1.75684	4.30528
14690.350	-3.81479	1.16794	-2.04832	1.81456
14694.349	-4.46445	1.26058	-1.64392	2.57744
14698.346	-3.66884	1.50999	-1.94069	1.46777
14702.316	-3.84619	1.83432	-2.03261	3.24832
14706.353	-3.86800	2.88866	-1.66177	4.49886
14710.308	-4.18936	1.14667	-2.17056	3.37313
14714.337	-3.91949	0.54675	-1.97946	3.06005
14718.343	-3.89656	0.96837	-1.59894	2.12285
14722.353	-3.98766	1.77683	-1.71382	2.41511
14726.351	-3.79240	1.94653	-2.27848	2.50333
14730.351	-3.63151	1.57195	-2.13960	2.92040
14734.370	-4.13507	1.41461	-1.66673	-0.01085
14738.351	-4.21669	1.08388	-1.78109	6.24995
14742.351	-4.29675	1.97133	-2.02475	2.31274
14746.348	-4.26462	1.97317	-1.93589	2.57398
14750.371	-3.40603	1.17099	-1.89568	4.59173
14754.349	-3.97254	1.21356	-1.75773	2.42921
14758.322	-3.92648	2.25525	-1.47709	3.16543
14762.349	-3.74360	1.39357	-2.20860	2.44308
14766.373	-4.55588	1.38599	-1.53768	3.42412
14770.312	-4.51956	1.84712	-2.64777	2.62239
14774.350	-4.03779	1.85779	-1.77365	3.81091
14778.353	-3.73154	2.40600	-1.69497	3.35175
14782.371	-3.21899	2.45535	-1.29888	3.58373
14786.349	-0.71012	1.66725	-1.03382	3.59743
14790.352	0.86342	2.71119	1.87235	3.60399
14794.354	2.63757	3.40364	4.41625	-4.42873
14798.373	3.11111	2.68102	2.09080	4.58235
14802.313	3.14506	2.39537	6.32029	-1.03790
14806.350	3.24338	2.81979	9.60608	-3.20114
14810.349	3.41454	2.73496	10.41232	-4.09584
14814.347	3.34205	2.61548	6.47362	-10.22150
14818.352	3.92704	2.06354	8.33736	-4.50835
14822.352	3.70551	3.05809	9.95724	-10.66971
14826.351	3.47888	2.33028	11.14863	-10.58269
14830.344	2.47363	2.36601	7.85056	-10.39296
14834.351	3.66300	3.00187	9.63534	-9.99078
14838.353	2.36133	3.13551	5.20716	-13.87546
14842.327	1.88536	1.71608	7.11792	-13.95623
14846.318	3.45188	2.85865	9.06238	-12.34213
14850.353	2.46617	3.27042	-19.99372	-12.12411
14854.351	1.90106	2.83157	-19.99372	-12.11024
14858.351	2.77329	2.87874	-19.99372	-12.10330
14862.341	1.93968	3.00463	-19.99372	-12.09821
14866.351	2.04332	3.19339	-19.99372	-12.10564
14870.313	2.31475	2.98228	-19.99372	-12.10529
14874.350	2.69371	2.90901	-19.99372	-12.10138
14878.350	2.52939	3.24928	-19.99372	-12.09803
14882.350	3.14590	1.55135	-19.99372	-12.07084
14886.349	3.01356	2.70808	-19.99372	-12.05612
14890.351	2.40092	3.01973	NaN	NaN
14894.376	2.16701	3.05053	NaN	NaN
14898.353	2.63717	2.93289	NaN	NaN
14902.353	2.62004	1.93465	NaN	NaN
14906.353	2.85264	1.71473	NaN	NaN
14910.311	3.53451	1.31980	NaN	NaN
14914.354	2.53976	1.76924	NaN	NaN
14918.351	2.86490	2.42732	NaN	NaN
14922.347	3.10497	2.55171	NaN	NaN
14926.346	3.55802	2.88275	NaN	NaN
14930.351	3.00076	2.15410	NaN	NaN
14934.351	3.70517	2.26672	NaN	NaN
14938.315	3.37900	2.84904	NaN	NaN
14942.344	3.66300	2.28718	NaN	NaN
14946.355	3.88910	3.46809	NaN	NaN
14950.351	3.37907	2.31415	NaN	NaN
14954.353	3.39320	3.54668	NaN	NaN
14958.310	3.70930	2.64140	NaN	NaN
14962.315	3.35815	3.05003	NaN	NaN
14966.353	3.34014	2.74670	NaN	NaN
14970.348	3.65131	2.55411	NaN	NaN
14974.352	3.67200	3.41828	NaN	NaN
14978.355	3.36226	3.26033	NaN	NaN
14982.352	3.35377	2.33148	NaN	NaN
14986.353	3.17131	2.83273	NaN	NaN
14990.351	3.08582	2.31599	NaN	NaN
14994.353	3.21179	3.21160	NaN	NaN
14998.353	3.22275	2.78183	NaN	NaN
15002.360	3.14818	2.95426	NaN	NaN
15006.312	3.27954	2.69219	NaN	NaN
15010.351	3.20887	2.65611	NaN	NaN
15014.352	3.18019	2.93818	NaN	NaN
15018.351	3.14630	2.91049	NaN	NaN
15022.354	3.18823	2.85164	NaN	NaN
15026.352	3.40388	2.87052	NaN	NaN
15030.357	3.19044	2.89680	NaN	NaN
15034.358	3.20337	3.01841	NaN	NaN
15038.352	3.53187	2.89572	NaN	NaN
15042.354	3.25364	2.75679	NaN	NaN
15046.355	3.64607	2.81850	NaN	NaN
15050.322	3.57819	2.74495	NaN	NaN
15054.354	3.56798	2.71407	NaN	NaN
15058.353	3.82712	2.72182	NaN	NaN
15062.356	3.36052	2.75647	NaN	NaN
15066.356	3.80411	2.82966	NaN	NaN
15070.345	3.59290	3.50306	NaN	NaN
15074.356	3.77206	2.67899	NaN	NaN
15078.356	3.80705	2.62579	NaN	NaN
15082.357	3.68597	2.56990	NaN	NaN
15086.348	3.75506	3.18714	NaN	NaN
15090.336	3.57416	3.63575	NaN	NaN
15094.358	2.48453	2.68800	NaN	NaN
15098.355	2.39356	3.68579	NaN	NaN
15102.349	0.52297	2.14744	NaN	NaN
15106.354	0.08440	2.88158	NaN	NaN
15110.355	0.10798	2.79547	NaN	NaN
15114.355	-0.06242	2.74703	NaN	NaN
15118.346	-0.09073	4.08314	NaN	NaN
15122.356	-0.22155	3.10876	NaN	NaN
15126.356	0.14692	3.05840	NaN	NaN
15130.357	-0.13682	3.27031	NaN	NaN
15134.354	-0.02038	1.69990	NaN	NaN
15138.358	-0.04825	3.26641	1.59343	1.49217
15142.318	-0.00931	2.15115	NaN	NaN
15146.356	-0.27408	3.15327	NaN	NaN
15150.354	0.56029	2.95969	NaN	NaN
15154.355	0.04403	2.25171	NaN	NaN
15158.356	0.01621	3.38469	NaN	NaN
15162.357	-0.03395	3.39424	NaN	NaN
15166.348	0.26051	1.87947	NaN	NaN
15170.357	0.17330	2.10585	NaN	NaN
15174.329	-0.04276	2.23670	NaN	NaN
15178.356	0.06229	2.23841	NaN	NaN
15182.360	0.05889	2.46071	NaN	NaN
15186.357	0.01228	2.25132	NaN	NaN
15190.356	0.08751	2.05784	NaN	NaN
15194.323	0.08247	2.67520	NaN	NaN
15198.347	0.01005	3.24411	NaN	NaN
15202.362	-0.10317	3.64684	NaN	NaN
15206.356	0.07937	2.87563	NaN	NaN
15210.358	-0.18926	2.41648	NaN	NaN
15214.351	-0.41911	2.47010	NaN	NaN
15218.356	0.06892	1.94779	NaN	NaN
15222.357	0.22304	3.42260	NaN	NaN
15226.359	-0.49036	2.42930	NaN	NaN
15230.348	-0.58826	3.42774	NaN	NaN
15234.359	-0.53647	3.45647	NaN	NaN
15238.357	-0.12898	3.67387	NaN	NaN
15242.356	-0.20996	3.62094	NaN	NaN
15246.357	-0.28907	2.54141	NaN	NaN
15250.359	-0.04904	3.18793	NaN	NaN
15254.354	-0.22398	3.35621	NaN	NaN
15258.323	-0.04651	2.50828	NaN	NaN
15262.326	-0.26289	2.83193	NaN	NaN
15266.359	-0.48314	3.60777	NaN	NaN
15270.359	-0.16680	3.77620	NaN	NaN
15274.357	-0.59136	3.00881	NaN	NaN
15278.351	-0.11404	2.68517	NaN	NaN
15282.358	-0.28481	3.65175	NaN	NaN
15286.357	-0.26056	4.09633	NaN	NaN
15290.360	-0.39318	2.86647	NaN	NaN
15294.348	-0.18613	3.24118	NaN	NaN
15298.336	-0.49937	5.50691	3.34593	2.23800
15302.366	-0.36065	3.08434	0.77374	0.74594
15306.355	-0.30439	3.27094	2.28383	1.57826
15310.359	-1.80672	5.54761	3.69044	3.80357
15314.359	-3.07132	4.02738	-2.89836	3.34500
15318.357	NaN	NaN	13.89863	4.01961
15322.357	NaN	NaN	-4.99780	-2.56609
15326.357	NaN	NaN	0.33263	-3.62731
15330.357	NaN	NaN	NaN	NaN
15334.320	NaN	NaN	NaN	NaN
15338.319	NaN	NaN	NaN	NaN
15342.358	NaN	NaN	NaN	NaN
15346.322	NaN	NaN	NaN	NaN
15350.362	NaN	NaN	NaN	NaN
15354.357	NaN	NaN	NaN	NaN
15358.357	NaN	NaN	NaN	NaN
15362.359	NaN	NaN	NaN	NaN
15366.359	NaN	NaN	NaN	NaN
15370.357	NaN	NaN	NaN	NaN
15374.357	NaN	NaN	NaN	NaN
15378.359	NaN	NaN	NaN	NaN
15382.330	NaN	NaN	NaN	NaN
15386.361	NaN	NaN	NaN	NaN
15390.360	NaN	NaN	NaN	NaN
15394.365	NaN	NaN	NaN	NaN
15398.362	NaN	NaN	NaN	NaN
15402.320	NaN	NaN	NaN	NaN
15406.258	NaN	NaN	NaN	NaN
15410.361	NaN	NaN	NaN	NaN
15414.322	NaN	NaN	1.79819	6.55034
15418.365	NaN	NaN	NaN	NaN
15422.317	NaN	NaN	13.75776	9.64630
15426.354	NaN	NaN	13.73718	5.88627
15430.257	NaN	NaN	13.84038	3.84418
15434.360	8.90572	-3.44851	8.13060	-0.35004
15438.358	-7.15391	11.56251	12.96357	2.67739
15442.361	NaN	NaN	13.74634	2.54759
15446.264	-3.81785	-3.09473	12.95346	1.85141
15450.360	-5.77295	-1.29156	12.99295	2.41140
15454.358	-3.42698	2.49702	13.23358	0.21364
15458.364	-3.71491	0.79030	7.76311	-1.73476
15462.232	9.06773	4.37054	12.75668	-1.93437
15466.357	0.23636	4.01781	14.16207	-0.32269
15470.324	-2.86616	3.84904	10.17971	-0.79317
15474.364	3.09525	3.92933	-4.03011	-2.02602
15478.365	0.10364	13.19378	2.30382	-0.27347
15482.323	0.56560	5.86585	-0.96559	0.31005
15486.363	0.60307	4.38760	2.58660	1.62188
15490.364	0.60084	3.82667	-1.18371	0.14576
15494.260	0.79352	3.15788	1.60511	1.41784
15498.363	0.12091	3.68733	3.12999	-0.31243
15502.363	-0.45584	6.01715	2.75269	0.05262
15506.343	-2.14082	12.85921	2.85836	1.93633
15510.250	0.47649	3.77703	3.29886	2.17209
15514.360	0.74233	3.23844	3.01071	1.68873
15518.361	0.77670	2.43876	2.21068	1.49417
15522.361	-0.95681	4.86639	1.49059	0.10463
15526.364	0.21564	3.49747	3.24704	0.00526
15530.360	-0.00643	3.53218	3.16221	3.02830
15534.361	0.70164	2.52087	1.79078	2.03072
15538.361	0.32689	3.74797	2.32117	1.75050
15542.259	-0.81580	4.53691	1.32528	0.87369
15546.349	0.06721	3.96628	2.14176	0.50512
15550.349	0.36812	2.67021	3.17569	2.87660
15554.363	0.34672	3.29376	2.23266	2.68812
15558.264	-0.25753	3.90474	2.37349	1.60445
15562.363	-0.23405	3.34496	2.00001	1.61885
15566.361	-0.00948	3.29410	2.21596	0.01271
15570.364	-0.33166	2.57406	2.59081	1.85989
15574.259	-0.42882	3.92770	2.14255	0.11043
15578.365	-0.33059	4.26823	2.85804	2.52239
15582.364	0.02606	3.65492	2.50306	2.41339
15586.363	-0.08185	3.92713	2.36014	2.23840
15590.264	-0.25130	3.08353	2.01573	1.27853
15594.325	-0.09202	2.73699	0.31109	1.21015
15598.363	-0.19224	4.14409	1.35219	-0.21002
15602.362	-0.15106	4.62703	1.24525	-0.98561
15606.266	-0.44465	4.20204	0.68905	0.67383
15610.374	-0.15888	4.01217	2.94151	2.59553
15614.363	-0.12511	4.28940	1.39731	1.33932
15618.362	0.04723	3.57237	2.06656	2.28434
15622.260	-0.08267	3.02310	1.82187	2.06013
15626.365	-0.05542	3.19279	2.07437	2.04278
15630.346	-0.32441	5.04563	1.89972	1.85377
15634.357	-0.49597	4.88929	2.34238	1.47513
15638.262	-0.46778	4.18231	2.09680	1.65296
15642.364	-0.52843	4.70211	2.34981	0.72641
15646.361	-0.37281	4.03465	2.11968	-0.87956
15650.363	-0.35702	3.67526	1.72619	-0.31561
15654.365	-0.00836	3.04275	1.80211	2.27964
15658.362	-0.07887	2.81466	1.92156	3.18372
15662.362	-0.52744	5.03260	1.98390	2.91479
15666.363	-0.23194	4.22426	1.47757	2.60979
15670.264	-0.58183	4.21458	1.37992	1.88237
15674.364	-0.73565	3.89449	2.01362	1.49220
15678.363	-0.42504	3.62014	2.11309	0.22041
15682.364	-0.70985	3.53658	2.21762	-0.28970
15686.263	-0.46765	3.24866	1.76713	-0.02218
15690.363	-0.31394	3.51195	1.91025	1.44675
15694.240	-0.24061	3.49182	1.77137	3.05242
15698.239	-0.13707	3.74053	1.88916	2.76566
15702.230	-0.23731	3.52204	1.74362	1.76190
15706.203	-0.13121	3.28190	1.40561	1.26739
15710.239	-0.30329	2.99344	0.94807	0.77954
15714.238	-0.45430	3.21602	1.19582	0.68036
15718.202	0.07095	4.06245	2.11938	0.45333
15722.233	0.13533	3.46025	2.41524	2.36406
15726.235	-0.24882	3.59885	2.08193	1.59514
15730.236	0.01956	3.37867	2.26004	3.14080
15734.237	-0.13203	3.35392	1.56397	2.57858
15738.238	-0.22768	3.42584	1.14568	1.99696
15742.241	-0.31563	4.17848	0.98735	1.05375
15746.239	-0.56367	4.50413	1.45316	0.61989
15750.239	-0.68561	3.91236	2.01268	-0.15735
15754.202	-0.50788	3.59939	1.85090	3.65255
15758.238	-0.49240	3.15165	1.24644	2.68773
15762.203	-0.47753	3.16751	2.04183	2.24253
15766.208	-0.56957	3.05320	1.19961	1.85386
15770.237	-0.65950	4.43213	1.21874	0.56490
15774.239	-0.44006	3.35497	1.48679	0.08652
15778.240	0.25537	3.36569	1.89295	-0.18587
15782.231	0.99568	3.90350	1.55965	1.89122
15786.242	3.20469	3.68381	1.90745	2.00553
15790.243	6.21161	3.28699	5.54135	2.24792
15794.240	6.78165	3.00152	6.63583	2.96384
15798.231	7.76849	2.60830	9.22417	4.44997
15802.221	8.16197	1.88621	12.23704	1.61302
15806.245	10.05069	1.47418	12.77783	3.29144
15810.241	9.52912	1.38321	12.71460	3.32176
15814.232	8.44208	1.59001	11.97978	3.81471
15818.243	8.67182	2.74467	9.17773	0.32398
15822.206	9.95170	2.72034	11.89868	1.31007
15826.239	10.15309	2.26682	9.89535	-4.07424
15830.233	9.50976	0.65310	8.32735	1.52056
15834.202	9.37047	1.27169	8.99506	3.89514
15838.203	10.25886	1.77677	5.50237	-7.22248
15842.235	9.44025	1.59460	10.90676	1.18866
15846.265	9.04033	1.06952	5.20632	-3.59544
15850.240	9.05710	1.63814	8.00443	2.77513
15854.244	9.39714	2.63179	3.19961	0.68126
15858.241	9.46256	0.31962	7.76106	2.52127
15862.233	9.04531	1.12539	11.43238	0.51025
15866.240	8.03382	3.19628	11.00190	1.75361
15870.243	5.99217	1.57185	7.94275	1.61478
15874.241	3.73433	3.44302	5.85119	5.01688
15878.240	3.07300	4.11225	3.67079	2.98476
15882.242	0.02797	2.42663	0.34012	2.89963
15886.213	-1.18793	3.37054	-1.46211	3.61048
15890.241	-2.49008	4.15006	-2.15465	1.51770
15894.242	-3.45133	4.29924	-3.59864	2.43804
15898.203	-4.96317	4.70231	-4.10443	2.13886
15902.243	-5.03861	4.04750	-4.25457	3.04204
15906.249	-3.79613	3.41978	-4.08002	2.86708
15910.262	-4.38687	4.10088	-4.23468	2.00184
15914.242	-3.70364	3.93049	-4.24781	2.22371
15918.244	-4.38272	3.42854	-3.95977	1.68626
15922.248	-5.05092	2.96505	-6.04652	1.32768
15926.202	-5.08439	2.95929	-4.14774	1.56113
15930.232	-4.68528	2.99592	-3.65092	0.75252
15934.241	-4.54254	3.48014	-3.98748	0.45688
15938.241	-5.31288	3.01951	-3.75259	0.88889
15942.262	-5.00674	2.87639	-3.74434	0.49259
15946.242	-5.02164	2.98219	-3.63119	0.72963
15950.242	-5.41475	2.61290	-3.61849	0.60449
15954.242	-4.90528	2.83418	-3.82178	0.57907
15958.201	-4.78935	3.01987	-3.73774	0.48577
15962.245	-4.18897	2.81430	-3.60536	0.75229
15966.244	-4.76093	2.93195	-3.29026	0.47110
15970.209	-5.32621	3.59002	-3.25924	0.53186
15974.240	-4.84216	4.20062	-3.20775	0.62296
15978.245	-5.00002	3.57512	-3.39995	0.72227
15982.239	-4.94891	4.08202	-3.14182	0.91597
15986.247	-5.02504	3.40723	-3.02450	1.24661
15990.238	-4.99696	3.51410	-2.84564	1.02815
15994.245	-4.99603	3.00870	-3.48518	3.88040
15998.241	-4.75171	3.51089	-2.73702	3.28035
16002.206	-4.24362	2.59651	-2.45896	1.78126
16006.240	-5.03415	3.08474	-2.90955	1.51265
16010.222	-4.96342	3.97930	-3.18064	1.42512
16014.239	-5.09616	3.61253	-2.99836	0.86988
16018.247	-5.12046	3.23643	-2.75633	1.63832
16022.249	-4.99847	3.05418	-3.33413	3.53911
16026.246	-5.07368	4.01821	-2.64431	3.52318
16030.246	-5.20753	3.29099	-1.84756	2.27604
16034.260	-5.05540	3.61902	-2.85851	1.75157
16038.267	-4.70195	3.41271	-2.96166	0.62077
16042.243	-4.96563	3.88627	-3.05355	2.37392
16046.247	-5.11477	3.52083	-1.56206	2.15935
16050.240	-5.12048	3.67476	-3.04878	1.60807
16054.269	-5.07986	4.70693	-3.16837	1.81118
16058.242	-5.11918	3.73355	-1.69359	3.19486
16062.244	-5.17622	3.20876	-3.21243	2.57784
16066.245	-5.13444	3.70152	-3.24222	1.32689
16070.243	-4.71733	3.72869	-1.72408	4.08486
16074.243	-5.04228	3.47136	-1.47032	1.80182
16078.245	-5.03829	2.74915	-2.00242	1.56264
16082.218	-4.98460	3.51192	-2.61830	1.27126
16086.239	-4.84004	3.06216	-2.41474	-0.32032
16090.246	-4.64495	3.04186	-3.30037	-0.52299
16094.218	-4.78977	3.71523	-1.30479	1.83674
16098.245	-4.92174	3.04824	-1.60509	1.50994
16102.248	-4.79014	2.92528	-3.00534	0.96432
16106.245	-4.57147	2.66831	-2.61451	-0.60241
16110.245	-4.63082	2.75683	-1.63864	0.04327
16114.248	-5.28106	2.66098	-3.17218	0.55793
16118.249	-4.94413	3.57830	-3.18734	-0.38540
16122.246	-4.66524	2.94821	-1.88732	1.38511
16126.246	-4.62308	3.07125	-1.71890	1.68063
16130.248	-4.67569	3.33887	-1.54383	1.88136
16134.205	-4.27429	2.93884	-1.27971	1.34085
16138.238	-4.25719	3.68566	-2.46221	0.29645
16142.247	-4.42612	4.20048	-1.81808	0.49126
16146.245	-6.25593	3.07779	-1.54787	1.22721
16150.236	-4.41862	2.78876	-1.23496	0.52058
16154.248	-4.22533	2.76000	-1.69319	1.30925
16158.245	-4.46672	3.31293	-2.88591	1.11144
16162.248	-4.47264	3.30789	-1.62510	0.06582
16166.245	-5.97457	3.10422	-1.79192	1.18900
16170.247	-4.54950	3.04296	-1.68002	1.09514
16174.247	-4.38314	3.37377	-1.73056	0.41466
16178.208	-4.87601	3.33800	1.90361	-1.49567
16182.242	-4.80150	3.76909	1.63112	-0.29511
16186.248	-4.48347	3.01861	1.05399	1.15950
16190.246	-3.76391	3.31429	0.89828	-2.80894
16194.249	-4.80201	3.62575	2.25585	-1.88183
16198.251	-4.71617	3.28119	2.04738	0.62053
16202.209	-4.86463	3.61656	2.04902	1.10050
16206.246	-4.57036	3.29681	2.42958	-2.92380
16210.211	-4.58456	3.38252	3.06726	-2.60606
16214.241	-4.67249	3.53981	2.28586	-0.60390
16218.230	-4.74944	3.75626	2.52708	0.75675
16222.250	-3.50984	4.35925	3.09673	-3.58052
16226.246	-4.99470	3.82053	3.27116	-3.47809
16230.240	-4.96509	3.51175	3.48244	-2.94663
16234.246	-5.30724	3.42707	3.49292	-2.12697
16238.248	-5.57065	3.76136	3.32815	-0.51687
16242.250	-5.71374	4.21988	3.33945	-0.61420
16246.259	-6.02126	4.71644	3.21498	-5.59065
16250.245	-4.86480	5.09418	3.34541	-4.60458
16254.247	-6.02995	4.24030	3.30173	-4.16946
16258.242	-3.56722	4.02082	8.31069	-4.14404
16262.246	-5.56679	3.62896	7.95385	-3.11095
16266.249	-5.49133	3.33742	7.27013	-1.33832
16270.209	-5.45031	4.20000	6.92956	-0.59565
16274.249	-5.59811	4.39308	6.96328	0.10061
16278.252	-5.80830	5.28073	6.79591	0.93691
16282.248	-5.15606	3.45850	6.53872	-4.74296
16286.248	-5.29573	4.07397	6.35635	-3.27901
16290.248	-5.40454	4.04054	8.23736	-3.08126
16294.249	-5.64203	3.74827	-3.55768	2.73972
16298.246	-5.38658	3.63890	4.44080	-1.09879
16302.211	-5.26361	4.07332	-8.38806	-1.37741
16306.248	-5.47830	4.33256	-4.00588	0.47699
16310.254	-5.53336	4.86490	-4.15455	1.16523
16314.247	-4.99278	3.82668	-1.75037	0.94771
16318.247	-5.28301	3.99190	-3.40821	0.88657
16322.248	-5.38014	3.77968	-2.26633	3.23062
16326.241	-5.78475	3.83938	-4.66921	1.36580
16330.247	-5.69094	4.65103	-5.33677	1.00170
16334.248	-5.53018	5.38137	-3.82588	0.80218
16338.251	-5.71296	3.58216	-3.71639	1.12467
16342.210	-5.68711	4.37734	-0.75146	-1.94961
16346.241	-5.56881	3.75130	-2.04798	0.28335
16350.251	-5.56908	4.66665	-2.02368	1.14356
16354.249	-5.70829	4.10105	-1.31228	0.67524
16358.239	-5.59927	3.86794	-1.49445	1.57562
16362.247	-5.63429	3.48515	-1.59256	1.64961
16366.250	-5.50663	3.57163	-3.54339	1.66159
16370.248	-5.52536	4.07755	-1.52377	1.83039
16374.248	-5.45843	3.59429	-1.29536	4.49826
16378.247	-5.09721	4.99984	-2.23863	1.24903
16382.250	-12.60635	5.29723	-1.08450	1.58124
16386.216	-12.98996	4.30564	-9.35657	-0.13907
16390.246	NaN	NaN	NaN	NaN
16394.249	NaN	NaN	NaN	NaN
16398.247	NaN	NaN	NaN	NaN
16402.215	NaN	NaN	NaN	NaN
16406.247	NaN	NaN	NaN	NaN
16410.253	NaN	NaN	NaN	NaN
16414.248	NaN	NaN	NaN	NaN
16418.251	NaN	NaN	NaN	NaN
16422.245	NaN	NaN	NaN	NaN
16426.213	NaN	NaN	NaN	NaN
16430.252	NaN	NaN	NaN	NaN
16434.252	NaN	NaN	NaN	NaN
16438.251	NaN	NaN	NaN	NaN
16442.242	NaN	NaN	NaN	NaN
16446.156	NaN	NaN	NaN	NaN
16450.252	NaN	NaN	NaN	NaN
16454.251	NaN	NaN	NaN	NaN
16458.207	NaN	NaN	NaN	NaN
16462.257	NaN	NaN	NaN	NaN
16466.253	NaN	NaN	NaN	NaN
16470.239	NaN	NaN	NaN	NaN
16474.215	NaN	NaN	NaN	NaN
16478.252	NaN	NaN	NaN	NaN
16482.253	NaN	NaN	2.65505	8.07096
16486.251	NaN	NaN	NaN	NaN
16490.249	-21.97673	4.01330	-20.36500	-6.22122
16494.250	-22.22937	-0.62295	-21.17181	-3.85516
16498.251	-23.30032	3.91674	-17.85827	-5.03481
16502.154	-22.30151	-0.61290	-12.22677	-7.95884
16506.251	-22.16114	-0.86439	-7.93228	-4.24715
16510.229	-20.17338	-1.30925	-3.22700	0.69908
16514.251	-20.05014	1.44151	-3.13524	0.60638
16518.148	-18.38897	1.53699	-2.83645	0.08840
16522.251	-18.30244	1.75385	-16.92151	-4.28193
16526.253	-18.23065	2.45088	-1.75247	-3.56809
16530.250	-18.14087	1.74076	-5.13077	0.64712
16534.252	-18.78657	1.39038	-7.02726	0.80856
16538.251	-18.55563	1.58917	-13.74662	-2.57876
16542.255	-18.22679	1.50905	-14.27590	-2.77912
16546.255	-13.19343	4.54894	-14.39613	-2.69267
16550.149	-16.84264	1.63470	-14.56630	-2.65293
16554.243	-16.90275	0.98136	-12.03111	0.99750
16558.254	-16.37682	-0.19421	-12.58566	0.78055
16562.251	-16.01839	-0.05639	-12.56621	-2.08223
16566.254	-15.27915	2.32710	-12.31011	-3.27464
16570.253	-13.88923	2.40773	-12.12321	0.08819
16574.254	-14.89791	0.57672	-12.39667	-1.26374
16578.254	-15.75520	0.69981	-12.38050	-1.56174
16582.156	-13.08239	3.05373	-11.99236	-2.12160
16586.258	-11.41523	2.77496	-11.19738	1.54098
16590.255	-9.23568	2.86665	-8.77313	1.08356
16594.226	-8.30881	2.97941	-7.42881	-0.94670
16598.257	-4.51953	4.56856	-4.99682	2.32628
16602.252	-4.38213	3.67846	-3.97669	2.26689
16606.253	-3.97437	3.08656	-3.17262	1.71579
16610.220	-1.67566	3.03531	-2.91725	-6.71557
16614.150	-2.33422	3.90437	-2.97700	3.37459
16618.252	-4.16988	3.64241	-2.74920	2.04385
16622.257	-4.32866	4.12974	-1.72076	1.77222
16626.255	-4.22111	3.40906	-1.43699	2.06700
16630.249	-4.32111	3.60793	-0.28270	3.29240
16634.232	-3.84918	5.26903	0.39608	2.94581
16638.215	-3.49495	4.76920	0.76260	1.73317
16642.252	-3.07466	4.06801	0.13044	1.51055
16646.154	-3.25105	3.68572	-0.14618	1.40441
16650.253	-2.83561	3.42185	0.71315	1.38668
16654.256	-3.02890	3.61594	0.70156	1.68103
16658.253	-3.07778	3.31987	0.88153	1.57073
16662.151	-3.29622	3.46028	1.07872	1.92983
16666.254	-3.50751	3.31278	0.23428	3.09015
16670.255	-3.34885	3.22182	0.86768	3.14583
16674.249	-3.17599	2.95428	1.03335	3.14162
16678.156	-3.24630	3.50885	0.73369	2.81049
16682.253	-3.09131	2.88047	0.06259	1.50670
16686.257	-2.68375	2.71789	0.08709	2.45947
16690.253	-3.02705	4.63178	0.60101	2.13143
16694.268	-3.84453	3.96889	0.76588	1.64816
16698.252	-3.43682	3.70110	0.03318	0.69639
16702.216	-3.22992	3.91363	-0.18338	0.25005
16706.253	-3.03561	3.19272	-0.13245	0.36244
16710.119	-2.94814	2.87855	0.43971	2.02922
16714.257	-2.99826	2.51845	0.46103	2.23673
16718.225	-2.92010	4.52874	0.29610	1.87321
16722.256	-3.18769	4.40572	0.32235	0.74055
16726.110	-2.96908	4.18248	0.37022	-0.51815
16730.130	-3.03613	3.73617	-0.76685	2.13302
16734.130	-3.09354	2.21816	0.55054	1.83130
16738.092	-3.12393	4.26808	2.14513	1.14690
16742.128	-3.30492	4.34688	0.73441	0.21194
16746.130	-3.17059	4.33652	0.70429	-0.92446
16750.131	-2.89569	2.92472	0.78302	0.94924
16754.130	-2.76299	1.87921	0.86768	2.78320
16758.128	-2.99866	2.70029	0.76456	1.86008
16762.126	-3.11559	4.26407	0.50855	1.65001
16766.095	-3.21869	4.00183	-0.60761	1.33485
16770.090	-3.35912	3.69730	0.55751	-0.06262
16774.129	-2.83350	3.21777	0.17750	0.41897
16778.129	-2.84658	2.81859	0.75300	3.41926
16782.130	-2.95292	2.71501	0.84260	1.86412
16786.131	-2.91663	3.44288	0.61392	1.22851
16790.125	-2.79555	3.70197	-0.02919	1.68652
16794.133	-2.97703	3.09420	-0.66059	0.93987
16798.129	-3.11814	2.73062	0.88828	0.12127
16802.096	-2.86749	2.76665	-0.79928	1.11997
16806.122	-2.95242	2.07219	1.20093	0.50260
16810.131	-2.74918	2.39565	0.37727	1.27678
16814.131	-2.88314	3.98796	0.85203	1.85501
16818.130	-3.08590	4.09956	1.31074	2.19770
16822.153	-2.70555	3.05832	0.87880	1.45429
16826.131	-3.03363	3.49928	0.52969	1.24273
16830.130	-3.04014	2.98844	0.51659	1.44675
16834.146	-2.85140	2.25458	-0.12046	0.85485
16838.153	-3.09634	2.22720	0.54895	0.21444
16842.134	-2.72352	2.41017	1.28070	1.07428
16846.124	-2.81563	2.02554	0.48746	0.71442
16850.123	-2.56830	1.81841	0.74134	0.92773
16854.104	-3.28657	2.76972	0.72074	0.38145
16858.130	-2.66593	2.63962	0.11004	0.91651
16862.131	-3.40573	2.66578	0.72893	0.52928
16866.134	-2.71151	2.29068	1.11001	0.37515
16870.156	-2.88485	2.07400	0.58230	0.77757
16874.134	-3.14023	2.37638	0.28299	0.67780
16878.097	-2.75611	2.74656	0.76439	0.72149
16882.133	-3.03309	3.05302	0.67972	1.01988
16886.126	-3.04959	2.71643	0.49624	1.10014
16890.100	-2.68816	3.00760	0.56841	-0.34757
16894.132	-1.62264	4.68994	0.61545	1.79958
16898.132	-2.13031	6.35881	0.92718	3.90679
16902.098	-1.24205	5.47558	1.89915	4.06888
16906.134	-0.77476	4.35318	2.10515	1.48507
16910.135	-1.44376	4.94323	1.53101	3.04645
16914.136	-1.26773	6.41443	2.74690	3.16980
16918.125	-0.98660	5.52817	1.23064	2.79185
16922.131	-1.01940	6.13685	2.57640	3.25816
16926.134	-0.95016	7.42109	2.84058	3.25008
16930.115	-1.01724	6.05434	1.75545	3.91121
16934.132	-0.91927	6.22522	1.82509	3.60471
16938.130	-0.85210	6.21965	2.95653	3.78092
16942.132	-0.95996	6.24378	2.02631	4.03464
16946.128	-0.93237	6.12146	1.28162	4.53735
16950.126	-0.72930	6.13236	2.78750	4.17813
16954.135	-0.81523	6.20967	2.19152	4.90376
16958.134	-0.68558	5.93074	1.47201	4.87679
16962.134	-0.92559	6.03659	2.85294	4.88575
16966.132	-0.83032	6.07689	1.84019	4.91383
16970.134	-0.74886	6.05379	2.49146	7.63722
16974.129	-0.94718	5.87306	2.97230	5.13069
16978.133	-0.74556	6.05908	3.19608	2.21940
16982.132	-0.82540	6.23797	1.74313	3.21781
16986.134	-0.41911	6.44097	1.27519	2.68014
16990.134	-0.51925	5.61257	3.03148	4.34709
16994.134	-0.79712	5.45275	2.78443	5.38038
16998.162	-0.68982	5.06526	0.69087	5.63601
17002.097	-0.74727	5.13915	3.34591	3.81707
17006.137	-0.66317	5.16724	3.24889	2.47239
17010.138	-0.45383	6.14806	3.12393	2.98427
17014.139	-0.61665	6.62753	1.07527	3.52423
17018.133	-0.33575	6.27668	3.49310	5.57141
17022.130	-0.35831	4.83024	3.33572	4.33229
17026.135	-0.38794	4.85142	3.32075	2.10885
17030.127	-0.48661	4.88128	2.29049	2.37235
17034.133	-0.38231	4.43949	3.15068	3.66367
17038.135	-0.27039	4.77348	1.20973	4.64608
17042.134	-0.77352	6.19362	1.19252	4.43552
17046.125	-0.35777	6.51844	1.03220	5.04287
17050.134	-0.42266	5.72536	3.27804	4.54937
17054.121	-0.41048	5.57573	3.04984	3.79176
17058.124	0.01367	6.01980	2.06902	3.77984
17062.133	-0.43825	6.37531	2.40915	3.98945
17066.135	-0.33722	6.47474	3.21607	3.42820
17070.136	-0.35943	5.86410	2.57288	3.68561
17074.136	-0.23822	6.29534	1.60114	3.77586
17078.133	-0.57774	6.43973	2.24785	4.17650
17082.134	-0.06204	6.42786	2.25166	4.61167
17086.136	-0.41447	6.12397	2.95532	4.36261
17090.138	-0.42023	6.30247	2.07616	4.57529
17094.164	-0.34037	6.64565	3.91576	4.46389
17098.134	-0.66962	6.62965	2.79104	4.94862
17102.138	-0.15283	6.34064	2.69799	6.13413
17106.137	-0.42070	6.53642	2.53350	6.32721
17110.134	-0.68007	6.03825	2.90369	3.97593
17114.142	-0.85389	5.76478	2.64089	4.53913
17118.136	-0.68791	5.09026	2.96827	2.32637
17122.136	0.13962	4.99344	2.76007	2.14650
17126.136	-0.79749	5.73931	2.40265	3.82412
17130.134	-0.84094	5.05781	2.30769	4.19107
17134.140	-0.63379	5.09313	2.85997	4.24669
17138.136	-0.64953	4.72140	2.51195	4.27130
17142.157	-0.33963	4.74127	2.52441	4.37486
17146.136	-0.61972	4.95871	2.58601	4.92798
17150.138	-0.07420	4.89191	1.89040	5.31123
17154.139	-0.51446	4.97007	2.88215	6.13447
17158.162	-0.38243	4.83077	3.13019	4.63343
17162.135	-0.21423	4.89143	2.61323	4.87184
17166.137	-0.46986	5.22082	2.22267	3.18977
17170.140	-0.37271	5.35693	3.20822	3.11688
17174.132	-0.59039	5.68600	3.21374	4.62998
17178.137	-0.48619	5.50860	3.10203	2.57175
17182.137	-0.15327	5.27583	2.39284	3.33661
17186.137	-0.62694	5.57646	2.32741	3.17853
17190.128	-0.35936	5.83668	1.93742	3.83353
17194.135	-0.56580	6.13528	2.59998	4.00641
17198.135	-0.22557	6.02695	3.46296	4.65098
17202.099	-0.42192	6.47060	3.28877	5.95875
17206.128	-0.38139	6.15101	2.64978	6.12185
17210.137	-0.52044	5.69187	3.74669	3.55648
17214.145	-1.62929	5.80994	3.77431	3.52611
17218.138	-0.03653	5.36246	3.17463	2.68351
17222.131	-0.44271	5.13450	2.49317	3.29928
17226.151	-0.28960	5.38592	2.28593	3.95128
17230.135	-0.50468	5.32844	3.75274	4.16093
17234.137	-0.29932	5.31889	2.18580	4.70655
17238.135	-0.49168	5.04471	3.43852	5.65429
17242.139	-0.65260	5.11996	3.50069	6.02091
17246.139	-0.53706	5.72008	2.04513	5.29457
17250.137	-0.56684	5.14905	3.50173	5.11907
17254.128	-0.35928	4.90876	3.17374	3.97608
17258.138	-0.48418	5.07790	2.90411	6.29297
17262.126	-0.41792	5.12469	2.63319	5.57966
17266.097	-0.63238	5.07686	2.03048	5.27248
17270.104	-0.39293	5.31738	3.29676	5.09433
17274.138	-0.66302	5.91130	2.41660	5.07849
17278.140	-0.96576	5.76672	2.94577	3.06516
17282.136	-2.14317	4.98010	-0.57220	4.28576
17286.131	-3.11480	5.22870	0.27930	4.80163
17290.138	-5.48787	5.21994	-2.29770	4.73504
17294.140	-5.50117	4.90662	-2.30340	2.45885
17298.140	-5.51959	5.02648	-2.71461	1.89481
17302.143	-5.69010	3.80535	-0.77064	3.76237
17306.138	-5.80857	4.47119	-0.06190	1.69471
17310.138	-5.90477	4.44414	-2.41383	0.63423
17314.143	-5.91791	3.60120	-2.26690	0.46371
17318.140	-5.71645	2.81516	-0.69402	3.51952
17322.141	-5.71736	3.59361	-0.30910	1.95961
17326.139	-5.71266	3.70355	-1.75324	1.65173
17330.141	-5.68258	3.53112	-2.34151	0.17271
17334.105	-5.74337	2.85000	-2.14607	1.50786
17338.138	-5.55915	4.04868	-2.85428	4.31071
17342.140	-5.66882	3.78013	-2.24299	3.71310
17346.122	-5.87312	2.76442	-2.15509	3.76347
17350.144	-5.66501	2.49709	-2.49320	1.58886
17354.139	-5.65531	2.10525	-2.07365	1.16614
17358.137	-5.64543	3.31636	-2.11425	1.77027
17362.137	-5.71613	3.85279	-3.32521	1.78374
17366.130	-5.72035	3.02006	-0.62332	4.34633
17370.139	-5.65845	2.31791	0.16265	2.22024
17374.139	-5.83009	3.53693	-2.07373	2.38873
17378.142	-5.69529	3.55311	-1.75555	1.91647
17382.143	-5.74849	3.39059	-2.30739	1.91447
17386.102	-5.77922	3.37935	-1.88938	2.43853
17390.136	-5.76035	3.79346	-1.88995	2.30951
17394.142	-5.70762	3.75149	-3.68574	1.90290
17398.144	-5.73163	2.68316	-2.19854	2.66494
17402.104	-5.79646	3.59531	-1.24840	3.97843
17406.142	-5.77949	3.52143	-0.70104	1.89454
17410.141	-5.78141	3.78825	-2.10354	2.73185
17414.039	-5.92240	3.10782	-2.39146	5.50058
17418.144	-4.92590	3.55640	-0.43996	3.45028
17422.141	-5.63097	3.89943	-1.79205	3.18061
17426.139	-5.72207	3.78338	-1.72733	2.61426
17430.121	-5.69391	3.68655	-4.06495	3.27422
17434.156	-5.74952	3.23352	-4.55574	2.23761
17438.141	-5.88943	3.21010	-1.44106	3.63583
17442.107	-5.86887	3.22853	-2.34996	3.93590
17446.040	-6.00614	3.49823	-0.87739	3.31372
17450.140	-6.34824	3.25162	-1.62123	3.68423
17454.104	-6.36474	3.25232	-1.58902	3.76089
17458.143	-5.97644	3.14938	-1.68166	4.01798
17462.106	-6.09827	3.09071	-4.66425	2.60375
17466.140	-6.35922	2.98042	-4.71353	3.58226
17470.128	-6.27964	3.34023	-3.03952	3.96194
17474.130	-6.12143	3.55797	-2.66268	3.93092
17478.142	-6.45846	3.39930	-1.21454	4.03509
17482.140	-6.40271	3.27177	-1.18594	5.48936
17486.139	-6.24313	3.15045	-3.24377	2.28623
17490.143	-6.31259	3.40204	-2.73291	1.99856
17494.132	-6.16770	2.77885	-2.48651	4.19388
17498.140	-5.85077	2.95016	-2.89794	4.09839
17502.143	-6.30884	3.41326	-2.36995	4.35954
17506.143	-6.71552	2.76564	-2.58529	3.76186
17510.146	-5.68089	2.72246	-2.98178	4.90754
17514.114	-5.32412	3.53783	-2.67266	3.82849
17518.143	-6.25431	3.19303	-2.88522	4.90198
17522.144	-6.04210	3.11988	-1.43079	5.70326
17526.143	-6.76718	2.98748	-3.01331	3.56535
17530.141	-6.52022	3.28357	-3.04771	3.81847
17534.141	-6.14621	3.44462	-2.95198	5.46831
17538.146	-6.81652	3.13194	-1.86672	3.86462
17542.144	-5.48479	2.82657	-2.91458	3.76035
17546.140	-6.36562	3.27688	-2.35610	3.82499
17550.144	-6.46387	3.21719	-2.80370	4.97433
17554.125	-5.75330	2.78225	-2.64918	3.55566
17558.036	-5.35869	3.01793	-2.34059	4.11255
17562.143	-5.69072	3.14243	-2.77329	4.24098
17566.140	-6.62148	3.12667	-2.47071	3.93832
17570.143	-6.44951	3.63416	-0.15442	4.46884
17574.148	-6.46676	3.06422	-2.57828	5.87927
17578.141	-5.12228	3.12245	-2.37525	4.90887
17582.143	-3.44216	3.85509	-2.52040	3.97699
17586.147	-2.82335	3.20857	1.01228	4.50476
17590.108	-2.39220	3.48498	-0.62943	5.85607
17594.140	-2.05578	3.95994	0.92418	3.88847
17598.137	-1.33148	3.73444	1.18683	4.24175
17602.143	-0.89644	3.37751	1.50901	4.37217
17606.145	-1.10194	3.35591	1.61069	4.08282
17610.145	-1.18237	3.34651	1.91276	4.52204
17614.146	-0.79590	3.36522	1.98259	4.41164
17618.145	-0.50210	3.41836	1.95175	4.40871
17622.148	-0.39080	3.15350	2.26148	4.33886
17626.142	0.52585	2.94992	2.31822	4.31151
17630.143	0.01866	3.18194	2.20661	4.89915
17634.145	0.35881	2.73525	2.35038	4.30756
17638.125	-0.13957	2.88542	2.44566	4.44556
17642.122	-0.72794	2.84837	2.32315	4.60668
17646.105	-0.65518	3.37575	1.98207	4.83868
17650.145	-0.42035	3.50725	1.81545	5.78639
17654.148	0.00067	3.68444	1.02575	4.63299
17658.145	-0.33293	3.83939	1.05168	2.31744
17662.145	0.23299	2.87076	2.02701	2.82130
17666.147	0.57694	2.97472	2.59111	4.37621
17670.046	-0.46249	3.09954	2.79508	5.30049
17674.139	-0.13900	3.43058	2.05893	5.68998
17678.134	-0.37434	3.99422	2.29119	5.32876
17682.136	-0.52600	3.30822	-0.21363	3.31523
17686.148	0.03643	2.95475	1.58125	2.77679
17690.145	-0.39360	3.14062	3.14177	4.53178
17694.144	-0.54659	3.93821	3.08572	5.79266
17698.143	-0.44120	5.44316	2.01461	2.70383
17702.014	-0.63600	2.81473	2.01466	3.13063
17706.145	-0.03805	2.71631	2.38026	4.64507
17710.135	-0.12195	3.00716	1.85532	3.45585
17714.147	-0.30444	2.97322	1.69914	3.98405
17718.153	-0.55007	3.89777	1.62505	4.88221
17722.107	-0.17916	3.11771	0.03708	4.76425
17726.148	-0.06748	2.96979	1.27740	2.79416
17730.146	-0.25788	3.01734	1.80697	2.34410
17734.147	-0.46765	3.06299	1.82056	3.23495
17738.146	-0.37618	3.61244	2.03657	3.75401
17742.147	-0.40157	4.39257	4.18005	4.54672
17746.144	-0.00891	5.02773	2.56327	4.99270
17750.044	-0.26093	3.33899	1.05863	6.02586
17754.145	-0.24182	3.10543	0.56647	4.69070
17758.031	-0.29471	2.22109	0.43954	5.16485
17762.020	-0.35782	2.86663	0.65824	1.89575
17766.046	-0.71546	2.89286	0.80672	3.22356
17770.014	-0.04782	3.31418	2.28997	2.44197
17774.019	0.33342	3.54588	1.33572	3.19309
17778.021	0.20102	3.55896	2.36621	3.58769
17782.014	0.14211	4.22616	2.22540	3.49276
17786.021	0.02492	4.51003	2.35474	3.49309
17790.020	-0.32230	4.41210	2.09296	5.05874
17794.019	0.08560	3.85256	2.52654	5.17296
17797.990	0.26547	4.32541	4.10048	4.93865
17801.984	0.02708	4.40775	2.21420	5.65477
17806.022	-0.09056	4.12989	1.96129	4.92892
17810.023	0.11414	4.22329	1.75694	5.16988
17814.043	-0.19688	3.85108	1.72282	5.00159
17818.024	-0.06058	3.86342	4.09263	3.95310
17822.022	0.01422	3.16611	1.89662	4.26005
17826.021	0.06018	3.54725	1.82790	1.97494
17830.046	0.07247	4.07936	1.68964	2.14501
17834.050	0.02194	3.87129	1.50425	5.65159
17838.022	-0.59454	3.47136	1.51040	5.31121
17842.022	-0.26830	4.48385	1.92555	4.89076
17846.047	-0.37539	3.46226	1.69793	4.67849
17850.025	-0.07564	3.36217	1.60285	2.81292
17854.011	-0.37050	4.39378	1.81287	4.57185
17858.021	-0.30811	3.92505	2.13440	4.79164
17862.016	0.21423	3.23109	1.87631	3.21515
17866.024	-0.07994	3.61143	1.68389	2.74379
17870.022	-0.01933	4.16954	1.40958	4.98182
17874.020	-0.14593	3.57665	3.57582	5.32526
17878.044	-0.38780	3.20594	1.88643	4.33048
17882.021	0.07537	3.07761	1.73673	3.46525
17886.021	0.89612	3.29531	1.86337	2.87613
17890.022	0.19534	4.63551	2.50251	2.99952
17894.043	0.12391	4.52229	2.23923	5.18896
17898.019	0.02417	4.36501	1.84701	4.96600
17902.023	0.56108	3.41548	2.01850	3.82991
17906.022	0.21105	3.07722	1.82524	2.95127
17910.048	0.17184	3.05255	1.84929	3.03606
17914.023	0.09431	3.04800	1.82108	2.53910
17918.024	-0.07535	2.84445	1.84622	3.01212
17922.021	0.25505	2.62864	2.07794	2.97448
17926.014	0.13570	2.63431	2.40075	2.67918
17930.026	-0.07187	2.77784	2.77312	2.64136
17934.023	-0.09604	3.01494	2.75903	3.00317
17938.023	-0.02708	2.70072	3.18789	3.15311
17942.022	0.23743	2.62177	-0.49282	4.13852
17946.024	-0.01834	2.76919	0.11389	4.29525
17950.024	0.06177	2.47175	-0.28054	4.59862
17954.025	0.39586	2.63862	0.58545	3.21326
17958.022	0.26140	2.56679	2.90911	4.92811
17962.052	-0.46078	2.54657	1.88427	3.86487
17966.027	-0.76409	2.67316	-0.17794	3.15185
17970.037	-2.73132	3.00408	-0.27461	3.24712
17974.048	-2.37496	2.68438	-0.48227	2.63462
17978.018	-2.80290	2.83158	-0.72154	3.10660
17982.026	-3.53906	2.78604	-0.74126	3.14615
17986.026	-3.38088	3.02574	-1.00318	3.61588
17990.047	-3.60917	3.19784	-0.97375	4.27740
17994.025	-3.54662	3.04485	-0.92614	5.38677
17998.024	-3.46387	3.23229	-1.15148	5.46968
18001.986	-3.26022	2.94327	-0.90756	2.41676
18006.047	-3.50479	2.86480	-1.31654	2.93400
18010.027	-3.26898	2.80783	-1.08691	2.73263
18014.025	-3.43197	2.76797	-1.28889	3.36348
18018.012	-3.39448	2.86521	-0.22574	4.00234
18021.990	-3.40190	3.01118	-0.96368	5.55498
18026.024	-3.29040	3.32325	-1.91424	2.39501
18030.024	-3.31197	3.27424	-0.78895	1.39763
18034.025	-3.00782	2.91178	-1.34532	2.73031
18038.047	-3.10869	3.00945	-0.75985	3.32152
18042.025	-2.77074	2.64984	-0.82798	3.42858
18046.028	-2.93304	2.80276	-0.99834	4.23252
18050.028	-2.87891	2.93457	-1.01122	4.19618
18054.048	-2.56664	2.85988	-0.87932	4.08398
18058.014	-2.52406	2.78826	-1.14826	3.28348
18062.027	-2.49208	3.24105	-1.33931	3.09268
18066.025	-3.16203	3.33652	-0.67699	2.22987
18070.048	-2.74866	2.86592	-0.60007	0.85897
18074.028	-2.56297	2.68692	-1.69879	3.72930
18078.024	-2.75920	2.69573	0.41715	4.01309
18082.062	-2.96020	3.53140	-0.58689	3.00049
18086.051	-3.32244	2.52445	-1.15141	2.88205
18090.028	-2.73784	2.67740	-1.79634	1.40775
18094.032	-2.01308	2.35067	-1.15096	3.60393
18098.025	-3.49970	2.90772	-0.92411	4.11334
18102.025	-3.53748	3.41619	-0.76367	3.50961
18106.028	-2.93891	2.80388	-2.75175	2.90778
18110.025	-3.26359	2.85843	-1.44007	4.04184
