time (ms)	lx (deg)	ly (deg)	rx (deg)	ry (deg)
0.000	-0.01648	4.00956	1.20668	2.52893
3.998	0.07924	4.15088	1.35861	2.79350
7.998	0.36365	4.28591	1.13496	2.65502
11.905	0.36434	4.22831	1.50512	2.91498
15.989	-0.06999	4.47609	1.10983	2.80940
19.996	-0.12208	4.39052	1.53557	3.14685
23.958	0.03189	4.40980	1.29105	3.27011
27.987	0.22837	4.36261	1.45465	3.08861
31.994	0.23691	4.40406	1.86015	3.44579
35.996	0.61744	4.59167	2.32404	3.03631
39.997	0.54339	4.45871	2.56220	3.06457
43.999	0.05892	4.76028	2.52688	3.03710
47.998	0.37102	4.73935	1.26361	2.83073
51.998	-0.00325	4.68379	1.13412	2.73179
56.000	-0.00556	4.70075	0.93830	2.27818
60.002	0.31741	4.66708	1.69797	2.34667
63.997	0.16422	4.65396	1.71910	2.06667
67.996	0.17151	4.67513	1.60310	1.81128
71.960	0.50761	4.86278	1.36089	1.86978
75.999	0.54647	4.83142	1.94615	1.97044
79.998	0.30868	4.72837	1.39299	1.92802
83.998	0.02722	4.69786	1.84937	1.85516
87.998	-0.38474	4.81512	1.32986	1.80602
91.890	0.18390	4.93964	1.17136	1.59926
96.000	-1.40911	4.90726	1.15421	1.60295
99.984	-2.75153	4.79645	1.10060	1.32137
103.989	-2.14850	4.67316	0.91981	0.52992
108.005	-1.95430	4.74615	1.21799	0.57831
111.995	0.01464	4.59546	0.84652	0.64456
115.999	-1.82378	4.62755	0.66769	0.26679
119.996	-1.73482	4.59043	0.66166	-0.30990
123.897	0.38340	4.45853	0.60344	0.28582
127.999	0.10123	4.51219	0.55930	-0.02306
132.001	-0.25860	4.28546	0.59761	0.00070
135.999	-0.61531	4.28859	0.57627	0.09629
139.897	-1.04166	4.22355	0.27230	-0.03471
143.963	-1.05967	4.22923	0.45569	-0.05765
147.999	-1.25280	4.19289	0.40852	0.03864
151.996	-1.06488	4.09228	0.16990	0.02413
155.895	-1.27058	-2.44548	-0.30051	-0.02405
159.998	-1.34730	-1.91254	0.08954	-0.42591
163.996	-1.09517	-2.00950	-0.01770	-0.43177
167.999	-2.01218	3.33823	-0.28175	-0.64351
171.895	-2.94557	3.38285	-0.16948	-0.27319
175.960	-3.18188	3.19156	0.02770	0.00554
180.003	-2.83113	3.21434	0.01722	0.20441
183.979	0.61938	2.92246	0.36896	2.19224
187.897	1.09490	2.97294	0.11225	0.59223
191.998	1.14084	2.92703	0.26927	0.76490
195.998	0.89800	2.85424	0.49991	0.76920
200.003	0.92356	2.98477	1.37917	0.98692
204.002	1.07756	9.32652	0.91897	0.93390
207.998	0.86024	2.83115	0.96157	1.31880
211.998	1.35702	9.25672	0.21733	1.41864
215.999	0.81798	9.16036	0.83515	1.19204
219.896	0.92837	9.15901	0.39618	1.29392
223.988	0.82888	9.14506	0.40733	1.59752
227.961	0.50150	9.06151	0.09451	1.27249
232.000	0.64397	9.18306	0.14253	1.77559
235.865	0.58114	9.23522	-0.17841	1.81191
239.998	0.71352	9.14096	0.11131	1.81926
244.001	0.45914	9.06901	0.17015	1.71132
248.000	-0.79017	8.75576	-0.02477	1.81455
251.895	-0.42944	3.14358	-0.10113	1.85632
255.998	-0.02904	3.16011	-0.17549	1.83438
260.001	-0.14347	3.11670	-0.14153	1.86585
264.000	-1.31942	3.05904	-0.14568	1.80931
267.881	-0.82843	2.96877	-0.27443	1.62220
272.004	-0.73022	2.69512	-0.20586	1.74252
276.002	-1.94959	2.55497	-0.63471	1.42832
280.002	-1.52399	2.41278	-0.37407	1.48236
283.900	-1.85356	3.10136	-0.76734	1.05811
288.002	-1.62988	3.12575	-0.50336	0.93498
291.961	-1.92746	3.07303	-0.62866	-0.93647
295.999	-1.90051	3.03952	0.02718	-1.17776
300.002	-2.06024	2.88592	-0.50910	-0.83683
304.002	-2.06347	2.60632	0.67278	-1.35542
307.986	-1.64275	6.71683	-0.83622	-0.48313
311.999	-2.47187	6.60237	-1.27792	0.35214
315.902	-2.90854	6.62557	-0.90579	0.59002
320.003	-2.82244	6.80766	-1.10050	0.68071
323.963	-3.09495	6.86109	-1.30553	0.29319
328.003	-3.16611	6.85302	-1.12462	0.24454
331.903	-3.25666	6.86357	-1.31461	0.30814
336.002	-2.14047	2.59556	-1.40755	-0.08260
340.001	-3.53075	7.05450	-1.44557	0.22961
344.003	-1.67117	6.91328	-1.43305	0.23030
347.900	-1.99297	2.88775	-0.72059	-0.48915
351.997	-1.59484	3.36694	-1.50584	0.33746
355.961	-0.83756	6.96546	-1.41286	-0.82722
360.001	-2.81858	2.79730	-0.35516	-1.41072
363.854	-2.40347	3.17001	-0.44371	-1.06545
367.876	-2.45042	2.99377	-0.93453	-0.87990
371.875	-2.90569	2.89616	-0.44323	-1.21908
375.875	-2.68348	3.08365	-0.07341	-0.65152
379.875	-2.46290	3.12364	-0.47748	-1.16667
383.875	-2.61191	2.94394	-0.33424	-1.09815
387.876	-2.65352	3.13651	-0.09227	-1.08943
391.878	-2.13294	3.03193	-0.05234	-1.28006
395.867	-1.86112	2.98411	-0.30401	-1.29694
399.866	-2.23615	3.00354	-0.20033	-1.26739
403.881	-1.97044	3.08139	0.03718	-1.21333
407.875	-2.47972	3.05864	-0.19497	-1.32250
411.898	-1.98839	3.20293	0.05425	-1.37998
415.878	-1.94764	3.18459	0.10294	-1.19860
419.877	-1.73435	3.19799	0.13399	-1.27994
423.877	-1.94947	3.23972	0.52051	-1.30855
427.876	0.77568	6.60912	0.30322	-1.33533
431.879	-1.78800	3.19976	0.38968	-1.37674
435.879	-1.66953	3.22900	0.56386	-1.34281
439.851	-1.73430	3.30405	0.65997	-1.23220
443.876	0.48850	6.36147	0.63714	-1.09858
447.875	1.02732	6.60158	0.89800	-1.17977
451.878	1.54113	6.31672	0.94641	-1.31843
455.876	1.15672	6.44280	1.63090	-1.32570
459.869	-1.24498	6.37331	0.97033	-0.96740
463.876	1.65019	6.23528	1.19185	-0.75789
467.835	-1.02943	3.52772	0.97986	-0.91506
471.878	-1.33041	3.86256	1.04225	0.01245
475.899	-1.39512	3.97451	0.90577	-0.22381
479.863	0.93413	4.13926	0.88835	-0.02097
483.838	0.92485	4.14861	0.94790	1.02818
487.880	-2.59232	4.07715	0.80141	1.24145
491.877	-3.17596	4.18340	0.75588	1.01802
495.876	-3.30277	4.19818	0.55997	0.56314
499.840	-3.33881	4.04425	0.70826	0.64409
503.880	-3.23739	4.12229	0.73672	1.11405
507.902	-3.30935	3.98962	0.67848	1.41043
511.881	-3.08993	3.97523	0.84530	1.80221
515.883	-3.25820	3.79602	1.04967	1.48443
519.879	-3.28872	3.77407	0.97608	1.83102
523.869	-3.16092	3.44413	0.93686	1.58560
527.879	1.31863	3.50503	1.01422	1.32707
531.878	-3.12178	3.30233	1.01717	1.12847
535.879	1.51057	3.41666	1.44222	0.88160
539.869	-3.05100	3.75712	1.25401	0.83306
543.879	-3.01188	3.94937	1.24568	1.52673
547.841	-1.81037	5.27882	1.37223	1.58323
551.880	-0.30781	4.60214	1.76832	1.27759
555.878	-1.60975	4.63137	1.41035	0.57089
559.878	0.68647	4.87106	-1.42399	-0.19419
563.859	0.60729	4.30160	-1.54482	-0.44932
567.880	0.05299	4.22928	-1.07431	-0.81535
571.904	-0.31972	4.48378	-0.35826	-1.14669
575.880	0.23934	4.42715	-2.27830	0.88674
579.878	-0.62764	4.41164	-2.25352	0.54095
583.881	-1.36843	4.47618	-2.15623	0.09302
587.900	-1.29246	4.66760	0.49284	-1.10938
591.881	-1.20080	4.37334	-0.53910	0.14337
595.881	-1.48719	4.26317	-0.69958	0.42518
599.881	-1.07919	4.28682	-0.29912	-0.02950
603.878	-1.30675	4.20422	-0.67799	-0.09430
607.842	-0.97963	4.05674	-0.39931	0.32710
611.880	-0.68449	3.98866	-0.37933	0.08347
615.880	-0.90197	3.94381	-0.43217	-0.18075
619.839	-0.83850	3.73576	-0.19303	-0.15488
623.880	-0.50014	3.63716	-0.29600	-0.49075
627.880	-0.27984	3.52555	-0.18611	-0.35998
631.881	-0.64925	3.69737	-0.25225	0.16480
635.870	-0.46202	3.42382	-0.15821	0.38041
639.886	-0.59203	3.36566	0.30553	0.46754
643.882	-0.66990	3.51463	0.19030	0.30492
647.847	-0.61307	3.22496	1.61352	0.19019
651.877	-0.01568	3.17936	0.38601	0.57463
655.880	-0.50312	3.12026	0.41068	0.54864
659.883	0.03953	3.00303	0.65245	2.28045
663.881	-0.38909	3.14268	0.17025	1.67961
667.902	-0.35886	2.75427	1.46564	1.42662
671.882	-0.60022	2.45463	1.54810	1.59375
675.843	-0.42405	2.19431	1.11606	1.50575
679.846	-0.71419	2.30359	1.70779	1.08276
683.881	-1.64129	2.88417	1.63839	0.93208
687.882	-1.81592	2.84513	1.49959	0.74073
691.880	-2.57288	2.73319	-0.31866	0.45778
695.884	-1.67286	2.43001	-0.22718	0.37191
699.875	-1.44391	2.69448	0.50470	0.55584
703.887	-1.00881	2.65929	0.69335	0.45900
707.880	-1.59306	3.08153	0.79426	-0.00937
711.885	-1.85361	2.88796	0.47004	-0.13925
715.879	-1.50886	2.68593	1.35214	-0.70044
719.880	-1.60737	2.73366	0.17288	-0.21691
723.883	-1.35606	2.83801	0.57592	0.09233
727.880	-1.50775	2.82429	0.41244	-0.04321
731.906	-1.28837	2.82609	0.47929	-0.11105
735.883	-1.20174	2.83330	0.36037	0.04592
739.882	-1.09663	2.90725	0.97628	0.13469
743.884	-1.16104	3.04891	0.79781	0.07213
747.881	-1.21514	3.17927	0.66727	0.52427
751.883	-0.96068	3.21315	0.90148	0.86483
755.885	-1.08867	3.22887	1.31037	1.09260
759.885	-0.94202	3.25807	1.41573	1.09180
763.904	-0.92081	3.32539	1.62163	1.04239
767.887	-0.83163	3.34595	1.86042	1.07279
771.884	-0.66265	3.44304	1.42461	0.96055
775.899	-0.57367	3.50276	1.28502	1.06022
779.886	-0.52994	3.41433	1.42518	1.14601
783.883	-0.30091	3.48172	1.78659	1.09084
787.881	-0.34293	3.23140	1.91251	1.09394
791.843	-0.15208	3.41407	1.71313	0.94076
795.875	-0.15263	3.15815	1.71052	1.01068
799.882	0.01003	3.17694	1.78895	0.68833
803.889	0.12476	2.99256	2.09603	0.69242
807.884	0.11788	3.14799	2.18441	0.52189
811.883	0.36248	2.85000	1.84976	0.02069
815.875	0.32270	2.81020	2.07982	-1.24874
819.884	0.70652	2.66699	1.59906	-0.31521
823.887	-0.60595	3.87337	2.33281	0.46741
827.878	-0.28999	3.60245	2.05611	0.48488
831.884	-1.40532	3.44976	2.46907	0.87138
835.882	-1.15213	4.66977	2.10734	0.67663
839.845	-1.32726	3.52153	2.87512	0.63196
843.875	-2.17157	4.07244	2.93267	0.43994
847.885	-1.77067	4.12855	0.94043	0.34533
851.884	-1.91412	3.87175	0.60918	-0.60467
855.856	-1.74526	4.03789	1.47268	-0.26910
859.882	-1.49356	2.09644	1.21578	-1.49112
863.884	-1.46705	2.08059	1.46908	-1.52336
867.884	-1.19968	2.64021	1.53386	-1.38758
871.885	-1.28866	3.00576	1.70965	-1.53470
875.883	-1.48860	2.98428	1.65736	-0.86743
879.887	-1.29100	3.56528	1.62973	-0.79363
883.884	-1.03357	2.80969	1.79073	-1.08706
887.882	-0.85875	2.91254	1.53399	-0.76869
891.890	-1.02327	3.75058	1.51896	-0.65993
895.866	-0.93760	2.93121	1.60566	-0.19136
899.881	-1.06786	3.41760	1.70336	-0.22973
903.889	-0.87902	3.41702	1.64908	-0.36311
907.910	-0.70873	3.07718	1.87431	0.42533
911.883	-0.85304	3.27613	1.59425	0.20686
915.884	-0.71518	3.18637	1.83077	0.08968
919.846	-0.64312	3.19650	1.65074	0.38937
923.886	-0.64069	3.40785	1.64238	0.36535
927.885	-0.73307	3.48057	1.58247	0.24445
931.884	-0.58305	3.13067	1.74965	0.34946
935.883	-0.60563	3.35434	1.97359	0.21874
939.875	-0.63402	3.44529	1.85229	0.36163
943.887	-0.65027	3.32806	1.82990	0.61955
947.884	-0.54937	3.01872	1.92307	0.39418
951.885	-0.58518	3.07753	2.17135	0.17126
955.887	-0.49972	2.93065	1.42861	0.29904
959.886	-0.49545	2.97593	1.80883	-0.11266
963.886	-0.58190	3.17655	1.31101	0.02350
967.886	-0.57818	2.84612	1.84061	-0.75538
971.888	-0.50570	2.83324	2.31051	-0.00156
975.887	-0.58503	3.12804	2.56805	-1.21372
979.886	-0.42274	2.96456	2.24175	-0.17699
983.848	-0.38340	2.95892	2.80635	-0.07463
987.895	-0.39355	2.61729	2.30449	-0.73967
991.885	-0.35913	3.17947	2.28358	0.28112
995.888	-0.10203	3.08283	3.01150	2.67250
999.885	-0.23842	3.12570	1.99907	3.04236
1003.884	-0.11550	3.07178	2.55373	2.97898
1007.883	-0.28421	3.23588	2.85311	3.18669
1011.888	-0.18998	3.18494	2.76822	2.95520
1015.887	-0.27900	3.31843	2.71146	2.91936
1019.858	-0.21346	3.22519	2.69368	3.08991
1023.887	-0.29838	3.37890	2.49508	3.08012
1027.849	-0.65794	3.41593	2.38544	3.21238
1031.890	-0.30168	3.40103	2.68571	2.99639
1035.877	-0.05993	3.08058	2.58427	3.09147
1039.888	-0.12875	2.80481	2.83925	2.92279
1043.887	-0.42301	3.09723	2.65864	2.93026
1047.849	-0.58870	3.24330	2.68504	2.88380
1051.852	-0.42217	2.90416	2.27966	4.64387
1055.889	-0.24894	2.57098	1.81416	3.12486
1059.888	-0.40144	2.32140	1.48580	3.93900
1063.890	-0.49245	2.03695	1.29328	3.49717
1067.886	-0.83220	2.33260	1.38086	3.47858
1071.892	-0.55064	2.40631	1.33753	3.04697
1075.890	-1.16816	2.61941	1.89855	3.43297
1079.890	-0.93579	2.35820	2.94589	3.28745
1083.892	-1.02062	2.40048	1.99880	3.34071
1087.890	-1.01819	4.34101	1.42551	3.12105
1091.885	-0.74044	4.38184	1.98085	4.70442
1095.888	2.36415	5.32859	9.63515	3.13802
1099.786	0.98598	11.05488	5.47259	4.75927
1103.869	NaN	NaN	NaN	NaN
1107.886	NaN	NaN	NaN	NaN
1111.891	NaN	NaN	NaN	NaN
1115.885	NaN	NaN	NaN	NaN
1119.890	NaN	NaN	NaN	NaN
1123.888	NaN	NaN	NaN	NaN
1127.884	NaN	NaN	NaN	NaN
1131.884	NaN	NaN	NaN	NaN
1135.885	NaN	NaN	NaN	NaN
1139.888	NaN	NaN	NaN	NaN
1143.885	NaN	NaN	NaN	NaN
1147.881	NaN	NaN	NaN	NaN
1151.885	NaN	NaN	NaN	NaN
1155.886	NaN	NaN	NaN	NaN
1159.885	NaN	NaN	NaN	NaN
1163.885	NaN	NaN	NaN	NaN
1167.889	NaN	NaN	NaN	NaN
1171.889	NaN	NaN	NaN	NaN
1175.890	NaN	NaN	NaN	NaN
1179.857	NaN	NaN	NaN	NaN
1183.854	NaN	NaN	NaN	NaN
1187.860	NaN	NaN	NaN	NaN
1191.888	NaN	NaN	NaN	NaN
1195.889	NaN	NaN	NaN	NaN
1199.853	NaN	NaN	NaN	NaN
1203.889	NaN	NaN	NaN	NaN
1207.887	NaN	NaN	-2.74180	5.34627
1211.891	NaN	NaN	NaN	NaN
1215.792	NaN	NaN	NaN	NaN
1219.889	NaN	NaN	NaN	NaN
1223.890	20.59606	6.54133	NaN	NaN
1227.878	10.70246	4.54701	NaN	NaN
1231.787	18.96378	8.64591	8.99336	4.56062
1235.852	0.79856	0.71940	10.47364	4.46613
1239.860	1.23727	1.45486	17.64545	4.50082
1243.890	3.08924	2.43916	13.66353	1.26702
1247.793	10.15865	8.69121	9.04190	2.97202
1251.891	8.95230	8.09130	10.76415	3.30862
1255.890	6.79838	6.55698	11.67106	1.79802
1259.888	12.63000	4.47212	11.54690	2.02498
1263.790	10.80915	5.82120	6.78174	2.80627
1267.890	6.66839	5.49587	3.87448	3.54662
1271.853	6.47465	4.85346	4.86719	0.30102
1275.890	4.85945	5.24565	6.45833	3.03177
1279.789	3.89315	5.21297	3.14684	-2.21488
1283.891	3.10265	5.53627	1.81027	-2.48966
1287.890	3.19241	5.49430	6.13247	3.62490
1291.850	3.08223	5.72198	5.60890	3.55492
1295.790	2.76723	5.76739	6.66053	4.11260
1299.893	3.03133	5.84504	4.68425	2.96542
1303.893	1.11931	6.37696	5.55902	3.31608
1307.857	1.33852	6.25904	5.51322	3.21430
1311.795	1.58212	6.85167	5.56355	3.35954
1315.887	2.07856	2.42948	5.13774	3.14384
1319.892	1.99426	3.00649	5.45132	3.35534
1323.894	2.56047	2.25158	4.55006	4.00966
1327.897	2.00467	2.40289	5.09707	3.94122
1331.893	1.90455	2.47693	4.77446	3.31221
1335.891	2.19083	2.56940	4.81567	3.60683
1339.891	1.85519	2.73397	4.86953	4.06636
1343.793	1.92751	2.86428	3.63060	3.05310
1347.886	2.03789	3.13480	3.44550	2.77038
1351.888	2.00847	3.38877	3.02170	2.99002
1355.888	5.51543	2.74583	4.37145	2.86032
1359.789	4.18317	5.63287	3.21431	5.60338
1363.893	2.64691	7.89096	2.44118	1.90692
1367.894	0.99968	8.12991	2.47556	6.12935
1371.894	2.08520	7.86405	2.04215	9.90385
1375.791	0.76749	7.69176	1.81198	4.93711
1379.893	0.46810	7.84382	2.15103	6.63482
1383.892	0.45177	8.37388	1.72121	6.81358
1387.892	0.39797	7.97105	1.99275	6.76573
1391.793	0.61064	8.15478	1.52642	6.58347
1395.871	0.49009	8.77328	1.33661	7.13959
1399.891	-0.61270	8.11158	1.40809	7.81500
1403.758	-0.43383	8.76660	1.55380	7.74294
1407.791	-0.68283	8.91699	1.59960	7.65972
1411.766	-0.46098	8.66919	1.68277	8.64226
1415.768	-1.00980	8.92682	1.59457	8.31934
1419.769	-1.13251	8.81808	1.48949	9.49941
1423.732	0.16122	8.60101	2.04684	9.28384
1427.767	-0.96757	8.96219	2.23003	8.83500
1431.770	-0.58560	9.04249	2.02364	8.88875
1435.769	-0.66784	9.01853	2.38999	9.30182
1439.896	-0.83022	8.90360	2.14099	9.29287
1443.742	-0.33791	9.00576	2.15001	9.11340
1447.768	-0.35077	8.86229	1.85591	8.12539
1451.731	-0.52458	8.86648	1.69207	8.74380
1455.766	0.05465	8.86531	1.97689	8.50374
1459.769	-0.13305	8.94875	1.36710	7.66185
1463.767	-0.03063	8.97981	-0.71104	8.57010
1467.770	-0.51128	9.00460	2.21016	7.24409
1471.797	0.23897	8.89632	2.58182	7.22670
1475.768	-0.68814	9.10015	1.68796	6.47439
1479.771	4.90967	9.19076	2.53796	7.13067
1483.748	4.61936	9.54834	2.22210	7.18743
1487.738	3.78847	9.17120	2.56711	7.32481
1491.770	-0.28952	8.28796	2.19925	8.09107
1495.770	0.26153	7.58108	2.32211	6.97059
1499.768	0.30282	7.33404	2.42029	7.90178
1503.767	-0.32409	7.55547	2.31356	7.26733
1507.771	-0.48257	8.06957	2.84551	11.08802
1511.770	-0.56396	9.52770	2.40917	11.05172
1515.768	-0.34010	9.23485	2.36059	10.31578
1519.797	-0.43926	9.72512	2.16932	9.24793
1523.770	-0.80558	9.57515	2.29632	9.55737
1527.761	-0.31558	9.06158	3.21003	9.54164
1531.768	-1.09941	9.63784	2.64995	9.87274
1535.759	-0.94053	8.78471	2.92859	10.04191
1539.769	-1.15206	8.36663	3.08060	9.99126
1543.770	-0.91532	8.27933	2.46516	9.68893
1547.768	-0.63429	8.41147	2.58551	10.70693
1551.769	-0.43711	8.17660	2.05774	9.63102
1555.770	-0.65645	8.71638	2.11410	9.93603
1559.772	-0.76573	8.37617	2.05162	9.84240
1563.770	-1.01896	8.62686	2.91634	10.00378
1567.764	-0.72295	8.48308	2.60220	10.07470
1571.769	-0.24103	8.19285	2.88985	10.16250
1575.775	-0.37499	8.31665	2.97200	9.76406
1579.768	-0.40529	8.25413	2.53828	9.75142
1583.760	-0.30684	8.17362	2.61511	9.74698
1587.769	-0.21482	8.04529	2.72521	9.89812
1591.734	-0.44532	8.27117	2.70064	9.71010
1595.770	-0.49093	8.24228	2.61464	9.42686
1599.771	-0.47582	8.20771	2.52092	9.49276
1603.772	-0.44994	8.10027	2.47777	9.52516
1607.739	-0.28200	8.15402	2.61771	9.25485
1611.768	-0.19675	8.12317	2.53392	8.85800
1615.761	-0.17442	8.18064	2.45614	8.37945
1619.769	-0.12781	8.49824	2.43630	8.27239
1623.771	-0.28485	8.70613	2.37082	6.48511
1627.774	-0.24001	8.74811	2.31869	6.34344
1631.769	-0.42710	9.02034	2.31552	6.38757
1635.769	-0.46626	8.70197	2.28913	6.37052
1639.773	-0.17127	8.61483	2.21321	6.28179
1643.771	-0.21807	8.74965	2.36423	6.49615
1647.771	-0.18782	8.83417	2.52020	6.39446
1651.774	-0.43703	8.81310	3.06667	7.47729
1655.734	-2.39549	8.82058	2.34357	7.25940
1659.773	-2.70978	8.78857	2.00207	7.32829
1663.769	-3.72019	8.38613	1.37535	6.19902
1667.773	-5.31834	8.72039	0.61689	5.75768
1671.734	-2.97661	8.63209	-0.98048	6.86561
1675.773	-3.88777	8.39044	-0.23438	9.78670
1679.737	-3.14004	8.14624	-1.66462	7.14391
1683.771	-3.57394	8.03503	-1.78771	7.44749
1687.773	-3.02794	7.59342	-1.62815	10.14814
1691.771	-2.95616	6.83402	-1.64491	10.11108
1695.742	-2.90388	6.84735	-1.64741	9.95806
1699.772	-2.68962	6.65043	-1.62232	9.92430
1703.774	-1.88479	6.56206	-2.15623	9.24492
1707.772	-1.63328	6.62725	-2.46434	9.63875
1711.775	-1.26401	6.50311	-2.70418	9.89619
1715.771	-6.88379	8.46832	-3.60054	9.98781
1719.773	-0.83327	10.91114	-3.53224	9.98033
1723.734	-0.76193	11.44377	-3.14790	9.89562
1727.803	-0.13449	10.89930	-2.92203	10.07014
1731.773	-0.08709	11.39754	-2.95153	10.48930
1735.763	-3.93828	11.86604	-2.99514	9.50664
1739.773	-3.97074	12.01676	-3.01403	9.67678
1743.771	-3.85664	12.29033	-2.92312	10.00485
1747.773	-3.88977	8.00466	-2.67950	7.51978
1751.773	-3.95335	7.07133	-2.32312	6.21747
1755.774	-3.88515	7.88528	-1.97587	6.01774
1759.796	-3.85810	7.98718	-1.91105	6.00709
1763.772	-7.81734	8.15300	-1.83680	6.84675
1767.772	-7.72885	8.81146	-1.66120	6.78820
1771.734	-7.69193	9.78170	-1.62641	6.35725
1775.762	-4.10525	9.06802	-1.79095	6.98588
1779.774	-1.41851	11.85820	-1.69026	9.18021
1783.772	-7.69149	7.58970	-1.82852	9.71509
1787.772	-7.73599	7.67045	-1.72532	9.87753
1791.736	-7.60670	7.55043	-1.82115	7.13591
1795.772	-7.61107	7.90771	-2.03739	8.01831
1799.775	-7.51625	8.09452	-1.92733	5.88613
1803.774	-7.23203	8.48167	-2.02282	6.51873
1807.767	-7.07505	8.27785	-2.49300	6.05927
1811.779	-6.05754	8.07078	-3.16183	6.52134
1815.758	-6.70426	7.95149	-3.39975	6.84933
1819.766	-6.85931	7.92556	-2.44081	7.04253
1823.776	-6.76469	8.75608	-3.60437	7.25776
1827.774	-6.72254	8.84123	-3.12427	7.35023
1831.774	-6.52598	8.47220	-2.56178	7.56364
1835.773	-6.44400	8.27441	-2.30303	7.11688
1839.765	-6.53357	8.74089	-2.00911	7.06309
1843.774	-6.43084	8.70303	-2.12146	7.11970
1847.771	-6.55621	8.84246	-2.11123	7.17485
1851.775	-6.50795	8.67702	-2.05839	7.29530
1855.774	-6.56025	9.12184	-0.76796	7.21366
1859.739	-6.70727	9.10379	-0.83950	7.14048
1863.775	-6.79976	9.14824	-0.65297	7.19929
1867.774	-6.74393	9.22852	-1.32190	7.46765
1871.744	-5.52804	8.95895	-1.54386	7.54448
1875.772	-5.29272	9.17999	-1.46675	7.57697
1879.773	-5.63938	9.58442	-1.76723	7.82158
1883.773	-5.53525	9.19543	-1.93819	9.70324
1887.775	-5.89110	10.11722	-1.68997	6.84824
1891.776	-4.56942	9.31009	-1.71466	6.79426
1895.775	-5.26484	9.42970	-1.92656	7.09078
1899.753	-5.12910	9.41267	-1.86789	7.24661
1903.745	-5.26393	9.24818	-1.97674	6.89357
1907.775	-5.59732	8.98259	-2.34072	7.68878
1911.778	-6.22034	9.54247	-2.52235	7.22430
1915.774	-10.85717	14.30942	-1.74861	7.28683
1919.742	NaN	NaN	-1.78208	11.96121
1923.810	NaN	NaN	NaN	NaN
1927.774	NaN	NaN	NaN	NaN
1931.775	NaN	NaN	NaN	NaN
1935.775	NaN	NaN	NaN	NaN
1939.768	NaN	NaN	NaN	NaN
1943.763	NaN	NaN	NaN	NaN
1947.773	NaN	NaN	NaN	NaN
1951.775	NaN	NaN	NaN	NaN
1955.773	NaN	NaN	NaN	NaN
1959.776	NaN	NaN	NaN	NaN
1963.775	NaN	NaN	NaN	NaN
1967.772	NaN	NaN	NaN	NaN
1971.740	NaN	NaN	NaN	NaN
1975.776	NaN	NaN	NaN	NaN
1979.775	NaN	NaN	NaN	NaN
1983.770	NaN	NaN	NaN	NaN
1987.775	NaN	NaN	NaN	NaN
1991.739	NaN	NaN	NaN	NaN
1995.746	NaN	NaN	NaN	NaN
1999.777	NaN	NaN	NaN	NaN
2003.777	NaN	NaN	NaN	NaN
2007.738	NaN	NaN	NaN	NaN
2011.745	NaN	NaN	NaN	NaN
2015.774	NaN	NaN	17.47358	6.60279
2019.778	NaN	NaN	NaN	NaN
2023.760	NaN	NaN	NaN	NaN
2027.778	NaN	NaN	13.86090	2.03322
2031.778	NaN	NaN	13.94499	1.79288
2035.777	NaN	NaN	11.26901	-0.42350
2039.777	-4.66881	1.01436	11.28581	0.01452
2043.741	-2.17338	4.01427	9.71804	0.35526
2047.775	-5.01361	7.08758	2.86559	2.57181
2051.777	-0.94060	8.41081	5.26544	1.48670
2055.778	0.69831	7.18494	2.69614	2.08316
2059.784	0.14131	5.15670	2.60614	2.44499
2063.781	-0.19482	4.49370	1.12392	2.37520
2067.743	-2.39047	4.50380	2.25838	1.51236
2071.778	-2.07735	4.50829	0.04303	1.35266
2075.770	-2.44048	4.68605	-0.51612	0.94032
2079.780	-2.38794	4.06936	-0.18149	2.12297
2083.773	-2.44578	3.75472	-0.12997	2.25769
2087.776	-2.61015	4.21760	2.45416	2.53196
2091.781	-2.51849	3.60978	2.24624	3.25524
2095.779	-2.58786	3.47039	2.51237	1.37650
2099.780	-2.36847	3.41862	2.33291	1.77507
2103.777	-2.38650	3.24101	1.82673	1.70532
2107.779	-2.40469	3.49813	2.90898	1.58392
2111.791	-2.40595	3.21540	2.88564	1.36126
2115.779	-2.47980	3.57121	2.96438	1.57789
2119.778	-2.44214	3.47508	2.80125	2.70131
2123.781	-2.51438	3.64703	2.54873	3.21852
2127.779	-2.53171	3.46178	2.92646	3.86257
2131.778	-2.67734	3.64085	3.05830	3.75017
2135.776	-2.59695	3.57492	2.94809	2.28979
2139.782	-2.67935	3.52234	2.90124	2.90746
2143.780	-2.83088	3.20224	2.52659	-0.07259
2147.768	-3.02977	3.21471	1.98804	0.93644
2151.769	-2.95092	3.26963	1.16577	1.78072
2155.781	-2.66147	3.54262	0.51642	1.34108
2159.779	-2.86178	2.58499	1.64087	1.76658
2163.781	-2.94151	2.95529	0.43470	2.22304
2167.778	-2.85108	2.72358	3.03969	2.35305
2171.784	-2.74046	3.12904	2.86002	1.56170
2175.742	-2.67236	2.90688	3.07644	1.10981
2179.781	-2.68819	2.23395	3.17007	1.23106
2183.779	-2.71540	2.69286	3.01467	0.81690
2187.780	-2.65599	2.86451	2.64309	1.94587
2191.750	-2.71248	3.06207	1.35534	2.62289
2195.781	-3.01086	6.43989	0.48892	2.13184
2199.778	-4.62621	3.68705	1.17917	3.06547
2203.783	-4.70707	7.46684	0.65094	3.09818
2207.780	-5.54388	7.47210	-0.73995	8.76783
2211.781	-7.06970	7.99164	-3.24457	9.13170
2215.779	-8.95881	9.31630	-3.47757	9.66795
2219.787	-6.98939	9.69052	-5.65843	13.78951
2223.780	-7.02700	9.77430	-6.80494	13.89960
2227.782	-7.57959	10.16923	-6.09204	12.48504
2231.776	-7.30725	10.16290	-6.19802	12.56807
2235.681	-7.45999	10.52972	-6.35381	12.73078
2239.782	-7.37065	12.56498	-5.80997	13.24644
2243.778	-7.68776	12.41949	-5.22635	12.71048
2247.780	-7.69666	12.26672	-5.45681	12.47333
2251.679	-7.65376	11.91403	-3.93097	11.91483
2255.779	-8.00421	11.22964	-4.42148	11.75874
2259.780	-7.82362	11.36488	-4.90580	12.81320
2263.782	-7.92568	10.59779	-5.09081	13.46353
2267.678	-7.87192	10.85468	-4.91516	13.48619
2271.783	-7.91972	10.45337	-4.80798	12.53209
2275.746	-7.94827	10.27343	-5.06580	13.20127
2279.783	-7.93306	9.76818	-5.09909	13.24253
2283.784	-7.98009	9.79440	-5.40803	13.26819
2287.779	-7.66490	9.99006	-5.27274	13.37881
2291.782	-7.93873	9.85570	-5.43366	13.36390
2295.780	-7.74995	10.29423	-5.28202	12.92949
2299.682	-7.85797	9.86019	-5.51673	13.41581
2303.779	-7.38622	9.82695	-5.39175	13.21879
2307.785	-7.71957	9.71100	-5.36619	12.46535
2311.790	-7.74257	9.23086	-5.54344	13.16942
2315.687	-7.73784	9.34410	-5.62906	13.21358
2319.780	-7.75039	9.30588	-5.59366	12.48254
2323.783	-7.71479	9.33238	-5.60015	13.23242
2327.777	-8.29159	9.66267	-5.49468	13.17438
2331.677	-8.43200	10.09572	-5.56534	13.24281
2335.780	-8.43440	9.81041	-5.47687	13.38018
2339.781	-8.64536	10.02656	-5.54135	13.43511
2343.783	-8.40643	10.92056	-5.67248	13.81502
2347.787	-8.49505	10.16631	-5.65093	13.91633
2351.780	-8.48221	10.57145	-5.79482	13.82031
2355.782	-8.51583	10.36986	-5.74826	14.06284
2359.743	-8.71303	10.10475	-5.70527	13.85336
2363.651	-8.73451	9.74459	-5.53879	13.17904
2367.782	-8.73104	8.50325	-5.71947	13.26368
2371.783	-8.75182	8.37381	-5.68371	13.74264
2375.784	-8.75844	9.14370	-5.77632	13.85526
2379.684	-8.74219	9.10799	-5.81211	13.90633
2383.782	-8.72340	9.10641	-5.73861	13.29419
2387.781	-8.81634	8.84727	-5.81191	14.51122
2391.782	-8.76561	9.90707	-5.81204	13.19099
2395.680	-8.81365	10.16727	-5.66528	13.01135
2399.754	-8.90114	10.74293	-5.83726	13.10380
2403.786	-8.99770	10.52239	-5.61416	12.37950
2407.781	-9.08476	10.87230	-5.35928	10.55707
2411.680	-9.25076	10.60417	-5.30749	10.59328
2415.785	-9.34609	10.85056	-5.80152	11.72655
2419.746	-9.41219	10.54628	-5.48605	11.19278
2423.782	-9.29287	10.67505	-5.50370	10.89169
2427.683	-9.45563	11.32877	-5.26396	11.17652
2431.757	-9.26459	11.31551	-5.43816	11.66116
2435.659	-9.35005	11.47473	-5.34193	11.85963
2439.659	-9.34587	11.73204	-5.53857	12.75883
2443.618	-9.25151	11.60725	-5.38152	12.43117
2447.658	-9.23497	11.79604	-5.44215	13.22220
2451.660	-9.15662	11.64721	-5.59457	13.95352
2455.658	-9.10886	10.61270	-5.56682	13.98564
2459.657	-9.08123	11.05418	-5.66044	14.18655
2463.658	-8.94801	9.71899	-5.63921	14.44450
2467.658	-9.14774	11.31299	-6.01260	14.57370
2471.659	-11.29345	10.92976	-6.02686	14.09338
2475.657	-8.96937	9.26794	NaN	NaN
2479.619	-11.26693	11.17783	-9.69294	13.73301
2483.658	-13.47714	9.12494	-10.76036	13.44213
2487.635	-12.06831	9.39221	-10.78853	11.89782
2491.629	-13.70582	7.89439	-11.87503	14.44623
2495.659	-14.04731	10.22738	-12.48480	12.71582
2499.658	-14.48827	8.70999	-12.73798	11.50269
2503.659	-14.53979	7.52326	-13.19315	10.89792
2507.658	-13.34857	7.35166	-12.63322	10.60724
2511.658	-14.43112	6.66289	-12.35921	8.47998
2515.662	-14.04091	7.48721	-12.26261	9.68778
2519.660	-14.50816	7.29568	-12.20878	9.11636
2523.652	-14.02267	7.98488	-12.46401	9.65117
2527.648	-13.92360	7.52859	-12.62369	9.42928
2531.649	-13.97197	7.95228	-12.81556	10.97422
2535.659	-14.20304	7.70131	-13.53366	11.33613
2539.662	-13.77200	8.17307	-13.05333	11.31180
2543.660	-13.66801	7.47487	-12.52643	10.17502
2547.660	-13.69814	8.08467	-12.51619	10.35221
2551.622	-13.99118	8.10780	-12.83517	11.03310
2555.685	-13.73402	8.32385	-12.66684	11.15596
2559.663	-14.02480	8.52140	-12.68423	10.01699
2563.660	-14.23599	8.37497	-13.01546	9.99965
2567.658	-14.43152	8.61344	-13.04391	11.13708
2571.661	-14.90635	8.81099	-12.97933	10.72984
2575.662	-14.83448	9.00559	-12.87202	8.23425
2579.663	-15.00003	8.60974	-12.84873	9.95059
2583.661	-14.42365	8.99988	-12.86928	9.87455
2587.650	-13.99784	9.10651	-11.90649	10.35189
2591.659	-14.16471	9.26300	-12.69563	10.75173
2595.662	-14.32095	9.48822	-12.78748	10.79084
2599.660	-15.12791	8.91078	-13.02481	11.14735
2603.654	-14.67748	8.60580	-12.06081	9.73829
2607.665	-14.71057	9.17222	-12.85647	11.14152
2611.646	-15.12714	8.91620	-12.87883	11.35812
2615.658	-14.30766	9.46099	-12.81941	12.01084
2619.655	-14.51946	9.33383	-12.77013	11.99506
2623.661	-14.16968	9.92889	-12.78996	9.59925
2627.662	-14.94382	9.24338	-12.44086	9.86267
2631.661	-14.55767	9.23393	-12.63719	11.11668
2635.661	-14.65553	9.43069	-12.88843	12.14636
2639.662	-14.42318	9.49127	-12.82047	10.85428
2643.661	-14.22888	8.91838	-12.48566	9.02975
2647.660	-14.12609	9.20308	-12.58789	9.68245
2651.650	-14.31959	8.60995	-13.16021	12.72665
2655.656	-14.43887	8.21314	-12.79232	12.36567
2659.662	-14.46377	7.81434	-13.03147	11.90958
2663.665	-14.31624	7.41491	-12.62930	12.23405
2667.656	-14.12777	6.91714	-12.66424	11.56938
2671.620	-14.35326	9.58049	-12.70803	12.71072
2675.658	-14.45553	9.93444	-12.61084	11.89196
2679.661	-14.68710	9.45375	-12.74846	12.46237
2683.653	-14.19287	8.65402	-12.46599	10.53956
2687.663	-14.18804	7.48980	-12.41940	11.08663
2691.662	-13.91250	7.59884	-12.41959	10.13368
2695.639	-14.00183	7.30049	-12.33660	10.22479
2699.654	-14.49158	7.05797	-12.27282	10.54014
2703.662	-14.32714	8.43862	-12.45279	10.10276
2707.662	-14.26259	9.10068	-12.16219	10.03973
2711.661	-14.33872	8.47929	-12.15101	9.66763
2715.668	-14.57369	8.83068	-12.03263	9.97332
2719.662	-14.99417	8.16881	-12.06942	9.84613
2723.664	-13.95259	8.72538	-12.40332	10.30859
2727.664	-13.27442	8.96802	-12.18405	10.93554
2731.657	-14.00230	8.59779	-11.80890	9.92852
2735.625	-14.29941	8.26970	-12.24462	11.12567
2739.655	-14.95399	8.27464	-12.13448	11.56487
2743.625	-14.61871	8.54789	-12.70973	11.66219
2747.661	-13.77630	8.61636	-12.13232	11.76709
2751.664	-13.70134	8.13491	-12.43069	11.50944
2755.661	-13.87138	7.29413	-12.30194	11.11213
2759.660	-14.14285	7.06717	-12.34818	11.41251
2763.663	-10.14720	9.58090	-12.69809	11.61343
2767.663	-10.31295	2.39536	-12.18320	11.41912
2771.663	-13.92706	9.62457	-12.29190	11.13284
2775.663	-14.06831	9.92969	-12.22149	10.85786
2779.655	-14.93230	9.07154	-12.06252	10.17155
2783.662	-14.67390	9.16363	-12.39490	10.90738
2787.663	-14.02150	7.49651	-12.22004	11.78578
2791.663	-14.37790	9.86519	-12.57737	11.65416
2795.655	-15.36599	9.48039	-12.47167	10.94351
2799.663	-18.46916	9.53073	NaN	NaN
2803.664	-14.29033	9.94860	NaN	NaN
2807.667	-19.89326	-12.08488	NaN	NaN
2811.626	-19.94227	-12.08125	NaN	NaN
2815.669	-19.95948	-12.07997	NaN	NaN
2819.647	-19.96830	-12.07932	NaN	NaN
2823.665	-19.97369	-12.07891	NaN	NaN
2827.665	-19.97735	-12.07864	NaN	NaN
2831.657	-19.98000	-12.07844	NaN	NaN
2835.664	-19.98204	-12.07829	NaN	NaN
2839.667	-19.98364	-12.07817	NaN	NaN
2843.627	NaN	NaN	NaN	NaN
2847.655	NaN	NaN	NaN	NaN
2851.665	NaN	NaN	NaN	NaN
2855.662	NaN	NaN	NaN	NaN
2859.632	NaN	NaN	NaN	NaN
2863.688	NaN	NaN	NaN	NaN
2867.626	-23.42013	2.59209	NaN	NaN
2871.664	-14.12032	-10.75582	NaN	NaN
2875.664	-19.99372	-12.07314	-16.09210	14.66648
2879.665	-19.99372	-12.07318	-16.22279	8.88612
2883.664	-19.99372	-12.07323	-15.32685	7.95470
2887.665	-22.28709	0.19532	-18.29224	10.41432
2891.665	-19.94470	2.50825	-15.97893	9.97923
2895.687	-19.88378	1.92224	-15.82738	8.84247
2899.666	-19.83654	2.03408	-14.55772	6.50541
2903.644	-17.18432	2.42067	-15.25032	6.34034
2907.665	-17.28156	2.45144	-14.20243	6.34404
2911.665	-17.17966	2.45253	-12.29052	4.22128
2915.632	-17.90359	2.34875	-11.78269	4.21619
2919.666	-15.12414	2.83583	-12.35808	6.43885
2923.667	-15.13609	2.89852	-11.71192	5.41705
2927.655	-15.29395	3.29187	-11.62961	5.53617
2931.666	-16.61407	2.26403	-11.21140	3.13466
2935.667	-15.67368	2.55230	-11.49917	3.61631
2939.665	-15.62913	2.44090	-10.99602	3.17894
2943.666	-15.32285	2.04813	-11.31491	2.77175
2947.630	-15.32117	2.64292	-11.32361	2.54695
2951.665	-14.91383	2.55387	-11.18945	3.44088
2955.669	-14.94023	2.58425	-10.93227	3.96646
2959.668	-14.96673	2.17579	-11.24786	3.45520
2963.664	-15.16872	2.46699	-10.95253	4.55965
2967.666	-15.66560	2.03722	-10.93648	4.09842
2971.666	-15.64342	2.38482	-10.93543	3.66374
2975.665	-15.05045	2.27169	-11.04783	4.06276
2979.664	-14.78844	2.47983	-11.14058	4.48085
2983.668	-14.65774	2.60580	-10.97243	4.74779
2987.633	-15.19133	2.48384	-11.04267	4.90569
2991.668	-15.74288	2.29147	-11.40706	6.09245
2995.629	-15.16398	2.47533	-11.07312	4.97441
2999.666	-14.59561	2.83348	-11.40198	5.81608
3003.667	-14.64682	2.79320	-11.03100	1.97525
3007.671	-15.27282	2.59135	-11.00008	2.30595
3011.666	-15.51543	2.76423	-11.19210	1.98682
3015.667	-14.96142	2.52807	-11.26099	1.99530
3019.670	-14.75154	3.73121	-10.99458	2.81576
3023.671	-14.81470	2.98805	-11.01347	4.09258
3027.649	-14.94836	2.79328	-10.91626	3.18678
3031.661	-15.51516	3.05912	-11.28469	3.39429
3035.670	-14.70741	3.64330	-11.07864	3.75012
3039.658	-14.59921	3.43578	-11.21536	4.39507
3043.670	-14.53381	4.15656	-10.99547	4.58803
3047.668	-14.94764	3.86200	-10.83345	5.47399
3051.670	-15.09226	3.51149	-11.41872	6.07188
3055.668	-14.60246	4.12919	-10.86670	5.27709
3059.667	-14.43028	3.41022	-11.33593	5.96809
3063.667	-14.57948	3.59318	-11.10010	4.59834
3067.661	-14.52228	3.67384	-11.00692	3.74850
3071.669	-14.80570	3.34156	-10.97827	3.06435
3075.667	-14.70251	3.05198	-11.00893	2.75012
3079.666	-14.63569	3.36633	-11.11755	4.06767
3083.629	-14.49109	3.37743	-11.27125	2.74662
3087.672	-14.47410	2.95472	-11.22102	3.90123
3091.667	-14.23268	2.68547	-10.93705	5.47125
3095.669	-12.68945	3.86131	-10.82351	7.96181
3099.668	-11.50260	7.23391	-10.54066	6.26822
3103.632	-10.60977	7.50392	-7.39281	6.26070
3107.670	-9.58724	6.73441	-7.02531	8.77483
3111.670	-6.96888	7.33237	-6.36145	11.95814
3115.667	-5.50513	7.55833	-2.58881	8.78733
3119.674	-5.00851	7.88755	-2.55361	8.73075
3123.669	-5.31785	8.44394	-0.47165	8.75617
3127.670	-3.06154	8.76580	-0.00099	8.93212
3131.668	-3.39344	8.82655	-0.14843	8.67930
3135.667	-4.69083	9.27610	-0.46619	9.60031
3139.669	-4.01480	8.24895	-2.28655	10.13047
3143.669	-4.34011	8.81949	-1.89595	10.99139
3147.669	-4.53985	9.23139	-2.39847	10.90044
3151.636	-3.93564	8.63981	-1.33309	10.86753
3155.668	-3.93670	9.35777	-0.25783	10.69885
3159.667	-4.05426	9.18723	-1.14191	10.47264
3163.666	-3.72309	9.35692	-1.32297	10.74907
3167.674	-3.97355	9.49434	-1.21596	10.61391
3171.629	-3.64921	9.09307	-1.50507	10.87077
3175.665	-3.80139	9.58548	-1.32347	10.70516
3179.671	-3.83171	9.52832	-1.57840	10.74899
3183.566	-4.02445	10.42623	-1.24957	10.57643
3187.669	-3.84065	10.04734	-1.06081	10.55950
3191.668	-3.95782	9.71206	-0.59565	10.41007
3195.643	-4.14453	9.44491	-0.77335	10.61264
3199.661	-3.92388	10.00853	-1.13982	10.79182
3203.669	-4.10169	10.11150	-1.34668	10.82185
3207.671	-3.97405	10.34279	-1.37044	11.21730
3211.666	-4.18363	9.23034	-1.72823	11.50216
3215.568	-4.14458	10.16191	-1.17510	10.88382
3219.673	-3.74582	10.57089	-1.78959	11.19670
3223.670	-3.66256	9.86462	-0.81322	10.93340
3227.670	-3.67052	10.23018	-0.45676	10.73954
3231.676	-3.82351	9.55877	-1.09842	11.13983
3235.653	-3.81491	9.13835	-0.88257	11.09798
3239.667	-3.89629	9.61136	-0.80915	11.36531
3243.672	-3.72753	7.83465	-0.76012	11.28042
3247.672	-3.98161	7.84504	-0.95405	11.30194
3251.673	-4.18904	8.40869	-1.10413	10.32808
3255.670	-3.71130	8.15355	-0.79622	8.50554
3259.671	-3.83248	8.61356	-0.60387	7.89673
3263.672	-3.88824	8.73766	-0.79330	8.35637
3267.669	-4.31533	8.77556	-0.99075	8.61831
3271.670	-4.11377	8.79451	-1.26098	8.58238
3275.670	-4.27585	8.83953	-1.76646	8.75358
3279.677	-4.35825	9.28666	-2.06188	9.01472
3283.670	-4.18433	9.55820	-1.92414	9.57773
3287.672	-4.27916	9.63147	-1.92704	10.25115
3291.674	-4.30734	9.55427	-1.93351	9.82916
3295.673	-4.21804	10.34594	-1.70695	10.47370
3299.671	-4.37922	9.63008	-2.08329	10.65463
3303.674	-4.34680	10.59497	-2.09983	10.79265
3307.674	-4.26205	9.78271	-2.09333	10.95172
3311.675	-2.77314	8.22421	-2.12074	11.38687
3315.672	-2.34139	8.93515	-2.10114	11.32939
3319.654	-2.76564	8.31794	-2.05915	11.41924
3323.673	-3.10500	9.25082	-1.96300	11.62202
3327.674	-2.55289	8.52224	-1.68282	11.21595
3331.672	-2.44556	8.09185	-1.45013	11.30913
3335.674	-3.95824	9.38562	-1.33681	11.32225
3339.672	-3.35066	8.51413	-1.20869	11.55421
3343.570	-3.10799	8.41578	-1.02164	11.24245
3347.670	-2.89089	8.87985	-0.91071	11.50530
3351.674	-4.26306	8.99611	-1.06021	11.11093
3355.633	-4.74415	9.02330	-1.02970	11.32407
3359.572	-4.55722	9.58362	-1.02749	11.61442
3363.634	-4.51512	9.15924	-0.82446	11.56297
3367.674	-4.35901	9.62980	-0.88431	10.82876
3371.675	-4.28032	9.43784	-0.07701	9.40622
3375.675	-4.18413	9.81385	-0.79086	9.36049
3379.671	-3.41572	9.50695	-1.38813	8.93514
3383.673	-4.23372	9.52753	-0.98494	9.22416
3387.672	-3.13120	9.59982	-1.16247	9.25907
3391.674	-4.20338	9.56925	-1.62626	9.86864
3395.672	-3.48237	9.56022	-1.23116	6.43265
3399.675	-3.81093	9.82919	-0.96668	6.46947
3403.645	-3.87005	8.15834	-1.26609	7.42006
3407.575	-3.45749	7.65644	-1.41184	8.10310
3411.672	-3.58252	7.91147	-1.36387	8.51066
3415.671	-3.52882	7.78411	-1.42655	8.59784
3419.677	-3.72254	8.67065	-1.35420	9.35867
3423.632	-3.64768	9.40079	-1.29655	8.72690
3427.636	-3.69108	8.40332	-1.14469	9.08244
3431.672	-3.38489	8.42329	-1.05329	9.32219
3435.675	-3.66627	9.04006	-0.88329	9.43945
3439.677	-3.75356	10.26619	-1.09641	11.43350
3443.674	-1.24592	8.61299	-0.75523	10.95101
3447.672	-0.13838	9.76812	2.16216	9.55180
3451.683	0.30081	10.77398	2.05908	10.95949
3455.539	1.94350	10.76553	3.91054	11.10896
3459.672	3.51644	9.31758	4.11241	13.83354
3463.549	3.41370	9.73496	4.57438	14.14495
3467.550	3.40672	10.77882	NaN	NaN
3471.571	3.60939	11.41236	NaN	NaN
3475.550	3.69988	11.07489	5.99767	12.12511
3479.548	4.00941	10.36236	6.77832	11.13818
3483.515	4.10515	9.75519	6.23646	12.28483
3487.547	3.82796	10.39402	5.26649	11.69768
3491.512	3.52868	11.56605	4.73934	13.77344
3495.548	3.49265	11.54097	5.30235	14.02269
3499.551	3.63196	11.53155	NaN	NaN
3503.573	4.07903	10.00288	5.85274	14.06222
3507.549	4.05905	10.17222	6.01213	11.64121
3511.552	3.95202	10.31857	6.76625	11.05400
3515.544	3.60469	11.07847	7.13634	10.66878
3519.577	3.28939	11.62965	7.11171	11.31650
3523.551	3.11255	11.28891	7.28046	13.16533
3527.553	3.96246	10.50484	6.52240	12.94761
3531.549	3.99887	10.29419	7.03966	13.87016
3535.573	3.64553	10.86548	6.25882	13.81508
3539.552	4.04078	11.07901	6.39570	10.54503
3543.550	3.29792	11.43081	6.07030	10.63418
3547.553	3.79289	10.84204	5.97475	11.90617
3551.572	3.96244	10.19376	5.78231	12.83469
3555.551	3.76890	10.96106	5.77647	13.54466
3559.553	3.88883	11.04860	5.61679	13.88153
3563.551	3.86669	11.19105	5.94052	13.96806
3567.574	3.67610	11.19762	6.23741	11.37904
3571.553	3.74602	10.12627	6.90067	11.02404
3575.549	3.85792	9.90446	7.23306	11.01712
3579.550	3.84068	11.10365	5.61259	11.43645
3583.572	3.89481	11.09458	5.20905	13.99841
3587.548	3.96780	11.10082	5.25965	14.29771
3591.553	3.58297	9.60007	5.42333	13.90414
3595.551	3.79255	10.71676	5.66381	10.92600
3599.571	3.58091	10.99133	5.77858	10.90758
3603.553	3.47947	11.23853	5.92687	11.13434
3607.553	3.65989	10.82173	6.08453	11.92524
3611.530	3.96143	9.38327	5.71544	13.67069
3615.556	3.88253	9.84498	5.84404	13.79754
3619.554	3.82640	11.01884	5.98530	13.78140
3623.550	3.45470	11.17817	6.23050	13.58788
3627.551	3.23917	12.04471	6.15029	13.65744
3631.572	3.52776	10.27956	5.62257	11.58894
3635.551	3.61654	10.44429	5.78676	11.51950
3639.550	3.67101	9.43617	5.80302	11.47108
3643.555	3.65720	9.77530	5.21708	11.69939
3647.543	3.85995	9.85013	5.55506	12.11206
3651.553	3.90328	10.51240	5.67069	12.40567
3655.551	3.96180	10.19221	5.95825	11.69495
3659.544	3.76134	10.33893	6.00852	11.54543
3663.550	3.70549	10.59451	6.14123	11.64492
3667.551	3.82936	10.54608	6.02943	11.38852
3671.554	4.00297	10.56804	6.22996	11.42923
3675.552	3.92932	10.58494	6.30453	11.38224
3679.575	4.06278	10.71507	6.66185	11.62412
3683.552	3.83774	10.89017	6.83709	11.26014
3687.551	3.89523	10.96006	6.60811	11.43492
3691.552	3.80157	11.13757	6.86648	11.17087
3695.548	3.84960	11.28987	6.87545	11.42811
3699.514	3.95822	11.29698	7.14074	11.31796
3703.553	3.82230	11.25851	7.10582	11.45837
3707.553	3.82210	11.61824	7.13402	11.43528
3711.576	3.91961	11.50179	7.08497	11.63305
3715.553	3.63594	11.58006	6.98597	12.14626
3719.553	3.84209	11.87301	6.60637	12.95347
3723.553	3.70060	11.78469	5.23991	12.99176
3727.574	3.23606	11.89277	5.49839	13.15674
3731.514	1.82971	11.86092	4.26102	13.54178
3735.556	0.36821	11.82650	1.40807	13.68564
3739.542	-0.96157	11.76832	-0.53654	13.10335
3743.575	-2.54923	11.89656	-3.08241	12.33683
3747.555	-4.61255	11.10514	-3.72000	12.44151
3751.553	-6.68186	10.10107	-6.82545	12.94800
3755.553	-8.63469	10.44129	-9.14462	11.90467
3759.577	-8.75107	10.05519	-10.47396	11.47750
3763.516	-10.48881	9.69963	-11.10653	10.03871
3767.556	-11.76621	9.19803	-13.29384	9.83829
3771.552	-12.58283	8.44667	-13.73636	9.07368
3775.577	-13.30176	8.18156	-14.69364	9.37873
3779.554	-13.53000	7.81650	-13.41427	9.17830
3783.520	-13.87985	7.73446	-13.31076	8.73486
3787.553	-13.58226	7.73544	-14.11790	8.49962
3791.548	-13.29163	7.53313	-14.05100	9.09436
3795.516	-13.32717	7.33021	-14.08171	9.13794
3799.555	-13.38141	7.17875	-13.47951	9.27927
3803.554	-13.31911	7.14286	-13.94338	8.93768
3807.547	-13.74039	6.84506	-13.99992	8.89074
3811.556	-13.50567	7.29986	-13.69336	8.87962
3815.555	-13.65088	7.55625	-13.31883	8.55055
3819.556	-13.53976	8.32852	-13.86198	8.47433
3823.514	-13.30961	8.96752	-14.03963	8.76362
3827.556	-12.87784	8.24249	-13.19263	8.93055
3831.518	-13.36593	8.14746	-13.44526	8.34215
3835.554	-13.53310	8.36155	-14.03412	9.03488
3839.553	-13.64174	7.96194	-13.82085	9.01950
3843.557	-13.17492	7.91468	-13.25823	8.43540
3847.554	-13.68562	7.46933	-13.85297	8.92155
3851.558	-13.71177	7.03218	-13.58812	9.13204
3855.553	-13.40805	6.74367	-13.40762	9.10700
3859.518	-13.43972	7.72968	-13.65671	9.07482
3863.552	-13.44289	7.13777	-13.57112	9.14441
3867.548	-13.54767	8.01230	-13.18094	8.54215
3871.523	-13.59661	8.13118	-13.71877	8.98325
3875.555	-13.63702	8.60027	-13.58693	9.07609
3879.554	-13.37531	8.44704	-13.27802	8.88982
3883.554	-13.65620	8.46842	-13.90148	9.18751
3887.579	-13.37580	8.58783	-12.75814	9.42993
3891.556	-13.32052	8.31964	-13.60254	9.42249
3895.556	-13.55372	8.12802	-13.67241	10.13210
3899.517	-13.58983	8.41523	-13.27631	10.82566
3903.557	-13.55932	7.87941	-12.82583	10.54809
3907.527	-13.70952	8.11887	-13.14658	10.71510
3911.556	-13.57804	8.11657	-14.18435	10.13052
3915.556	-13.53472	7.85869	-13.60714	9.99096
3919.521	-13.69251	7.93034	-13.66786	10.63586
3923.558	-13.54314	7.61080	-13.68227	9.84859
3927.558	-13.75231	6.86706	-13.17750	10.59475
3931.555	-13.30884	7.08620	-13.55074	9.69835
3935.547	-13.67501	7.49872	-13.01722	10.63260
3939.558	-13.48362	7.16062	-13.56144	9.78626
3943.556	-13.31062	7.21775	-13.51454	10.68475
3947.555	-13.39640	6.90417	-13.66522	10.95665
3951.556	-13.26260	8.59406	-13.58611	11.11308
3955.556	-13.59783	8.89452	-13.73121	11.91126
3959.555	-13.52334	9.10806	-13.26735	10.52210
3963.556	-13.39184	8.83272	-13.79147	10.61611
3967.558	-13.46705	8.80406	-13.66376	10.56299
3971.519	-14.42947	7.13507	-15.04149	9.67208
3975.558	-14.93784	6.70961	-14.88447	9.57398
3979.556	-15.56706	4.73159	-15.61624	9.06001
3983.562	-16.38666	6.06556	-16.93628	7.96537
3987.559	-16.75901	6.67837	-15.89361	6.93488
3991.523	-16.23393	6.11701	-16.33715	7.11800
3995.522	-16.71774	4.83293	-15.24815	6.68924
3999.564	-16.10294	4.50675	-16.28510	7.27142
4003.558	-16.35340	4.59272	-15.75079	7.52039
4007.557	-16.21533	4.76486	-16.23361	6.62422
4011.558	-16.24217	5.55072	-15.50149	6.78443
4015.557	-16.27821	5.03946	-16.56175	7.26604
4019.556	-16.12779	5.70482	-15.69622	7.36035
4023.562	-16.42480	5.96558	-16.43266	7.18128
4027.560	-16.33489	6.17836	-15.46035	7.51899
4031.548	-16.28240	6.10695	-15.79556	7.55766
4035.556	-16.67731	5.86374	-15.51893	7.92365
4039.558	-16.29472	5.43368	-15.71271	7.72000
4043.557	-16.30119	5.62506	-15.50509	6.97832
4047.551	-16.43571	5.18906	-15.72828	7.67953
4051.557	-16.48269	5.45473	-15.54964	7.57295
4055.559	-16.37309	5.14241	-15.82377	7.48867
4059.559	-16.45578	5.45489	-15.28217	6.59872
4063.551	-16.38595	5.75876	-15.84739	7.36226
4067.559	-16.44939	5.60417	-15.57539	7.97057
4071.520	-16.37088	5.86315	-15.65674	8.74796
4075.550	-16.22062	5.79442	-15.74945	8.62359
4079.551	-16.29843	5.72508	-15.04485	7.71400
4083.558	-16.45669	5.17120	-15.65311	7.27340
4087.557	-16.49380	5.37472	-15.40551	7.88114
4091.558	-16.26632	5.05300	-15.94798	8.33099
4095.557	-16.47183	4.36673	-15.16410	7.93373
4099.559	-16.33427	4.44076	-15.72899	6.29043
4103.559	-16.59738	5.05188	-15.04390	6.96789
4107.520	-16.51290	5.36500	-16.30298	8.15903
4111.551	-16.36702	6.22149	-15.42641	8.52813
4115.532	-16.60866	6.10796	-15.64450	8.06398
4119.523	-16.42396	6.16748	-15.43330	8.19263
4123.564	-16.59709	6.11553	-15.37674	7.45877
4127.557	-16.51602	6.28123	-15.45357	8.08202
4131.559	-16.54978	6.26969	-15.23678	8.29764
4135.557	-16.69486	6.13394	-15.29399	7.00932
4139.560	-16.46977	5.02697	-15.10647	7.43372
4143.552	-16.41149	5.08483	-15.28938	7.46901
4147.559	-16.34435	5.05021	-14.61766	8.16925
4151.559	-16.36528	5.94449	-15.32985	8.28333
4155.543	-16.27387	6.15617	-14.94602	7.93233
4159.560	-16.13526	6.17951	-15.26132	8.18062
4163.558	-16.33955	6.17062	-14.89849	6.98926
4167.559	-16.31420	6.25796	-15.11951	7.55395
4171.522	-16.58188	6.21250	-14.99301	7.98801
4175.525	-16.32641	5.94996	-15.29633	8.38765
4179.559	-16.31057	5.54208	-15.10378	7.78131
4183.559	-16.31450	5.04916	-15.11396	7.89807
4187.560	-16.49592	4.24477	-15.29300	8.40700
4191.558	-16.33432	6.08587	-14.41636	8.57139
4195.561	-16.24301	6.55557	-15.42731	8.98471
4199.522	-16.36176	6.58363	-14.51125	8.60043
4203.561	-16.45820	6.26021	-15.29921	8.71683
4207.553	-16.28912	6.80342	-15.10297	8.68865
4211.559	-16.37748	6.18763	-15.30803	8.41363
4215.558	-16.26385	4.93933	-14.90315	8.59793
4219.557	-15.96734	6.15280	-14.53056	9.00568
4223.462	-16.09393	4.29474	-14.79449	5.89290
4227.563	-15.43210	3.01468	-13.14009	4.17683
4231.563	-15.95452	3.75255	-12.96908	5.05772
4235.562	-15.34319	2.83004	-12.89539	8.43890
4239.462	-14.65841	2.10316	-12.54781	3.98449
4243.562	-14.53742	2.41571	-12.46711	5.41240
4247.561	-15.10401	3.78621	-12.60994	5.36300
4251.561	-14.49727	4.07888	-12.53197	4.99365
4255.564	-14.63451	3.94314	-12.52674	5.52454
4259.561	-14.30648	3.77040	-12.32897	4.11873
4263.524	NaN	NaN	NaN	NaN
4271.562	-14.53879	2.83064	-12.18521	3.29415
4275.523	-14.53451	2.52645	-12.62774	3.66509
4279.460	-14.31910	2.19082	-12.00151	4.24632
4283.554	-14.19916	2.11409	-12.31443	4.36485
4287.561	-14.44173	1.82442	-12.98032	4.69667
4291.563	-14.27208	1.69468	-12.08053	4.78918
4295.427	-14.32129	1.87935	-12.36400	4.78713
4299.561	-14.24294	3.30913	-11.77472	4.18631
4303.562	-14.27858	4.35191	-12.03045	4.14700
4307.563	-14.47082	3.47315	-12.41360	4.60138
4311.461	-14.43603	3.34253	-11.72510	3.78091
4315.563	-14.53409	3.36663	-12.35074	3.94434
4319.559	-14.16389	3.12307	-12.33740	4.84139
4323.537	-14.55395	2.57287	-11.77729	4.00754
4327.435	-14.28168	2.33237	-12.12506	3.33223
4331.560	-14.46724	1.42702	-12.28950	3.69619
4335.562	-14.12740	1.75530	-12.50721	4.66545
4339.560	-14.14917	2.75681	-11.57708	3.72947
4343.460	-14.27112	3.01141	-12.32601	4.82528
4347.562	-14.52291	3.42754	-12.30358	5.19145
4351.564	-14.26145	3.39682	-12.06178	4.56036
4355.563	-14.59331	3.47682	-11.80221	3.26646
4359.430	-14.30515	3.32876	-12.24054	3.91009
4363.547	-14.51528	3.47356	-12.15694	5.28446
4367.563	-14.23974	3.28700	-12.30220	5.25488
4371.560	-14.51056	2.48305	-11.81774	5.01985
4375.428	-14.35396	2.32071	-11.84594	3.32316
4379.564	-14.47129	2.35903	-11.99301	3.63121
4383.561	-14.51374	1.95174	-12.03964	5.35751
4387.562	-14.43938	1.59627	-12.21113	5.01892
4391.461	-14.40717	1.62894	-12.05222	5.03451
4395.565	-14.44422	1.73641	-11.94814	4.29186
4399.563	-14.47890	2.15021	-12.01419	2.86985
4403.565	-14.58385	2.38875	-11.84097	5.78467
4407.469	-14.54823	3.76407	-11.84934	5.63084
4411.562	-14.55004	4.13070	-11.83805	5.40419
4415.561	-14.46382	4.25130	-12.00246	5.10351
4419.563	-14.53251	4.05722	-12.13652	5.08179
4423.568	-14.54565	3.26479	-12.15125	4.41583
4427.565	-14.65293	2.81284	-12.34936	4.04475
4431.561	-14.56809	2.14445	-12.30388	2.81766
4435.563	-13.84878	2.37730	-11.62540	2.53082
4439.463	-12.89272	3.07869	-9.69996	5.06453
4443.527	-11.10555	4.32199	-9.92533	5.49126
4447.541	-9.16908	3.40415	-7.69656	3.92074
4451.563	-8.73363	3.14911	-7.08649	4.46655
4455.465	-7.24827	2.11367	-7.55320	4.67678
4459.565	-6.64170	2.65498	-3.90256	4.38581
4463.565	-6.03191	2.85092	-3.49693	4.63970
4467.564	-5.51297	2.64903	-6.55812	4.13258
4471.459	-5.35901	2.44160	-6.27246	4.01563
4475.564	-5.74632	3.72551	-6.15738	2.94698
4479.523	-5.78273	3.41907	-5.91423	4.60976
4483.564	-5.60263	3.22091	-3.62195	4.85230
4487.465	-5.48838	2.81466	-2.59131	4.43879
4491.554	-5.64511	2.82415	-2.87235	3.70919
4495.565	-5.50397	2.51261	-3.07216	3.48046
4499.443	-5.59135	2.08412	-3.08347	2.71498
4503.433	-5.58769	2.25261	-2.83477	2.75717
4507.442	-5.60342	2.68102	-3.02566	2.57669
4511.403	-5.59332	2.59203	-3.05137	4.74821
4515.442	-5.66292	4.09497	-2.79503	2.91941
4519.462	-5.58688	2.67004	-3.23801	2.34091
4523.440	-5.45993	2.72812	-3.89688	3.20917
4527.442	-5.19103	2.42704	-2.26165	4.78494
4531.440	-5.50525	2.33402	-2.69995	3.91377
4535.433	-5.59445	2.29310	-2.89299	4.23640
4539.437	-5.10571	2.69967	-3.39055	3.03377
4543.439	-5.19955	3.48540	-3.10215	5.49396
4547.402	-4.91036	2.98699	-1.81037	3.29778
4551.437	-5.44579	3.24827	-3.11663	3.30435
4555.439	-5.43236	3.27186	-2.02542	1.93869
4559.442	-5.22810	2.43735	-2.78535	3.20642
4563.442	-7.48575	2.49694	-2.98485	3.74247
4567.439	-4.92851	3.45040	-2.88034	2.88256
4571.443	-5.35332	2.85179	-2.40476	0.97046
4575.440	-5.51993	2.84446	-2.93257	0.96394
4579.436	-5.47070	2.51275	-2.86514	3.28969
4583.432	-5.19271	1.27442	-2.93418	3.43968
4587.440	-5.52662	2.54717	-3.18475	1.98942
4591.442	-5.59042	2.63197	-3.06145	1.50624
4595.440	-4.82010	2.49493	-2.50856	1.92530
4599.441	-5.31049	3.51168	-2.92941	4.00106
4603.445	-5.21011	3.62906	-3.03081	3.89681
4607.418	-5.70681	3.93968	-3.03269	3.55604
4611.441	-5.60730	3.56811	-3.04583	1.69336
4615.438	-5.59823	2.64780	-2.81162	1.44656
4619.422	-5.34191	2.49995	-3.03482	4.28850
4623.442	-5.57965	2.63355	-2.63457	3.81675
4627.444	-6.39763	2.44082	-2.93143	1.67346
4631.440	-5.23615	3.26144	-2.75997	3.14381
4635.443	-6.08222	3.54961	-2.67786	3.77705
4639.441	-5.32634	2.52903	-2.44732	1.84184
4643.443	-5.78497	2.71989	-2.32439	1.84245
4647.463	-5.64260	2.53598	-2.70144	3.60862
4651.442	-5.47043	3.17959	-2.46763	1.65991
4655.441	-5.41089	2.72849	-2.23937	1.47230
4659.429	-5.50697	2.91282	-2.80402	4.31011
4663.462	-5.14249	3.14991	-2.77153	1.59525
4667.404	-5.07887	3.49509	-2.18431	0.30917
4671.443	-5.83670	3.35767	-2.45812	3.87826
4675.444	-5.70421	2.84347	-2.52565	2.55211
4679.464	-5.07766	2.68270	-2.56503	1.61397
4683.441	-5.80258	2.99297	-2.59529	1.55509
4687.445	-4.95344	1.86142	-2.78840	5.45386
4691.444	-5.79447	2.27609	-2.68640	5.39425
4695.443	-6.02872	3.81046	-2.82447	4.50951
4699.443	-11.93066	4.50262	-3.39171	5.52127
4703.418	NaN	NaN	-8.29457	7.77993
4707.445	NaN	NaN	-6.63920	5.64773
4711.440	NaN	NaN	NaN	NaN
4715.435	NaN	NaN	NaN	NaN
4719.445	NaN	NaN	NaN	NaN
4723.442	NaN	NaN	NaN	NaN
4727.447	NaN	NaN	NaN	NaN
4731.444	NaN	NaN	NaN	NaN
4735.444	NaN	NaN	NaN	NaN
4739.473	NaN	NaN	NaN	NaN
4743.428	NaN	NaN	NaN	NaN
4747.447	NaN	NaN	NaN	NaN
4751.404	NaN	NaN	NaN	NaN
4755.441	NaN	NaN	NaN	NaN
4759.442	NaN	NaN	NaN	NaN
4763.444	NaN	NaN	NaN	NaN
4767.409	NaN	NaN	NaN	NaN
4771.446	NaN	NaN	NaN	NaN
4775.407	NaN	NaN	NaN	NaN
4779.445	NaN	NaN	NaN	NaN
4783.419	NaN	NaN	NaN	NaN
4787.441	NaN	NaN	19.76120	-0.96665
4791.444	NaN	NaN	-2.56012	-4.72379
4795.442	NaN	NaN	NaN	NaN
4799.405	4.07058	8.93593	15.07433	-0.01917
4803.447	9.02196	12.03556	-2.52208	2.88667
4807.446	10.69803	14.39954	16.61101	-4.31106
4811.445	10.61526	0.58154	12.16204	-0.91316
4815.468	11.23306	0.43561	-0.45078	-0.73893
4819.447	-4.95364	2.82634	4.32402	-0.43852
4823.452	5.71070	0.64574	0.25252	-0.92880
4827.453	1.48476	2.66256	5.22293	-0.34750
4831.416	0.30488	2.23757	1.43404	0.15017
4835.444	1.18639	2.20914	4.76206	2.06722
4839.444	1.40122	2.82103	4.34018	0.54373
4843.445	1.34264	-0.57791	1.90795	-7.93913
4847.467	0.96155	0.85443	0.76042	0.90358
4851.409	0.93115	1.93362	5.12026	-0.02195
4855.447	1.14997	2.52474	5.64457	-2.48720
4859.407	0.81111	0.11728	4.88094	-0.71107
4863.472	1.00829	1.20445	4.90629	0.31423
4867.444	0.79357	1.69483	5.00122	0.75544
4871.435	0.88835	2.33770	4.81234	1.01192
4875.407	0.75072	1.42230	3.07347	1.37110
4879.468	0.80039	-0.52383	4.21402	1.06265
4883.447	0.60039	0.43798	4.75541	1.40426
4887.448	0.63302	0.09420	4.85344	0.21316
4891.445	0.60501	0.71854	4.89079	0.19324
4895.468	0.64069	-0.07931	4.72886	-0.83683
4899.445	0.61340	0.72599	4.96834	-0.60835
4903.449	0.62302	-0.23093	4.28318	-0.82702
4907.448	0.56411	0.11241	4.05888	1.86217
4911.467	0.63012	-0.03180	5.44599	0.45980
4915.446	0.59014	0.15478	4.79814	-0.15905
4919.445	0.68662	-0.04781	4.64199	-0.67231
4923.448	0.57126	0.28580	5.53862	-0.68834
4927.469	0.62141	-0.24087	4.77328	-0.81081
4931.445	0.62858	0.15087	5.40459	-0.08639
4935.447	0.65151	-0.13813	4.04384	-1.05081
4939.447	0.61106	-0.05598	4.51137	0.03713
4943.441	0.60861	0.97702	4.58552	-1.11501
4947.450	0.70513	0.27056	5.34093	0.23551
4951.447	0.66560	2.14569	4.86953	0.67511
4955.443	0.61908	0.70715	3.11448	-1.03298
4959.437	0.34059	1.88132	5.06176	-1.18833
4963.446	0.88582	0.04211	4.60155	-1.58610
4967.448	0.54741	0.81315	5.49711	-1.47415
4971.448	0.49361	0.90693	4.66514	-2.67471
4975.448	0.61372	1.84006	6.16881	-1.36283
4979.445	0.58612	1.74130	4.39355	-1.53783
4983.445	0.54977	2.37029	5.81457	-0.38367
4987.446	0.79258	1.78742	4.76295	-1.47720
4991.445	0.30590	2.33854	4.58787	0.21277
4995.441	1.20710	2.24534	5.11014	-0.26525
4999.451	0.32603	2.25776	5.07303	1.26508
5003.449	0.53379	2.16011	4.67231	0.17156
5007.450	0.40797	2.44996	5.40762	-0.60115
5011.448	0.40246	2.23705	5.20162	-1.22431
5015.447	NaN	NaN	NaN	NaN
5023.447	0.54302	2.35655	5.60059	-0.09009
5027.450	0.15868	2.59897	5.49714	0.20851
5031.449	0.71605	1.95226	4.71089	0.83299
5035.420	0.33503	2.81278	5.41440	0.03728
5039.449	0.52237	1.32025	5.12398	0.07754
5043.448	0.51604	0.94678	5.33623	-0.38287
5047.448	0.45549	0.42438	5.52340	-0.78493
5051.447	0.48440	0.80486	5.48435	-0.91696
5055.449	0.54883	2.03134	4.89042	-0.41478
5059.445	0.61491	2.51888	5.90878	-0.05134
5063.449	0.49001	2.25275	5.81413	0.66307
5067.446	0.58868	0.37945	5.59993	0.29422
5071.448	0.49053	1.71975	5.61421	-1.09869
5075.452	0.61885	2.34642	5.04203	-1.82052
5079.437	0.52334	2.09051	5.91455	-1.74395
5083.450	0.60106	0.18005	4.34287	-0.39299
5087.447	0.53349	1.85123	5.74922	-0.05145
5091.449	1.01595	1.28729	5.88552	0.05871
5095.450	0.45011	2.04989	5.80754	0.38377
5099.448	0.47076	3.23908	5.33288	-0.61683
5103.450	0.38822	1.92839	5.36486	0.34181
5107.440	0.44979	2.01045	5.82007	0.14870
5111.450	0.58364	1.77819	5.18808	-1.22374
5115.413	0.33106	2.17119	5.34808	-1.19459
5119.414	0.47329	1.90757	5.03203	-1.34822
5123.451	0.30431	2.57221	3.65492	-1.08813
5127.449	0.38387	2.08715	4.96549	-0.78860
5131.450	0.30416	2.20998	5.93505	-1.09486
5135.451	0.33876	1.94382	5.22584	-1.89190
5139.447	0.35253	1.83969	3.39958	-1.12721
5143.449	0.49297	1.23814	5.42643	0.08547
5147.452	0.69977	2.22277	5.13466	-1.31416
5151.453	0.60843	2.54160	4.93610	-1.24120
5155.456	0.41581	2.68183	6.31365	-1.04446
5159.435	0.46711	2.71704	4.12478	-1.14629
5163.448	0.52766	2.64147	5.08741	0.10858
5167.450	-0.35484	2.36572	3.64538	0.42876
5171.415	-0.63240	1.60946	3.14226	0.61786
5175.452	-2.75400	2.47690	0.25711	0.52835
5179.450	-3.50996	2.09055	-1.16042	-0.79511
5183.450	-4.95637	2.17545	-1.76611	-1.21439
5187.452	-5.55091	2.56647	-3.44243	-0.65242
5191.449	-7.47346	1.97836	-4.41112	-0.28108
5195.448	-8.01961	0.60863	-5.36823	-0.59639
5199.448	-9.59793	0.01764	-7.60680	-4.26267
5203.451	-10.22125	0.22660	-8.82870	-3.97953
5207.450	-10.53684	1.20103	-9.90927	-4.23563
5211.454	-11.14565	1.29507	-10.26528	-4.30832
5215.452	-11.87422	1.25025	-10.62478	-4.09116
5219.451	-11.51716	1.15885	-10.56042	-3.93503
5223.448	-11.33815	1.12631	-10.55051	-2.96207
5227.452	-11.94213	-0.27754	-9.82438	-3.51412
5231.454	-11.74033	-0.65937	-10.16983	-3.53186
5235.455	-11.47691	-0.47174	-10.30182	-2.67852
5239.452	-11.77161	-0.49732	-10.10800	-3.27456
5243.442	-11.65335	0.68627	-9.67401	-3.37062
5247.454	-11.61770	-0.26365	-10.06333	-3.59871
5251.455	-11.60985	-0.68582	-10.31523	-4.62100
5255.452	-11.81415	0.21698	-10.31496	-4.30594
5259.414	-11.62640	1.58068	-10.16252	-4.38555
5263.450	-11.84855	1.54286	-10.12666	-4.95903
5267.460	-12.30784	0.00454	-9.93092	-1.37550
5271.453	-12.06892	0.66972	-9.83303	-2.18559
5275.446	-11.95235	0.60890	-9.59795	-2.77187
5279.414	-12.03351	0.87992	-9.52280	-3.38937
5283.442	-12.02779	0.34119	-9.72754	-3.49155
5287.452	-12.06264	0.61543	-9.88767	-3.55903
5291.451	-12.00630	0.27468	-9.79031	-3.73552
5295.450	-12.03593	0.07254	-9.69571	-3.98497
5299.416	-12.04453	0.28292	-9.54510	-4.05519
5303.450	-12.06964	0.03266	-9.63349	-3.51493
5307.451	-12.15569	-0.40737	-9.48765	-3.74567
5311.450	-12.06923	-0.69268	-9.47594	-3.41774
5315.455	-12.08848	-1.27520	-9.47111	-3.38421
5319.452	-12.09835	-0.43445	-9.73243	-3.76438
5323.453	-12.14829	-0.87177	-9.81804	-4.78221
5327.425	-12.29737	0.95337	-9.67842	-3.33753
5331.459	-12.06598	1.14769	-9.66675	-1.46767
5335.455	-12.01081	0.36416	-9.51660	-1.43531
5339.451	-12.02727	0.97954	-9.61641	-1.10932
5343.452	-12.26503	0.51081	-9.42119	-1.80665
5347.455	-12.26913	-0.57383	-9.39984	-2.14548
5351.452	-12.11522	-0.96870	-9.71090	-2.80635
5355.451	-11.97467	-0.02778	-9.60849	-3.88746
5359.453	-11.96973	1.31298	-9.40537	-1.99526
5363.459	-12.06760	1.28380	-9.17957	-1.97920
5367.436	-12.41284	-0.32243	-9.52096	-2.60431
5371.449	-12.25197	-0.93276	-9.50829	-1.36497
5375.454	-11.95064	-0.74287	-9.41318	-0.89848
5379.324	-11.74294	-1.12345	-9.53576	-1.79397
5383.452	-12.07621	-0.43480	-9.18538	-2.17084
5387.416	-11.96458	-0.63787	-9.33828	-2.01281
5391.454	-12.31064	-0.39181	-9.60019	-1.81434
5395.459	-12.24379	0.14053	-9.54747	-1.89252
5399.455	-11.90528	0.99899	-9.53989	-1.72802
5403.452	-12.40498	0.37505	-9.23181	-1.59921
5407.452	-12.44093	0.51422	-9.55891	-0.39382
5411.458	-12.24189	-0.04602	-9.57985	-1.70099
5415.452	-12.12020	-0.30393	-9.64171	-1.45143
5419.455	-12.31902	-0.43890	-9.49045	-1.93768
5423.454	-12.27642	-0.52285	-9.73725	-3.82180
5427.455	-12.19842	-0.83171	-9.71869	-3.66815
5431.453	-12.07493	-0.81521	-9.50832	-1.75788
5435.452	-12.34406	-0.60745	-8.84251	-1.67615
5439.455	-12.32897	0.15731	-9.44187	-1.60544
5443.456	-12.41083	0.22667	-9.29551	-1.01367
5447.457	-11.86448	0.28343	-9.05175	-1.22518
5451.430	-12.44482	0.40209	-9.36952	-1.44516
5455.455	-12.32970	0.07178	-9.03979	-2.87782
5459.457	-12.55150	0.32708	-9.24958	-3.45127
5463.416	-12.24099	0.57447	-9.36749	-3.82658
5467.458	-12.44186	-0.10279	-9.32214	-2.24333
5471.454	-12.48958	0.14035	-8.82589	-2.15569
5475.458	-12.39568	0.33701	-9.03258	-1.96178
5479.417	-12.16178	0.21272	-9.04117	-1.98399
5483.459	-12.13081	0.12169	-9.32738	-1.85870
5487.457	-12.25673	-0.08526	-9.75157	-1.74397
5491.444	-11.98163	-0.16804	-9.00496	-1.56844
5495.444	-11.36458	2.93803	-8.46441	1.91049
5499.455	-10.46861	3.45497	-6.75341	1.36639
5503.457	-7.54986	3.64093	-6.27373	5.44183
5507.455	-7.25367	5.68505	-3.47396	3.29938
5511.455	-5.93404	7.09117	-3.42784	5.10195
5515.451	-5.89262	7.74394	-3.15607	9.76682
5519.453	-6.35096	7.95078	-2.99896	8.27998
5523.454	-5.98623	8.10290	-3.07048	7.49699
5527.454	-5.15246	8.48696	-3.21916	7.49269
5531.420	-5.19226	8.63013	-2.54960	7.75758
5535.459	-6.06615	10.28498	-3.07738	8.83709
5539.324	-5.63975	8.73140	-2.13098	10.68079
5543.328	-6.00396	7.41214	-1.94052	9.23607
5547.329	-5.71251	7.93012	-2.66697	7.58004
5551.333	-5.52003	8.23163	-2.77317	8.05376
5555.321	-5.86408	9.40067	-2.39562	8.12271
5559.332	-5.80577	9.15308	-2.10292	8.53952
5563.333	-5.49293	6.37370	-2.59061	7.11610
5567.335	-5.59654	7.68956	-2.64760	7.72158
5571.330	-5.77730	8.90531	-2.21935	8.23386
5575.334	-5.13348	8.11651	-2.74408	10.51493
5579.326	-5.63719	9.64150	-2.52104	8.35951
5583.324	-5.78531	9.12232	-2.36168	7.58184
5587.324	-5.79349	6.71633	-2.62806	7.84926
5591.332	-5.48408	8.00075	-2.11095	8.32531
5595.331	-5.63272	8.21149	-2.56325	9.19320
5599.294	-5.58235	8.31077	-2.51234	7.87600
5603.321	-5.22404	8.66165	-2.09782	6.40037
5607.294	-5.59860	8.16181	-2.70446	7.38241
5611.333	-5.66273	9.59621	-3.02187	7.81020
5615.330	-5.45516	9.27680	-2.59975	8.66483
5619.460	-5.65975	9.42156	-2.62630	8.20379
5623.304	-5.62763	8.04916	-2.74814	8.79077
5627.333	-5.45081	7.38107	-2.79991	7.06036
5631.338	-5.37365	8.10809	-1.98274	6.22729
5635.323	-5.57493	8.35218	-2.81365	6.57483
5639.334	-5.47432	7.89252	-3.51223	7.78895
5643.332	-5.56156	8.37916	-3.06595	9.01563
5647.331	-5.45870	9.16268	-2.56159	8.38530
5651.357	-5.59415	9.47819	-2.84556	8.54697
5655.331	-5.66111	9.35932	-2.84128	9.02454
5659.333	-5.61261	9.39343	-2.20756	6.66645
5663.334	-5.36720	6.74045	-1.83925	5.95115
5667.299	-5.18860	7.91601	-2.47212	6.75904
5671.332	-5.60226	8.04478	-2.64599	8.41346
5675.297	-5.43851	8.12474	-2.26856	7.44696
5679.297	-5.43962	9.08715	-2.22750	9.06340
5683.323	-5.24786	8.36063	0.31545	8.89442
5687.336	-5.28500	9.44539	-2.21762	8.83903
5691.336	-5.47670	7.98983	-2.41152	6.63452
5695.343	-5.50122	7.96067	-2.55346	7.24763
5699.324	-5.82729	7.44416	-2.56374	7.19419
5703.333	-5.39965	7.93773	-2.48502	7.67201
5707.299	-5.31499	8.63503	-2.67330	8.59894
5711.335	-5.21065	8.37592	-2.52835	9.02408
5715.357	-5.54489	8.09046	-2.66214	8.72460
5719.336	-6.05624	9.61345	-2.68658	9.39608
5723.336	-5.26863	8.81968	-3.04887	9.02877
5727.330	-5.56057	9.65942	-2.53493	9.22915
5731.325	-5.38080	9.64438	-2.59383	9.78750
5735.330	-5.41067	10.28132	-2.46942	8.24656
5739.330	-5.55307	8.47609	-2.48621	7.25291
5743.333	-5.38818	7.66282	-2.55262	7.86293
5747.324	-5.50675	7.09167	-2.53288	5.94204
5751.337	-5.47149	7.26869	-2.16458	5.85777
5755.334	-5.50523	8.57560	-2.56277	7.67645
5759.332	-5.33263	7.55684	-2.53199	7.26731
5763.356	-5.52256	8.20111	-3.10386	9.00466
5767.332	-5.65705	8.87036	-2.53186	8.82563
5771.336	-5.60900	8.56735	-2.04570	8.85176
5775.333	-5.45904	8.13876	-2.42564	8.23092
5779.337	-5.48875	8.24581	-2.33695	8.93576
5783.337	-5.62753	8.26826	-2.70503	8.27881
5787.331	-5.52549	8.22176	-2.25387	5.96547
5791.328	-4.62079	8.30052	-1.16198	8.39303
5795.327	-3.08397	10.80041	1.29122	9.84252
5799.336	-0.65953	10.24639	1.55350	10.60538
5803.334	-0.28406	10.76155	2.06032	13.74195
5807.336	0.79429	10.84561	4.27987	12.11801
5811.324	0.22485	9.35273	4.87586	8.41320
5815.333	0.56498	10.46240	2.58940	11.98324
5819.333	2.93077	10.53483	4.93908	14.24059
5823.333	1.89905	10.62502	4.84977	8.65112
5827.359	0.43869	9.53661	4.88091	7.76305
5831.309	0.64568	10.39238	4.32242	11.81712
5835.336	1.04377	10.58260	5.22052	11.78349
5839.336	1.55641	10.47632	4.96755	9.77821
5843.326	0.91713	10.66450	5.21311	7.12887
5847.335	0.95187	10.69844	4.14159	14.65725
5851.336	0.89932	10.73393	4.88535	14.73588
5855.337	1.07810	10.60750	4.82584	14.05105
5859.335	1.41142	10.24110	4.72388	9.87353
5863.337	1.49277	10.46055	NaN	NaN
5867.337	1.34638	10.58494	4.95957	14.38511
5871.323	1.38818	10.55766	4.86234	14.39727
5875.333	1.28899	10.50662	4.91617	10.65703
5879.298	1.44406	10.14213	4.78151	9.95348
5883.335	1.46127	10.20306	4.78151	9.60341
5887.335	1.27373	10.50810	4.78925	10.89191
5891.338	1.39034	10.36008	4.91649	10.07607
5895.335	1.53285	10.28905	5.01699	8.25959
5899.336	1.35896	10.30903	4.85216	9.29467
5903.337	1.47573	10.23495	4.72975	9.91188
5907.338	1.36744	10.32746	4.55181	9.69957
5911.337	1.18175	10.73832	4.87586	10.03634
5915.301	1.13767	10.27594	4.89045	10.24878
5919.337	1.36692	10.39242	5.24060	9.70814
5923.328	1.35735	10.37311	4.74698	8.76734
5927.339	1.27170	10.44983	4.48532	9.14676
5931.334	1.17269	10.51192	4.73954	9.42596
5935.339	0.95125	10.69660	4.43739	9.80699
5939.338	1.27968	10.59230	4.49136	8.97272
5943.336	1.32545	10.54468	4.79087	8.51391
5947.336	1.14389	10.60434	4.41252	9.91378
5951.342	1.16696	10.52505	4.35588	13.35289
5955.329	1.25989	10.26222	4.72805	12.45537
5959.337	1.35921	9.94515	4.30615	12.13833
5963.339	1.46975	9.72475	4.28473	10.70701
5967.336	1.09160	10.13908	4.12962	10.02709
5971.328	1.00811	10.26552	4.25230	9.85309
5975.338	1.19909	10.30057	4.18040	9.33205
5979.301	1.20641	10.37296	4.21945	9.81344
5983.333	1.43285	10.53576	4.06829	10.74428
5987.295	1.51943	10.33354	4.38134	12.38215
5991.334	1.65270	10.34409	4.26585	13.79815
5995.329	1.38927	10.43152	3.76643	12.99374
5999.341	1.51690	10.46207	3.98289	13.52189
6003.362	1.69783	10.26740	4.03606	11.26085
6007.306	2.00591	10.30030	4.27104	10.87731
6011.339	1.74201	10.37718	4.53749	10.55520
6015.338	1.44381	10.59817	4.97462	10.65654
6019.328	1.41643	10.58075	4.05266	9.80825
6023.336	1.65776	10.75285	3.81486	11.05837
6027.338	1.73160	10.63673	3.84088	10.73788
6031.338	2.30060	10.49731	5.63985	8.56373
6035.344	3.98926	10.11528	3.70341	10.90171
6039.310	5.06631	7.77268	8.92963	10.97244
6043.338	7.92510	7.80990	9.85671	8.32859
6047.300	7.72600	8.38615	10.24437	10.59521
6051.336	12.31980	7.31930	11.77413	8.56210
6055.337	12.26221	9.29678	16.14952	11.14704
6059.338	18.21141	10.02173	18.36753	7.34540
6063.340	14.97157	14.76595	22.89451	2.14888
6067.343	NaN	NaN	NaN	NaN
6071.340	NaN	NaN	NaN	NaN
6075.342	NaN	NaN	NaN	NaN
6079.327	NaN	NaN	NaN	NaN
6083.344	NaN	NaN	NaN	NaN
6087.337	NaN	NaN	NaN	NaN
6091.302	NaN	NaN	NaN	NaN
6095.338	NaN	NaN	NaN	NaN
6099.305	NaN	NaN	18.91347	7.47422
6103.336	NaN	NaN	23.29207	7.80892
6107.342	NaN	NaN	NaN	NaN
6111.341	NaN	NaN	17.68698	2.74549
6115.341	NaN	NaN	NaN	NaN
6119.342	21.09525	4.34786	NaN	NaN
6123.303	20.85930	3.77635	NaN	NaN
6127.340	19.34579	4.12812	21.19878	1.48925
6131.340	19.24347	3.85677	NaN	NaN
6135.344	17.10898	0.12457	17.69284	0.05457
6139.339	6.84659	1.73711	NaN	NaN
6143.342	11.99856	0.32590	NaN	NaN
6147.332	10.12113	0.35096	NaN	NaN
6151.339	8.43287	0.49253	17.52399	-4.78116
6155.339	10.44165	0.14616	NaN	NaN
6159.343	8.88736	0.38421	12.08758	-0.83682
6163.341	9.55876	0.32894	NaN	NaN
6167.301	10.86591	0.29248	16.46676	-1.22803
6171.340	9.39030	0.24080	NaN	NaN
6175.342	10.87302	0.35816	NaN	NaN
6179.337	10.17779	0.33167	16.23862	-2.59443
6183.339	10.43577	0.28959	9.47751	-12.63618
6187.342	10.71147	0.35249	16.14563	-3.68542
6191.339	9.24938	0.45880	-19.99372	-12.05478
6195.333	10.84954	0.42815	16.95274	-6.87558
6199.341	10.52914	0.55114	19.68511	-3.36799
6203.344	9.53426	0.25074	16.35207	-2.27752
6207.343	10.28938	0.95569	16.23377	-0.32566
6211.339	10.19974	-0.01237	-19.99372	-12.05163
6215.345	8.96816	0.42720	16.22139	-2.56499
6219.344	10.52046	0.05739	17.90194	-3.80004
6223.339	9.13090	0.00606	16.05952	-3.43116
6227.238	10.45795	-0.29658	18.17741	-4.23552
6231.301	9.93660	0.18191	16.85207	-4.14498
6235.341	9.41238	-0.10588	17.93623	-4.31453
6239.343	9.74176	0.23205	16.68065	-4.02274
6243.237	10.10136	0.38415	16.52955	-4.84761
6247.343	9.66928	-0.03388	17.76419	-4.37429
6251.343	9.46831	0.27349	15.36599	-5.14728
6255.341	9.89521	-0.00311	17.38423	-2.84797
6259.239	8.06049	-0.12924	15.31136	-4.58872
6263.340	10.10381	-0.34039	17.89992	-3.59698
6267.342	9.39380	-0.20228	15.81863	-5.32461
6271.340	9.96138	-0.16023	17.14433	-3.51987
6275.343	9.83062	0.14164	14.97967	-5.26290
6279.304	9.93366	0.13433	16.89098	-2.95284
6283.346	10.26879	-0.28901	17.33501	-4.89782
6287.344	9.85308	0.33144	16.59066	-4.80605
6291.248	10.05981	0.16060	16.98820	-4.62149
6295.304	10.17324	0.49346	16.46601	-4.91957
6299.342	10.17541	-0.22675	16.30499	-4.54681
6303.343	10.29464	-0.08428	16.33733	-5.17151
6307.240	10.00463	0.15268	16.56134	-5.12638
6311.345	10.06684	0.14952	16.99333	-4.43720
6315.344	10.18204	0.30457	15.86512	-4.68004
6319.344	9.91835	0.62509	16.42256	-4.40888
6323.241	10.16920	0.72223	16.40016	-4.63685
6327.343	8.77109	0.85551	16.50179	-4.04558
6331.309	8.56877	1.08513	15.31288	-1.96162
6335.347	7.22795	0.27533	11.16046	-0.32687
6339.240	6.57840	0.34004	9.03999	-0.11939
6343.344	4.41188	0.81474	8.88571	0.00879
6347.304	4.10360	0.93844	8.47995	0.44435
6351.343	1.56288	1.41574	8.37512	0.15889
6355.242	1.48000	2.03582	6.62317	-2.35282
6359.342	1.96184	2.33958	8.45711	-2.54900
6363.341	1.81255	2.78379	6.64329	-3.86663
6367.344	2.65141	2.14434	6.45209	-3.31568
6371.248	1.98893	2.49780	7.08757	-3.26955
6375.344	2.04594	2.92513	6.60676	-2.82449
6379.344	1.40638	3.49879	7.06141	-3.10332
6383.343	1.43868	3.28813	5.63719	-3.27973
6387.344	1.81042	2.59776	5.86477	-3.27522
6391.342	1.95168	2.82140	6.75575	-3.43019
6395.343	1.92721	2.85397	5.92655	-3.36959
6399.346	1.67744	2.97164	6.67157	-3.61544
6403.239	1.99781	3.39204	6.79053	-3.47875
6407.348	1.64131	2.97923	6.98494	-2.23268
6411.339	1.60020	3.30230	7.28613	-3.18625
6415.307	1.56104	3.38524	6.92535	-3.42175
6419.216	1.75503	3.08315	6.06846	-5.26416
6423.339	1.88997	2.90033	6.02823	-3.64493
6427.344	2.01050	2.32672	5.90936	-3.89413
6431.342	1.82361	1.91014	6.42912	-3.62587
6435.347	1.74449	2.64631	5.98923	-2.46471
6439.346	2.04086	1.72317	6.14197	-2.32859
6443.342	2.06109	0.50546	6.74670	-2.24015
6447.343	1.98095	0.36789	6.36557	-1.58890
6451.248	2.21041	0.69450	6.15713	-0.45401
6455.315	2.05392	1.21419	6.49514	-0.21127
6459.344	2.04803	1.74519	6.17975	-0.18146
6463.345	2.19772	1.57872	6.57884	-0.90450
6467.247	2.12335	1.70524	6.62924	-2.59973
6471.340	2.10439	2.04128	6.70222	-3.86199
6475.341	2.18783	2.23931	6.78307	-3.90381
6479.347	1.97171	2.59546	6.91691	-2.08050
6483.311	1.87552	2.64817	6.99883	-1.89631
6487.307	1.64861	3.17092	6.71373	-1.70539
6491.349	1.20465	3.04884	6.86449	-1.51755
6495.327	1.30223	2.76206	6.88321	-1.11416
6499.245	1.42246	3.09859	7.06112	-2.24697
6503.347	1.41387	3.17325	7.09446	-1.87819
6507.344	1.43892	3.04637	7.22979	-1.85266
6511.309	1.66400	3.31331	7.03619	-1.79239
6515.245	1.37424	3.29949	6.97240	-1.67445
6519.347	1.42759	3.19725	6.55253	-1.68123
6523.347	1.62277	3.03011	5.26962	-1.66909
6527.346	1.73135	3.01806	6.14960	-1.83724
6531.240	1.99741	2.64709	5.67172	-1.86560
6535.348	2.10344	2.57213	5.60212	-1.83245
6539.321	2.31725	2.11701	5.81415	-2.01349
6543.345	2.36103	2.06361	5.55452	-1.90180
6547.248	2.31316	1.88190	5.58931	-1.99721
6551.308	2.32875	1.84641	5.74274	-1.98547
6555.345	2.49337	1.94392	5.48873	-1.73509
6559.348	2.45175	1.86554	5.64715	-2.27225
6563.245	2.51782	1.83286	5.50087	-1.92917
6567.344	2.50504	1.94983	5.48828	-1.50554
6571.345	2.45071	2.02150	6.17982	-1.71901
6575.221	2.44224	1.95022	7.05244	-0.07963
6579.221	2.38350	2.07404	6.24114	-1.14967
6583.223	2.41041	2.18718	6.07609	-1.01190
6587.214	2.50298	1.80163	6.05658	0.30613
6591.220	2.49426	1.66506	6.06063	-0.37112
6595.212	2.55733	1.07197	6.44601	-1.42952
6599.221	2.52916	0.57073	7.45953	-2.39867
6603.184	2.35501	1.02130	6.47529	-1.52471
6607.221	1.29953	-0.22766	5.44869	-1.77319
6611.220	-1.51271	0.72250	2.49330	-1.64301
6615.223	-1.00928	0.75342	1.38290	-1.79789
6619.184	-1.30317	0.30492	1.44882	-2.18680
6623.226	-2.95287	0.88162	1.32917	-1.88926
6627.245	-3.11279	0.96226	0.57307	-2.11931
6631.226	-2.84863	0.84786	0.36060	-2.07810
6635.222	-2.52186	2.27616	0.61660	-2.03718
6639.226	-2.39557	2.46474	0.43976	-2.04331
6643.215	-2.68767	2.43502	0.86245	-1.69410
6647.223	-2.83024	2.29330	0.48738	-1.96632
6651.185	-2.84264	2.30183	0.55778	-1.89047
6655.225	-2.58863	3.01225	1.06560	-1.76703
6659.224	-2.64601	2.29465	1.05701	-1.72590
6663.227	-2.52032	2.50916	0.59153	-1.82609
6667.182	-2.71201	2.58777	0.91053	-1.79744
6671.218	-2.70228	2.62351	0.67451	-1.61319
6675.218	-2.75527	2.69272	0.99784	-1.53788
6679.224	-2.89881	2.45930	0.55845	-1.38364
6683.222	-2.99492	1.62484	1.10241	-1.25259
6687.223	-3.05526	1.43746	1.54145	-1.09492
6691.214	-3.21782	1.63042	0.75640	-1.07105
6695.222	-3.52717	1.62038	0.49642	-1.19992
6699.226	-1.51358	1.49128	0.50858	-1.16629
6703.226	-1.48453	1.45345	0.49438	-1.02771
6707.215	-1.47325	1.39504	0.10168	-1.07621
6711.223	-1.58864	1.15849	0.78630	-1.08414
6715.225	-1.97542	1.81568	0.31287	-1.08343
6719.222	-2.16429	2.22289	0.33764	-1.26705
6723.215	-2.69824	2.15154	0.51557	-1.54034
6727.226	-2.31688	2.59071	0.40137	-1.22803
6731.225	-1.70440	3.37460	0.82888	-1.66159
6735.227	-2.57910	3.40917	0.73337	-2.16579
6739.218	-2.53491	3.02819	1.31255	-1.89155
6743.224	-2.55331	3.07493	0.63300	-2.13013
6747.225	-2.86438	2.78993	0.79630	-3.43356
6751.206	2.18763	3.06874	0.40658	-2.08392
6755.194	2.37902	2.44920	0.34824	-0.43365
6759.223	2.13814	2.24821	1.17843	1.91222
6763.225	2.07836	2.15033	1.04945	0.80887
6767.223	1.73554	1.83325	0.94056	0.40282
6771.215	1.94136	1.27725	1.12643	-0.23416
6775.225	1.55698	1.25094	1.42126	0.05088
6779.224	0.96135	1.61538	1.37089	-0.59105
6783.224	0.26813	1.59225	1.04791	-0.96476
6787.227	-0.53270	2.23777	1.48778	-0.06106
6791.213	-8.41301	1.81314	3.80050	0.68829
6795.215	NaN	NaN	11.19812	2.87960
6799.222	NaN	NaN	NaN	NaN
6803.224	NaN	NaN	NaN	NaN
6807.223	NaN	NaN	NaN	NaN
6811.223	NaN	NaN	NaN	NaN
6815.223	NaN	NaN	NaN	NaN
6819.224	NaN	NaN	NaN	NaN
6823.223	NaN	NaN	NaN	NaN
6827.223	NaN	NaN	NaN	NaN
6831.224	NaN	NaN	NaN	NaN
6835.190	NaN	NaN	NaN	NaN
6839.227	NaN	NaN	NaN	NaN
6843.224	NaN	NaN	NaN	NaN
6847.224	NaN	NaN	NaN	NaN
6851.225	NaN	NaN	NaN	NaN
6855.224	NaN	NaN	NaN	NaN
6859.188	NaN	NaN	NaN	NaN
6863.213	NaN	NaN	NaN	NaN
6867.225	NaN	NaN	NaN	NaN
6871.255	NaN	NaN	NaN	NaN
6875.212	NaN	NaN	NaN	NaN
6879.189	NaN	NaN	NaN	NaN
6883.227	NaN	NaN	NaN	NaN
6887.248	NaN	NaN	NaN	NaN
6891.196	NaN	NaN	NaN	NaN
6895.226	NaN	NaN	NaN	NaN
6899.205	NaN	NaN	-1.64769	8.51467
6903.249	NaN	NaN	NaN	NaN
6907.225	NaN	NaN	1.42270	8.28357
6911.226	NaN	NaN	3.50697	1.97636
6915.220	-5.99281	3.71612	1.36075	1.32380
6919.218	-2.52688	4.59930	1.50504	1.92224
6923.226	-1.38396	5.51643	3.05444	0.74331
6927.229	9.85445	5.65459	-7.41902	0.40610
6931.226	-1.94620	3.86975	1.51841	0.34669
6935.217	4.47015	5.23512	0.85885	0.06072
6939.232	4.37488	4.13481	2.49946	-0.41244
6943.227	-0.23755	4.01151	0.59322	0.02589
6947.228	-1.89768	4.31581	1.88767	-0.02223
6951.249	-3.19890	4.09971	1.45455	0.47309
6955.230	-1.81369	3.94473	0.67116	0.28053
6959.207	-1.29298	3.25233	-6.58337	2.75133
6963.228	-1.56950	3.29881	0.85555	0.47905
6967.223	-1.93420	2.79475	0.60493	0.31653
6971.224	-1.68277	3.04473	0.48681	0.43640
6975.228	-1.86942	3.25970	0.61809	0.37246
6979.225	-1.88504	2.74654	0.80000	0.40316
6983.227	-1.82998	2.70118	0.76372	0.48212
6987.223	-2.28754	2.82840	0.87622	0.36360
6991.228	-2.26517	2.88726	0.97663	0.21181
6995.234	-1.93261	3.00489	1.09542	0.23473
6999.217	-2.03167	2.67090	0.85108	-0.02234
7003.217	-2.07930	2.76997	0.91220	-0.02962
7007.228	-2.05863	2.77038	1.18043	-0.02760
7011.226	-2.13135	2.99011	0.97559	-0.16942
7015.222	-2.17378	2.90552	1.11913	-0.03881
7019.228	-2.17115	2.92675	1.13739	0.00671
7023.228	-2.33437	3.74432	1.09691	0.30034
7027.229	-2.22649	3.63829	1.40931	0.57670
7031.226	-2.07403	3.74722	1.29038	1.22702
7035.230	-2.23387	3.64099	1.29211	0.36089
7039.235	-2.08964	3.58326	0.98708	-0.51943
7043.228	-2.15836	3.76301	0.71126	-1.01247
7047.227	-2.19930	4.06587	1.23054	-1.11307
7051.229	-2.27796	2.88035	0.68652	-1.97662
7055.231	-2.23608	0.62880	0.49651	-2.09598
7059.227	-2.23531	2.39400	0.61340	-1.60996
7063.221	-2.08892	1.27068	0.83957	-1.09955
7067.230	-2.08828	1.12075	1.68141	-0.71640
7071.230	-2.21831	1.51821	0.70049	-1.19272
7075.190	-2.15140	1.59041	0.65967	-1.25207
7079.229	-2.11527	1.54161	0.76843	-1.03270
7083.211	-2.20044	1.71656	0.70092	-0.73378
7087.225	-2.27610	1.71107	0.66062	-0.34577
7091.231	-2.38774	1.84437	0.68387	0.43470
7095.229	-2.27307	1.94448	0.69724	0.39377
7099.233	-2.22862	2.10323	0.69379	0.98324
7103.229	-2.27109	2.14735	0.61843	1.12804
7107.241	-2.29431	2.32837	0.75275	0.88555
7111.233	-2.36552	2.42635	0.76476	0.80601
7115.229	-2.34864	2.46631	0.41082	1.00944
7119.232	-2.31574	2.62753	0.17107	0.83561
7123.228	-2.38298	2.62627	0.29912	0.99850
7127.223	-2.34171	2.61247	0.62131	1.01251
7131.229	-2.29302	2.69378	0.74233	0.91509
7135.232	-2.03214	2.64780	0.75126	0.88215
7139.229	-2.12630	2.70867	0.84069	1.00553
7143.221	-2.18062	2.83635	0.97539	1.27481
7147.233	-2.21960	2.89736	1.10001	0.96420
7151.231	-2.33460	3.00410	1.16600	0.81868
7155.231	-2.36539	3.00520	1.18562	-1.00483
7159.223	-2.44891	3.10221	1.09934	-1.47708
7163.230	-2.35633	3.07345	1.03622	-1.52905
7167.191	-2.57719	3.43384	0.86004	-1.11062
7171.230	-2.31678	3.43913	0.97293	-0.92050
7175.231	-2.32243	3.52369	0.35618	-0.96901
7179.232	-2.35999	3.35619	0.66310	-1.11159
7183.231	-2.38804	3.17314	1.11889	-1.14716
7187.231	-2.38209	3.21909	0.90259	-0.68843
7191.222	-2.24646	3.71893	0.91624	-1.17016
7195.233	-2.24817	2.68885	1.25959	-0.83904
7199.233	-2.21442	2.78759	1.14776	0.62334
7203.234	-2.14766	2.27465	1.07478	1.30797
7207.190	-2.19326	2.66284	1.19289	0.82068
7211.222	-2.15195	3.58354	1.39294	-0.64606
7215.195	-1.73182	2.21944	1.87022	-2.53176
7219.228	-0.77347	0.18136	2.44499	-2.32348
7223.232	-0.02648	-1.50889	3.24147	-4.29096
7227.231	0.49364	-1.96296	3.53419	-2.37077
7231.192	1.06466	-1.07039	6.52865	-3.99711
7235.228	1.82700	-1.65097	6.79816	-3.93444
7239.231	2.17420	-1.51287	6.69679	-4.30681
7243.235	2.50254	-0.90283	6.88218	-4.11217
7247.233	2.55520	-0.56367	7.06068	-4.37450
7251.233	2.18815	-0.27095	6.44439	-4.16235
7255.226	1.35348	-0.17939	6.13608	-4.79342
7259.231	1.14908	0.08477	6.61704	-4.42176
7263.231	1.48374	-0.04203	6.79261	-4.48806
7267.232	1.82081	0.28289	6.78346	-4.33317
7271.130	1.91305	0.22488	7.28129	-4.66487
7275.232	1.43575	-0.03336	7.04846	-4.80725
7279.233	1.45165	0.13650	6.89825	-5.01713
7283.233	1.35782	0.26042	6.71407	-5.48584
7287.128	1.40819	0.30595	5.98515	-5.03809
7291.222	1.28231	0.36737	6.14278	-5.15200
7295.194	1.17857	0.54531	5.51194	-4.99356
7299.233	1.40559	0.57787	6.11616	-4.84271
7303.138	1.48803	0.58115	5.50336	-4.62139
7307.232	1.64456	-0.32193	5.51600	-4.88965
7311.233	1.76294	-0.28814	5.56650	-5.22528
7315.234	1.72651	-1.11568	5.37465	-4.91270
7319.143	1.77362	-0.76370	5.77372	-5.38203
7323.230	1.21571	-0.31742	5.84721	-5.38089
7327.231	1.63834	0.25256	5.69345	-5.05841
7331.233	1.24702	0.23251	7.19407	-5.28559
7335.134	1.21740	0.09985	5.94497	-5.42679
7339.231	1.24203	-0.18394	6.09830	-5.40112
7343.240	1.80578	-0.96157	4.58400	-5.46499
7347.233	1.77129	-1.07419	4.97879	-5.10760
7351.235	1.78178	-1.27004	5.55762	-5.63819
7355.233	1.56330	-0.80439	5.51160	-5.90174
7359.234	1.34018	-1.17669	5.85578	-6.01407
7363.232	1.26666	-0.49407	6.25951	-5.97025
7367.131	1.32570	-0.51527	6.02084	-6.17115
7371.234	1.56270	-1.06618	6.06166	-5.32869
7375.236	1.46219	-0.44547	7.08546	-6.49567
7379.196	1.65027	-0.75995	5.58280	-6.29705
7383.133	1.50194	-1.56117	5.35436	-5.59542
7387.232	1.68843	-1.87639	4.23411	-6.21126
7391.232	1.72875	-2.27951	4.87281	-6.51772
7395.233	1.91360	-2.39903	5.86312	-6.62950
7399.132	2.16511	-2.40874	5.35527	-6.25900
7403.232	1.73904	-2.22739	5.94892	-4.81644
7407.234	1.70886	-1.66282	5.70595	-4.31163
7411.234	1.61607	-0.88513	5.47601	-4.09450
7415.139	1.80013	-1.23860	6.57509	-4.88349
7419.224	1.79762	-0.86051	6.17953	-4.01687
7423.235	2.16753	-1.52521	6.15468	-3.42421
7427.233	2.36292	-0.49754	6.81688	-4.10249
7431.132	3.26453	-0.51628	6.71204	-2.70947
7435.235	6.02406	-1.58262	11.00178	-4.87680
7439.233	6.41707	-0.36410	11.22110	-4.06746
7443.236	7.53408	-0.60835	13.37669	-4.65180
7447.135	7.29897	-0.76694	13.07898	-5.20162
7451.238	9.60543	-0.99654	16.39669	-5.44054
7455.236	9.74989	-1.11086	14.90468	-5.45275
7459.209	9.61904	-1.17597	16.13095	-5.58851
7463.116	9.85194	-0.85223	17.38751	-5.44155
7467.230	10.33502	-1.08466	17.49221	-7.08516
7471.230	11.01945	-1.47472	17.61112	-4.34800
7475.235	10.67313	-1.43775	16.11950	-3.85443
7479.199	10.98992	-1.81563	17.12296	-4.65157
7483.235	9.94789	-1.28832	13.60526	-6.68915
7487.193	10.45555	-1.56387	15.57857	-4.42690
7491.235	10.63734	-1.40431	16.30476	-4.18953
7495.134	10.62663	-1.41710	17.41408	-4.98646
7499.219	10.69266	-1.58094	16.78069	-3.24251
7503.231	10.02714	-1.54757	15.78269	-2.81227
7507.236	10.18781	-1.53025	16.22524	-4.07356
7511.133	10.15603	-1.44431	16.23498	-4.15150
7515.234	10.81973	-1.57135	16.92894	-4.41211
7519.236	10.43388	-1.32554	16.63494	-4.55716
7523.239	10.20892	-1.23722	16.58829	-4.32897
7527.133	9.59088	-0.48169	15.26212	-3.85236
7531.244	9.49209	-1.43154	16.44387	-4.61624
7535.236	10.10170	-2.09257	16.73827	-4.46195
7539.233	10.39155	-2.24889	16.99958	-4.36503
7543.135	10.64230	-1.66168	15.45122	-4.85270
7547.197	10.38855	-2.39010	15.13304	-4.74366
7551.235	9.93369	-2.40637	15.19840	-4.55579
7555.235	9.83867	-1.71758	15.06424	-4.71001
7559.240	9.91310	-1.76684	16.04446	-5.76209
7563.237	10.25687	-2.13561	17.11603	-6.06252
7567.235	10.88948	-2.28567	15.53783	-5.15116
7571.236	10.54173	-2.36239	14.45190	-5.08717
7575.135	10.30194	-1.98462	14.85336	-5.27164
7579.199	9.95360	-1.40633	15.82354	-5.81783
7583.210	10.05279	-1.36873	17.14005	-6.49983
7587.237	10.30163	-1.85549	16.06311	-6.31348
7591.134	11.32008	-1.67282	16.87016	-6.55710
7595.236	10.90128	-1.67602	17.04457	-6.70107
7599.238	10.73840	-1.60097	15.19285	-6.46961
7603.237	9.66805	-1.34864	15.37946	-6.81544
7607.134	9.77932	-1.47190	16.16312	-7.10431
7611.114	9.68257	-0.95172	16.02128	-7.66656
7615.112	9.90836	-1.29778	17.15696	-6.63884
7619.113	10.29575	-1.10604	17.39183	-5.79572
7623.106	10.55869	-1.03643	17.49519	-4.88425
7627.113	10.76884	-1.15007	16.16491	-4.49391
7631.112	10.80208	-1.24736	13.46951	-6.51747
7635.113	10.56944	-1.27823	15.50737	-5.01726
7639.079	9.90438	-1.09642	14.17852	-6.50396
7643.116	10.00350	-1.01558	15.03638	-6.90119
7647.115	9.95512	-1.07301	15.80278	-4.83687
7651.111	10.40296	-1.03986	15.81649	-4.85328
7655.104	10.00685	-0.82893	16.60071	-4.60943
7659.114	9.91676	-0.78246	16.92908	-5.25304
7663.115	10.13304	-0.73077	16.83834	-3.59398
7667.115	10.17947	-0.93800	16.51828	-4.27361
7671.104	10.33058	-0.94269	16.84823	-4.74432
7675.110	10.29563	-0.80364	17.08410	-4.56827
7679.077	10.37854	-0.88048	17.28194	-4.90062
7683.111	10.41561	-1.04497	17.20953	-4.79728
7687.108	10.65326	-1.04522	16.52002	-4.74378
7691.114	11.11294	-1.31629	17.29912	-4.67483
7695.111	11.14732	-1.95868	17.29066	-4.89257
7699.115	10.60932	-1.64084	16.64738	-4.60098
7703.107	10.56697	-1.55444	16.38867	-4.61825
7707.116	10.66352	-1.74818	15.92740	-5.00112
7711.108	10.31004	-1.10471	15.75198	-5.00616
7715.107	10.22075	-1.10146	14.78658	-7.69244
7719.112	10.14172	-1.07444	15.57514	-5.12962
7723.112	10.10206	-0.79253	15.76079	-5.28347
7727.114	10.07564	-0.72070	15.77274	-5.09090
7731.114	10.07961	-1.13670	15.61732	-5.82947
7735.114	9.87548	-0.50464	15.04554	-5.67747
7739.120	9.75538	-0.93063	14.95577	-2.76777
7743.114	7.88307	-0.50394	14.38700	-3.95879
7747.115	6.57345	-0.76149	7.96534	-4.15514
7751.116	4.54718	-0.57501	9.99416	-4.93936
7755.088	3.90167	-0.25919	7.84998	-1.61541
7759.113	1.50390	-0.28042	4.65077	-5.20353
7763.117	0.58173	-0.27805	5.41556	-4.63526
7767.136	-0.63536	-0.26090	0.43237	-6.34066
7771.116	-2.82033	-0.87284	-0.13317	-3.84691
7775.114	-3.08013	-0.83183	-2.93072	-6.79432
7779.117	-5.20659	-1.17372	-4.20975	-6.64215
7783.113	-6.85444	-0.56585	-4.08043	-5.89890
7787.115	-6.11069	-1.39795	-5.08288	-7.61854
7791.115	-7.42737	-1.56178	-6.99939	-6.97129
7795.111	-7.63598	-1.46847	-7.31262	-7.27547
7799.115	-7.66677	-1.36250	-7.23372	-6.73261
7803.116	-7.51342	-1.63306	-6.09815	-6.49846
7807.116	-7.75212	-1.60750	-5.68059	-6.15112
7811.114	-7.44113	-1.58882	-5.48162	-6.17060
7815.106	-7.64681	-1.65640	-5.98211	-6.18025
7819.115	-7.67582	-1.74978	-5.92095	-5.85660
7823.117	-7.56310	-1.63674	-5.93421	-5.95722
7827.118	-7.55327	-1.55491	-6.14126	-5.72556
7831.118	-7.09956	-1.96896	-6.96316	-5.77753
7835.116	-7.43532	-1.62001	-6.84377	-5.45912
7839.081	-7.36276	-1.55758	-6.19905	-3.49351
7843.118	-7.54966	-1.45101	-5.88235	-4.44530
7847.116	-7.85251	-1.61862	-5.98709	-3.85476
7851.117	-7.93133	-1.38117	-5.97315	-2.75039
7855.114	-8.03682	-1.38539	-5.98623	-2.06973
7859.117	-7.81074	-1.32051	-5.95786	-2.64990
7863.108	-7.93817	-1.18399	-6.07852	-2.30583
7867.117	-7.90779	-1.08377	-5.80469	-2.70524
7871.118	-7.01719	-1.47198	-5.79398	-3.09739
7875.117	-7.57700	-1.13052	-7.02607	-3.58161
7879.082	-7.50676	-0.97107	-5.94089	-3.77115
7883.116	-7.52781	-0.96794	-5.81749	-4.11748
7887.115	-8.08114	-0.83630	-5.66464	-5.82004
7891.116	-8.58087	-0.83076	-5.60615	-6.75207
7895.140	-8.00915	-1.16231	-5.88309	-7.38747
7899.117	-8.34366	-0.81694	-5.85045	-5.64023
7903.117	-7.92980	-0.84896	-6.02460	-5.00636
7907.119	-7.15354	-1.60812	-6.46167	-5.02411
7911.109	-7.10372	-1.32715	-5.53006	-4.54546
7915.119	-7.77753	-1.30021	-5.48828	-5.09208
7919.119	-7.98909	-1.66618	-5.44950	-4.94593
7923.112	-8.11454	-1.19713	-6.26093	-5.19622
7927.140	-7.96575	-1.45536	-6.36655	-4.91619
7931.117	-7.90796	-1.47118	-6.78331	-4.97871
7935.113	-6.92953	-1.83893	-5.61549	-4.54991
7939.118	-7.51459	-1.81677	-5.58641	-3.97599
7943.110	-7.79922	-1.68857	-5.54112	-3.74993
7947.115	-8.05431	-1.77481	-5.96205	-3.40822
7951.117	-7.99369	-1.73178	-6.48161	-3.51755
7955.117	-7.96906	-1.67649	-6.05653	-3.10176
7959.144	-7.89844	-1.71600	-5.24752	-1.66880
7963.088	-7.31728	-1.76071	-6.15271	-2.86960
7967.118	-7.58729	-1.80542	-5.35716	-2.33689
7971.117	-7.92296	-1.74118	-6.18828	-3.07060
7975.108	-7.56296	-1.66620	-5.64420	-3.11581
7979.080	-7.54798	-1.65262	-6.18645	-3.07473
7983.118	-7.73375	-1.34383	-5.35096	-3.16253
7987.131	-7.31777	-1.56874	-5.93952	-3.57329
7991.116	-7.45040	-1.65156	-5.71728	-6.60416
7995.117	-7.65892	-1.48771	-5.77153	-5.97339
7999.122	-7.50893	-1.39947	-5.52123	-3.74082
8003.106	-7.63299	-1.45319	-5.67900	-4.52551
8007.138	-7.56671	-1.76251	-5.66936	-4.46242
8011.119	-7.39235	-1.92340	-5.97335	-5.34165
8015.119	-7.62048	-1.84841	-5.93998	-5.49127
8019.117	-7.60804	-1.73453	-5.98736	-5.42355
8023.112	-7.68683	-1.70890	-5.80995	-4.40940
8027.118	-7.54947	-2.02641	-5.56077	-3.74645
8031.121	-7.61131	-2.25167	-4.94135	-3.60120
8035.117	-7.64971	-1.97766	-5.89623	-4.92716
8039.110	-7.65478	-2.49857	-5.84588	-5.05740
8043.123	-7.89362	-2.13391	-6.47975	-5.08841
8047.112	-8.01625	-2.04257	-6.05057	-3.88108
8051.122	-7.79539	-1.98472	-6.25387	-4.31932
8055.109	-7.48656	-1.82314	-6.05219	-3.75843
8059.118	-6.87817	-1.49609	-5.12710	-3.18248
8063.119	-5.49960	-1.27907	-3.18722	-0.34107
8067.121	-4.97150	-1.04267	-2.62199	-0.50057
8071.142	-3.88651	-0.68980	-1.58396	-0.12281
8075.119	-4.17640	-0.60526	-0.13034	0.52771
8079.119	-3.90125	-0.57666	-0.17658	-0.09035
8083.121	-3.88102	-0.28347	-0.36769	-1.04383
8087.111	-3.35620	-0.54384	-1.09120	-3.63157
8091.114	-4.00564	-0.40784	1.07711	-4.49810
8095.118	-3.20016	-0.49672	0.24026	-3.88191
8099.122	-3.30576	-0.39268	0.30334	-3.71681
8103.114	-3.50776	0.09931	-0.21142	-3.81357
8107.118	-3.80604	-0.17515	-0.12920	-3.30271
8111.118	-3.59693	-0.12224	-0.15270	-3.32128
8115.083	-3.54109	-0.33928	-0.19169	-3.76484
8119.111	-3.58536	0.25334	-0.75699	-3.64233
8123.120	-3.51129	0.28498	-0.85602	-3.60227
8127.115	-3.14419	-0.18636	-0.26274	-3.13863
8131.115	-3.12672	-0.42433	-0.42281	-3.71485
8135.112	-3.15515	-0.37750	-0.36318	-3.77607
8139.120	-3.41600	-0.45038	-0.39596	-3.48865
8143.120	-3.48879	-0.64503	-0.69950	-2.91652
8147.126	-3.77938	-0.70987	-0.50322	-3.41155
8151.111	-3.47641	-0.81655	-0.75598	-3.52385
8155.120	-3.36166	-0.87215	-0.93780	-3.76191
8159.119	-3.65196	-1.03655	-0.99444	-3.84043
8163.127	-3.82818	-1.03542	-0.81295	-4.11682
8167.112	-3.08040	-1.11655	-0.97465	-4.45634
8171.095	-3.22747	-1.35793	-0.06840	-3.41068
8175.121	-3.31173	-1.32787	-0.24713	-3.84139
8179.118	-3.17438	-1.54830	0.13310	-3.67010
8183.120	-2.94146	-1.74068	-0.17082	-3.75930
8187.118	-2.99747	-1.78133	-0.12997	-3.79696
8191.119	-3.02648	-1.72828	-0.10004	-3.70730
8195.120	-2.94087	-2.01972	-0.73871	-3.68394
8199.107	-3.26559	-1.99521	-0.23301	-3.37889
8203.121	-3.21760	-1.78477	-0.13086	-3.27276
8207.123	-3.26653	-1.91279	0.12999	-3.32111
8211.103	-3.94806	-1.88818	-0.11173	-3.16018
8215.116	-3.45576	-1.87456	-0.08180	-2.49938
8219.123	-3.42688	-1.71164	-0.37107	-2.59389
8223.123	-3.66340	-1.55591	-0.21812	-3.28662
8227.123	-3.50939	-1.58993	-0.47627	-1.37452
8231.124	-5.27511	-1.32512	-3.73406	-0.71407
8235.126	-6.27143	-1.29823	-5.19763	-0.39117
8239.121	-7.62726	-1.10912	-7.47192	-2.97010
8243.123	-8.83471	-1.10451	-7.67333	-2.44901
8247.128	-9.82571	-1.28481	-9.61404	-3.07798
8251.125	-9.98949	-1.10981	-9.64755	-4.56840
8255.089	-11.79342	-1.26465	-11.22274	-4.52586
8259.122	-11.91771	-1.36130	-9.71018	-3.74039
8263.124	-12.07329	-1.58392	-10.02620	-4.29726
8267.122	-12.01314	-1.90556	-9.91938	-4.88275
8271.123	-12.02895	-1.90484	-9.93805	-5.04359
8275.121	-12.08115	-2.01585	-10.06429	-3.70061
8279.125	-12.15844	-2.11000	-10.51062	-3.94953
8283.124	-12.32717	-2.34921	-10.43426	-3.93415
8287.121	-12.34152	-2.32632	-10.10045	-4.14455
8291.122	-12.15441	-2.29525	-10.22603	-4.29842
8295.023	-11.90350	-2.38116	-9.99315	-4.58455
8299.121	-11.79924	-2.31554	-10.30439	-4.02230
8303.123	-11.62847	-2.53186	-10.10538	-4.55785
8307.122	-11.45376	-2.53980	-10.00447	-4.39030
8311.022	-11.59182	-2.60799	-10.90102	-4.20209
8315.120	-11.44606	-2.78584	-10.36180	-4.23753
8319.120	-11.34750	-3.10286	-10.28991	-3.72783
8323.122	-11.33576	-4.11820	-10.31739	-3.83813
8327.127	-11.40810	-3.48795	-10.09395	-2.89216
8331.123	-11.52786	-2.51107	-9.87252	-3.78193
8335.118	-11.67386	-2.57596	-9.95365	-3.39791
8339.116	-11.58794	-2.52494	-9.93882	-4.42062
8343.022	-12.08112	-2.63834	-10.09689	-4.49901
8347.129	-12.36307	-2.53743	-9.95391	-5.12909
8351.123	-12.54576	-2.65123	-10.19570	-4.29583
8355.124	-11.60992	-2.49826	-9.74311	-4.33064
8359.022	-11.75874	-2.37256	-9.65083	-3.74181
8363.127	-11.75165	-2.57796	-9.83669	-3.74382
8367.123	-11.71903	-2.57467	-9.87201	-4.24139
8371.124	-11.92028	-2.70855	-10.11981	-3.96598
8375.026	-11.56564	-2.74072	-10.30069	-2.61322
8379.122	-11.59394	-2.74882	-10.01031	-3.05269
8383.124	-11.49791	-3.03160	-9.84951	-3.60494
8387.086	-11.71078	-2.71773	-9.98973	-2.71433
8391.028	-11.84653	-2.84578	-9.84833	-0.96324
8395.123	-12.24016	-2.82675	-10.06335	-1.89891
8399.124	-11.81282	-2.64608	-9.73263	-1.88864
8403.124	-12.24334	-2.36048	-9.81424	-1.39728
8407.022	-12.58848	-2.35512	-9.73593	-1.51965
8411.126	-12.21229	-2.44587	-9.91621	-1.88691
8415.125	-12.63558	-2.85867	-9.72134	-1.92477
8419.109	-12.51061	-2.45723	-9.79209	-1.67373
8423.021	-12.46926	-2.29948	-9.58644	-1.29727
8427.124	-11.53632	-2.01288	-9.61937	-1.34717
8431.119	-9.67348	-2.02097	-8.75463	-1.46908
8435.126	-8.06652	-1.51691	-8.14757	-1.13428
8439.026	-6.81906	-0.77156	-5.46768	0.83258
8443.127	-4.96817	0.15148	-4.36895	-0.60867
8447.115	-4.62934	-0.13578	-1.79331	0.11162
8451.130	-4.32900	-0.77006	-0.05964	0.26571
8455.021	-2.19911	0.04311	1.31952	-0.00030
8459.126	-1.93078	-0.25222	-0.27006	0.33521
8463.092	-2.24728	-0.08211	0.26158	0.08404
8467.126	-2.44534	0.02612	0.39191	0.18818
8471.023	-2.56139	0.03835	1.22328	0.10352
8475.127	-2.62330	0.23291	1.10770	0.09411
8479.125	-2.59418	0.25583	0.99755	0.17190
8483.088	-2.55723	0.82938	1.41454	-0.16897
8487.023	-2.51913	0.76745	1.38498	-0.12269
8491.127	-2.76596	0.77298	1.45460	-0.56268
8495.124	-2.80748	0.75491	1.03526	-0.40474
8499.128	-2.80231	0.76055	1.24912	-0.22739
8503.083	-2.88908	1.02156	1.28782	-0.40670
8507.125	-3.00250	0.93259	1.12107	-2.28033
8511.126	-2.99190	1.14743	1.03528	-3.86104
8515.128	-3.11173	1.19829	1.25163	-3.42057
8519.128	-3.18482	1.25857	1.25121	-3.26043
8523.126	-3.26453	1.20598	0.91944	-3.44766
8527.126	-3.35184	1.36788	1.08482	-3.39673
8531.126	-3.36085	1.24938	1.09988	-3.20075
8535.026	-3.38118	1.52486	1.03925	-3.10339
8539.126	-3.43843	1.43838	0.91624	-3.21401
8543.122	-3.50000	1.50134	0.60754	-1.54935
8547.088	-3.53711	1.48086	0.39963	-2.78492
8551.133	-3.52321	0.69217	0.78811	-3.02705
8555.127	-3.51295	0.79946	0.43279	-2.76847
8559.126	-3.25971	0.38726	0.12364	-2.31351
8563.128	-3.46926	-0.75084	0.08110	-2.59464
8567.028	-3.41436	-1.74995	0.33379	-2.49264
8571.131	-3.24729	-2.03730	0.27317	-1.82798
8575.128	-3.31046	-2.14414	0.28855	-2.36888
8579.091	-3.29028	-2.24335	0.11955	-1.97815
8583.130	-3.25478	-1.80206	0.11002	-1.99947
8587.098	-3.13242	-1.86672	0.17834	-1.54921
8591.127	-3.11873	-1.77012	0.30523	-1.92049
8595.127	-3.07439	-1.73353	0.22189	-1.83243
8599.129	-3.14335	-2.18788	0.36050	-2.07698
8603.124	-3.06177	-1.77674	0.32010	-1.81827
8607.125	-3.02197	-1.94514	0.29260	-1.87490
8611.127	-2.97309	-1.93727	0.33106	-2.01046
8615.129	-3.00151	-1.91139	0.30811	-2.22298
8619.126	-3.01989	-1.74807	0.31838	-2.47367
8623.129	-2.98465	-1.02799	0.34518	-2.91361
8627.128	-2.75215	-0.85825	0.49890	-2.74633
8631.024	-2.75477	-0.50057	0.37060	-3.12745
8635.125	-2.64537	-0.26900	0.39703	-3.70870
8639.129	-2.52376	0.05062	0.37514	-4.12024
8643.000	-2.45874	0.06815	0.49664	-4.22818
8646.997	-2.22656	0.42161	0.58771	-3.35787
8650.998	-2.34027	0.29650	0.53927	-3.84881
8655.000	-2.93812	0.19362	-0.60583	-3.36244
8659.004	-3.80359	1.26198	-2.67264	-2.70514
8662.996	-5.35977	1.49077	-3.32278	-2.70039
8667.004	-7.51754	0.57071	-7.89072	-3.21368
8671.007	-7.94143	0.48549	-8.47228	-3.37703
8674.977	-10.94050	0.18198	-8.79063	-3.35219
8679.128	-10.81746	0.52236	-9.09841	-2.99639
8683.006	-12.07460	-0.70567	-11.32607	-2.94091
8687.002	-12.32483	-0.08133	-11.44959	-2.90528
8691.003	-14.14007	-2.30773	-11.47143	-3.22268
8694.995	-14.21160	-1.46740	-11.76756	-3.60486
8699.001	-13.89423	-2.27525	-11.63337	-4.12690
8703.002	-13.25023	-2.32900	-11.64494	-3.51016
8707.004	-13.18165	-1.76090	-11.61709	-3.62582
8711.109	-13.97543	-2.68044	-11.69319	-3.55054
8714.993	-13.78665	-2.38718	-11.69345	-3.30114
8718.992	-13.83285	-2.36308	-11.70383	-3.89057
8723.001	-13.65270	-2.27447	-11.71970	-3.25172
8726.969	-13.15517	-2.32880	-11.78034	-3.97385
8731.003	-13.49183	-2.38753	-11.77268	-3.81882
8735.006	-13.39149	-2.25591	-11.76956	-3.78406
8739.006	-13.15746	-2.21484	-11.67044	-3.55059
8743.003	-13.29607	-2.08489	-11.71318	-3.42202
8747.003	-13.50650	-2.38044	-11.71553	-3.39746
8751.010	-13.66177	-2.25671	-11.71929	-3.36829
8755.003	-13.34777	-2.09522	-11.62159	-3.48349
8758.966	-13.25792	-2.05901	-11.63970	-3.55435
8762.968	-13.20809	-1.97383	-11.57355	-3.55136
8767.004	-13.47108	-2.11748	-11.60694	-3.56093
8771.005	-13.41044	-2.25217	-11.56407	-3.45056
8775.006	-13.59877	-2.11306	-11.57398	-3.63579
8779.007	-13.58599	-2.03133	-11.49555	-3.49759
8783.005	-13.67564	-2.06203	-11.57605	-3.51799
8787.006	-13.70561	-1.99435	-11.56967	-3.49813
8791.006	-13.84317	-2.05663	-11.56095	-3.48846
8795.008	-13.86867	-1.84225	-11.58501	-3.42602
8798.991	-13.94930	-2.19301	-11.65599	-3.20368
8803.000	-14.21239	-2.21425	-11.87111	-3.23868
8807.004	-14.24956	-2.33174	-11.74818	-3.13924
8811.004	-14.43121	-2.30580	-11.56855	-3.06056
8815.005	-14.63806	-2.25353	-11.53710	-2.95759
8819.004	-14.64794	-2.19437	-11.55769	-2.65587
8823.027	-15.47245	-2.57475	-11.52517	-2.33202
8827.005	-14.69051	-2.23302	-11.12374	-2.50714
8831.004	-14.63188	-2.31317	-11.15377	-2.14973
8835.010	-14.64366	-2.45753	-11.34972	-2.50730
8838.995	-14.71440	-2.81006	-11.10519	-2.24818
8843.003	-14.33266	-2.25701	-10.88396	-2.05771
8847.005	-13.92776	-2.01457	-10.85270	-1.97683
8851.009	-13.76715	-2.64135	-10.88652	-1.99710
8854.997	-13.70446	-2.67959	-10.64041	-1.98724
8859.006	-14.13948	-2.22675	-10.86517	-1.93355
8863.011	-15.10425	-1.53760	-10.81358	-1.87852
8867.007	-17.52374	-0.66106	-11.02586	-1.80715
8871.029	-19.57963	2.40864	-13.54176	1.90459
8875.008	-18.25874	2.36556	-15.39924	5.10977
8879.011	-19.77614	-12.09354	-16.50307	11.13484
8882.986	-19.85272	-12.08788	-19.99370	-12.07743
8887.007	-19.89014	-12.08511	NaN	NaN
8891.006	-19.91250	-12.08346	NaN	NaN
8895.005	-19.92744	-12.08235	NaN	NaN
8899.002	-19.93819	-12.08155	NaN	NaN
8902.979	-19.94632	-12.08095	NaN	NaN
8907.007	-19.95275	-12.08047	NaN	NaN
8911.006	-19.95819	-12.08007	NaN	NaN
8915.002	-19.98708	-12.07792	NaN	NaN
8919.005	NaN	NaN	NaN	NaN
8923.003	NaN	NaN	NaN	NaN
8926.999	NaN	NaN	NaN	NaN
8931.007	NaN	NaN	NaN	NaN
8935.004	NaN	NaN	NaN	NaN
8938.967	NaN	NaN	NaN	NaN
8943.007	NaN	NaN	NaN	NaN
8947.011	NaN	NaN	NaN	NaN
8951.010	NaN	NaN	NaN	NaN
8954.970	NaN	NaN	NaN	NaN
8959.006	NaN	NaN	NaN	NaN
8963.006	NaN	NaN	NaN	NaN
8966.973	NaN	NaN	-7.05501	13.34138
8971.008	NaN	NaN	19.60586	8.81737
8975.000	NaN	NaN	NaN	NaN
8979.009	NaN	NaN	NaN	NaN
8983.006	NaN	NaN	NaN	NaN
8987.009	NaN	NaN	3.86692	-1.60616
8991.009	NaN	NaN	5.90072	-1.40609
8995.006	NaN	NaN	1.12338	-1.03791
8999.012	NaN	NaN	6.26554	-1.41223
9003.009	NaN	NaN	14.04970	-1.08350
9006.994	9.79797	-2.99483	13.41627	-1.40906
9011.004	10.34177	-1.02645	3.79235	-0.86626
9015.002	10.65081	-0.99777	7.94224	-0.97912
9019.009	-6.64310	-0.19758	8.97753	-0.67927
9023.012	7.57976	0.13703	8.63716	-0.20956
9027.011	-1.30469	1.12297	0.72020	2.86086
9031.000	-0.92579	2.00276	0.59478	2.73248
9035.011	-0.93822	3.05934	0.57183	2.78581
9039.012	-0.94328	1.76640	-3.41946	-0.52612
9043.015	-0.58657	2.26559	2.12595	-0.10236
9047.005	-0.53262	2.16589	1.46273	-6.15889
9050.979	-0.68245	2.14130	1.13886	0.11105
9055.009	-0.52736	2.22254	0.94500	0.01873
9059.008	-0.50220	2.27138	0.66270	-6.28040
9063.007	0.03541	2.13636	0.24971	-6.16153
9067.009	0.04068	2.05710	0.16963	-6.28437
9071.008	-0.49686	2.06583	0.80047	-6.15986
9075.011	-0.51346	1.88160	0.62357	-6.24396
9079.008	-0.45398	1.86041	2.00247	-0.46990
9083.009	-0.38628	1.67330	-0.44376	-6.24648
9087.007	-0.99437	1.34558	-0.64895	-6.18622
9090.983	-0.66521	1.20242	-1.32031	-6.27177
9094.980	-0.84850	1.24238	2.18114	0.07050
9099.011	-0.79322	0.98500	2.36237	-0.52346
9103.009	-0.88796	0.21355	2.08691	1.19150
9107.012	-1.10852	0.48955	2.34783	1.47443
9111.011	-0.74665	0.56058	2.28821	1.48858
9115.010	-1.20785	0.62929	2.00581	1.54278
9119.013	4.02537	5.41118	2.05928	0.81522
9123.009	4.14636	5.47607	2.18307	1.04902
9127.003	4.19361	5.15724	2.11660	0.39041
9131.001	-0.85401	1.17641	2.18188	-0.29829
9134.972	-0.70121	1.57157	2.18882	-0.32402
9139.013	-0.45195	1.38478	2.29651	-0.34373
9143.004	-0.39695	1.53977	2.06590	-0.67838
9147.013	-0.38320	1.37905	2.28048	-0.42207
9151.021	-0.32905	1.85424	2.06907	-0.46320
9155.008	-0.30404	2.07447	2.39071	-0.34823
9159.003	-0.21117	1.80265	2.28286	-0.48026
9163.011	-0.23557	2.09808	2.24559	-0.50059
9166.971	-0.05686	2.05332	1.92961	-0.48507
9171.010	-0.13652	2.23538	1.30035	-0.55857
9175.009	-0.19549	2.24220	1.50899	-0.52715
9179.012	-0.28979	2.17966	1.93398	-0.43272
9182.974	-0.37382	2.36435	2.07871	-0.49687
9187.012	-0.40973	2.39849	1.80204	-0.53944
9191.009	-2.71961	2.48770	0.60933	-0.13443
9195.010	-4.03942	2.23237	-3.26062	0.01228
9199.009	-4.12105	2.18252	-3.83665	-0.12722
9203.012	-5.56765	2.29446	-5.49005	0.07522
9207.005	-6.78931	2.00434	-5.32198	-0.06260
9211.018	-7.19393	1.54651	-5.83265	-0.76874
9214.994	-7.88103	0.53350	-6.01284	-0.14464
9219.007	-8.98220	0.72019	-6.70876	-0.18650
9223.002	-10.12019	1.15604	-7.36508	-0.47412
9227.013	-10.37950	0.98266	-7.57832	-1.04473
9231.009	-9.80961	1.20658	-7.49983	-1.16436
9235.014	-9.19476	0.94184	-7.74869	-1.55417
9239.012	-8.64922	0.79772	-7.55510	-1.88624
9243.012	-8.74850	0.99591	-7.66707	-2.13678
9247.014	-11.59473	0.98719	-7.81096	-2.73408
9251.013	-11.73968	0.87282	-7.83851	-1.28422
9255.005	-11.48635	0.80381	-7.97483	-0.81703
9259.006	-10.81283	0.94831	-7.57495	-1.71611
9263.012	-10.04629	0.97753	-7.90623	-1.07799
9266.983	-9.09459	0.72458	-7.87068	-1.86266
9271.010	-8.73701	0.61623	-7.86927	-1.98850
9275.010	-8.32245	0.67900	-7.66429	-1.97828
9279.014	-7.90409	0.66332	-7.73748	-0.87801
9283.015	-10.91992	0.06044	-7.83220	-0.91360
9287.006	-11.02406	-0.54333	-7.34936	-0.73209
9291.013	-10.28981	-0.42143	-7.38165	-0.36129
9295.015	-10.39417	-0.45951	-7.80891	-0.19774
9298.973	-10.16581	-0.61353	-7.65207	-0.47962
9302.983	-9.94775	-0.63291	-7.45675	-0.02146
9307.012	-8.75150	-0.89732	-7.48422	1.23705
9311.012	-8.76678	-1.08513	-7.47556	0.16626
9315.016	-7.97101	-0.88066	-7.57132	0.20841
9319.014	-9.92586	-0.16804	-7.35136	0.64540
9323.014	-9.74422	-0.01435	-7.29289	0.66439
9326.985	-9.78298	0.08989	-7.43164	-0.06010
9331.016	-9.72727	0.14607	-7.37838	-0.20013
9334.913	-9.95218	0.62084	-7.51013	-0.44482
9339.001	-9.98600	0.35879	-7.77481	-0.50188
9343.016	-10.00473	0.17049	-7.64774	-1.01391
9347.014	-10.15463	-0.25379	-7.69946	-1.83033
9351.017	-10.19615	-0.10186	-7.39847	-1.05282
9355.016	-10.04052	-0.24640	-7.42898	0.84427
9359.016	-9.90681	-0.41912	-7.53374	-0.96896
9363.023	-9.72325	-0.16050	-7.51688	-0.94575
9366.914	-10.49392	-0.05104	-7.42471	-0.77582
9371.013	-10.70826	-0.24509	-8.74731	-1.00617
9375.012	-10.87039	0.22858	-7.41602	-0.82900
9378.976	-10.16776	0.03505	-7.83551	0.21636
9382.916	-9.88735	-0.74584	-7.19852	0.99646
9387.014	-9.75145	0.03789	-7.05750	0.97850
9391.015	-7.03949	1.04796	-4.43401	1.56137
9395.017	-4.56646	-0.20745	-6.49918	-1.07819
9398.914	-4.20373	-0.06882	-3.64993	2.34349
9403.012	-2.61129	-0.41973	-0.24247	0.50199
9407.014	-2.52745	0.73250	-0.42884	1.48382
9411.013	-2.60136	0.46243	-0.03407	1.20744
9414.915	-2.43013	0.11619	-0.27470	1.47912
9419.020	-2.12756	0.10362	0.08833	1.77383
9423.000	-1.87198	-0.24843	0.16613	1.68398
9427.012	-1.97604	-0.38813	0.25818	1.14481
9430.913	-1.99221	-0.25969	0.68578	0.87921
9435.014	-1.91833	-0.39033	0.81602	0.74046
9439.017	-2.06146	-0.20954	1.12926	0.45196
9443.014	-2.11975	-0.29505	0.96122	0.22927
9446.911	-2.00809	-0.24752	0.46187	0.05089
9451.014	-2.40880	-0.25656	0.87714	0.36250
9455.020	-1.96055	-0.63075	0.94393	0.06072
9459.016	-1.81971	-0.20557	0.97770	0.27775
9462.913	-1.76088	-0.32822	0.66481	0.22527
9466.978	-1.79948	0.48180	0.71355	-0.01091
9471.015	-2.00710	0.17585	0.81476	-0.29244
9475.014	-2.09323	1.69912	0.97162	-0.50569
9478.884	-2.47291	1.26170	0.95939	-2.18645
9483.015	-2.26477	1.50173	1.32910	-2.88849
9486.978	2.92262	4.68466	1.06493	-2.65426
9491.014	-1.78981	4.88288	1.34338	-2.88466
9494.912	-1.21653	-0.01538	1.32103	-2.90193
9499.016	-2.51502	1.74475	0.73255	-3.20239
9503.016	-2.29314	1.96501	1.07274	-3.23862
9507.016	-2.28903	1.79222	0.52466	-3.02800
9510.907	-2.26116	1.99499	1.32471	-2.77195
9515.015	-2.03524	1.99290	0.99055	-2.07967
9519.015	-2.53736	2.12133	1.04575	-2.56396
9523.019	-2.68026	1.86828	1.70430	-2.62088
9526.912	-2.45914	2.35070	1.20747	-0.16558
9531.019	1.93150	4.59153	0.89527	-2.35178
9535.016	-2.44266	1.94942	1.42067	-2.31868
9539.017	-2.39401	1.89065	1.12194	-2.32101
9542.917	2.53595	4.81135	2.25662	-0.57710
9547.011	-1.88752	5.08914	-1.59440	-0.01175
9551.005	-2.50150	1.82917	1.03156	-7.81942
9555.024	-2.57073	2.03869	1.19368	2.77943
9558.890	-2.49627	1.71317	1.00169	2.29438
9563.017	-2.30444	1.61063	1.67762	1.99613
9567.020	-1.92927	1.14882	1.26914	1.65550
9571.017	-2.21680	0.84006	0.59736	1.54933
9574.917	-2.03132	0.80212	0.06534	0.10245
9578.980	-2.24943	0.45180	-0.78459	0.04053
9583.016	-2.14228	0.50142	0.59982	-0.49563
9587.016	-2.03737	0.23770	0.73558	-0.48068
9590.916	-2.02547	-0.10872	0.41398	-0.57706
9595.018	-2.17596	-0.14067	0.59550	-1.67293
9599.019	-2.30764	0.13154	0.56061	-2.06072
9603.018	-2.27560	0.51388	0.59076	-0.94356
9606.917	-2.50935	0.42113	0.57937	-1.68157
9611.019	2.21363	5.70028	0.55332	-1.80074
9615.019	2.31111	5.60607	0.78278	-0.61710
9619.020	2.48225	5.62072	0.79277	-1.60952
9622.916	2.64393	5.72826	0.66637	-0.04132
9627.020	-2.66508	0.55945	1.40996	0.53319
9631.001	-2.79986	0.43910	1.86870	-1.78396
9635.013	-2.69227	0.44105	0.98774	-2.26041
9638.920	-2.76277	0.75623	1.10561	-2.27965
9643.017	-2.53486	0.38642	1.09103	-2.60843
9647.019	-2.39096	0.27898	1.53009	-2.25751
9651.020	-2.41123	0.48029	1.46680	-2.31688
9654.918	-2.81976	0.42829	1.38503	-2.04059
9659.017	-2.87465	0.50592	1.09311	-1.93153
9663.020	-2.91181	0.35528	1.08852	-1.79682
9667.016	-2.70045	0.60299	0.63925	-1.67425
9670.922	-2.84754	0.50281	1.03374	-1.42341
9674.896	-2.79540	0.48022	0.91036	-1.32450
9678.980	-2.72377	0.40473	0.94505	-1.30033
9682.892	-2.94297	0.36107	1.25701	-1.16960
9686.884	-2.92418	0.38949	1.13211	-1.07484
9690.894	-3.02059	0.45055	0.82913	-1.14157
9694.895	-3.04647	0.31687	0.84071	-1.13042
9698.894	-2.99106	0.26810	0.60585	-1.13371
9702.883	-2.96787	0.35342	0.50101	-1.26787
9706.894	-2.89557	0.16332	0.44455	-2.54310
9710.895	-2.85608	-0.30916	0.44214	-2.97322
9714.898	-2.79941	-0.35591	0.74898	-1.85724
9718.853	-2.83937	-0.16204	0.59265	-0.88936
9722.896	-2.74628	-0.38767	0.82846	3.22433
9726.894	-2.64913	-0.24249	0.87689	2.76951
9730.894	-2.46607	0.03356	0.80908	2.27493
9734.888	-2.40984	-0.31304	1.07245	1.88616
9738.895	-2.28373	0.35384	0.64662	1.77221
9742.896	-2.34173	-0.33607	0.94763	2.03622
9746.859	-2.36289	-0.19435	0.85860	2.13570
9750.894	-2.43741	-0.38861	1.13772	2.41068
9754.897	-2.43568	-0.51968	0.66260	3.38369
9758.899	-2.38682	-0.34815	-0.19139	-0.25358
9762.897	-2.41080	-0.21366	1.08135	-2.40805
9766.892	-2.49092	-0.01167	1.03555	-2.45548
9770.896	-2.59747	0.07015	0.66595	-1.14199
9774.894	-2.59737	0.03798	1.20291	-0.93590
9778.858	-2.69581	0.78600	1.21926	-0.60822
9782.896	-2.66290	0.84231	0.43103	-0.46500
9786.896	-2.60624	0.23175	0.94028	1.22839
9790.894	-2.57543	0.54125	0.51642	0.69462
9794.858	-2.63083	0.36109	1.09266	1.10781
9798.872	-2.66744	-0.05143	0.62878	1.35549
9802.876	-2.64968	-0.53930	1.09252	1.69682
9806.892	-2.61285	-0.17366	0.72704	2.08249
9810.895	-2.64958	0.01680	0.76449	1.96827
9814.864	-2.55522	0.01144	0.95983	2.37900
9818.895	-2.65315	-0.04791	0.96787	2.31537
9822.897	-2.70193	0.53782	0.58952	2.21346
9826.898	-2.64629	-0.00956	1.00836	2.16337
9830.896	-2.74722	-0.22708	0.84610	1.75580
9834.897	-2.81892	-0.16301	0.60230	1.90924
9838.896	-2.80048	-0.21990	0.80012	1.78384
9842.894	-2.70775	-0.11018	0.76583	1.46250
9846.919	-2.69631	-0.19418	0.81595	1.53655
9850.896	-2.75499	0.02403	0.76106	1.21605
9854.897	-2.54105	-0.02731	1.08825	1.19386
9858.901	-2.57803	0.43121	0.87173	1.23015
9862.888	-2.54217	0.30539	1.39812	0.58905
9866.897	-2.81526	0.29222	0.89158	1.03307
9870.897	-3.85145	0.81018	0.89580	1.09029
9874.897	-1.84550	0.98789	1.19175	1.24368
9878.893	-2.17058	0.73929	1.13199	1.13236
9882.897	-4.42868	0.74318	1.05510	1.77684
9886.862	-7.06432	0.96934	1.36251	2.81659
9890.898	6.91253	0.88610	1.57136	2.80542
9894.925	3.85540	5.74075	1.65389	3.26384
9898.896	NaN	NaN	5.12378	1.67405
9902.897	NaN	NaN	NaN	NaN
9906.894	NaN	NaN	NaN	NaN
9910.889	NaN	NaN	NaN	NaN
9914.898	NaN	NaN	NaN	NaN
9918.895	NaN	NaN	NaN	NaN
9922.900	NaN	NaN	NaN	NaN
9926.884	NaN	NaN	NaN	NaN
9930.898	NaN	NaN	NaN	NaN
9934.900	NaN	NaN	NaN	NaN
9938.896	NaN	NaN	NaN	NaN
9942.898	NaN	NaN	NaN	NaN
9946.860	NaN	NaN	NaN	NaN
9950.897	NaN	NaN	NaN	NaN
9954.901	NaN	NaN	NaN	NaN
9958.898	NaN	NaN	NaN	NaN
9962.894	NaN	NaN	NaN	NaN
9966.888	NaN	NaN	NaN	NaN
9970.898	NaN	NaN	NaN	NaN
9974.896	NaN	NaN	NaN	NaN
9978.856	NaN	NaN	NaN	NaN
9982.899	NaN	NaN	NaN	NaN
9986.921	NaN	NaN	NaN	NaN
9990.899	NaN	NaN	NaN	NaN
9994.898	NaN	NaN	NaN	NaN
9998.904	NaN	NaN	NaN	NaN
10002.866	NaN	NaN	-3.16134	12.41252
10006.901	NaN	NaN	-3.40556	13.33237
10010.878	NaN	NaN	NaN	NaN
10014.898	NaN	NaN	-4.70961	13.35824
10018.892	NaN	NaN	NaN	NaN
10022.898	NaN	NaN	-2.29530	9.84812
10026.899	3.82064	-2.48223	-7.19769	12.67783
10030.899	NaN	NaN	-2.53617	7.89691
10034.899	NaN	NaN	-13.42256	12.08745
10038.898	NaN	NaN	-7.55120	9.41533
10042.923	NaN	NaN	-3.93436	7.67757
10046.898	NaN	NaN	NaN	NaN
10050.899	NaN	NaN	-5.92758	7.20385
10054.862	NaN	NaN	-3.50944	7.48924
10058.901	NaN	NaN	-3.43202	6.50732
10062.922	-14.11657	4.58047	-3.77552	5.46794
10066.901	NaN	NaN	-4.06552	9.38660
10070.863	NaN	NaN	-3.97387	5.54333
10074.900	NaN	NaN	-4.50160	3.56242
10078.896	NaN	NaN	-4.50071	3.87460
10082.903	NaN	NaN	-3.90852	5.37044
10086.868	NaN	NaN	NaN	NaN
10090.900	NaN	NaN	-2.01196	5.08980
10094.927	NaN	NaN	-2.54194	4.69183
10098.901	-3.16312	-1.37312	-1.03660	5.08366
10102.899	-2.43528	-2.04066	-1.40013	5.69039
10106.902	-2.74888	-2.00791	-4.00149	5.30142
10110.904	NaN	NaN	-3.71908	5.03829
10114.903	NaN	NaN	NaN	NaN
10118.903	NaN	NaN	NaN	NaN
10122.903	NaN	NaN	NaN	NaN
10126.896	-3.75128	-2.04789	-3.62665	4.86611
10130.905	-4.45335	-2.23463	-3.66765	6.85245
10134.889	-6.70102	7.69455	-4.06932	6.30605
10138.902	-4.45594	-2.43632	-1.09470	6.27084
10142.894	-4.53218	-2.96008	-1.24962	6.36732
10146.902	-6.59885	6.96075	-1.26448	6.34328
10150.900	-5.22131	1.91357	-1.41640	5.45265
10154.901	-5.28726	1.40037	-1.33785	4.86363
10158.899	-5.15862	6.65302	-3.89666	4.95862
10162.902	-5.25001	0.44104	-3.77953	4.01116
10166.902	-5.46561	4.86931	-3.08421	3.30405
10170.901	-5.30820	3.93426	-2.98985	3.30365
10174.904	-6.02175	2.50852	-2.27097	5.54107
10178.867	-5.76531	2.04157	-3.14570	6.10064
10182.900	-6.41516	5.99215	-2.28328	6.49745
10186.901	-6.83090	5.93708	-3.47811	6.51116
10190.896	-6.56914	5.54698	-3.31796	5.05913
10194.902	-2.56862	5.60739	-3.55829	4.97888
10198.901	-2.91723	-0.17002	-3.38293	4.47291
10202.905	-2.97233	5.00625	-3.82279	3.48306
10206.895	-2.90671	4.93977	-3.31331	3.24108
10210.904	-6.11052	5.55854	-2.38628	3.17518
10214.903	-3.03833	5.75973	-0.98172	4.39686
10218.882	-3.15951	7.77814	-0.69129	6.69727
10222.899	0.44619	8.40236	-0.40028	9.86811
10226.904	1.80717	9.40763	2.30593	10.25125
10230.901	4.16818	11.60839	4.01043	10.32075
10234.915	5.06548	8.56563	6.69938	11.96417
10238.906	5.49025	9.19315	7.06564	10.28453
10242.904	5.75030	11.41911	8.09905	12.86145
10246.900	5.83132	11.95020	NaN	NaN
10250.904	7.69449	12.03996	NaN	NaN
10254.904	7.97283	12.23143	7.78711	12.98756
10258.899	6.59628	12.12550	7.22270	13.43545
10262.895	6.88807	12.44905	8.43627	12.04277
10266.901	6.48294	12.03701	9.03256	11.13535
10270.902	6.48769	12.31934	8.77441	12.82140
10274.902	6.71414	12.15744	9.12394	12.01851
10278.905	7.00086	11.97174	8.94409	13.02509
10282.902	6.78045	11.99169	NaN	NaN
10286.905	6.67750	12.13707	NaN	NaN
10290.864	6.85314	12.28417	NaN	NaN
10294.906	6.51327	12.29068	NaN	NaN
10298.866	6.71248	12.04213	9.24075	3.82720
10302.894	6.67270	12.05668	9.21950	3.49514
10306.866	6.84548	12.11664	NaN	NaN
10310.906	6.56032	12.09737	NaN	NaN
10314.906	6.76116	11.94528	9.24948	14.53581
10318.906	6.26640	12.10494	NaN	NaN
10322.906	6.44319	12.25464	NaN	NaN
10326.905	6.78226	12.28388	NaN	NaN
10330.906	6.72031	12.23340	NaN	NaN
10334.908	6.77203	12.25235	8.99794	14.56519
10338.905	6.53188	12.83869	NaN	NaN
10342.891	6.29354	12.28827	NaN	NaN
10346.895	7.12437	10.72393	NaN	NaN
10350.802	7.13671	10.90276	NaN	NaN
10354.864	6.48906	11.77374	6.47350	13.13306
10358.912	6.30078	11.92880	NaN	NaN
10362.904	6.25436	11.90803	NaN	NaN
10366.908	6.87628	11.35695	NaN	NaN
10370.907	6.73341	11.62637	NaN	NaN
10374.904	6.69410	11.80633	NaN	NaN
10378.904	6.18976	11.75316	NaN	NaN
10382.908	6.25406	11.68979	NaN	NaN
10386.870	6.61822	11.62382	9.14510	13.73598
10390.905	6.53744	11.70010	NaN	NaN
10394.906	6.28756	11.66826	NaN	NaN
10398.909	6.20624	11.68485	NaN	NaN
10402.907	6.22723	11.81730	NaN	NaN
10406.902	6.53294	11.88504	8.80219	13.71696
10410.901	6.52084	11.91671	NaN	NaN
10414.900	6.56654	12.07100	8.30677	14.44848
10418.908	6.33905	12.09560	8.42000	14.09423
10422.908	6.43996	12.66897	8.58350	13.07902
10426.887	6.40986	12.04524	NaN	NaN
10430.806	6.67155	12.17885	7.49403	14.43636
10434.906	6.70739	12.59841	8.47845	13.55013
10438.905	6.34927	12.47597	8.28602	12.87248
10442.906	6.38859	12.26068	8.64679	12.72699
10446.908	7.01396	12.07221	8.67427	14.30683
10450.908	6.41315	11.72857	8.54193	12.54263
10454.906	6.30740	11.31026	8.46060	14.13130
10458.903	6.96609	11.13861	8.22110	14.43052
10462.804	6.86520	11.39242	9.42750	12.73385
10466.901	6.61506	11.61020	7.75626	14.11718
10470.898	6.38241	12.17909	8.57323	14.54375
10474.906	6.32615	12.50184	NaN	NaN
10478.802	6.32375	12.48311	NaN	NaN
10482.867	6.79525	11.86868	4.68942	2.76382
10486.906	6.38141	11.84268	NaN	NaN
10490.906	6.33446	10.84473	NaN	NaN
10494.908	6.82591	10.67718	NaN	NaN
10498.909	6.99419	11.42967	8.15122	14.73611
10502.905	6.89434	10.77351	9.43812	14.73049
10506.905	6.27692	11.49165	11.16320	14.53780
10510.889	6.23108	11.39254	8.88193	14.84074
10514.909	6.44297	11.52974	NaN	NaN
10518.905	6.93156	11.11182	8.33977	14.62852
10522.907	7.20162	11.45464	9.17319	14.43077
10526.909	6.46426	11.07650	10.10369	11.26832
10530.909	6.81769	11.21283	8.37468	11.99571
10534.907	6.56914	11.25907	8.39222	11.62154
10538.905	6.40013	11.10238	7.64115	12.39473
10542.910	6.60269	10.73251	8.99704	10.72785
10546.872	7.05435	10.76699	9.16900	11.60160
10550.871	6.57108	11.31634	NaN	NaN
10554.916	6.97643	11.40680	9.25369	13.85944
10558.901	6.94787	11.80065	9.87772	13.21555
10562.910	6.90603	11.78134	7.71635	13.08238
10566.907	6.54874	12.38443	7.25961	12.59280
10570.908	6.74298	12.01809	8.86980	13.09638
10574.908	6.29867	12.42256	7.62779	12.92246
10578.910	6.34486	12.63288	8.83789	10.93252
10582.910	6.24695	12.11339	8.85327	12.55513
10586.909	6.54536	11.94263	8.69207	13.43756
10590.811	6.74934	11.44571	NaN	NaN
10594.873	6.84473	11.27928	NaN	NaN
10598.909	6.72969	11.21677	8.96276	13.31743
10602.909	6.70362	10.89106	7.88750	13.23526
10606.914	6.83384	11.80731	8.18947	13.74857
10610.871	7.04364	11.39316	7.63794	14.61221
10614.947	7.26810	12.16744	7.97688	12.93436
10618.908	7.44291	12.16279	7.48229	13.87353
10622.911	7.04650	12.45495	8.21689	14.08388
10626.907	7.25316	12.56330	8.41245	11.85513
10630.872	7.46211	12.58104	9.96963	11.43303
10634.887	5.68421	12.96853	9.61986	13.19365
10638.801	6.38690	12.91206	8.86066	13.90505
10642.910	6.28119	12.77901	9.20168	12.76232
10646.911	6.53463	12.60009	8.09389	13.98752
10650.909	6.60294	12.81554	7.81788	14.52295
10654.922	6.48668	12.67580	NaN	NaN
10658.910	6.26596	12.68809	NaN	NaN
10662.913	5.67615	12.16060	8.25506	12.85044
10666.909	5.65646	10.93963	6.14720	12.08889
10670.916	3.30552	9.64613	5.20504	9.21195
10674.898	5.58449	7.41695	5.84768	7.34065
10678.903	3.43496	7.38681	4.92992	3.77952
10682.908	3.36485	7.25754	4.64443	6.30763
10686.906	2.14146	6.15688	4.41534	1.90886
10690.909	2.87653	3.69595	1.75557	-0.79174
10694.912	1.70517	3.88580	4.46805	2.11612
10698.871	1.66381	4.10997	2.95777	-0.46802
10702.812	1.69964	3.80893	1.73837	-3.57771
10706.909	1.72775	2.85104	-0.66350	-1.06725
10710.909	1.71813	3.12725	2.30687	1.61339
10714.787	-2.46166	2.75223	1.93410	1.80265
10718.744	-1.13094	2.57534	1.91395	1.75967
10722.768	-1.73941	2.37335	4.25820	1.57315
10726.783	-1.39485	2.34249	2.20733	1.84721
10730.785	-1.02203	2.34909	2.13376	1.69751
10734.785	-0.39906	3.33751	2.12605	1.10015
10738.787	-0.39226	2.62924	2.42550	1.17392
10742.786	-0.25205	2.38241	2.54137	0.38627
10746.788	0.30818	2.14707	2.58254	0.31834
10750.785	-0.00613	2.14333	3.05880	0.01667
10754.787	-1.94724	2.19854	2.62452	-0.07847
10758.790	-1.03312	2.24334	3.12801	-0.72361
10762.790	-0.33546	2.18019	2.89012	-0.53654
10766.783	-0.01653	2.37551	2.77780	-0.48678
10770.784	-0.12111	2.83964	2.86170	-0.18906
10774.784	-0.36084	2.44777	2.14010	0.79186
10778.748	-0.06554	2.37357	2.51254	0.62277
10782.809	0.05224	2.25722	2.66942	-0.19264
10786.785	0.12476	2.26595	2.66637	0.19374
10790.785	0.23949	2.74981	2.83605	0.10846
10794.748	-0.12300	2.77048	3.18341	-0.02965
10798.754	-0.38077	3.05324	2.89403	0.13022
10802.788	-0.09915	3.15768	2.95718	0.68258
10806.787	0.03179	3.61836	3.35518	0.90641
10810.789	0.19777	3.49861	2.26153	1.50548
10814.787	0.46041	3.57882	2.35048	1.59433
10818.786	0.32337	3.57962	3.25194	1.26085
10822.787	-0.06862	3.19522	2.67078	0.64202
10826.786	0.08862	3.61888	2.09222	0.64348
10830.780	0.06862	3.89459	3.29342	0.20429
10834.789	-0.25502	3.87241	3.19009	0.30432
10838.785	0.24783	3.73922	2.71124	0.52776
10842.787	0.36308	3.80630	2.37956	0.50900
10846.776	0.97179	3.60431	0.92086	0.50786
10850.776	0.82717	3.62175	2.65443	0.53786
10854.788	0.16007	3.36469	2.06870	0.31406
10858.789	0.10694	3.49994	2.29684	-0.27503
10862.783	0.62379	3.02835	2.19650	-0.49723
10866.786	0.00015	3.73195	2.74197	-0.84039
10870.798	-0.17233	3.37774	2.90091	-1.38402
10874.786	-0.41730	3.70657	2.98369	-1.90946
10878.781	-0.16931	3.33448	2.58299	-1.99580
10882.790	-0.16953	3.25344	2.97730	-1.57254
10886.791	0.06696	3.10836	3.42782	-2.35138
10890.760	-0.15809	2.78728	2.68165	2.31649
10894.785	-0.00606	2.89990	3.06988	2.64871
10898.785	-0.08088	2.47495	2.63497	2.18130
10902.785	0.06284	2.32225	2.71627	2.02626
10906.784	0.35529	2.13878	2.90034	2.93246
10910.781	0.31429	2.27957	2.74143	3.46909
10914.787	0.45532	2.11309	2.75336	2.95575
10918.786	0.41308	2.46645	2.67338	2.89217
10922.750	0.96122	2.03634	2.92938	2.94976
10926.782	-0.11704	2.26655	2.41962	4.38967
10930.774	-8.05290	1.48217	3.39418	5.28278
10934.784	7.15042	5.42335	7.55398	2.84559
10938.787	3.28340	10.78767	16.72587	5.33542
10942.780	NaN	NaN	6.64043	5.19480
10946.764	NaN	NaN	NaN	NaN
10950.787	NaN	NaN	NaN	NaN
10954.785	NaN	NaN	NaN	NaN
10958.787	NaN	NaN	NaN	NaN
10962.794	NaN	NaN	NaN	NaN
10966.786	NaN	NaN	NaN	NaN
10970.787	NaN	NaN	NaN	NaN
10974.754	NaN	NaN	NaN	NaN
10978.751	NaN	NaN	NaN	NaN
10982.745	NaN	NaN	NaN	NaN
10986.749	NaN	NaN	NaN	NaN
10990.790	NaN	NaN	NaN	NaN
10994.790	NaN	NaN	NaN	NaN
10998.801	NaN	NaN	NaN	NaN
11002.790	NaN	NaN	NaN	NaN
11006.788	NaN	NaN	NaN	NaN
11010.794	NaN	NaN	NaN	NaN
11014.754	NaN	NaN	NaN	NaN
11018.790	NaN	NaN	NaN	NaN
