time (ms)	lx (deg)	ly (deg)	rx (deg)	ry (deg)
0.000	-1.21271	3.99643	0.73273	1.46194
3.999	-1.54542	4.01263	0.85443	1.33413
7.999	-1.07865	4.01036	0.86481	1.28593
11.999	-1.23022	3.80253	0.35025	1.21760
15.997	-1.04032	3.71788	0.93071	1.23400
20.007	-1.06932	3.57487	0.88391	1.16840
23.988	-0.05194	3.71409	0.99201	1.06172
28.002	-1.16096	3.63823	1.00797	1.06246
31.998	-0.16231	3.50800	0.97621	1.11202
35.997	-0.80622	3.49101	0.88128	1.11377
39.999	0.19651	3.36619	0.49240	1.00955
44.001	0.21241	3.43149	0.89518	1.04211
48.010	0.55277	3.37836	1.06557	1.35471
51.999	-3.26666	3.29939	0.75238	1.19636
56.004	-3.73529	3.39427	0.97973	1.04814
59.999	-3.66076	3.25335	0.70628	0.49855
63.963	-1.87599	3.35110	0.02842	-0.09490
67.964	-1.59219	3.27671	0.28863	0.35767
71.998	-1.66785	3.37167	0.80126	0.03285
76.002	-1.58619	3.39713	1.10398	-0.03796
79.997	-1.80090	3.36401	1.16146	-0.35141
83.997	-1.54237	3.52112	1.07334	-0.45786
88.000	-1.57252	3.24998	1.29690	-0.59074
92.000	-0.31739	3.27042	1.31808	-0.80927
95.998	-1.58366	3.01813	1.12675	-0.86827
99.999	-1.59626	3.27051	1.42342	-0.90699
103.998	-1.52818	3.71124	1.11345	-1.18953
107.997	-1.58515	3.50675	1.44932	-1.06837
112.000	-1.70965	3.29986	1.43520	-1.03128
115.998	-1.80129	3.62999	1.32493	-1.14116
120.000	-1.72545	3.77560	1.33949	-1.12534
124.000	-1.86499	3.70438	0.77905	0.29809
128.002	-2.04475	3.59534	0.94537	0.70596
132.005	-1.57019	3.79568	0.65513	-1.09147
135.997	-1.72694	3.39177	1.01672	-1.03335
140.000	-1.75614	3.67381	1.20673	-0.28828
144.000	-1.87014	3.65666	1.11139	-0.25006
147.995	-1.61962	3.56199	1.36102	0.16046
152.005	-1.98618	3.67585	0.61263	2.63392
156.001	-2.00361	3.63834	0.85605	2.02141
160.000	-1.92805	3.75781	0.75759	2.19170
164.004	-1.98804	3.90711	0.25860	1.38635
168.002	1.11318	3.69377	0.21633	1.37277
172.000	-1.76393	3.43026	3.51058	1.75921
176.002	1.06210	3.62076	3.82146	1.10495
179.900	0.82585	3.95633	3.69985	2.32004
184.000	-1.99015	4.81949	3.37705	2.17608
187.980	-0.21547	5.69711	3.72373	1.65541
192.003	0.20956	4.79129	1.02972	2.75482
195.900	-0.14431	4.91190	2.61709	2.46482
200.001	-0.19383	4.68905	2.59304	2.14273
204.003	0.38407	4.32153	1.72537	1.72938
208.002	0.45520	4.23469	1.75089	1.62052
212.011	0.32801	4.49153	2.14662	1.21387
216.003	0.13208	4.34212	2.25640	1.37204
220.004	0.24066	4.26631	2.44415	1.18862
224.001	-0.19172	3.95224	2.28271	0.33187
227.962	0.19770	3.39517	2.44251	1.19873
231.992	0.13205	3.46597	2.54420	0.94328
236.001	0.19397	3.95051	2.74836	0.75291
240.005	-0.00772	4.19404	3.50084	0.56452
243.902	-0.28907	4.23565	3.18697	0.29993
247.999	-0.64151	4.44077	2.60686	0.53414
252.001	-0.82826	5.09925	2.60270	0.60463
256.000	-0.07912	4.82421	2.77904	0.28617
259.910	-0.44189	4.88614	2.50761	0.37928
264.000	-0.96735	4.78546	2.41425	0.25155
267.964	-0.90882	4.77982	1.63715	0.76264
271.971	-0.26485	3.81532	1.35928	2.96125
275.902	-1.26552	4.66304	0.51602	3.26863
280.002	-1.21712	4.17397	1.31756	2.92932
284.005	-1.26688	4.67658	1.01248	3.20859
288.001	-1.29571	3.94733	1.00246	3.21293
291.900	-1.35817	4.04777	0.95294	3.13218
296.004	-0.95229	4.02812	1.03124	3.04696
300.003	-1.48116	4.16927	1.11502	2.94111
304.002	-1.35100	4.16500	1.21462	2.33849
307.900	-1.45574	4.11863	1.02757	2.08036
311.989	-1.64226	3.96291	1.17738	1.64347
316.000	-1.77028	4.08382	1.35276	1.80573
320.002	-1.75262	3.90333	1.21670	1.61252
323.902	0.00906	3.85286	1.45224	1.52906
328.004	0.11659	3.86843	1.18187	1.43781
332.004	-0.04830	3.81961	1.76700	1.33732
336.002	-0.29833	3.64457	2.12320	1.27807
340.006	-0.36695	3.83497	1.85693	1.27756
344.002	-0.10480	3.57113	1.60774	1.27015
348.004	-0.59148	3.66695	1.75352	1.17376
352.004	-0.69062	3.52855	1.87034	1.10084
355.902	-0.98683	3.57269	2.25984	1.07297
360.004	-1.15942	4.08202	1.83640	0.93131
364.005	-1.17398	3.71096	1.46425	0.65866
368.004	-1.74605	4.25151	2.14231	0.39333
371.901	-1.63802	4.04708	1.83581	0.15617
376.002	-0.88237	3.68109	1.95758	-0.30636
380.003	-1.64265	4.28076	1.72198	-0.56798
384.006	-1.72448	3.89320	1.77714	-0.67462
387.985	-0.93043	4.31012	1.49835	-1.09638
392.001	-1.04806	4.46184	1.71980	-1.34843
395.983	-0.69382	4.36217	1.61880	-1.23457
400.005	-0.84319	4.51421	1.30893	-1.26575
403.901	-0.51438	4.49414	1.35965	-1.24052
407.968	-0.53528	4.46610	1.27224	-1.37482
412.010	-0.59461	4.35193	1.15895	-1.55103
416.004	-0.94492	3.96862	1.34581	-1.45897
420.007	-0.29982	4.65023	1.12583	-1.43282
424.002	-0.88686	4.22643	1.08872	-1.39321
427.968	-0.13357	4.57308	1.31967	-1.04312
432.007	-1.76242	3.95871	1.41653	-0.94213
435.905	-0.06579	3.95684	2.29892	-0.32233
439.997	-0.23199	3.67788	2.08067	-0.27830
443.968	-0.08977	3.54841	1.34524	-0.17616
447.985	-0.58401	3.94575	1.56496	0.34492
451.907	-1.63866	4.44445	1.48057	0.63443
455.970	-0.94619	3.91313	1.37268	0.45671
460.009	-1.26036	3.99685	1.19455	0.85796
464.005	-1.50056	3.80104	1.12717	0.60471
467.918	0.10649	4.80281	1.49406	0.28216
472.007	-0.75717	4.95337	2.32023	0.34122
476.005	-1.73678	5.60755	2.17997	0.77081
480.007	-0.32734	5.53638	1.59008	0.58182
483.904	-0.62697	5.38678	1.40410	0.81180
488.003	-1.01367	5.39665	1.20293	1.09803
492.008	-1.06178	5.43272	1.11916	0.99256
496.005	-1.37300	5.49277	1.63794	0.99282
499.902	-1.40646	5.24870	1.54733	1.16246
504.006	-1.16830	5.34077	1.27849	1.33768
508.002	-1.40457	4.95392	1.27083	1.44233
511.883	-1.35348	4.70226	2.00619	1.40251
515.882	-1.37402	4.42034	1.56218	2.09808
519.879	-1.37275	4.45887	1.42454	2.12853
523.880	-1.40735	4.65657	1.87401	2.57209
527.876	-1.40279	4.62754	2.03419	2.82243
531.873	-1.39029	3.89092	1.70155	1.55461
535.882	-1.39292	4.02148	1.42563	1.53816
539.882	-1.21911	3.93903	1.75287	0.44409
543.884	-1.23853	4.09421	1.74241	0.99795
547.882	-1.23813	3.89230	1.87984	0.47525
551.883	-1.06607	3.53058	2.17789	0.21543
555.884	-1.02466	4.15207	1.89672	-0.14345
559.881	-0.39636	3.97495	2.15118	0.32380
564.012	-0.76104	3.93008	2.26242	0.40191
567.883	-0.58972	3.67098	2.89076	2.51075
571.879	-0.16548	3.67220	2.71642	2.14474
575.883	-3.13091	3.81101	2.70094	1.71528
579.873	-2.30593	3.61297	2.60317	3.29645
583.885	-1.30585	3.61931	2.57526	3.16958
587.884	-2.35680	3.75963	1.55608	2.88650
591.884	-2.47633	3.48741	0.98276	3.27313
595.874	-2.24255	3.54820	0.63508	2.85092
599.880	-1.58363	3.31351	1.05595	2.86660
603.884	-1.34242	3.30154	1.00318	2.56436
607.869	-1.65699	3.59493	0.80970	1.92052
611.873	-1.84490	3.94570	2.14292	1.34236
615.886	-1.84488	3.95564	1.63650	1.18306
619.885	-1.23178	3.05862	1.84999	0.90309
623.881	-1.11814	3.21524	2.22047	0.61935
627.848	-0.65099	3.26493	2.64956	0.48790
631.882	-0.51376	3.72178	2.07455	0.41336
635.846	-1.52414	3.10622	1.95351	-0.51925
639.885	-1.62559	3.59878	1.55564	0.43474
643.906	-2.10002	3.92070	0.73588	0.61186
647.884	-1.76219	3.18581	1.99483	0.68546
651.884	-1.76071	4.00750	1.77432	0.70713
655.884	-1.71322	4.23805	1.75793	0.95039
659.874	-1.73209	4.63809	1.81173	1.25758
663.883	-1.82078	4.84048	1.71198	1.78570
667.883	-1.75473	4.90102	2.05107	1.39682
671.884	-1.74442	4.93625	2.11460	1.75417
675.875	-1.67747	4.99423	2.08877	1.58012
679.888	-1.42094	5.09045	1.81111	2.01499
683.883	-1.04587	5.13053	1.11832	2.28651
687.884	-0.44966	5.09269	1.55174	2.58883
691.873	0.06932	4.97205	1.17021	2.64423
695.888	0.33491	4.97949	1.66428	2.35311
699.882	0.45616	4.59080	1.43148	2.43099
703.885	-0.83280	4.83883	1.00241	2.05529
707.875	-1.24637	4.92087	1.12129	1.39963
711.884	-1.31416	4.74766	1.66557	0.56618
715.888	-1.38476	4.70148	2.18228	-0.32926
719.886	-1.35442	4.77573	2.33685	0.05395
723.886	-1.07857	4.52657	2.39953	2.87141
727.846	-1.29134	4.13322	2.14937	3.14024
731.877	-1.19051	3.86872	2.20689	2.86907
735.872	-1.33877	4.34824	2.47477	2.72817
739.879	-1.03895	4.89089	1.55457	1.91289
743.881	-1.06934	4.51831	1.04138	1.28763
747.888	-1.10090	4.67190	0.43311	1.30690
751.883	-1.08825	4.79557	1.00782	1.08233
755.909	-0.98137	4.56979	0.51242	0.92835
759.886	-0.83518	4.54767	0.72729	0.71417
763.886	-0.87974	4.61198	0.59977	0.49110
767.884	-2.42022	6.59699	2.76923	2.12747
771.885	-12.38024	7.04079	9.04543	3.07218
775.861	-7.80467	6.36492	-3.27044	1.25274
779.886	NaN	NaN	-1.49021	5.90619
783.884	NaN	NaN	NaN	NaN
787.883	NaN	NaN	NaN	NaN
791.882	NaN	NaN	NaN	NaN
795.888	NaN	NaN	NaN	NaN
799.885	NaN	NaN	NaN	NaN
803.889	NaN	NaN	NaN	NaN
807.884	NaN	NaN	NaN	NaN
811.845	NaN	NaN	NaN	NaN
815.880	NaN	NaN	NaN	NaN
819.847	NaN	NaN	NaN	NaN
823.884	NaN	NaN	NaN	NaN
827.885	NaN	NaN	NaN	NaN
831.883	NaN	NaN	NaN	NaN
835.885	NaN	NaN	NaN	NaN
839.883	NaN	NaN	NaN	NaN
843.885	NaN	NaN	NaN	NaN
847.883	NaN	NaN	NaN	NaN
851.914	NaN	NaN	NaN	NaN
855.888	NaN	NaN	NaN	NaN
859.852	NaN	NaN	NaN	NaN
863.849	NaN	NaN	NaN	NaN
867.914	NaN	NaN	NaN	NaN
871.888	NaN	NaN	NaN	NaN
875.885	NaN	NaN	NaN	NaN
879.861	NaN	NaN	-3.29654	9.64638
883.886	NaN	NaN	1.56618	6.37860
887.886	NaN	NaN	2.26343	3.10413
891.886	NaN	NaN	1.61644	-0.50619
895.889	NaN	NaN	1.60858	3.11917
899.888	NaN	NaN	6.49509	3.82506
903.884	NaN	NaN	6.32728	2.64257
907.890	NaN	NaN	13.94780	3.99108
911.888	NaN	NaN	12.61441	3.88306
915.913	-3.76658	-0.60784	6.19444	3.12308
919.889	-2.63430	7.08816	6.12504	4.16640
923.887	-3.47448	2.94656	1.91613	3.47604
927.891	-2.62009	3.50223	2.94794	2.72874
931.878	-2.52971	5.89716	1.00677	2.74239
935.886	4.90444	6.35953	1.49746	2.41433
939.888	-2.91869	6.27967	4.98975	2.93533
943.849	-2.67677	5.73455	2.18327	1.99264
947.911	8.21162	5.76877	3.35365	2.27365
951.888	4.29576	6.21630	2.29049	1.96132
955.886	0.19953	6.55051	1.63519	1.51230
959.888	-1.25741	6.39588	0.58049	2.08655
963.881	-2.45520	6.31802	0.57272	2.05799
967.887	-0.27054	6.70329	0.92877	1.52555
971.886	-2.04847	6.25949	1.03741	2.60175
975.888	-1.64627	6.43654	2.44653	1.75694
979.888	0.06194	6.00446	2.69532	2.53556
983.863	-0.11550	5.86718	3.02625	2.07745
987.883	-1.08182	6.01453	2.40052	1.73460
991.884	-1.24952	6.00440	2.63301	1.92338
995.891	-0.69005	5.69076	3.08315	1.66068
999.889	-1.45733	5.72142	3.09706	1.63991
1003.851	-1.30397	5.88006	3.76023	1.47950
1007.892	-1.31213	5.72740	4.12162	1.29256
1011.887	-1.33512	5.67517	3.88038	1.26702
1015.895	-1.17451	5.39405	3.77881	0.54783
1019.891	-0.85280	5.24595	3.25073	1.11176
1023.888	-1.11499	4.81418	3.70813	0.65261
1027.857	-1.21841	5.26557	3.17905	0.68594
1031.899	-1.11380	5.30417	2.99690	0.18212
1035.888	-0.97509	4.83667	1.98115	0.27012
1039.887	-0.76905	4.36183	2.01489	0.03531
1043.890	-0.58300	4.56943	2.65681	-0.10875
1047.891	-0.44008	4.84934	2.11787	0.05721
1051.892	-0.41462	4.59989	2.68024	-0.09197
1055.887	-0.48686	4.53434	2.84101	0.23041
1059.893	-0.49669	4.55991	2.80261	-0.10585
1063.886	-1.12283	4.81436	2.82382	-0.15708
1067.856	-1.41960	4.68369	3.24729	-0.74880
1071.893	-1.26324	4.66514	2.33400	0.25620
1075.892	-1.11941	4.53675	3.09671	3.03552
1079.888	-1.44329	4.37630	3.63814	3.09607
1083.889	-1.38962	4.32073	3.51698	3.75458
1087.889	-1.04354	4.02012	3.21896	4.19238
1091.891	-1.02841	3.92347	3.62660	3.46592
1095.891	-1.37416	4.07093	3.52791	3.01488
1099.890	-1.43312	3.70853	3.65332	2.68920
1103.890	-1.35477	3.51149	3.91694	2.44238
1107.895	-1.43250	3.68661	4.10130	2.15644
1111.890	-1.26790	3.88474	4.32570	1.82050
1115.895	-1.41903	3.56618	4.52745	1.69116
1119.891	-1.40353	3.55522	4.65035	2.02686
1123.895	-1.38776	3.50290	4.90691	2.14738
1127.853	-1.38895	3.35830	5.17316	1.92511
1131.891	-1.46268	3.42047	5.37763	1.62173
1135.891	-1.39453	3.47000	5.17124	1.69729
1139.882	-1.37846	3.25794	5.34717	1.93681
1143.891	-1.27467	3.29997	5.25914	2.14650
1147.890	-1.31334	3.14765	5.30860	2.38203
1151.883	-1.28221	3.17295	5.43703	2.66992
1155.893	-1.36005	3.12782	5.40262	2.79349
1159.892	-1.24404	3.19085	5.41217	3.04899
1163.891	-1.29571	3.31361	5.31541	3.02100
1167.893	-2.20324	3.34940	2.30301	3.16900
1171.895	-4.50848	3.68082	0.51091	1.75130
1175.890	-4.42215	4.00595	0.39244	2.70355
1179.889	-5.32181	4.31436	-0.01908	3.29187
1183.890	-5.30554	3.66739	-2.31552	-0.42961
1187.893	-7.70160	4.32772	-3.13741	3.07078
1191.889	-8.04307	3.56549	-3.92257	0.33614
1195.892	-8.06438	3.12098	-6.34314	-0.10089
1199.890	-10.52295	4.39825	-6.58004	-0.17534
1203.892	-12.04657	2.89733	-7.07109	-0.21486
1207.892	-10.78700	2.27363	-7.24781	-0.31821
1211.895	-10.79636	2.33034	-7.04320	0.11670
1215.892	-10.74051	2.64197	-6.92963	-0.15476
1219.896	-10.85504	2.67645	-6.96612	0.27593
1223.891	-11.09009	2.42643	-7.14795	0.76991
1227.855	-11.05892	2.68385	-7.23494	-0.40186
1231.881	-11.08220	2.66308	-7.28183	0.45210
1235.895	-10.03645	2.14685	-7.22449	-0.31722
1239.892	-10.38308	2.40954	-7.32751	-0.83419
1243.895	-9.97134	2.17443	-7.61441	-0.22758
1247.890	-9.90503	2.37061	-8.09538	-0.39187
1251.890	-9.86136	2.13563	-7.55388	-0.82810
1255.891	-9.84161	2.12666	-7.63308	-0.31525
1259.890	-9.85043	2.03135	-7.65541	0.48951
1263.892	-9.88557	1.87486	-7.60397	0.18675
1267.896	-10.42211	1.58116	-7.63323	0.16753
1271.894	-10.33255	1.56783	-7.90392	0.46296
1275.858	-10.35344	1.84051	-7.48005	0.65940
1279.891	-10.48101	2.24036	-7.74540	1.18370
1283.894	-10.36677	1.92477	-7.60010	1.21951
1287.855	-10.39974	1.77848	-7.61307	1.79561
1291.892	-10.53190	1.90852	-7.66312	3.04917
1295.894	-10.55330	1.97024	-7.61165	3.62537
1299.890	-10.70186	1.81343	-7.92812	3.53829
1303.892	-10.76060	1.81629	-7.75380	3.43804
1307.893	-10.75318	2.08564	-7.63830	2.74468
1311.895	-10.32870	2.06891	-7.62443	3.20039
1315.876	-9.66036	2.16431	-7.58646	3.75672
1319.892	-9.95172	2.13402	-7.67843	3.83460
1323.893	-10.04831	2.09707	-7.52701	3.92055
1327.893	-10.43488	1.83207	-7.21276	3.12550
1331.791	-10.57855	2.04829	-7.44186	3.30212
1335.893	-10.58066	2.17000	-7.42983	3.12715
1339.893	-10.34047	2.19392	-7.61014	1.51475
1343.893	-10.61226	2.14132	-7.30417	1.15825
1347.897	-10.31335	2.19462	-7.23738	1.75957
1351.895	-10.23928	1.97452	-7.18623	0.59621
1355.890	-9.89655	1.67130	-6.99313	-0.34833
1359.887	-9.96872	1.83243	-6.70482	0.83570
1363.900	-10.39203	1.33962	-6.78294	1.40754
1367.895	-10.50976	1.13395	-6.93574	0.87880
1371.892	-10.27093	2.28864	-7.06579	1.22472
1375.892	-10.37486	1.74683	-7.20985	1.43222
1379.858	-10.59431	1.72422	-7.25987	1.18564
1383.896	-10.30050	1.54043	-7.13910	1.09462
1387.895	-10.04829	1.15547	-7.13324	1.31538
1391.893	-9.83272	0.96806	-7.35329	1.35213
1395.896	-10.04369	0.46981	-6.69226	1.97612
1399.867	-10.31905	0.86400	-7.29892	2.16115
1403.894	-10.28217	1.11190	-7.34760	2.12828
1407.896	-10.68137	1.41767	-7.46363	2.32210
1411.899	-10.16853	0.84705	-7.30681	2.88792
1415.893	-10.44158	1.09990	-7.28007	2.57483
1419.899	-10.26672	0.64820	-6.83452	3.10836
1423.894	-10.11587	0.49176	-6.94435	3.49883
1427.861	-10.39057	0.61818	-7.10220	3.91290
1431.896	-10.33382	0.83150	-6.96277	4.03146
1435.895	-10.54363	2.18671	-7.19679	4.48263
1439.881	-10.35957	1.41119	-6.75796	4.06150
1443.899	-10.26093	0.55902	-7.06571	4.51903
1447.858	-10.37883	0.40031	-7.02942	4.15509
1451.885	-10.26028	0.24743	-6.84558	3.65213
1455.896	-10.22536	0.37887	-6.67099	3.24235
1459.897	-10.27864	1.12988	-6.92220	0.53050
1463.896	-10.31758	0.86075	-6.76554	-0.14088
1467.894	-10.50316	1.57208	-7.09077	-0.54823
1471.894	-10.62133	1.65235	-6.99423	-0.24141
1475.900	-10.45495	0.17888	-6.99873	-0.15839
1479.895	-10.26206	1.38135	-6.90869	-0.26672
1483.863	-10.21777	0.13511	-6.81948	-0.25818
1487.894	-10.07483	-0.16769	-6.58229	0.80146
1491.899	-10.26838	-0.07096	-6.44981	1.30667
1495.899	-10.15406	0.24032	-6.31953	1.35175
1499.897	-9.51998	0.86576	-6.23964	0.66309
1503.891	-8.51947	2.46180	-5.75023	-0.29231
1507.894	-7.57432	2.13680	-4.71452	1.62163
1511.885	-7.37938	1.87604	-5.01617	4.11196
1515.895	-7.26100	0.70820	-3.44570	2.21818
1519.901	-7.21005	0.01745	-2.88193	2.15428
1523.882	-7.06381	-0.20096	-2.01325	1.91633
1527.900	-6.41766	-0.11932	-1.86568	2.10403
1531.896	-6.22272	0.30730	-1.76998	2.31497
1535.899	-6.11204	0.32799	-2.21080	2.56196
1539.771	-5.85406	0.56109	-2.01818	1.25472
1543.774	-5.79248	0.66426	-2.31103	1.14536
1547.775	-5.57198	0.07607	-1.70864	1.59526
1551.773	-5.57793	0.42740	-1.98784	1.69995
1555.792	-5.55108	0.21992	-1.43543	1.73427
1559.774	-5.51024	0.50014	-1.19495	2.12781
1563.776	-5.62092	0.22217	-1.21608	2.00309
1567.775	-5.55187	0.68214	-1.20976	2.15581
1571.766	-5.49728	0.51576	-1.12283	2.21382
1575.773	-5.52640	0.45012	-0.89778	1.35326
1579.772	-5.42626	0.59324	-1.00139	1.25643
1583.773	-5.44200	0.75263	-0.89212	1.63168
1587.763	-5.43263	0.77790	-0.95264	1.86240
1591.771	-5.44188	0.91809	-0.90875	1.51975
1595.772	-5.45752	0.95546	-0.87895	1.38463
1599.772	-5.45351	1.10854	-0.88158	1.13999
1603.793	-5.49133	0.76669	-0.86711	1.17052
1607.776	-5.59472	0.90698	-0.87602	0.97234
1611.759	-5.59179	0.90577	-0.83441	1.16005
1615.769	-5.77946	0.93246	-0.80702	1.62558
1619.797	-5.56047	0.97374	-0.79414	1.60771
1623.775	-5.71505	1.01718	-0.73955	1.07496
1627.741	-5.70934	1.13225	-0.54719	1.67748
1631.774	-5.78158	1.22248	-0.67379	0.02743
1635.765	-5.80442	1.40994	-0.53620	1.50361
1639.775	-5.83950	1.49202	-0.48024	1.73147
1643.773	-5.92596	1.49730	-0.39412	0.81826
1647.773	-5.92992	1.42971	-0.33645	0.58492
1651.795	-5.87975	1.67607	-0.39569	-0.16974
1655.739	-5.94948	0.71666	-3.00472	-0.24460
1659.771	-5.73453	1.39929	-0.40224	-0.48451
1663.774	-4.81315	0.33024	0.06333	0.39385
1667.767	-4.41571	0.71349	0.76776	0.20417
1671.772	-3.47440	0.69694	1.26168	0.65633
1675.774	-2.61726	0.19027	2.54098	1.67162
1679.776	-1.96967	-0.19463	3.97711	1.12227
1683.796	-1.89612	0.30384	3.94209	1.53188
1687.773	-2.00447	0.13559	3.88433	1.12725
1691.774	-2.02552	0.19725	3.93539	0.88168
1695.752	-2.06897	0.11676	3.91464	1.14203
1699.799	-2.07995	0.33449	3.99450	1.33283
1703.776	-1.92932	0.13781	3.99302	1.30763
1707.773	-2.03677	0.43281	3.99808	1.51622
1711.774	-2.04168	0.52464	4.01109	1.57356
1715.795	-1.90316	0.46277	4.01095	2.09712
1719.780	-1.86084	0.85410	4.05653	1.66038
1723.775	-1.94384	0.86645	3.98724	2.67655
1727.731	-1.93363	0.94792	3.95814	1.96660
1731.777	-1.92394	1.35944	3.95760	1.88992
1735.765	-1.91340	1.28849	4.01455	2.00999
1739.770	-1.89664	1.52089	3.95132	2.05261
1743.772	-1.82400	0.95359	3.98590	1.95975
1747.774	-1.93893	1.54964	3.90321	2.14676
1751.775	-1.86273	1.04819	3.88752	2.09312
1755.774	-1.89902	1.23816	3.81728	2.63204
1759.737	-2.02106	1.45278	3.66488	2.06501
1763.777	-1.95049	1.34428	3.73235	2.34587
1767.777	-1.84805	1.23020	3.61955	2.05681
1771.775	-1.83191	1.28701	3.62615	2.17035
1775.775	-1.80667	0.78725	3.48588	2.39080
1779.766	-1.83985	0.78058	3.26416	2.83713
1783.774	-1.82552	0.72360	3.21349	2.18823
1787.776	-1.85983	0.69746	3.33468	2.50028
1791.773	-1.83204	0.64664	3.11188	2.29415
1795.802	-1.76718	0.62593	3.15048	2.02777
1799.774	-1.77734	0.27465	3.16305	2.96006
1803.778	-1.75847	0.40214	3.06642	2.25387
1807.773	-1.79951	0.26737	3.07664	2.33392
1811.797	-1.76933	0.12021	3.03596	1.96464
1815.776	-1.90827	-0.01892	2.98685	2.07329
1819.768	-1.84500	-0.09664	3.09663	2.12100
1823.771	-1.94642	-0.27842	3.06840	2.00174
1827.779	-2.00728	-0.89261	3.10681	1.68605
1831.775	-1.85770	-0.36442	3.09758	1.88609
1835.777	-1.95190	-0.78391	3.05553	1.57662
1839.774	-1.95024	-1.13185	3.16564	1.18375
1843.799	-1.99622	-1.32563	3.16881	1.20951
1847.740	-1.93537	-0.63138	3.40682	1.06407
1851.775	-1.93703	-0.88579	3.43224	0.85505
1855.775	-1.84500	-0.96867	3.71869	0.46934
1859.803	-1.69175	-1.37362	4.11858	-0.32664
1863.742	-1.89768	-0.86376	4.18400	0.51852
1867.777	-1.78446	-0.85163	4.52486	-1.36862
1871.777	-1.65069	-0.90520	5.11479	-1.14257
1875.800	-1.70472	-0.93500	4.55554	-0.12078
1879.777	-1.61094	-0.88965	4.92201	-0.15251
1883.781	-1.83457	-0.67120	4.65614	-1.29909
1887.779	-1.84865	-0.39772	3.53496	-1.72509
1891.798	-2.06381	0.66031	3.74765	-1.27934
1895.775	-2.27870	0.23568	3.16181	-0.41749
1899.778	-2.12414	-0.19483	3.47974	-0.96771
1903.755	-2.07990	-0.67470	3.72247	-0.81672
1907.802	-2.01213	0.12901	4.01169	-0.87622
1911.777	-2.07502	0.53677	4.30053	0.53274
1915.776	-2.09467	0.67196	4.31524	-0.45627
1919.776	-2.31728	1.00345	4.14093	-1.30519
1923.800	-2.34436	0.99398	4.26326	0.47619
1927.778	-2.41063	0.81740	4.40473	0.36028
1931.777	-2.38667	0.66123	3.45247	-1.44086
1935.779	-2.27615	-0.98258	3.18197	-0.90763
1939.808	-2.24530	0.56281	3.70018	-0.84771
1943.770	-2.01464	-0.98211	4.31119	-0.45035
1947.767	-2.14565	-0.19011	4.27232	0.20233
1951.777	-2.21888	0.45710	4.44156	-1.41473
1955.780	-2.06597	0.68225	4.58977	-0.19967
1959.779	-2.23184	0.36557	4.93679	-0.42967
1963.777	-2.08820	-0.02672	3.08666	-1.20643
1967.777	-1.88162	0.02891	4.34053	-0.28982
1971.780	-1.55926	0.17125	4.94982	-0.42521
1975.778	-1.18760	-0.04887	5.77615	-0.21833
1979.778	-0.86183	-0.48357	5.10167	-1.69958
1983.778	-0.83764	-0.22379	4.31812	-0.24290
1987.792	-0.95266	-0.18175	4.77274	-1.24212
1991.794	-0.84349	-0.29597	5.58651	-1.72465
1995.773	-0.53984	-0.04147	5.89267	0.57605
1999.775	-0.60816	-0.17674	5.82221	2.67617
2003.742	-0.63935	-0.17550	5.92682	2.22950
2007.774	-0.70908	-0.27553	5.59548	1.50778
2011.777	-0.66655	-0.36145	5.93316	0.91469
2015.779	-0.75744	0.00199	5.65069	1.00127
2019.770	-0.66543	-0.36195	5.52654	1.41089
2023.785	-0.51247	-0.23951	5.84512	1.48020
2027.763	-0.47334	-0.33900	6.45044	-0.88834
2031.777	-0.83300	-0.58437	5.74959	1.57416
2035.779	-0.88964	-0.15283	5.67583	1.00412
2039.779	-0.67747	-0.18238	5.00150	2.02151
2043.782	-0.83545	0.27246	4.50397	1.95809
2047.780	-0.97598	-0.32893	5.12496	1.40301
2051.781	-0.72320	-0.29461	5.25483	0.22416
2055.778	-0.94415	-0.73053	5.94320	0.27810
2059.781	-0.72166	-0.56083	6.15583	-0.51911
2063.781	-1.04210	-0.64488	6.30379	0.64795
2067.775	-1.10636	-0.16554	5.52536	0.83723
2071.745	-1.14866	0.27174	5.02699	1.76623
2075.780	-1.00814	0.27330	4.03107	1.96066
2079.780	-0.90180	0.38896	4.51324	1.07067
2083.784	-0.81927	0.29021	5.08665	0.62987
2087.780	-0.68208	0.08980	5.11017	0.29881
2091.781	-0.90252	0.87807	5.73487	-0.25859
2095.781	-0.88413	1.00815	5.86966	-0.19513
2099.784	-1.19125	0.60492	6.05862	0.30277
2103.779	-1.25922	1.15046	6.17739	-0.33418
2107.783	-1.28817	0.91114	6.20281	-0.40980
2111.759	-1.37074	1.15795	5.65496	-0.75565
2115.784	-0.83106	1.08738	5.49694	-0.95596
2119.780	-1.12281	1.03466	5.66184	-0.88554
2123.785	-1.14895	0.85179	6.08946	-0.04976
2127.783	-1.12392	0.82465	6.22341	-0.27044
2131.746	-0.94663	0.09327	5.12949	2.56873
2135.781	-0.60727	0.70514	5.35955	1.55664
2139.781	-0.84327	1.32453	4.88510	1.29972
2143.783	-0.79444	1.50025	5.09298	0.02210
2147.785	-0.67116	1.18722	5.22520	0.02893
2151.775	-0.82496	1.20051	5.73952	-1.34015
2155.781	-0.46291	1.18423	5.49207	-0.77102
2159.783	-0.03455	1.18131	5.95756	-0.23694
2163.786	0.38966	1.02380	6.57610	-0.31328
2167.782	0.33154	1.66956	7.06403	0.00836
2171.781	-0.22502	2.23738	6.84832	2.15343
2175.782	-0.00395	1.61886	6.92449	1.83511
2179.780	0.04427	1.63279	6.88313	0.59808
2183.782	0.22023	1.34011	6.81957	0.89384
2187.785	0.02028	1.33319	6.63654	1.08351
2191.781	-0.01385	1.26703	6.56669	0.25928
2195.781	0.08803	1.38470	6.62150	-0.67462
2199.785	0.10890	1.16765	6.56365	-0.03614
2203.793	0.00323	2.55057	5.79167	0.98341
2207.783	0.00516	2.14671	4.74693	1.71508
2211.781	0.02311	3.23822	6.71686	2.31909
2215.782	-0.02090	3.18553	6.85468	1.92031
2219.784	0.00819	3.12984	6.76990	2.80752
2223.787	0.03643	1.95420	7.58234	3.24979
2227.743	-0.26582	3.33765	6.99597	3.07176
2231.785	0.01256	2.08661	7.38224	2.34297
2235.763	-0.07351	2.80568	6.50692	2.66839
2239.778	-0.09433	2.27908	6.19635	2.49365
2243.680	-0.11252	2.22243	7.44059	2.63985
2247.780	-0.12779	2.02091	7.42197	2.69919
2251.782	-0.14618	1.80504	7.49124	2.72743
2255.745	-0.30074	2.72237	7.58815	2.14264
2259.784	-0.44850	4.73267	7.58632	3.94913
2263.782	-0.49575	3.19777	7.24766	7.39089
2267.746	-0.44249	3.62662	6.94535	4.82124
2271.782	-0.40961	3.37489	7.26732	4.32861
2275.785	-0.48014	3.72959	7.49320	2.99106
2279.779	-0.49168	3.55299	7.46202	2.46467
2283.785	-0.54396	3.40172	7.35847	2.40616
2287.782	-0.56903	3.12654	6.68470	2.81510
2291.785	-0.50607	3.21119	7.05875	2.64110
2295.783	-0.51006	2.91892	7.44755	0.36757
2299.783	-0.32439	2.78363	5.85180	2.56569
2303.783	-0.34169	2.61778	6.41996	1.87659
2307.786	-0.14479	2.46564	6.53642	1.63126
2311.784	-0.10959	2.23995	6.91180	0.80708
2315.782	-0.23080	2.12031	7.18987	1.05494
2319.764	-0.38549	2.12008	7.11775	1.32851
2323.793	-0.30761	2.02441	7.24007	2.07052
2327.747	-0.26972	2.17812	7.03039	3.65451
2331.782	-0.15442	1.86146	7.24808	3.92885
2335.783	-0.17285	1.63877	7.23990	2.79139
2339.788	0.01814	1.48917	7.22241	2.17312
2343.783	-0.04383	1.54410	6.37253	4.35030
2347.786	0.25299	1.78092	6.94758	3.54157
2351.783	-0.40802	2.01724	6.96350	3.89760
2355.786	-0.28825	2.38761	7.04797	3.21629
2359.783	-0.23999	3.39739	7.07772	2.58193
2363.776	-0.35268	4.09375	5.69581	3.09763
2367.785	-0.38127	4.88411	5.77865	2.46641
2371.788	-0.27885	5.03172	5.76411	1.67103
2375.785	-0.53758	7.44791	6.32414	4.64666
2379.782	NaN	NaN	17.09091	2.61765
2383.786	NaN	NaN	NaN	NaN
2387.685	NaN	NaN	NaN	NaN
2391.784	NaN	NaN	NaN	NaN
2395.784	NaN	NaN	NaN	NaN
2399.787	NaN	NaN	NaN	NaN
2403.705	NaN	NaN	NaN	NaN
2407.785	NaN	NaN	NaN	NaN
2411.785	NaN	NaN	NaN	NaN
2415.784	NaN	NaN	NaN	NaN
2419.783	NaN	NaN	NaN	NaN
2423.788	NaN	NaN	NaN	NaN
2427.785	NaN	NaN	NaN	NaN
2431.783	NaN	NaN	NaN	NaN
2435.784	NaN	NaN	NaN	NaN
2439.784	NaN	NaN	NaN	NaN
2443.781	NaN	NaN	NaN	NaN
2447.784	NaN	NaN	NaN	NaN
2451.796	NaN	NaN	NaN	NaN
2455.784	NaN	NaN	NaN	NaN
2459.789	NaN	NaN	NaN	NaN
2463.776	NaN	NaN	NaN	NaN
2467.788	NaN	NaN	NaN	NaN
2471.788	NaN	NaN	NaN	NaN
2475.689	NaN	NaN	NaN	NaN
2479.754	NaN	NaN	NaN	NaN
2483.785	NaN	NaN	NaN	NaN
2487.781	NaN	NaN	NaN	NaN
2491.790	NaN	NaN	NaN	NaN
2495.782	NaN	NaN	NaN	NaN
2499.783	NaN	NaN	NaN	NaN
2503.785	NaN	NaN	NaN	NaN
2507.785	NaN	NaN	16.42791	8.05265
2511.786	NaN	NaN	18.27033	7.88847
2515.786	NaN	NaN	16.61502	1.25027
2519.786	NaN	NaN	NaN	NaN
2523.791	NaN	NaN	18.17918	-4.33019
2527.790	NaN	NaN	18.30577	-4.22908
2531.789	NaN	NaN	17.31477	-2.46970
2535.787	NaN	NaN	17.83576	-4.18045
2539.788	NaN	NaN	17.68072	-4.17233
2543.789	-0.05956	8.31015	13.63208	-2.48202
2547.790	6.40650	10.20953	11.04436	-2.37346
2551.752	4.90681	2.70766	8.20661	-0.89599
2555.791	NaN	NaN	8.10289	-1.45558
2559.792	-1.93251	5.95889	5.52214	0.78928
2563.789	-1.80960	5.60165	4.77007	0.58521
2567.787	2.77537	14.29411	3.50991	0.48128
2571.777	-2.30670	3.97297	3.39230	0.93415
2575.661	-2.39423	2.76604	4.46287	0.65893
2579.750	-2.45009	3.62125	3.83490	0.99801
2583.662	-2.56357	2.99062	4.09105	0.78856
2587.661	-2.52929	2.71201	4.16961	1.04091
2591.684	-2.73155	2.69488	4.55914	1.23692
2595.662	-0.45356	3.42744	4.02359	1.68056
2599.663	-0.39142	2.66832	4.19492	1.36878
2603.663	-0.22244	2.51005	4.64699	1.13915
2607.664	-0.45363	2.74199	5.02982	1.14937
2611.664	-0.63588	2.59155	6.13785	1.23630
2615.648	-0.75608	2.49363	5.51723	1.24054
2619.659	-0.73896	2.63494	6.92684	1.16044
2623.662	-0.64913	2.35819	6.81750	1.06372
2627.663	-0.76258	2.16510	6.80739	2.10894
2631.626	-0.85183	2.04484	6.49421	2.14638
2635.626	-0.88766	2.09998	6.71319	1.58131
2639.686	-0.73208	2.07306	6.42493	0.97069
2643.664	-0.82042	1.87277	6.43655	1.03539
2647.663	-0.80818	1.90871	6.43287	1.25234
2651.666	-0.96494	2.02581	6.21865	2.65951
2655.682	-0.80605	1.93435	6.26667	1.69321
2659.655	-0.88078	2.04782	5.50378	0.82143
2663.661	-0.93882	2.00335	5.50631	0.18254
2667.664	-0.98985	2.24525	6.27763	-2.19992
2671.685	-0.95398	2.19539	5.47749	0.20293
2675.664	-0.94631	1.94195	6.11856	-2.42644
2679.664	-0.96266	2.44080	5.64385	-0.05794
2683.664	-0.94177	2.38868	5.80771	-2.15937
2687.685	-0.98075	2.39428	5.92535	-1.90987
2691.626	-1.00799	2.43263	5.91862	-1.63602
2695.626	-0.95959	2.29987	5.52753	-1.17246
2699.663	-0.99608	2.23522	5.17225	-0.49596
2703.689	-0.94671	2.43154	5.18695	-0.54806
2707.660	-0.94911	2.58853	4.71646	0.38935
2711.659	-0.91473	2.47707	4.78397	-0.00884
2715.653	-0.87892	2.64144	3.54346	1.41046
2719.687	-0.84719	2.57923	4.53167	0.92256
2723.664	-0.80995	2.80831	5.28333	-1.46341
2727.668	-0.94773	2.78589	5.64919	-1.50053
2731.664	-1.03724	3.12844	5.23787	-0.88030
2735.694	-0.88545	3.07551	5.09997	-0.62714
2739.652	-1.21727	2.69951	5.31352	-0.61000
2743.659	-1.06969	2.66433	5.32100	0.06586
2747.664	-1.19787	2.55001	5.40036	1.22975
2751.689	-1.17458	2.89555	5.46745	1.79125
2755.663	-1.13665	2.85807	5.43182	1.45250
2759.666	-1.10212	3.05254	5.33876	1.35688
2763.664	-0.90053	3.10218	5.35057	0.98301
2767.666	-0.86113	3.11443	4.98206	0.54304
2771.666	-1.03015	3.03569	5.13966	-0.13894
2775.665	-1.00057	3.12339	5.26128	-1.99011
2779.675	-1.02379	3.43918	5.31393	-2.41861
2783.631	-1.14280	3.65013	5.27892	-1.33122
2787.667	-0.99479	3.36682	5.28185	-1.33357
2791.665	-0.88706	3.32882	5.16218	-0.32682
2795.666	-0.94539	3.45397	5.06974	-0.58145
2799.687	-1.02084	4.20573	4.83114	-0.75553
2803.668	-1.16954	3.44637	5.28638	-0.99958
2807.666	-1.45909	3.33366	4.78326	-1.78426
2811.668	-2.96366	2.81075	4.57196	-1.53382
2815.687	-2.67910	2.78947	4.06856	-1.92581
2819.628	-2.94089	2.35264	2.34758	-2.21346
2823.629	-2.75688	2.13914	1.77025	-2.33180
2827.671	-3.17777	2.39190	1.72515	-2.25129
2831.659	-2.99067	2.24142	2.06785	-2.50098
2835.665	-2.98131	2.20412	2.17658	-2.31507
2839.666	-2.88423	2.21244	2.00574	-2.73046
2843.666	-3.03826	2.15147	2.09668	-2.66338
2847.689	-3.05162	2.26505	2.06193	-2.74471
2851.667	-3.15332	2.09334	1.98494	-2.36947
2855.668	-3.15909	2.17207	2.09323	-2.63638
2859.667	-3.23846	2.20351	2.10672	-2.50218
2863.688	-3.28187	2.79414	2.00730	-2.46082
2867.669	-2.44053	2.89411	2.35135	-1.98988
2871.670	-2.69183	3.08439	2.57798	-2.14786
2875.670	-2.91646	2.73360	2.19745	-0.86986
2879.690	-2.83893	2.85726	2.44492	-1.58929
2883.671	-2.81660	3.37532	2.21965	-1.01750
2887.666	-2.81201	3.00471	2.09665	-0.41522
2891.669	-2.91111	3.20026	2.86940	-0.86544
2895.688	-3.04875	3.23473	2.51076	-0.38198
2899.666	-2.92376	3.12375	3.00009	-0.30999
2903.670	-2.96775	3.13416	3.04712	-0.21819
2907.649	-3.01244	3.00779	2.78124	-0.22973
2911.688	-3.26230	2.87878	2.80716	-0.25792
2915.667	-3.27880	2.38599	2.67338	-0.19093
2919.666	-3.28845	2.36880	2.61394	-0.12893
2923.668	-3.14009	1.69438	2.69052	-0.09780
2927.692	-3.25124	1.82444	2.19083	-0.68669
2931.669	-3.30055	1.88120	2.39646	-0.56821
2935.670	-3.28645	1.45058	2.06148	-1.59186
2939.669	-3.35494	1.02274	2.39971	-2.07203
2943.695	-3.29815	0.83136	2.84026	-4.31224
2947.657	-3.29906	0.73467	2.39237	-3.05387
2951.659	-3.34727	1.13984	1.39001	-2.72679
2955.666	-3.73571	1.49317	1.31992	-2.52909
2959.694	-3.37113	1.50705	0.79578	-2.78085
2963.669	-3.65576	2.25568	0.19643	-0.50949
2967.671	-3.31363	2.41404	-0.18658	-0.78337
2971.668	-3.23126	2.85645	1.68818	1.84778
2975.672	-3.24892	2.76869	1.88965	4.24608
2979.668	-3.41142	3.05117	2.36695	3.85042
2983.669	-3.22670	3.01208	2.30687	3.67667
2987.667	-3.17552	3.07693	1.90874	3.82971
2991.670	-3.53008	2.96944	2.12885	3.25144
2995.672	-3.17811	3.10564	2.22964	3.55036
2999.670	-3.33233	3.20711	2.28043	3.42007
3003.670	-3.11465	3.21895	2.35419	3.30981
3007.633	-3.25261	3.17230	2.51163	3.34141
3011.670	-3.23922	3.11985	2.31844	3.24743
3015.671	-3.30487	3.14938	2.44450	2.98765
3019.668	-3.18517	3.13177	2.48188	2.84135
3023.695	-3.14845	3.15293	2.48948	1.85646
3027.636	-3.41303	3.07211	2.20424	2.30692
3031.651	-3.42688	3.02718	2.40602	1.47734
3035.671	-3.42779	3.06383	2.34257	1.23817
3039.697	-3.37165	3.02497	2.34104	1.35218
3043.670	-3.28375	2.73641	2.34612	0.94577
3047.669	-3.07607	1.37122	2.41811	0.42012
3051.669	-3.13823	1.28861	2.44346	-1.12351
3055.667	-2.93030	0.59598	2.66709	-1.78347
3059.669	-3.04509	-0.73862	2.56842	-2.02399
3063.671	-2.92695	-0.59382	2.78802	-2.14732
3067.671	-2.84516	-0.53125	2.75497	-2.08727
3071.672	-2.70084	-0.72974	2.97332	-2.16788
3075.663	-2.58960	-0.83707	3.06367	-2.09688
3079.671	-2.74994	-0.84488	3.12653	-2.18301
3083.673	-2.54048	0.15019	3.16089	-2.24928
3087.674	-2.52369	0.73476	3.25033	-2.66618
3091.674	-2.49615	0.65914	3.27034	-2.18820
3095.671	-2.51361	0.27151	3.25372	-2.18700
3099.672	-2.61216	-0.01110	3.47319	-2.34617
3103.675	-2.61862	0.35623	3.41004	-2.12220
3107.671	-2.74410	1.01350	3.27076	-1.70041
3111.671	-2.79629	1.22243	3.44743	-1.73076
3115.648	-2.74573	1.19901	3.41355	-1.07257
3119.672	-2.69985	0.96658	3.72939	-1.53977
3123.628	-2.90626	1.40355	3.33775	-1.03372
3127.640	-2.96203	1.85048	3.54700	-0.65054
3131.674	-2.97433	1.21380	3.50113	-0.59257
3135.675	-3.05741	1.22033	3.83193	-0.25371
3139.671	-3.22176	1.95144	3.82729	-0.33590
3143.671	-3.14226	1.88940	3.37875	-0.18426
3147.671	-3.50761	1.63420	3.79371	0.01870
3151.677	-3.23719	1.36756	3.79060	0.02301
3155.673	-3.41389	1.28424	3.68134	0.04173
3159.661	-3.50509	1.72988	3.31173	0.45697
3163.672	-3.38743	1.12425	3.41112	0.95466
3167.676	-3.44478	-0.84941	3.57360	0.96206
3171.673	-3.37430	0.99011	3.43402	1.00840
3175.674	-3.46251	2.03484	3.55145	1.23767
3179.671	-3.43150	0.08833	3.37850	1.44997
3183.675	-3.38135	1.29182	3.23071	0.12730
3187.674	-3.56475	0.93807	3.29233	0.17061
3191.668	-3.36752	1.20987	3.15038	0.90470
3195.673	-3.11643	0.58548	3.20088	-0.13370
3199.687	-3.15142	0.64555	3.17119	-0.45713
3203.672	-2.80587	0.64155	3.14414	-0.67941
3207.672	-2.95663	0.33042	3.13479	-0.56939
3211.675	-3.25006	0.14315	3.03182	-0.29678
3215.670	-3.02465	0.38574	2.95604	-1.53654
3219.673	-2.76789	0.61949	2.89270	-1.15234
3223.668	-2.51792	0.58479	2.93161	-1.82378
3227.635	-2.80261	0.27266	3.00277	-2.18958
3231.676	-2.59539	0.08884	3.01551	-2.40036
3235.672	-2.37620	0.16893	3.17893	-2.60298
3239.651	-2.12354	0.27241	3.90770	-2.18059
3243.671	-1.89754	0.39597	3.92023	-2.75271
3247.672	-1.73579	0.39551	3.81081	-2.44508
3251.671	-1.63732	0.44434	4.61891	-2.43859
3255.669	-1.65684	0.27372	4.16423	-2.46006
3259.676	-1.49076	0.17955	4.32323	-2.56862
3263.676	-1.46824	0.27509	4.36163	-2.73530
3267.675	-1.53178	0.35002	4.56402	-2.79238
3271.673	-1.50926	0.68639	4.76327	-2.56169
3275.675	-1.51231	0.54727	4.46860	-2.19991
3279.677	-1.47727	1.04305	4.51403	-2.92040
3283.664	-1.61141	0.93750	4.08844	-1.47897
3287.674	-1.65317	0.69371	3.58544	-2.28948
3291.674	-1.93170	1.23068	3.77720	-2.11541
3295.571	-1.77769	0.99299	3.07825	-2.30322
3299.673	-2.08647	0.99073	3.00888	-1.96985
3303.677	-2.04126	1.04716	3.13581	-2.20207
3307.674	-2.09185	0.94693	3.12702	-2.68405
3311.674	-2.14805	1.34965	3.46538	-3.04306
3315.675	-2.11341	1.09552	3.41018	-3.15426
3319.678	-2.20134	1.39000	3.20018	-2.66614
3323.672	-2.20002	1.09166	3.54920	-2.92938
3327.641	-2.13698	0.34824	3.52902	-4.05695
3331.673	-2.10406	0.63750	3.32125	-3.01711
3335.674	-2.01414	-0.02687	3.32461	-2.58493
3339.673	-1.98762	-0.22979	3.40244	-3.01701
3343.675	-1.95034	-0.55352	3.41746	-2.96915
3347.674	-1.96353	-0.83391	3.46399	-2.87942
3351.673	-1.91871	-0.56521	3.53612	-3.28094
3355.676	-1.85604	-1.40581	3.60811	-2.80229
3359.680	-1.82403	-0.72124	3.54662	-2.82994
3363.665	-1.83702	-0.65091	3.55955	-3.60878
3367.664	-1.90812	-0.75252	3.51785	-2.63515
3371.675	-1.84059	-0.62056	3.54304	-2.57714
3375.676	-1.86392	-0.53004	3.57088	-2.69135
3379.673	-1.78329	-0.49529	3.69202	-2.70851
3383.677	-1.79832	1.36724	3.71305	-2.63132
3387.675	-1.79547	0.89264	3.91225	-2.45702
3391.677	-1.68449	0.77389	3.83860	-2.59160
3395.677	-1.56967	1.46657	3.89881	-2.52711
3399.680	-1.30464	1.45333	3.94048	-2.24714
3403.675	-1.80174	1.25992	4.06283	-2.11629
3407.666	-1.71025	1.33287	3.83910	-2.00078
3411.675	-1.67283	1.11802	3.70569	-1.15591
3415.674	-1.70747	0.93502	3.80626	-0.50465
3419.674	-1.67866	1.13271	3.76035	-0.34141
3423.680	-1.84495	1.33540	3.72761	-1.97389
3427.678	-1.99848	1.27872	3.69551	-0.48046
3431.679	-1.81131	1.25689	3.48815	0.06784
3435.676	-1.84255	0.92748	3.34907	-0.41000
3439.677	-1.83372	1.21251	3.37628	-0.43524
3443.682	-1.88249	0.48088	3.46021	-0.10762
3447.638	-1.94483	0.70354	3.29439	0.33758
3451.675	-1.94166	0.37873	3.04717	0.05772
3455.677	-2.00998	0.62256	3.57194	0.13998
3459.675	-1.93948	1.06122	4.61405	0.40063
3463.639	-1.96814	0.57736	4.64981	0.45276
3467.675	-2.02678	0.38864	4.77069	1.55984
3471.679	-2.13561	0.93521	4.59697	0.78887
3475.677	-2.14047	0.08776	4.40507	2.15170
3479.673	-1.97681	-0.07127	3.89678	1.93681
3483.672	-1.94089	-0.17265	4.22720	0.40170
3487.671	-1.96077	-0.36362	4.04191	0.34543
3491.670	-1.82205	-0.71315	4.07611	-1.75655
3495.680	-1.88085	-0.67501	4.23841	-2.02680
3499.677	-2.00279	-0.78500	4.01011	-2.80503
3503.679	-1.96516	-0.90706	3.83799	-2.40627
3507.679	-1.77873	-1.27275	3.77795	-2.63944
3511.676	-1.88668	-1.14194	3.46869	-2.63244
3515.677	-1.90319	-1.00238	3.55550	-3.00999
3519.681	-1.72141	-0.82580	3.45979	-3.35500
3523.675	-1.77965	-1.09241	3.23979	-3.31698
3527.680	-1.80794	-1.03312	3.08572	-2.58170
3531.668	-1.82998	-1.04818	3.53960	-2.35023
3535.644	-1.88697	-0.86600	3.87255	-2.38254
3539.677	-1.98051	-0.88088	4.41551	-2.19524
3543.678	-2.06899	0.25280	4.11135	-2.33192
3547.676	-1.94238	0.05489	4.18396	-2.17866
3551.683	-1.97396	1.07719	4.27257	-2.50320
3555.679	-1.99550	0.85932	4.46075	-3.05210
3559.677	-1.93993	0.83025	4.19237	-2.36523
3563.677	-1.98412	0.90709	4.57433	-1.89634
3567.543	-1.88566	0.40896	4.59260	-2.17314
3571.666	-1.55799	0.67519	4.56641	-2.44040
3575.669	-1.11273	-0.48383	4.55988	-2.11872
3579.677	-1.40375	0.43100	4.54851	-1.73982
3583.681	-1.37890	-0.16716	4.50609	-1.87913
3587.678	-1.20073	-0.16946	4.74558	-2.22388
3591.681	-1.22997	-0.71471	4.63679	-1.90830
3595.677	-1.41268	-0.45106	4.63632	-2.14892
3599.674	-1.23030	-0.62471	4.74378	-2.15974
3603.679	-1.23298	-0.30142	4.80729	-1.72757
3607.679	-1.25694	-0.50309	4.85423	-1.80985
3611.553	-1.13159	-0.50341	4.78055	-1.66213
3615.576	-1.18562	-0.11053	4.79327	-1.11211
3619.533	-1.63328	-0.42598	4.79573	-0.44712
3623.556	-1.74935	-0.28906	4.82424	-1.21898
3627.555	-1.74169	-0.12938	4.83826	-1.62342
3631.546	-1.80781	0.19532	4.82215	-1.21532
3635.552	-1.70291	0.47241	4.82414	-0.75237
3639.553	-1.62244	0.48311	4.88680	-0.41891
3643.553	-1.65099	0.59797	4.34931	0.11071
3647.546	-1.66948	0.74656	3.70769	-0.38906
3651.554	-1.51792	0.74713	3.58692	-0.01657
3655.554	-1.88767	0.98211	3.52779	-0.33058
3659.546	-1.93239	1.24900	3.48672	-0.32380
3663.534	-2.14838	1.00322	3.74488	-0.61115
3667.529	-1.90366	1.14608	3.34084	-1.21702
3671.552	-1.95215	0.97045	3.45398	-1.64197
3675.553	-2.12744	0.97037	3.84253	-1.66599
3679.571	-2.29731	2.67474	4.03865	1.84065
3683.556	NaN	NaN	1.66837	5.92749
3687.558	NaN	NaN	NaN	NaN
3691.553	NaN	NaN	NaN	NaN
3695.517	NaN	NaN	NaN	NaN
3699.553	NaN	NaN	NaN	NaN
3703.526	NaN	NaN	NaN	NaN
3707.518	NaN	NaN	NaN	NaN
3711.554	NaN	NaN	NaN	NaN
3715.553	NaN	NaN	NaN	NaN
3719.519	NaN	NaN	NaN	NaN
3723.557	NaN	NaN	NaN	NaN
3727.555	NaN	NaN	NaN	NaN
3731.566	NaN	NaN	NaN	NaN
3735.521	NaN	NaN	NaN	NaN
3739.556	NaN	NaN	NaN	NaN
3743.535	NaN	NaN	NaN	NaN
3747.548	NaN	NaN	NaN	NaN
3751.554	NaN	NaN	NaN	NaN
3755.551	NaN	NaN	NaN	NaN
3759.558	NaN	NaN	NaN	NaN
3763.557	NaN	NaN	NaN	NaN
3767.584	NaN	NaN	NaN	NaN
3771.557	NaN	NaN	NaN	NaN
3775.517	NaN	NaN	NaN	NaN
3779.557	NaN	NaN	NaN	NaN
3783.558	NaN	NaN	NaN	NaN
3787.522	NaN	NaN	NaN	NaN
3791.518	NaN	NaN	NaN	NaN
3795.555	NaN	NaN	NaN	NaN
3799.549	NaN	NaN	NaN	NaN
3803.558	NaN	NaN	NaN	NaN
3807.558	NaN	NaN	NaN	NaN
3811.555	NaN	NaN	NaN	NaN
3815.555	NaN	NaN	NaN	NaN
3819.555	NaN	NaN	NaN	NaN
3823.556	NaN	NaN	13.57321	4.82231
3827.517	NaN	NaN	15.01151	0.98311
3831.525	NaN	NaN	14.64450	-3.30823
3835.581	NaN	NaN	8.12836	0.59465
3839.560	0.80918	11.08397	3.62946	0.07425
3843.557	-0.48463	8.92162	4.11856	-3.00055
3847.557	-2.77629	14.67180	-0.13771	-0.42993
3851.582	4.72783	11.16622	-0.94388	-0.18624
3855.559	-0.18412	13.25277	3.68473	-0.36760
3859.560	1.68119	11.82017	3.34148	-0.15666
3863.558	-0.57342	11.93505	-0.92639	-0.00335
3867.574	-1.40256	11.62462	2.62095	-0.43509
3871.547	-2.79842	2.16182	2.32645	-0.35552
3875.559	3.65734	7.01540	2.71679	-0.08469
3879.559	2.62687	7.08591	2.08312	0.34209
3883.582	2.31572	7.78980	3.13877	1.14454
3887.558	1.60836	7.58899	2.80498	0.97345
3891.560	0.66322	7.50300	1.37027	1.34937
3895.556	-3.00002	2.11750	2.36044	3.53111
3899.578	-3.03756	1.99193	4.46016	1.56106
3903.556	-3.24692	2.21345	3.68918	-0.97547
3907.562	-4.26995	2.38547	2.94124	-0.87007
3911.560	-4.82084	2.45805	2.56939	-1.30106
3915.581	-3.20340	2.81747	2.17147	-0.24588
3919.558	-3.20355	2.50630	2.40862	0.02192
3923.559	-2.69445	2.60909	2.20775	0.19281
3927.561	-2.47368	2.88361	2.55143	0.36854
3931.579	-2.81942	2.97863	2.52892	1.73580
3935.561	-2.98787	2.81349	2.66897	-1.32495
3939.520	-3.05694	2.27842	2.68093	-2.71245
3943.561	-2.90923	2.22726	2.12364	-1.65847
3947.583	-3.13019	2.22918	2.50712	-1.53483
3951.556	-3.41760	1.61140	2.79917	-1.65217
3955.522	-3.73772	1.28114	2.77126	0.05783
3959.563	-2.74776	1.46496	2.64913	0.44854
3963.585	-2.51430	2.40215	2.66610	1.48431
3967.559	-2.91856	2.94226	3.43590	1.19320
3971.565	-3.29379	1.62440	2.76490	1.51445
3975.560	-3.67561	1.33062	3.35528	1.62251
3979.581	-2.45250	1.28587	2.87193	1.57542
3983.554	-2.76782	2.24597	2.77485	-1.91276
3987.560	-2.78874	1.76844	1.95297	-0.77313
3991.563	-3.52188	1.56310	2.94651	-0.19178
3995.584	-2.91656	2.40935	3.33404	1.29238
3999.558	-2.85829	2.88858	3.14249	0.63816
4003.560	-2.64483	3.10872	2.82684	-3.00881
4007.521	-3.21669	3.10068	2.97374	-3.56773
4011.583	-3.27982	2.80498	2.04869	0.08418
4015.527	-2.53771	2.64791	3.84404	1.09593
4019.561	-2.48099	2.61074	3.27927	1.23911
4023.565	-2.65555	2.18897	3.30055	0.84162
4027.585	-2.57491	2.13324	3.21941	-0.13546
4031.563	-2.80008	2.06555	2.71761	-0.83825
4035.543	-2.99779	2.12038	2.80370	0.19066
4039.562	-2.60778	2.03992	3.01702	0.23174
4043.582	-2.94017	1.84256	3.20362	1.11089
4047.560	-3.06885	1.69293	3.52086	1.45409
4051.562	-3.32822	1.67381	2.92384	1.26773
4055.561	-3.39718	1.62113	3.56302	1.27077
4059.584	-4.05236	1.48317	3.14936	1.38658
4063.562	-2.44128	1.66428	3.14852	0.23563
4067.557	-2.67764	1.83142	2.96690	2.04351
4071.564	-2.23687	2.20981	2.50345	1.76751
4075.577	-2.30105	2.11490	2.80885	1.91033
4079.549	-2.58680	2.82638	2.78879	1.32598
4083.560	-2.75121	2.68537	2.90403	0.98398
4087.562	-2.74566	2.48715	2.67571	1.00397
4091.563	-2.54697	2.43048	2.63903	0.91923
4095.559	-2.56265	2.54877	2.56193	0.73756
4099.562	-2.57221	2.64303	2.60582	0.67559
4103.562	-2.50583	2.53054	2.56069	0.11052
4107.563	-2.40840	2.20637	3.04207	-0.50309
4111.560	-2.48426	2.25354	4.60745	-1.89155
4115.560	-2.19123	1.95815	4.03149	-1.75900
4119.533	-1.67794	1.54021	3.98114	-0.42230
4123.566	-2.18994	1.71886	4.12154	0.19382
4127.524	-1.15506	2.02482	4.37381	-1.12826
4131.562	-2.31968	1.92510	2.70094	-0.97343
4135.568	-1.99855	3.09664	2.58930	2.16589
4139.565	-1.85817	3.44263	2.20540	1.91954
4143.524	-2.18206	2.39927	2.34163	1.09301
4147.563	-2.42265	2.14278	2.41735	-0.10348
4151.564	-2.22624	1.96262	2.84247	-0.46665
4155.566	-2.17383	1.92276	2.90361	-1.90135
4159.560	-2.03439	1.65057	2.79662	-1.09553
4163.542	-1.91429	1.69439	3.47149	-1.95067
4167.561	-2.07678	0.96005	2.93455	-1.32135
4171.564	-1.84999	0.03186	3.02870	2.07148
4175.565	-1.81334	-0.15165	3.78694	-0.33604
4179.572	-1.20026	0.11398	4.25951	-0.73795
4183.562	-1.71367	2.67564	4.25973	-1.26147
4187.567	-2.02594	2.76194	3.66004	-0.91412
4191.563	-1.99493	2.62278	2.51205	-0.68212
4195.525	-1.81116	3.18134	2.92329	-1.04916
4199.563	-1.93799	3.35897	2.54630	-0.79702
4203.568	-1.93891	3.36511	2.41685	-1.48050
4207.563	-1.83080	3.22315	2.94767	-1.57125
4211.565	-1.89092	3.12413	3.07907	-1.85531
4215.558	-1.79234	2.97956	3.14528	-2.25073
4219.560	-1.65880	2.98317	2.80778	-1.62724
4223.560	-1.96273	2.85178	3.16179	-1.44671
4227.564	-1.90445	2.77609	3.39243	-1.94193
4231.566	-1.82720	3.13127	3.52969	-2.00566
4235.566	-1.90537	2.61911	3.87549	-1.78350
4239.569	-1.81220	2.88827	4.03389	-2.17617
4243.563	-1.80303	2.75244	4.29480	-2.13200
4247.564	-1.94788	2.29415	3.98571	-2.15677
4251.569	-1.99446	1.95326	3.80819	-2.22637
4255.562	-1.89471	0.82642	3.83300	-2.43792
4259.526	-1.81451	0.65519	4.08611	-2.14720
4263.563	-1.82844	1.06082	3.96506	-2.33521
4267.563	-1.64942	0.49587	4.27202	-2.31405
4271.564	-1.56459	0.54179	4.07253	-2.52687
4275.566	-1.79738	0.77631	4.22757	-2.27472
4279.528	-1.68726	0.85395	4.08777	-2.26779
4283.560	-1.75012	0.89810	4.58767	-2.35668
4287.552	-1.83791	0.91971	4.07945	-2.17647
4291.562	-1.93180	1.19956	4.32651	-1.56157
4295.562	-1.94092	1.21151	4.22750	-0.27123
4299.568	-2.29805	1.42971	3.98482	-1.30044
4303.564	-2.00703	1.46111	3.91835	-1.63710
4307.563	-1.61810	1.53862	3.84476	-1.92440
4311.565	-1.76103	1.43654	3.38278	-1.22641
4315.528	-1.91258	1.48569	3.44787	-1.90929
4319.565	-1.87036	1.66597	2.65500	-1.96641
4323.567	-1.76517	1.86498	3.18428	-2.00570
4327.538	-1.96330	2.31399	2.79612	-2.15325
4331.567	-1.56531	2.03882	3.65972	-1.69022
4335.568	-1.65225	2.04511	3.90610	-2.35238
4339.563	-1.68139	2.24159	4.42977	-2.51386
4343.563	-1.93755	2.21710	3.70176	-2.19203
4347.566	-1.95311	2.19186	3.49923	-1.87051
4351.564	-2.01184	2.21522	3.17213	-1.81326
4355.565	-1.69993	2.17121	3.32887	-2.06443
4359.565	-1.86513	1.86614	3.05707	-2.34798
4363.568	-1.86084	1.62479	3.17052	-2.37990
4367.546	-1.76219	1.44970	3.48766	-2.88987
4371.562	-1.53684	0.97235	3.01254	-0.54025
4375.568	-1.45507	1.24353	3.67712	0.21534
4379.462	-1.83293	1.26387	3.92146	1.18477
4383.528	-3.08641	2.04202	2.91277	2.77924
4387.524	-6.26591	6.20290	9.42687	-0.28561
4391.564	7.23970	4.09193	16.07959	-0.00592
4395.567	NaN	NaN	15.44492	1.85782
4399.565	NaN	NaN	14.30706	9.47627
4403.568	NaN	NaN	NaN	NaN
4407.568	NaN	NaN	NaN	NaN
4411.532	NaN	NaN	NaN	NaN
4415.562	NaN	NaN	NaN	NaN
4419.566	NaN	NaN	NaN	NaN
4423.564	NaN	NaN	NaN	NaN
4427.566	NaN	NaN	NaN	NaN
4431.564	NaN	NaN	NaN	NaN
4435.562	NaN	NaN	NaN	NaN
4439.564	NaN	NaN	NaN	NaN
4443.527	NaN	NaN	NaN	NaN
4447.568	NaN	NaN	NaN	NaN
4451.546	NaN	NaN	NaN	NaN
4455.536	NaN	NaN	NaN	NaN
4459.567	NaN	NaN	NaN	NaN
4463.565	NaN	NaN	NaN	NaN
4467.530	NaN	NaN	NaN	NaN
4471.566	NaN	NaN	NaN	NaN
4475.567	NaN	NaN	NaN	NaN
4479.464	NaN	NaN	NaN	NaN
4483.533	NaN	NaN	NaN	NaN
4487.568	NaN	NaN	NaN	NaN
4491.560	NaN	NaN	NaN	NaN
4495.471	NaN	NaN	NaN	NaN
4499.570	NaN	NaN	NaN	NaN
4503.528	NaN	NaN	NaN	NaN
4507.570	NaN	NaN	NaN	NaN
4511.569	NaN	NaN	14.13906	-2.53865
4515.570	NaN	NaN	14.19476	-6.15398
4519.567	NaN	NaN	11.48880	12.33000
4523.565	NaN	NaN	13.90590	-3.34672
4527.570	8.42187	2.70902	14.48881	-5.61884
4531.572	-2.41162	1.09618	7.91787	-4.53831
4535.545	-0.18779	3.64208	6.94526	-4.18266
4539.568	-7.61906	5.41093	10.18387	-4.09771
4543.570	-0.70650	5.95353	-1.83942	-1.96051
4547.572	7.38915	5.85675	-2.30645	-0.52172
4551.566	5.40752	-0.04703	1.76748	-0.09180
4555.568	-1.09931	1.09576	1.30074	-0.28807
4559.566	-0.92205	1.26276	-0.26644	-0.05941
4563.466	-0.70563	1.25213	0.01715	0.38359
4567.530	-1.15052	1.53319	2.63311	0.08658
4571.572	-1.74360	1.65301	2.78550	0.67983
4575.552	-2.07864	1.86143	2.16032	0.49091
4579.469	-1.30553	1.82788	2.85039	1.91266
4583.570	-2.30605	1.96884	1.82445	1.85310
4587.569	-2.91059	2.14924	-0.75134	-0.73267
4591.570	-2.35159	2.41550	2.57897	-4.23620
4595.466	-2.22344	2.30273	3.19397	-1.29028
4599.566	-2.05573	1.36398	3.12197	-1.05745
4603.571	-2.34121	0.76015	3.11136	0.63964
4607.567	-2.65830	0.59698	2.61630	0.55329
4611.573	-2.84358	1.06970	2.43731	1.24377
4615.569	-3.09921	0.35559	2.67836	1.39085
4619.532	-1.89211	0.72293	2.81939	1.24996
4623.569	-2.57580	0.65356	2.46954	1.40438
4627.472	-2.67595	0.65651	2.83301	0.81331
4631.569	-2.47682	1.02858	3.06338	1.14966
4635.535	-2.81627	0.88017	2.93906	1.33173
4639.575	-2.98138	0.69535	2.62722	1.25959
4643.469	-3.20117	0.71708	2.65676	2.06012
4647.569	-2.83551	0.93722	2.32397	1.37952
4651.442	-1.86779	2.10021	2.74190	1.21953
4655.444	-2.26775	0.80431	2.78119	1.31607
4659.436	-2.36866	0.84166	2.78495	1.04604
4663.437	-2.54937	1.43783	2.84133	1.22203
4667.436	-2.16426	2.00717	2.74744	1.09761
4671.445	-2.56045	2.11033	2.35680	1.19039
4675.442	-2.35003	2.09926	2.63621	1.08503
4679.430	-1.75959	1.88934	2.62600	0.37413
4683.444	-2.17703	1.71064	2.79231	-0.23085
4687.407	-2.25122	1.02162	3.07847	-0.27659
4691.440	-2.10302	1.00499	3.17544	0.26518
4695.434	-2.19484	0.85467	3.15293	-0.64852
4699.443	-2.27221	1.63114	2.60225	-0.98510
4703.447	-2.10250	1.30400	2.68423	-0.75611
4707.412	-1.94206	0.68611	2.55646	-0.81295
4711.447	-1.90063	1.08347	2.22530	-0.71771
4715.447	-1.87768	0.67146	2.29993	-1.14700
4719.446	-1.94610	0.33122	2.99915	-1.57249
4723.436	-1.97237	0.69270	2.51460	-1.64742
4727.446	-1.90552	0.75721	2.30271	-2.03647
4731.447	-1.67370	0.90790	2.79164	-1.56940
4735.445	-1.38240	0.55535	2.25553	-1.03840
4739.448	-1.45978	0.58191	2.35097	-1.75419
4743.452	-1.36667	0.64793	2.49780	-1.92665
4747.440	-1.27554	0.53585	2.69339	-2.48785
4751.443	-1.27591	0.50028	2.43986	-2.35199
4755.446	-1.21782	0.41063	2.70617	-2.31042
4759.446	-1.29625	0.55400	2.65154	-2.09221
4763.445	-1.29648	0.46256	2.46080	-2.10618
4767.446	-1.30633	0.46519	2.72266	-2.18248
4771.436	-1.26426	0.37721	2.62707	-1.97402
4775.445	-1.26488	0.53724	2.68920	-1.66488
4779.448	-1.49889	1.55164	2.75608	-2.06511
4783.446	-1.46291	0.72795	2.96091	-1.78349
4787.436	-1.46898	1.69488	2.85655	-1.45716
4791.441	-1.51973	0.94946	2.92507	-1.30675
4795.447	-1.54889	1.50802	2.85267	0.24692
4799.447	-1.58113	2.85636	3.02128	0.20043
4803.472	-1.55978	2.54093	2.57855	0.79908
4807.448	-1.57771	2.37119	2.46766	0.63637
4811.448	-1.54539	2.54950	2.42099	1.03128
4815.447	-1.53500	2.56706	2.77361	0.68820
4819.413	-1.62086	2.55448	2.94072	0.06879
4823.449	-1.51744	2.62519	2.13004	0.50254
4827.448	-1.45944	2.65361	2.27971	0.21616
4831.421	-1.41777	2.19539	2.35429	-0.11697
4835.446	-1.42553	2.58070	2.22302	0.09033
4839.452	-1.47012	2.39449	2.19640	-0.38274
4843.448	-1.46941	2.27612	2.28990	-1.55508
4847.448	-1.45152	1.77684	2.44675	-2.38358
4851.445	-1.44317	1.40688	2.84873	-2.76729
4855.448	-1.43749	0.83386	2.68113	-3.04591
4859.447	-1.47280	1.03402	2.49419	0.91055
4863.450	-1.43148	0.26563	2.58417	0.74011
4867.448	-1.53981	2.96684	2.97680	-0.45042
4871.434	-1.63306	2.98088	2.87665	-1.11698
4875.439	-1.80414	2.00166	3.08943	-1.79459
4879.407	-1.69264	1.93596	3.21626	-1.90037
4883.440	-1.76780	2.12828	3.10901	-2.71537
4887.448	-1.44669	2.05071	3.29718	-2.43193
4891.449	-1.69411	2.02395	3.37388	-2.84277
4895.449	-1.54051	1.85499	3.41206	-2.60054
4899.440	-1.72870	1.86481	3.57248	-3.57227
4903.449	-1.73021	1.94068	3.52368	-3.08528
4907.451	-1.59179	1.80149	3.56991	-2.49105
4911.449	-1.66589	1.97962	3.52504	-2.98857
4915.429	-1.61967	2.04745	3.73685	-2.60670
4919.449	-1.56657	0.34043	3.30549	-2.62823
4923.448	-1.50073	0.05609	3.51258	-2.69961
4927.412	-1.40514	0.46729	3.43296	-2.28748
4931.450	-1.42201	0.70345	3.47542	-1.82950
4935.446	-1.46941	1.40721	3.17631	-0.47584
4939.446	-1.54619	1.46331	3.04056	0.06802
4943.411	-1.54686	2.26930	3.21201	-2.09121
4947.474	-1.17867	1.34239	2.94992	-2.62692
4951.450	-1.24823	2.45046	2.89126	-2.92718
4955.432	-1.07721	2.65562	2.78206	-3.40180
4959.423	-1.13439	2.98470	2.69084	-2.50223
4963.449	-1.21050	3.20090	2.51703	-2.87084
4967.450	-1.15322	3.35278	2.53766	-2.08255
4971.452	-1.42995	3.56523	1.99136	-2.23171
4975.451	-0.73283	1.29178	2.40139	-1.97255
4979.472	-0.88485	1.98735	2.18508	-2.15249
4983.448	-0.99764	2.91619	2.06248	-2.28249
4987.448	-1.05959	2.74924	2.76364	-2.43365
4991.448	-1.07190	3.01008	2.83115	-2.79920
4995.438	-1.01226	2.88267	3.36359	-3.24905
4999.444	-1.23719	2.80563	3.50222	-3.65515
5003.451	-1.33155	2.76602	3.09604	-3.21901
5007.449	-1.58778	2.50846	2.62170	-4.40123
5011.445	-0.90790	1.84195	2.68034	-5.24412
5015.451	-1.10078	1.97109	3.01106	1.13143
5019.452	-1.17289	1.61081	2.82588	1.14457
5023.450	-1.18029	1.66777	3.32726	-1.07534
5027.408	-1.36871	1.61974	3.37470	-0.87231
5031.453	-1.41968	1.95233	3.23779	-1.11790
5035.449	-1.44919	2.68991	3.32939	-0.96362
5039.426	-1.42350	2.81875	3.35095	-0.92241
5043.473	-1.16302	2.88278	2.96153	-0.67933
5047.451	-1.11174	1.83940	2.98794	-0.15120
5051.451	-1.12273	2.40601	3.07518	-0.83025
5055.454	-1.28906	3.21650	2.86918	-0.50593
5059.450	-1.36052	2.08795	3.05984	-0.86420
5063.452	-1.07039	2.32073	4.70291	-2.43234
5067.450	-1.05121	2.51421	3.66518	-1.84488
5071.452	-0.73888	2.45064	4.38726	-1.61477
5075.452	-0.89696	2.37557	2.90086	-1.32017
5079.440	-0.90711	2.37883	3.76759	-0.68901
5083.441	-0.93190	2.54885	3.05518	-0.24709
5087.449	-1.01486	2.34036	3.14607	0.43291
5091.445	-1.06103	2.29000	3.27324	0.09574
5095.414	-1.27522	2.41058	3.35046	-1.45896
5099.450	-1.13814	2.39352	3.59963	-1.69296
5103.449	-1.17847	2.46994	3.09463	-1.95524
5107.444	-1.17436	2.51024	3.32137	-2.02334
5111.450	-1.27971	2.53251	3.12220	-2.93463
5115.454	-1.19810	2.36574	3.13796	-3.35967
5119.452	-1.20105	2.49164	3.21382	-2.85867
5123.448	-1.08207	2.11112	3.31828	-2.11792
5127.453	-1.07264	2.40674	3.14256	-2.13045
5131.415	-0.75025	2.33403	2.89502	0.23480
5135.415	-0.77938	2.62661	3.26698	-0.19132
5139.447	-0.77588	2.22558	3.54457	-0.54314
5143.452	-0.60042	2.28238	2.95678	0.47924
5147.455	-0.91331	2.09172	3.38254	-2.08498
5151.453	-0.68012	2.03971	3.47579	-0.05722
5155.445	-1.00442	1.98301	3.32624	0.49192
5159.454	-1.21422	2.33403	2.94193	0.81005
5163.436	-5.07267	2.95218	2.75750	3.03752
5167.456	-3.39047	5.96876	12.22684	3.19535
5171.442	NaN	NaN	-2.48317	-1.98066
5175.451	NaN	NaN	2.70755	7.94802
5179.450	NaN	NaN	NaN	NaN
5183.449	NaN	NaN	NaN	NaN
5187.448	NaN	NaN	NaN	NaN
5191.447	NaN	NaN	NaN	NaN
5195.451	NaN	NaN	NaN	NaN
5199.408	NaN	NaN	NaN	NaN
5203.453	NaN	NaN	NaN	NaN
5207.445	NaN	NaN	NaN	NaN
5211.449	NaN	NaN	NaN	NaN
5215.454	NaN	NaN	NaN	NaN
5219.449	NaN	NaN	NaN	NaN
5223.409	NaN	NaN	NaN	NaN
5227.453	NaN	NaN	NaN	NaN
5231.413	NaN	NaN	NaN	NaN
5235.450	NaN	NaN	NaN	NaN
5239.454	NaN	NaN	NaN	NaN
5243.451	NaN	NaN	NaN	NaN
5247.452	NaN	NaN	NaN	NaN
5251.436	NaN	NaN	NaN	NaN
5255.454	NaN	NaN	NaN	NaN
5259.452	NaN	NaN	NaN	NaN
5263.453	NaN	NaN	NaN	NaN
5267.450	NaN	NaN	NaN	NaN
5271.456	NaN	NaN	NaN	NaN
5275.453	NaN	NaN	14.23494	5.98223
5279.455	NaN	NaN	17.32049	9.23112
5283.455	NaN	NaN	NaN	NaN
5287.455	NaN	NaN	NaN	NaN
5291.444	NaN	NaN	NaN	NaN
5295.452	NaN	NaN	NaN	NaN
5299.455	NaN	NaN	12.88754	-1.01199
5303.453	NaN	NaN	17.23724	0.67394
5307.451	NaN	NaN	NaN	NaN
5311.454	NaN	NaN	14.31221	-0.84076
5315.452	9.75386	7.54171	14.56392	-2.54642
5319.458	NaN	NaN	16.86814	-1.15705
5323.453	12.73370	11.38441	0.45056	0.20743
5327.420	-2.45252	11.52994	6.31760	-0.51727
5331.418	4.29248	13.37454	4.80537	-0.66094
5335.454	1.39368	14.02153	7.91999	-0.39878
5339.457	NaN	NaN	4.42437	-0.53535
5343.463	NaN	NaN	7.86047	-0.62900
5347.453	NaN	NaN	5.57901	-1.22948
5351.456	12.59425	14.09362	0.88205	-0.62044
5355.458	NaN	NaN	1.23952	-0.60293
5359.457	NaN	NaN	3.30327	-0.03694
5363.454	NaN	NaN	2.55839	-0.41856
5367.457	1.07021	2.82795	2.83066	-0.27494
5371.439	-0.07564	2.88731	2.71008	-0.20890
5375.431	0.38926	3.29917	3.12064	-0.18855
5379.458	0.38018	3.25777	1.83276	-0.19914
5383.456	0.34476	3.27900	2.67274	-0.16095
5387.455	-1.91325	3.32254	2.92767	-0.19677
5391.454	-2.01885	3.39323	2.34587	0.03747
5395.454	-2.16949	3.62332	2.52696	0.34166
5399.455	-2.28123	3.95105	2.55594	0.50104
5403.455	-2.02088	3.26646	2.17611	0.49333
5407.361	-2.77136	0.13606	2.33636	0.17978
5411.453	-1.75724	-0.09105	2.31658	0.02664
5415.455	-1.81934	0.31892	2.15772	-2.95202
5419.459	0.13744	0.76816	2.04359	-2.68339
5423.357	-0.39415	0.50742	2.03375	-1.89106
5427.457	-1.90827	0.72237	1.90081	-0.77842
5431.457	-1.60223	1.09335	1.77729	0.07362
5435.419	-1.79068	1.29925	2.12037	-0.36083
5439.355	-1.53600	1.30838	2.35214	0.92244
5443.436	-1.59903	1.40876	2.47494	0.09814
5447.455	-1.39740	1.37210	2.36495	-3.23829
5451.453	-1.40294	0.41485	2.30182	-3.39141
5455.432	-1.53210	0.20448	2.72367	-2.97345
5459.460	-1.73923	0.17918	2.60171	-1.90141
5463.453	-1.74157	1.14452	2.88532	-1.11303
5467.456	-1.91395	1.36139	2.94465	-0.55036
5471.458	-1.73435	1.51093	2.75405	-0.78559
5475.459	-1.63680	1.49693	2.62053	-0.68797
5479.458	-1.69515	1.52543	2.68678	-3.68263
5483.459	-1.60288	1.58157	2.54497	-3.12010
5487.353	-1.75386	2.02657	2.49000	-1.45879
5491.461	-2.55762	0.66065	1.69178	-1.83344
5495.457	-3.00532	0.24606	1.25064	-0.75832
5499.447	-1.05649	0.51092	1.92005	-0.81218
5503.423	-0.78260	0.98918	2.58380	-0.48244
5507.458	-1.02868	1.09988	2.37602	-0.59637
5511.419	-0.77563	1.28365	2.57432	-1.11821
5515.458	-0.88872	1.42295	2.42911	-0.88476
5519.356	-0.81238	1.40241	2.44648	-0.89882
5523.458	-0.89661	1.59287	2.33973	-3.11201
5527.421	-0.81173	0.92268	2.41043	-3.53351
5531.457	-0.90242	1.51672	3.10181	-3.45569
5535.355	-0.98107	1.40898	2.69955	-3.35883
5539.425	-1.14794	1.44046	3.38528	-3.20123
5543.467	-1.15888	1.86444	2.90312	-3.38664
5547.457	-1.17637	1.56684	3.64429	-3.05649
5551.355	-1.19157	1.63497	3.06385	-3.06184
5555.461	-1.25746	1.55299	3.00309	-2.82444
5559.456	-1.35144	1.61931	2.82380	-3.15596
5563.458	-1.37558	1.53636	2.11207	-2.92483
5567.356	-1.35784	1.57998	2.81476	-2.87019
5571.458	-1.37498	1.51806	2.51609	-2.35240
5575.460	-1.39450	1.55345	2.21871	-1.72183
5579.442	-1.38349	1.59955	2.27818	-2.22160
5583.349	-1.36670	1.65973	2.37540	-0.99366
5587.458	-1.32699	1.82962	2.38160	-0.82038
5591.460	-1.20346	1.54448	2.23489	-0.56897
5595.461	-0.98559	1.01138	2.17596	-0.47017
5599.463	-0.79893	-0.50445	2.18855	0.79859
5603.459	-1.00030	-0.21434	1.91633	0.52232
5607.459	-1.04749	0.69985	2.32033	-1.03587
5611.462	-1.03344	0.62481	2.23405	-1.64875
5615.356	-1.17530	1.33914	2.51113	-1.86881
5619.459	-1.09145	1.52542	2.59728	-2.30004
5623.452	-0.97474	1.69514	2.71089	-2.61547
5627.451	-1.23471	1.38827	3.00700	-1.90600
5631.329	-1.18490	1.84928	3.09493	-2.20025
5635.472	-1.17793	0.35849	2.23742	-0.67173
5639.422	-1.06041	0.03307	1.86256	1.10196
5643.425	-1.27743	0.59728	1.42511	1.16284
5647.461	-1.09445	1.05364	1.91211	1.51696
5651.460	-1.08621	1.04205	2.78674	1.21668
5655.458	-0.87252	0.98007	2.37515	-1.92095
5659.458	-0.82741	0.64005	2.49615	-1.85722
5663.362	-0.72637	1.71824	2.47846	1.26373
5667.461	-0.97963	1.57176	2.76913	-1.02047
5671.459	-0.95227	1.52455	3.26376	0.46530
5675.459	-0.63479	1.89759	1.50403	0.40648
5679.355	-1.15104	1.84412	2.21729	-0.11064
5683.460	-1.05158	1.90828	2.54546	1.86380
5687.332	-0.89776	1.70109	2.23221	1.70861
5691.337	-0.61392	1.69104	2.62895	-0.15641
5695.466	-0.71938	1.87740	2.67293	-0.80212
5699.298	-1.16654	1.92958	2.91116	-0.81593
5703.334	-0.90708	1.84907	1.73636	-0.53963
5707.299	-0.55602	1.56863	2.21881	-0.89065
5711.336	-1.13429	1.81280	1.53852	-0.64542
5715.336	-1.00132	1.52939	2.17975	-0.86163
5719.335	-0.93262	1.38141	2.14392	-1.30627
5723.335	-0.78523	1.36607	2.57716	-1.31502
5727.303	-0.22353	1.02253	2.55574	-1.24219
5731.339	-0.69819	1.39090	2.58474	-1.86270
5735.335	-1.02193	1.36156	2.54990	-1.49636
5739.336	-1.03985	1.11260	1.85859	-2.33886
5743.338	-0.83545	1.10109	1.94964	-3.83150
5747.338	-0.87083	1.00615	1.73343	-3.18009
5751.315	-0.93279	1.16397	2.19182	-3.71293
5755.336	-1.09527	1.09075	1.89887	-3.42792
5759.328	-1.11231	1.58222	1.63090	-3.98172
5763.336	-1.05151	1.57227	1.95812	-3.69592
5767.334	-1.13409	1.87761	1.67878	-2.81662
5771.333	-1.14801	1.95068	1.68486	-2.33915
5775.329	-1.19773	2.50756	1.63933	-1.86443
5779.336	-1.17706	2.80467	1.47476	-1.60604
5783.336	-1.29065	3.08171	1.46296	-1.51376
5787.337	-1.50924	1.72066	1.52553	-0.71926
5791.327	-1.40187	0.77695	1.30712	-0.01930
5795.329	-1.25314	1.17703	1.56756	-0.60798
5799.339	-1.33168	1.71612	1.53500	0.30389
5803.339	-1.34346	1.53280	1.59712	0.17214
5807.334	-1.49604	2.29765	1.75605	0.18685
5811.337	-1.31501	1.76242	2.12349	0.15612
5815.340	-1.19787	1.62050	2.02160	0.20925
5819.300	-1.14739	1.82151	2.13182	0.17608
5823.338	-1.56955	3.27150	2.03781	0.44193
5827.338	-1.60784	2.45799	2.11698	0.17442
5831.339	-1.48238	2.59466	2.23652	-0.77197
5835.309	-1.34638	3.20182	2.15745	-4.39980
5839.335	-1.95274	2.62099	2.11613	-4.53769
5843.306	-1.04245	2.72407	1.92290	-0.22972
5847.339	-1.07423	2.84150	2.14161	0.67718
5851.339	-1.48426	2.79047	2.30236	0.10195
5855.331	-1.62718	2.83887	1.88204	1.04751
5859.335	-0.97998	2.25203	2.38036	1.12085
5863.340	-1.37228	2.80689	1.76423	1.22998
5867.338	-1.23047	2.73797	2.13385	0.28909
5871.330	-1.28785	2.20183	2.16815	-0.45314
5875.320	-1.63293	1.53603	1.93561	-0.75248
5879.332	-1.39483	2.09231	1.80831	-0.35608
5883.340	-1.13191	1.62821	1.82294	-0.41601
5887.329	-1.05354	1.19887	0.86927	-1.12696
5891.337	-1.40018	0.56821	2.92304	-2.55850
5895.340	-1.20844	0.98103	2.19876	-1.83762
5899.339	-1.32942	1.82940	2.07440	-2.49720
5903.330	-1.29216	1.57653	2.26980	-3.30996
5907.339	-1.56642	2.17515	2.13113	-3.14102
5911.340	-1.51365	1.90345	1.70251	-3.57664
5915.343	-2.66513	2.34534	1.92681	-3.69206
5919.334	-1.42580	2.13235	2.47123	-1.70299
5923.338	-1.23913	2.54107	2.18976	-3.69405
5927.306	-1.68409	2.65048	0.92731	-3.82878
5931.337	-1.55769	2.69868	2.64594	-3.28216
5935.338	-1.34966	2.40481	2.17085	-3.91387
5939.338	-1.19100	2.58838	2.75440	-3.07503
5943.340	-1.64114	2.47962	2.48487	-3.23092
5947.340	-1.67328	2.68889	1.46879	-3.78198
5951.330	-1.46142	2.59727	3.06998	-3.44996
5955.338	-1.23970	2.41005	2.36309	-3.39193
5959.319	-1.19949	2.30909	2.93044	-3.01034
5963.340	-0.97139	2.12806	1.38689	-1.88904
5967.337	-1.04146	2.01118	2.95861	-3.07659
5971.338	-1.51814	1.78808	2.37924	-1.73493
5975.338	-1.32495	1.65591	2.80538	-2.55099
5979.302	-1.72686	1.36160	2.28754	-1.93320
5983.333	-0.77885	1.33240	1.57433	-2.55189
5987.337	-1.78823	1.04051	2.05908	-1.61794
5991.339	-1.03957	1.79045	2.43555	-2.58412
5995.338	-1.69760	0.92400	2.09866	-1.44805
5999.338	-1.71622	2.40355	1.53959	-1.84330
6003.332	-1.48672	2.62096	1.86206	-1.07652
6007.340	-1.18197	2.55427	1.78381	-1.59810
6011.340	-1.79321	1.99715	1.96410	-0.94507
6015.362	-1.30707	1.26781	1.46420	-1.19965
6019.341	-1.48845	2.56466	1.61233	-1.08634
6023.340	-2.00329	1.29778	1.68885	-0.77260
6027.343	-1.54877	1.22431	1.88777	-1.11404
6031.343	-2.00470	1.46315	2.12545	-1.12028
6035.340	-1.88797	2.03847	2.35501	-1.19007
6039.340	-2.04126	2.88216	2.50826	-1.31685
6043.312	1.55556	0.00939	2.45232	-1.36936
6047.310	-2.27739	2.88479	2.22426	-1.24468
6051.344	-2.07103	2.66201	2.67987	-1.43587
6055.341	-2.63160	2.87729	2.21881	-0.83683
6059.341	4.94004	2.64174	7.28771	-1.76698
6063.365	7.70509	3.42298	-4.20805	-1.38840
6067.304	7.95100	4.12397	14.18678	-1.55438
6071.339	NaN	NaN	16.88064	4.00879
6075.340	NaN	NaN	5.46268	-4.81442
6079.339	NaN	NaN	NaN	NaN
6083.335	NaN	NaN	NaN	NaN
6087.339	NaN	NaN	NaN	NaN
6091.341	NaN	NaN	NaN	NaN
6095.337	NaN	NaN	NaN	NaN
6099.342	NaN	NaN	NaN	NaN
6103.341	NaN	NaN	NaN	NaN
6107.342	NaN	NaN	NaN	NaN
6111.343	NaN	NaN	NaN	NaN
6115.307	NaN	NaN	NaN	NaN
6119.345	NaN	NaN	NaN	NaN
6123.341	NaN	NaN	NaN	NaN
6127.308	NaN	NaN	NaN	NaN
6131.307	NaN	NaN	NaN	NaN
6135.338	NaN	NaN	NaN	NaN
6139.341	NaN	NaN	NaN	NaN
6143.341	NaN	NaN	NaN	NaN
6147.346	NaN	NaN	NaN	NaN
6151.344	NaN	NaN	NaN	NaN
6155.344	NaN	NaN	NaN	NaN
6159.342	NaN	NaN	NaN	NaN
6163.343	NaN	NaN	NaN	NaN
6167.348	NaN	NaN	NaN	NaN
6171.342	NaN	NaN	NaN	NaN
6175.343	NaN	NaN	NaN	NaN
6179.342	NaN	NaN	NaN	NaN
6183.306	NaN	NaN	NaN	NaN
6187.344	NaN	NaN	NaN	NaN
6191.344	NaN	NaN	NaN	NaN
6195.343	NaN	NaN	NaN	NaN
6199.341	NaN	NaN	NaN	NaN
6203.346	NaN	NaN	NaN	NaN
6207.362	NaN	NaN	1.23890	3.05755
6211.345	NaN	NaN	NaN	NaN
6215.342	NaN	NaN	8.72600	7.25110
6219.344	NaN	NaN	10.11226	2.44969
6223.343	NaN	NaN	17.70955	5.69108
6227.344	NaN	NaN	16.46849	5.94688
6231.344	NaN	NaN	-4.68898	2.84256
6235.346	-22.37228	9.21197	NaN	NaN
6239.344	-19.99399	-12.07740	11.32753	2.20439
6243.343	-19.99399	-12.07740	16.54891	-0.12775
6247.345	-19.99399	-12.07740	17.46394	-0.27506
6251.313	-19.99399	-12.07740	15.07227	-0.42100
6255.341	-4.06930	6.87531	NaN	NaN
6259.345	-0.80446	-4.79122	10.52537	-1.34888
6263.345	-4.08325	-3.27713	12.09600	-3.73941
6267.345	-4.79920	-5.05668	16.56811	-0.54407
6271.347	2.24834	2.98675	11.32753	-0.96567
6275.345	-1.24473	-1.70196	5.70219	0.36139
6279.342	1.63799	2.01845	8.31217	-0.99388
6283.343	-0.67600	0.81892	6.25620	-3.60509
6287.348	1.75808	2.49806	5.14680	-1.82185
6291.327	8.59534	2.84359	4.42703	1.66525
6295.340	1.82299	2.59620	1.54324	1.29288
6299.344	6.05916	2.77399	-0.93825	0.97180
6303.346	4.32930	2.98639	-0.13042	2.40078
6307.345	6.34464	2.62685	0.53888	1.74106
6311.337	2.32724	3.24674	0.70561	0.77730
6315.345	2.99641	3.66157	-0.63280	-2.31206
6319.345	1.80025	4.11956	1.04357	-1.84378
6323.346	2.10084	2.60293	1.82143	0.61858
6327.310	3.45326	2.63144	2.43689	-1.35407
6331.350	3.04180	2.92612	3.15345	1.32981
6335.345	1.37937	3.63370	2.08939	2.00687
6339.346	1.10606	3.46147	1.09681	2.36317
6343.351	0.84652	2.65446	1.42491	2.25543
6347.349	-0.31459	2.98286	1.23258	1.46907
6351.345	-0.87086	3.49620	1.24734	1.91659
6355.344	-1.07078	3.50894	2.13138	1.85122
6359.242	-0.93629	3.09888	1.12802	1.53911
6363.344	-0.66322	3.69986	1.64593	1.08719
6367.346	-0.51163	3.55753	1.62599	1.26175
6371.349	-0.27545	3.80131	1.31575	1.25716
6375.244	-0.17960	3.39839	1.57233	0.95828
6379.346	-0.42423	3.53371	1.87155	0.27379
6383.345	-0.36628	3.29700	2.74138	-0.27196
6387.347	0.44512	3.14511	2.12825	-0.88745
6391.338	-0.48294	3.04794	2.26492	-1.06659
6395.345	-0.47128	2.74540	2.20832	-1.18478
6399.344	-0.57277	2.79947	2.62115	-1.85265
6403.343	-0.27964	2.39032	3.73453	-2.70714
6407.353	-0.44113	2.10042	3.16282	-1.79270
6411.347	-0.67265	2.15807	3.70682	-0.94568
6415.345	-0.35169	1.89653	4.13483	-0.12900
6419.337	-0.76647	1.58374	3.13709	-0.42122
6423.347	-0.23527	1.46850	2.76487	-1.00750
6427.309	-0.38134	1.08876	3.83591	0.74136
6431.344	-0.47309	1.08214	2.52513	1.22922
6435.347	-0.45803	0.82225	2.52666	1.33289
6439.247	-0.42323	0.55532	3.19373	1.69999
6443.347	-0.33377	0.83016	2.54819	1.23404
6447.353	-0.44013	0.95352	2.84583	2.07035
6451.351	-0.41589	0.94152	2.70713	0.18169
6455.245	-0.54974	0.77183	3.18329	1.05511
6459.320	-0.61471	0.99446	2.29208	-3.39361
6463.348	-0.60076	1.19282	1.66068	-4.66123
6467.345	-0.73149	1.68534	1.69453	-4.62762
6471.245	-1.08078	1.58049	2.21938	-3.64083
6475.346	-0.42569	1.54761	2.44846	-0.71559
6479.347	-0.63605	2.07385	2.69274	-2.78229
6483.346	-0.67900	1.73429	2.42161	-1.04383
6487.246	-0.82940	2.25200	2.11437	0.42661
6491.348	-0.74079	2.25847	1.57825	-0.40034
6495.353	-0.80086	2.52962	1.47417	0.53285
6499.330	-0.88937	3.02464	1.58847	0.19829
6503.254	-0.90046	2.26788	1.97917	0.53372
6507.310	-0.93656	2.20510	3.19469	0.52014
6511.348	-1.17329	2.08331	2.19152	0.87887
6515.350	-1.23067	1.60625	2.39641	-0.71512
6519.247	-1.03032	1.72073	2.70951	-2.88005
6523.350	-0.61853	1.36326	1.77707	-2.79458
6527.312	-0.76493	2.08228	1.54470	-2.18557
6531.351	-1.13303	1.77520	0.89183	-2.32661
6535.250	-0.84836	1.99821	1.52890	-1.88482
6539.353	-0.86997	1.35837	2.63906	-1.36926
6543.316	-0.44492	1.65127	2.64341	0.90598
6547.355	0.01092	1.34223	1.96174	1.12866
6551.259	-0.80377	1.45938	2.10543	1.15008
6555.350	-0.59325	1.82227	0.67709	1.46709
6559.346	-1.00333	1.82395	0.83602	0.48797
6563.351	-1.02275	1.95875	1.30288	0.22825
6567.350	-0.82955	2.05443	2.34696	-1.09514
6571.350	-0.25515	1.67250	2.13202	-2.26575
6575.349	-0.63779	2.20342	1.32069	-1.28429
6579.349	-0.57002	2.12797	1.33552	-1.78331
6583.333	-1.07899	2.70430	0.44135	-1.58773
6587.348	-0.79588	2.70589	1.78942	-1.83391
6591.350	-0.57999	1.98996	2.10045	0.45395
6595.349	-0.58171	2.38563	1.44441	0.78980
6599.248	-0.51756	2.27673	2.54930	0.93074
6603.351	-0.78340	2.65668	0.26125	0.64043
6607.349	-0.83987	2.63227	2.67137	0.71077
6611.349	-0.52957	2.41768	1.79586	1.18868
6615.248	-1.17314	2.43575	2.51955	1.03636
6619.348	-0.30099	2.79229	2.98985	-3.08308
6623.340	-1.03364	3.19054	2.29394	-2.26575
6627.312	-0.29168	3.96676	1.17054	-1.02791
6631.207	-0.33087	2.68173	2.40491	-1.19278
6635.312	6.83428	4.91600	6.90211	1.39190
6639.352	6.82792	9.06590	16.26799	1.70269
6643.350	NaN	NaN	10.98186	9.17862
6647.353	NaN	NaN	NaN	NaN
6651.355	NaN	NaN	NaN	NaN
6655.349	NaN	NaN	NaN	NaN
6659.347	NaN	NaN	NaN	NaN
6663.362	NaN	NaN	NaN	NaN
6667.319	NaN	NaN	NaN	NaN
6671.347	NaN	NaN	NaN	NaN
6675.350	NaN	NaN	NaN	NaN
6679.350	NaN	NaN	NaN	NaN
6683.348	NaN	NaN	NaN	NaN
6687.350	NaN	NaN	NaN	NaN
6691.349	NaN	NaN	NaN	NaN
6695.310	NaN	NaN	NaN	NaN
6699.349	NaN	NaN	NaN	NaN
6703.351	NaN	NaN	NaN	NaN
6707.333	NaN	NaN	NaN	NaN
6711.351	NaN	NaN	NaN	NaN
6715.350	NaN	NaN	NaN	NaN
6719.224	NaN	NaN	NaN	NaN
6723.227	NaN	NaN	NaN	NaN
6727.314	NaN	NaN	NaN	NaN
6731.227	NaN	NaN	NaN	NaN
6735.227	NaN	NaN	NaN	NaN
6739.225	NaN	NaN	NaN	NaN
6743.225	NaN	NaN	NaN	NaN
6747.225	NaN	NaN	NaN	NaN
6751.228	NaN	NaN	NaN	NaN
6755.203	NaN	NaN	NaN	NaN
6759.255	NaN	NaN	NaN	NaN
6763.227	NaN	NaN	NaN	NaN
6767.227	NaN	NaN	NaN	NaN
6771.230	NaN	NaN	1.89335	-0.23445
6775.221	NaN	NaN	0.82205	0.70278
6779.229	NaN	NaN	0.10332	0.57954
6783.226	-3.63080	-8.46893	-0.61947	-0.07708
6787.229	NaN	NaN	-2.13076	-0.01587
6791.225	NaN	NaN	1.25602	-0.62672
6795.212	NaN	NaN	7.58893	-0.05751
6799.216	1.62396	3.96772	7.70872	3.28430
6803.227	1.55209	3.04765	3.53765	0.52345
6807.231	5.68079	3.68789	-3.85170	-3.20628
6811.226	5.05412	4.06016	2.37377	-0.03910
6815.191	7.48866	4.32158	-0.24612	-3.32183
6819.218	7.82927	4.35143	0.45157	-1.47187
6823.225	7.30529	4.10745	0.17204	-2.30428
6827.227	7.40084	3.63756	0.51423	-2.73326
6831.230	6.74964	2.91597	1.11189	-2.21641
6835.225	2.74422	3.33936	1.18674	-2.57266
6839.193	3.61404	3.17881	3.56747	-2.19652
6843.228	2.16835	3.87562	2.65708	-2.31814
6847.227	0.78029	4.09350	-2.40612	-1.14344
6851.231	-0.01459	4.05625	1.54919	0.15555
6855.229	0.72722	2.85089	2.22290	-0.88330
6859.227	0.31729	2.81184	2.58586	-0.72107
6863.190	1.07078	2.87407	2.36916	-0.51114
6867.227	0.19375	2.85366	1.25920	-0.55227
6871.229	-0.23060	2.66120	1.82301	-0.46625
6875.230	0.31203	2.51482	2.23955	-0.58821
6879.208	-0.10967	2.28960	2.06741	-0.71339
6883.222	-0.00918	1.77503	2.31019	-1.22914
6887.230	-0.48128	1.20203	2.74957	-1.06225
6891.231	-0.16494	0.94828	2.28569	-0.86819
6895.230	-0.23755	0.75069	2.25119	-0.93094
6899.220	-0.33940	0.57103	2.01930	-1.01842
6903.230	-0.38586	1.02281	1.60910	-1.53835
6907.229	-0.46128	0.55450	1.99548	-1.94515
6911.229	-0.17323	1.82373	2.15078	-2.75971
6915.221	-0.52175	1.16117	2.43124	-1.43360
6919.229	-0.44743	1.47708	2.82561	-3.01609
6923.225	-0.57989	1.58020	2.70183	-2.93716
6927.229	-0.52091	2.05912	2.02051	-4.11624
6931.201	-0.43093	1.33184	2.75569	0.11452
6935.231	-0.18032	1.33939	2.52446	0.12192
6939.228	-0.51855	1.34672	2.88359	-1.09232
6943.225	-0.58498	0.90543	2.87415	-3.44244
6947.228	-0.74523	0.85853	2.86655	0.26640
6951.234	-0.34322	0.91105	2.69648	-1.26892
6955.229	-0.41358	-0.55174	3.11359	-0.31003
6959.231	-0.63558	1.14281	2.85697	0.11555
6963.161	-0.85292	1.01745	2.91289	-0.16635
6967.230	-0.54610	0.70495	3.28402	0.11315
6971.230	-0.18372	1.39696	3.10841	0.21031
6975.232	-0.99338	2.07453	2.39270	1.60361
6979.221	-0.41633	1.19852	3.31331	0.43088
6983.233	0.04331	0.86364	2.93198	0.32981
6987.228	-0.74789	1.07138	2.18788	0.84377
6991.230	-0.78074	1.20499	2.87821	0.01906
6995.220	-0.45326	0.25899	3.47910	0.02284
6999.192	-0.36387	0.41611	2.35670	0.84484
7003.219	-0.25780	0.97259	2.41977	0.06981
7007.190	-0.55012	1.14286	1.90532	0.61947
7011.196	-0.67310	1.66920	1.82185	0.35513
7015.232	-0.87756	1.87334	2.18865	0.13652
7019.195	-0.75034	1.29409	2.50452	0.11333
7023.233	-0.52344	1.07331	2.58301	-0.00387
7027.230	-0.78273	0.98391	2.28400	0.26359
7031.231	-0.77049	0.74142	2.67935	0.54570
7035.233	-0.71010	0.48036	0.50230	-1.01658
7039.232	-0.77300	0.70189	2.32226	-0.38623
7043.191	-0.90046	2.00243	1.80224	-0.68435
7047.197	-0.78511	1.40920	2.07819	-0.17060
7051.238	-1.00514	1.55208	1.49741	-1.13927
7055.234	-0.70327	1.14983	2.36284	-1.16001
7059.222	-0.96177	0.92368	2.01989	-3.86820
7063.231	-0.75317	0.51651	3.11574	-0.50547
7067.194	-1.02134	2.54632	1.98988	-4.08418
7071.232	-0.92326	2.52100	2.62727	-2.10385
7075.191	-0.95437	1.14767	2.08709	-4.28800
7079.231	-0.90500	0.63241	2.18325	-1.36195
7083.235	-0.70635	0.43924	2.75485	-4.04444
7087.212	-0.80732	1.06965	2.63564	-2.56945
7091.212	-0.72771	2.55386	2.89225	-3.63539
7095.232	-0.73030	2.33945	2.18907	-2.92370
7099.232	-0.84952	1.05104	2.59869	-2.43931
7103.232	-0.70943	0.67398	2.02098	-3.13421
7107.230	-0.89192	0.93351	1.96340	-0.55091
7111.231	-0.97214	2.50423	2.20676	-1.20496
7115.232	-0.48820	1.69297	2.29091	-1.02554
7119.235	-0.84381	1.52643	1.92446	1.50707
7123.227	-1.12370	1.61324	2.02800	1.81034
7127.232	-0.71335	0.77613	-0.91150	-2.04158
7131.231	-0.42363	0.72541	-1.09227	-2.45977
7135.236	-0.49299	2.38110	1.98266	-1.27508
7139.235	-0.51562	2.25639	2.11239	0.68623
7143.231	-0.38765	1.88309	2.30752	-0.56824
7147.235	-0.29200	1.53504	2.33021	1.65003
7151.239	-0.32032	0.74055	1.93767	0.85265
7155.226	-4.81576	0.84096	3.49997	1.07478
7159.232	8.14896	3.04380	8.21753	-0.94875
7163.232	NaN	NaN	5.68531	1.15363
7167.232	NaN	NaN	3.72059	2.99701
7171.207	NaN	NaN	NaN	NaN
7175.231	NaN	NaN	NaN	NaN
7179.232	NaN	NaN	NaN	NaN
7183.232	NaN	NaN	NaN	NaN
7187.234	NaN	NaN	NaN	NaN
7194.688	NaN	NaN	NaN	NaN
7203.196	NaN	NaN	NaN	NaN
7207.207	NaN	NaN	NaN	NaN
7211.222	NaN	NaN	NaN	NaN
7215.226	NaN	NaN	NaN	NaN
7219.232	NaN	NaN	NaN	NaN
7223.232	NaN	NaN	NaN	NaN
7227.233	NaN	NaN	NaN	NaN
7231.235	NaN	NaN	NaN	NaN
7235.196	NaN	NaN	NaN	NaN
7239.235	NaN	NaN	NaN	NaN
7243.230	NaN	NaN	NaN	NaN
7247.232	NaN	NaN	NaN	NaN
7251.239	NaN	NaN	NaN	NaN
7255.224	NaN	NaN	NaN	NaN
7259.235	NaN	NaN	NaN	NaN
7263.239	NaN	NaN	NaN	NaN
7267.226	NaN	NaN	NaN	NaN
7271.205	NaN	NaN	NaN	NaN
7275.201	NaN	NaN	NaN	NaN
7279.246	NaN	NaN	NaN	NaN
7283.231	NaN	NaN	-1.52089	3.67694
7287.234	NaN	NaN	NaN	NaN
7291.238	NaN	NaN	0.75868	-2.96497
7295.219	NaN	NaN	2.21264	4.37796
7299.212	NaN	NaN	-4.21229	-1.02535
7303.234	NaN	NaN	NaN	NaN
7307.238	NaN	NaN	0.21770	-1.09841
7311.233	NaN	NaN	-0.27716	-2.24876
7315.228	11.97833	3.82323	-0.55404	-4.26521
7319.272	NaN	NaN	-0.02685	-1.59456
7323.233	8.49132	2.23044	6.76351	1.19189
7327.237	1.80930	1.62446	-4.56015	-1.79371
7331.243	7.01878	1.22741	-0.85123	-2.49469
7335.234	-3.11356	-0.55948	-4.80142	-2.29705
7339.231	7.83449	2.12762	5.71212	-3.10896
7343.236	5.39522	2.14393	12.06150	-4.62094
7347.236	9.78652	0.69940	1.47570	-1.47217
7351.236	7.06251	-1.62142	7.57259	-1.67775
7355.238	5.37797	-1.62788	7.98800	-1.62837
7359.235	5.17671	-0.79668	2.07896	-0.93529
7363.235	-1.26383	1.81768	2.55203	-0.57770
7367.230	-3.07973	1.90164	2.88215	-0.34434
7371.238	-2.94126	2.46471	2.21502	-0.06481
7375.236	-2.57969	2.46127	3.57085	-0.17514
7379.208	-1.75329	2.79659	2.43912	-0.30241
7383.136	-0.90225	2.91533	2.46825	-0.17314
7387.237	-1.36439	2.52491	2.53501	-0.18877
7391.239	-1.41998	2.05297	2.18049	-0.09456
7395.236	-1.23749	0.96900	-1.24863	-0.08929
7399.135	-1.02116	0.58469	-1.32317	-0.00735
7403.236	-1.13484	0.62737	-0.94519	-1.01946
7407.238	-1.46353	1.01388	1.93933	-1.28137
7411.239	-1.07106	0.99749	-0.12362	-0.70223
7415.140	-1.23126	1.05570	0.87361	-2.06736
7419.224	-1.30915	0.90102	1.36159	-1.80835
7423.226	-1.43994	1.47361	1.23960	-2.48504
7427.238	-1.49356	1.51910	1.30650	-0.37241
7431.137	-1.08549	1.08201	1.50549	-0.65539
7435.199	-0.89145	1.11553	2.15269	-0.16794
7439.234	-0.96326	1.19873	2.26457	0.43660
7443.235	-0.75268	1.30668	1.56873	0.18794
7447.230	-1.06587	1.67002	1.69068	0.29443
7451.238	-1.44066	1.57817	2.64614	-0.57857
7455.237	-1.60097	1.79831	1.44641	-0.68760
7459.236	-1.28293	1.54503	1.65758	-1.71547
7463.137	-1.26907	1.23900	2.01318	-1.76679
7467.238	-0.96311	1.14342	1.25423	-0.37150
7471.242	-1.35350	1.33356	2.05603	-0.63260
7475.227	-1.25949	1.14432	2.05670	0.06246
7479.139	-1.55318	1.45745	1.35799	0.07525
7483.238	-1.51836	1.10345	1.93398	-0.38166
7487.240	-1.65711	0.63649	1.71694	-0.74284
7491.238	-1.62361	0.26531	1.40958	-0.87543
7495.148	-1.36444	0.68241	1.14722	-0.44522
7499.238	-1.46809	0.21204	1.98633	-1.36811
7503.222	-1.45753	0.62180	1.51469	-1.42813
7507.235	-1.54507	0.33705	2.02544	-1.21493
7511.137	-1.65002	0.78694	-0.05398	-0.97084
7515.240	-1.49500	0.48456	-1.11097	-1.44706
7519.238	-1.52484	0.62389	0.48001	-1.33806
7523.240	-1.48017	0.71031	1.67112	0.34570
7527.136	-1.51836	0.83309	1.29390	0.54908
7531.239	-1.52915	0.97911	1.17572	0.14419
7535.201	-1.33036	1.00040	2.07997	0.23998
7539.242	-1.46360	0.92217	0.92001	0.45867
7543.137	-1.39354	1.20115	0.49101	-0.21750
7547.231	-1.25118	1.13179	1.50331	-1.17050
7551.237	-1.47893	1.04335	1.79740	-1.36855
7555.242	-1.21752	1.11603	-0.48979	-1.87790
7559.139	-1.18850	1.15280	-1.84602	-0.86066
7563.240	-1.47020	1.28297	-0.42219	0.08752
7567.237	-1.54830	1.22274	2.63494	0.12707
7571.240	-1.70918	1.15655	2.02237	-0.09129
7575.136	-1.30367	1.06389	1.11266	-0.78578
7579.238	-1.85291	1.03739	1.72555	-0.84790
7583.241	-1.79505	1.13006	1.89746	-1.30046
7587.213	-1.46665	0.81687	2.49354	-2.21409
7591.242	-1.14791	0.87941	2.17532	-3.53718
7595.237	-0.97742	0.73603	2.68425	-0.67376
7599.241	-1.69926	0.97654	2.10721	-0.54759
7603.241	-1.16357	1.01455	2.27924	-0.44623
7607.137	-1.45973	1.06566	0.77823	0.08935
7611.240	-0.99281	1.17887	2.11832	0.45310
7615.240	-0.97926	0.83130	2.21301	-0.75642
7619.238	-0.78320	0.12654	2.07355	-1.11942
7623.246	-0.69734	-0.58275	2.02356	-0.65583
7627.229	-0.95651	0.91921	2.72125	-0.85574
7631.227	-0.70464	0.97201	2.35962	-0.71685
7635.243	-0.77580	1.34986	2.65951	-5.36858
7639.242	-1.13829	2.37541	2.36420	-2.77380
7643.237	-0.86419	-1.18157	3.15392	-2.44694
7647.241	-0.78141	0.30917	2.49201	-2.81946
7651.239	-0.86964	1.41103	2.20780	-0.94058
7655.142	-0.34322	1.52170	2.33113	-0.78468
7659.238	-0.87024	0.50119	2.28631	-1.75055
7663.241	-0.85920	0.22493	2.45443	-2.13725
7667.244	-0.92860	-0.11692	2.56748	-5.43698
7671.145	-1.35256	1.50353	2.35021	-3.69082
7675.243	-1.04496	1.45004	2.63217	-4.20869
7679.248	-0.96827	1.61325	2.19958	-4.77516
7683.241	-1.03096	2.05850	2.27778	-4.41941
7687.140	-1.00901	1.25317	2.53506	-3.82342
7691.241	-1.12705	0.13796	2.36710	-4.10413
7695.204	-0.96038	0.22567	2.52290	-4.31681
7699.243	-1.05550	-0.21369	2.28673	-4.84043
7703.143	-1.18887	-0.06842	2.27015	-4.44967
7707.244	-1.13846	0.28456	2.35742	-0.58635
7711.220	-1.13417	-0.03061	2.34552	-3.51357
7715.242	-1.08867	0.02268	2.08969	-3.43396
7719.245	-1.13174	0.81347	1.79524	-3.37026
7723.242	-1.15570	0.58166	2.63928	-0.80244
7727.241	-0.75640	-0.07245	2.38231	-0.54453
7731.240	-1.06920	0.09645	2.36093	-0.52723
7735.114	-1.18800	0.21087	0.88671	-0.20023
7739.241	-1.00112	-0.10932	2.15611	-0.66019
7743.115	-1.04029	0.46280	2.49414	-2.59910
7747.119	-0.80756	0.08358	1.95190	-2.81466
7751.208	-1.07197	0.26273	2.10476	-0.76653
7755.079	-1.09681	0.52766	2.42760	-2.97033
7759.079	-1.06776	0.56061	2.37364	-3.64761
7763.119	-1.25468	0.69279	1.93802	-3.05159
7767.118	-0.71240	0.55768	2.69287	-3.58731
7771.116	-1.34884	0.79195	2.31547	-3.32180
7775.118	-1.35534	0.80568	1.52915	-4.11160
7779.116	-0.66407	0.80193	2.40979	-1.00495
7783.110	-1.03836	0.96437	2.16082	-1.39860
7787.119	-1.39612	1.18766	1.93380	-0.88167
7791.119	-1.13561	1.00204	2.13757	-1.06261
7795.117	-0.65623	1.36395	2.18151	-0.83854
7799.108	-0.92753	1.49017	2.00004	-0.84951
7803.119	-1.31337	1.86453	2.88727	-3.66856
7807.118	-1.48453	1.87672	1.09644	-0.88303
7811.127	-1.28780	1.59582	2.33883	-2.30827
7815.116	-0.87920	2.55597	1.33051	-4.18389
7819.116	-0.90314	1.42803	2.21544	-2.50126
7823.118	-0.98598	2.91380	2.07663	-3.95400
7827.116	-1.26577	0.69130	1.68211	-3.36798
7831.118	-0.83223	0.70036	2.64943	-4.47355
7835.119	-1.12328	-0.04375	2.69339	-5.79226
7839.120	-1.19800	0.13602	2.22800	-4.17646
7843.082	-1.21273	0.23855	2.92676	-3.74808
7847.113	-1.01114	0.30286	2.14620	-0.07248
7851.117	-0.91865	0.59362	2.66791	-1.06438
7855.122	-0.97767	0.95569	1.85053	-2.20943
7859.119	-1.16907	1.65358	2.23204	-1.60245
7863.120	-1.20864	2.02173	1.81662	-1.97133
7867.119	-1.00298	1.53589	2.51906	-0.81103
7871.118	-1.49932	0.16733	2.84836	-1.48914
7875.119	-0.85545	0.08756	2.04064	-1.38479
7879.118	-1.20658	-0.08477	2.29064	-2.11187
7883.118	-1.08525	0.66526	1.68917	-1.73257
7887.082	-1.61652	0.58760	1.95287	-2.54912
7891.119	-1.31543	1.35789	1.51680	-1.84821
7895.141	-0.83069	0.79690	2.67950	-2.43605
7899.118	-0.88949	1.53530	1.64992	-2.54277
7903.120	-1.42518	1.60283	2.28375	-4.65111
7907.121	-0.95983	1.61690	1.98950	-4.54520
7911.112	-0.94073	1.44803	2.76737	-4.37640
7915.120	-1.30871	1.58141	3.23467	-5.58462
7919.120	-0.98484	0.26095	2.10736	-3.51819
7923.109	-1.36186	-0.29472	2.69314	-2.68746
7927.112	-1.37987	0.66740	2.06961	-2.42141
7931.116	-1.16329	0.33070	2.11140	-0.66332
7935.120	-1.02047	0.18544	2.26866	0.37716
7939.081	-0.98953	0.38952	2.24262	0.03630
7943.119	-1.39979	0.09576	3.21030	-1.93156
7947.120	-1.13610	0.56390	2.29337	-0.00911
7951.117	-1.13342	0.77080	2.30377	-2.32647
7955.083	-1.31330	0.63552	2.34406	-1.93526
7959.118	-1.22625	1.09775	2.43209	-2.33473
7963.120	-0.99891	1.04667	2.43129	-3.05336
7967.091	-0.30771	1.63597	2.03067	-1.76364
7971.119	7.67940	1.84050	5.63016	-2.10510
7975.144	NaN	NaN	14.50402	-1.69068
7979.117	NaN	NaN	2.23980	2.08005
7983.120	NaN	NaN	NaN	NaN
7987.121	NaN	NaN	NaN	NaN
7991.124	NaN	NaN	NaN	NaN
7995.119	NaN	NaN	NaN	NaN
7999.120	NaN	NaN	NaN	NaN
8003.124	NaN	NaN	NaN	NaN
8007.107	NaN	NaN	NaN	NaN
8011.108	NaN	NaN	NaN	NaN
8015.123	NaN	NaN	NaN	NaN
8019.121	NaN	NaN	NaN	NaN
8023.091	NaN	NaN	NaN	NaN
8027.120	NaN	NaN	NaN	NaN
8031.118	NaN	NaN	NaN	NaN
8035.122	NaN	NaN	NaN	NaN
8039.122	NaN	NaN	NaN	NaN
8043.124	NaN	NaN	NaN	NaN
8047.121	NaN	NaN	NaN	NaN
8051.085	NaN	NaN	NaN	NaN
8055.122	NaN	NaN	NaN	NaN
8059.126	NaN	NaN	NaN	NaN
8063.120	NaN	NaN	NaN	NaN
8067.142	NaN	NaN	NaN	NaN
8071.122	NaN	NaN	NaN	NaN
8075.121	NaN	NaN	NaN	NaN
8082.610	NaN	NaN	NaN	NaN
8091.101	NaN	NaN	NaN	NaN
8095.088	NaN	NaN	NaN	NaN
8099.125	NaN	NaN	NaN	NaN
8103.144	NaN	NaN	2.47028	10.74470
8107.122	NaN	NaN	NaN	NaN
8111.124	NaN	NaN	NaN	NaN
8115.124	NaN	NaN	14.11941	2.84638
8119.124	NaN	NaN	NaN	NaN
8123.121	NaN	NaN	14.36297	-1.90487
8127.122	NaN	NaN	15.80654	-2.78897
8131.115	NaN	NaN	12.95989	-2.49622
8135.111	-2.35543	1.41201	12.66058	-2.77758
8139.117	3.97429	-1.18630	12.76857	-2.56145
8143.126	5.02935	6.63176	7.58222	-2.32041
8147.126	-0.41157	4.91048	-5.20529	-2.29618
8151.126	3.89967	4.28516	-3.25223	-2.24036
8155.148	7.26525	2.75772	-1.10016	-1.92138
8159.122	5.50943	3.07627	2.24215	-1.85637
8163.086	5.19325	2.22919	2.41638	-2.32130
8167.123	5.33755	0.87484	3.27249	-2.43789
8171.117	2.96458	1.36114	2.06832	-2.23713
8175.098	-0.11731	1.71534	0.11429	-1.37960
8179.128	0.69049	1.60641	-0.44145	-0.84682
8183.122	0.35886	0.92213	0.55113	-0.69896
8187.119	0.07887	1.49898	0.12302	-0.33268
8191.131	-0.30903	1.75683	0.19591	-0.58627
8195.120	-1.27495	2.52911	-0.45527	-0.31294
8199.125	-3.44483	2.44907	0.78300	-1.57045
8203.122	-3.26173	2.27985	1.05577	-1.99072
8207.124	-2.32944	2.61492	0.91091	-1.21543
8211.125	-2.26376	2.29104	0.90354	-1.58981
8215.107	-1.67692	2.40665	1.07006	-1.59207
8219.148	-1.86270	2.64960	1.28765	-1.95869
8223.123	-1.88308	2.69740	1.31910	-1.58368
8227.124	-2.36101	2.46329	1.25753	-1.60405
8231.103	-1.93123	2.68727	1.32974	-0.79722
8235.127	-1.97012	2.81976	1.36677	-1.22704
8239.126	-2.63279	2.12625	1.39639	-1.02650
8243.126	-2.24478	2.69114	1.47848	-1.42950
8247.126	-2.04292	2.05291	1.46070	-1.11421
8251.128	-2.00856	1.71072	1.48885	-0.78899
8255.126	-1.78917	1.17259	1.42141	-1.87268
8259.131	-1.83154	0.70564	1.38691	-2.40455
8263.127	-1.86077	0.33836	1.29673	-4.04421
8267.105	-2.04089	0.87985	1.23382	-4.52294
8271.127	-2.09774	0.64604	0.95730	-3.71194
8275.125	-2.09841	0.12963	0.81707	-4.92523
8279.125	-1.99471	-0.20555	0.99149	-4.92803
8283.121	-2.01541	-0.16450	1.00422	-5.21024
8287.124	-1.93658	0.37155	2.09767	-4.37165
8291.126	-1.96796	0.32059	2.25942	-4.29470
8295.125	-1.95282	0.18440	1.98645	-4.00780
8299.091	-1.96682	0.01095	1.54115	-4.36722
8303.126	-2.01345	0.39473	1.26244	-1.22955
8307.124	-2.02896	0.52877	1.69988	-3.87389
8311.125	-1.96918	1.09460	1.30052	-3.76934
8315.129	-1.91662	1.26088	0.89900	-3.55518
8319.089	-1.85849	1.29816	0.42725	-3.14638
8323.124	-1.90046	1.19076	0.74034	-3.43088
8327.124	-1.83085	1.76316	0.48867	-2.19524
8331.119	-1.91053	1.85195	1.36052	-3.11192
8335.125	-1.71498	1.37527	1.76735	-3.12236
8339.115	-1.82693	2.00610	1.92508	-4.09664
8343.117	-1.84282	1.92774	1.78443	-4.03867
8347.119	-1.84039	2.29727	1.82700	-3.07563
8351.125	-1.77263	2.09097	1.34631	-2.70741
8355.126	-1.67601	2.09020	1.90334	-2.97841
8359.130	-1.66780	2.39389	1.41105	-2.19626
8363.122	-1.42662	2.46509	0.65744	-2.38972
8367.090	-1.54200	2.55267	1.89260	-2.86208
8371.126	-1.18423	2.59669	1.90584	-2.72628
8375.125	-1.53453	2.67841	2.31614	-2.57017
8379.122	-1.54864	2.49909	1.74814	-1.68904
8383.101	-1.37362	2.53181	1.57629	-1.41516
8387.128	-1.39192	2.59462	1.43471	-0.01023
8391.127	-1.38644	2.55198	1.48786	-1.25329
8395.119	-1.59722	2.59482	1.90066	-1.39337
8399.127	-1.31707	2.62819	1.54882	-1.88590
8403.129	-1.25937	2.49278	1.98911	-1.41310
8407.128	-1.30089	2.31299	2.15589	-1.91705
8411.117	-1.41375	2.07843	1.71932	-1.56651
8415.125	-1.09651	1.65645	1.53409	-1.38095
8419.128	-1.19859	0.92423	1.44436	-1.06698
8423.113	-1.44302	1.26799	1.01759	-1.41217
8427.023	-1.32022	0.53301	1.14521	-2.10001
8431.125	-1.53421	1.97069	1.96335	-3.97348
8435.090	-1.46110	1.49842	1.68238	-3.77603
8439.122	-1.60903	2.97261	1.43158	-3.65596
8443.024	-1.42828	2.37296	2.16897	-4.08169
8447.158	-1.57270	1.73279	1.30846	-4.65027
8451.128	-1.38448	1.73257	1.77640	-3.91463
8455.128	-1.49693	1.25671	1.62820	-4.32685
8459.138	-1.52962	1.72623	1.83372	-4.27894
8463.130	-1.36382	1.55454	1.95626	-4.00531
8467.092	-1.45447	1.04212	1.86409	-0.70973
8471.127	-1.56670	0.91872	1.87951	-3.24274
8475.127	-1.48820	1.00344	1.98353	-1.82984
8479.128	-1.39773	0.54824	1.87341	-2.26554
8483.129	-1.42332	0.53514	1.99136	-0.76641
8487.131	-1.36092	0.46792	1.83147	-1.05960
8491.128	-1.37285	0.47646	1.85378	-0.97897
8495.128	-1.33153	0.33845	1.92555	-0.94226
8499.128	-1.31409	0.30477	1.92171	-1.39638
8503.129	-1.32490	0.24624	1.81981	-1.31020
8507.031	-1.25396	0.10968	1.84240	-1.30460
8511.128	-1.31962	0.00621	1.72629	-0.88783
8515.127	-1.21521	0.17825	1.67025	-0.69378
8519.129	-1.15307	0.00363	1.82138	-0.81771
8523.133	-1.15431	-0.02204	1.81781	-1.16845
8527.130	-1.08041	-0.09098	2.29815	-1.51735
8531.131	-0.94400	-0.03650	2.15680	-0.92107
8535.129	-0.92224	0.31258	1.88499	-1.20644
8539.130	-1.07979	0.41905	1.48662	-3.57934
8543.091	-1.07428	0.87221	1.48563	-3.75610
8547.131	-0.99928	1.35856	1.66730	-2.95102
8551.130	-0.96388	0.89661	1.88512	-2.60883
8555.027	-0.93676	1.44721	1.63177	-3.53505
8559.134	-0.77364	1.58619	2.01888	-3.82909
8563.132	-1.12916	2.14041	1.75054	-4.17099
8567.129	-1.06178	2.52700	1.54956	-5.14304
8571.026	-1.09462	2.14160	1.63395	-4.28142
8575.130	-1.02814	2.10768	1.67799	-4.11973
8579.133	-1.20730	-0.07195	1.60236	-3.88011
8583.129	-1.03563	1.00789	-0.00918	-3.81160
8587.029	-0.95827	0.82345	0.32193	-3.45867
8591.101	-0.74501	1.10697	0.90937	-2.31489
8595.133	-0.85359	0.71855	1.85445	-2.51399
8599.133	-0.97847	0.16768	1.44629	-2.98473
8603.029	-1.32890	0.42204	1.57543	-3.28513
8607.132	-1.05456	0.35565	1.72810	-3.54416
8611.132	-1.38250	0.36460	1.67618	-2.26360
8615.134	-1.37600	0.45236	2.31976	-3.14018
8619.134	-1.16371	0.51602	1.82859	-3.32094
8623.132	-0.88865	0.45184	1.50428	-3.46248
8627.132	-1.09755	0.33845	1.46149	-3.57970
8631.110	-1.10936	0.23923	1.25947	-3.18947
8635.023	-0.95730	0.10696	0.76285	-2.78699
8639.130	-0.97400	0.30766	1.19083	-2.62068
8643.131	-1.00650	0.30117	1.30278	-2.93233
8647.129	-0.69796	0.38550	1.04406	-2.47764
8651.030	-0.49609	0.20559	1.02446	-3.34495
8655.132	-0.68536	0.22718	2.28338	-2.85523
8659.132	-0.76905	0.41429	1.13504	-3.06477
8663.129	-0.64618	0.39398	1.30429	-3.01263
8667.028	-0.77407	0.19502	1.20661	-3.45385
8671.135	-1.03563	0.20095	0.92200	-2.60073
8675.096	-1.02724	0.32274	1.05426	-3.28324
8679.128	-0.97698	0.31079	0.92309	-3.63650
8683.033	-1.21077	0.24354	1.27906	-3.90789
8687.128	-1.00695	0.28853	1.02340	-4.06732
8691.094	-1.05746	0.25309	1.27852	-4.30971
8695.131	-1.01337	0.36718	1.19797	-3.44297
8699.029	-0.88964	0.32809	1.08299	-4.10239
8703.131	-1.00062	0.38602	1.12625	-3.64536
8707.095	-0.75541	0.32027	0.84729	-2.80409
8711.132	-0.64010	0.46827	0.76945	-1.98013
8715.037	-0.72052	0.51472	0.69193	-1.16242
8719.134	-0.64268	0.73982	1.07865	-1.04269
8723.144	-0.61806	1.03335	1.26267	-0.79210
8727.129	-0.95914	1.22873	0.89173	-0.63700
8731.033	-0.92750	1.80376	0.84141	-0.68697
8735.131	-0.54126	1.37642	0.92902	-0.72447
8739.094	-0.50168	1.52150	1.32307	-0.68580
8743.094	-0.49604	1.69485	1.59923	-0.67006
8747.030	-0.95197	1.84537	1.79272	-0.57446
8751.136	-0.77295	1.95425	1.63653	-0.69556
8755.121	-0.56697	2.51359	2.28611	-0.54789
8759.121	-0.72451	2.46845	1.91665	0.67144
8763.034	-1.17582	3.06126	2.38150	-0.19420
8767.133	-7.19131	3.27864	9.60212	-0.50270
8771.131	NaN	NaN	4.20299	-1.24348
8775.131	NaN	NaN	2.11450	-5.01602
8779.131	NaN	NaN	2.97723	5.54753
8783.033	NaN	NaN	NaN	NaN
8787.007	NaN	NaN	NaN	NaN
8791.007	NaN	NaN	NaN	NaN
8795.006	NaN	NaN	NaN	NaN
8799.008	NaN	NaN	NaN	NaN
8802.989	NaN	NaN	NaN	NaN
8807.002	NaN	NaN	NaN	NaN
8811.009	NaN	NaN	NaN	NaN
8815.008	NaN	NaN	NaN	NaN
8818.976	NaN	NaN	NaN	NaN
8823.005	NaN	NaN	NaN	NaN
8826.971	NaN	NaN	NaN	NaN
8831.009	NaN	NaN	NaN	NaN
8835.009	NaN	NaN	NaN	NaN
8839.011	NaN	NaN	NaN	NaN
8842.976	NaN	NaN	NaN	NaN
8847.006	NaN	NaN	NaN	NaN
8851.009	NaN	NaN	NaN	NaN
8855.012	NaN	NaN	NaN	NaN
8859.008	NaN	NaN	NaN	NaN
8863.019	NaN	NaN	NaN	NaN
8867.009	NaN	NaN	NaN	NaN
8871.008	NaN	NaN	NaN	NaN
8875.007	NaN	NaN	NaN	NaN
8878.974	NaN	NaN	-7.42280	6.99007
8883.010	NaN	NaN	15.75373	1.37535
8886.971	NaN	NaN	15.88103	-0.67636
8891.011	NaN	NaN	14.80823	1.24193
8895.032	NaN	NaN	NaN	NaN
8899.009	NaN	NaN	NaN	NaN
8903.008	NaN	NaN	NaN	NaN
8907.007	4.75566	-5.34755	14.83910	-3.91599
8911.013	NaN	NaN	14.38067	-6.48425
8915.007	1.89719	-1.90031	14.30009	-6.41143
8919.008	1.05399	0.55735	-1.55936	-1.80978
8923.009	7.01790	0.90345	14.21747	-6.50889
8926.970	-1.57369	5.17171	9.08440	-4.55547
8931.001	7.07774	0.62855	0.44659	-4.39304
8935.014	7.09981	-0.73148	5.52883	-4.37533
8939.011	3.90768	-0.33156	1.06163	-4.26995
8943.001	3.82205	0.50712	4.09278	-4.28598
8946.974	0.00375	0.47993	2.00143	-1.42458
8950.973	0.18536	0.61201	5.11804	-1.32276
8955.010	1.16364	0.44823	2.75915	-0.32775
8959.008	0.15779	0.38923	1.47384	2.56661
8963.020	0.45671	0.30444	1.56134	-0.40801
8967.012	-0.35166	0.37094	1.67424	2.53037
8970.976	-0.10009	0.33061	2.00123	-0.34397
8975.008	-0.54079	0.40959	1.89379	2.01944
8979.009	-1.15970	0.31353	1.96541	-0.95403
8983.009	-0.73796	0.39228	1.88876	0.10284
8987.011	-0.71062	0.42401	2.05732	0.07753
8991.004	-0.81344	0.57496	2.20969	-0.91841
8995.009	-0.80270	1.52056	2.26244	-1.21295
8999.010	-1.51712	1.35139	1.90879	-0.73635
9003.010	-1.70879	1.58486	1.71305	-1.46205
9007.039	-1.64927	1.75226	1.76986	-1.60020
9011.011	-1.93398	1.98871	1.48017	-1.85985
9015.010	-1.90381	1.93975	1.01791	-2.22097
9019.011	-2.06064	2.01931	0.34640	-2.28732
9023.014	-1.94094	1.93400	1.30575	-3.61453
9027.014	-2.11336	1.77675	1.28400	-3.63027
9031.013	-1.90948	1.90343	1.20986	-3.93339
9035.012	-1.49909	1.67753	1.50123	-4.22875
9039.010	-1.41630	1.72396	1.86419	-4.06589
9043.012	-1.60370	1.59356	1.67072	-4.35529
9046.974	-1.48890	1.51476	1.52454	-3.67433
9051.010	-1.56794	1.44584	1.66569	-3.07649
9055.004	-1.31952	1.39372	1.98705	-3.97066
9059.011	-1.05920	1.18195	1.96742	-3.95481
9063.016	-1.15573	1.16220	1.68744	-4.00390
9067.013	-1.03183	1.19428	1.96350	-4.02899
9071.002	-0.84451	1.02674	1.48788	-2.48235
9075.015	-0.89932	1.09613	2.03630	-4.09760
9079.013	-0.89942	1.04275	2.11021	-4.24228
9083.023	-0.83903	0.93708	1.87188	-4.16308
9087.033	-0.97621	0.99347	1.63405	-3.25676
9091.012	-0.91572	0.73294	1.76874	-4.66139
9094.987	-0.98038	0.73109	1.87612	-4.29423
9099.012	-0.98985	0.45824	1.61384	-4.32276
9103.011	-1.57181	0.46688	1.81193	-4.07140
9107.013	-1.01496	0.29369	1.74035	-4.04348
9111.014	-1.20023	0.36080	1.58497	-3.92287
9115.012	-1.26133	0.21844	1.59650	-3.82038
9119.005	-1.50016	0.29118	1.51876	-3.76057
9123.012	-1.78129	0.06167	0.98710	-4.61431
9127.014	-1.63742	0.09223	0.62084	-4.01375
9131.014	-1.65957	-0.04858	-0.16022	-3.91105
9134.972	-1.76200	0.03043	0.13245	-4.43207
9139.002	-1.51539	-0.00432	0.71565	-4.42971
9142.978	-1.38870	-0.01528	1.03607	-5.00036
9147.012	-1.46921	0.05167	1.16364	-5.22128
9151.006	-1.41266	0.25028	0.46649	-4.71015
9155.015	-1.51415	0.04913	1.43089	-5.22544
9159.013	-1.58743	0.23565	0.07741	-5.46873
9162.983	-1.22968	-0.01215	1.14930	-4.76236
9167.008	-1.54579	0.20930	1.74278	-5.37497
9171.014	-1.42474	0.10848	0.44626	-3.83003
9175.013	-1.32862	0.11442	1.51521	-3.06247
9178.988	-1.41144	-0.09815	1.71511	-3.11863
9183.008	-1.57508	-0.21772	1.20316	-2.51535
9187.015	-1.61850	-0.16595	1.70648	-1.14287
9191.013	-1.58805	-0.33036	1.37962	-1.43839
9195.012	-1.66941	-0.34384	1.43912	-1.01330
9199.015	-1.50718	-0.08771	1.14742	-1.23181
9203.016	-0.94413	-0.36503	1.55078	-1.34248
9207.015	-1.11730	-0.16956	1.21985	-1.03276
9211.016	-0.58114	-0.29089	1.31444	-0.98573
9215.018	-0.67732	-0.36898	1.32934	-1.00897
9218.996	-0.57404	-0.34625	1.25386	-0.90665
9223.013	-0.55850	-0.07360	1.27743	-1.67205
9227.016	-0.73047	-0.35784	1.13593	-2.27037
9231.013	-0.55821	-0.21006	1.15702	-3.63960
9235.015	-0.39866	-0.07954	1.00945	-3.77054
9239.014	-0.32342	0.02261	1.06523	-3.39631
9243.016	-0.31074	-0.42441	1.24709	-4.52538
9247.014	-0.50282	-0.23116	0.94792	-4.99684
9251.016	-0.43569	-0.14268	0.97995	-3.84208
9255.017	-0.56731	-0.07638	1.00243	-3.74595
9259.013	-0.72121	-0.01553	1.04615	-3.77443
9262.984	-0.69479	-0.10093	1.09046	-3.41265
9266.977	-1.15642	0.47429	1.09388	-3.48277
9271.014	-1.42486	0.93987	1.15526	-3.95087
9275.015	-0.70660	1.14215	0.97598	-3.64966
9279.015	-0.61310	1.39651	1.30583	-3.45471
9283.017	-1.26039	1.41927	1.55271	-3.11752
9287.017	-1.24749	1.59976	2.09175	-2.79857
9291.019	-1.09510	1.87182	1.60372	-2.43570
9295.025	-1.48349	2.39815	2.56639	-2.41052
9299.017	-1.19909	1.35959	1.55953	-2.21271
9303.002	-1.10437	1.08659	1.13427	-2.10845
9307.016	-1.13347	0.76931	1.66373	-1.72358
9311.016	-0.92505	0.36645	1.82502	-3.57138
9315.018	-0.90304	0.38988	0.73121	-3.35297
9319.022	-0.77213	0.28010	2.01937	-4.19243
9322.979	-0.78828	0.82925	1.25049	-4.55310
9327.017	-1.01260	0.54255	0.05006	-4.82473
9331.017	-0.89805	0.57892	0.48145	-3.77710
9335.019	-1.19333	2.50678	0.03663	-2.55900
9339.017	-0.94740	2.49438	0.35273	-2.84262
9342.975	-0.89408	2.53407	-0.05624	-1.93308
9347.009	-0.95028	2.66802	0.22909	-1.42281
9351.016	-0.88786	2.70205	0.71538	-1.72795
9355.016	-0.84853	1.74564	0.09413	-1.48132
9359.007	-1.13181	0.09505	0.49793	-0.74931
9363.017	-1.14263	-0.35768	0.69007	0.17085
9367.019	-1.18815	0.07453	0.75000	-1.01994
9371.016	-1.13568	0.51329	0.90828	-0.75699
9375.010	-1.18966	0.32821	1.51439	-0.67009
9379.018	-1.21784	-0.04539	0.91751	-1.10789
9383.017	-1.27480	0.31011	1.30997	-1.14410
9386.985	-1.29425	0.43084	1.52813	-0.93021
9391.014	-1.24466	0.46371	1.67020	-1.30653
9395.016	-1.29496	0.56607	1.60484	-0.84334
9399.016	-1.34378	0.47505	1.55650	-0.83240
9403.014	-1.26592	0.43152	1.75595	-0.98647
9407.011	-1.29333	0.52911	1.96375	-2.14847
9411.014	-1.29571	0.82554	1.60885	-4.41735
9415.019	-1.50814	2.33583	1.45326	-2.95601
9419.016	-1.38431	1.54390	1.06629	-2.55762
9423.011	-1.35167	2.27676	0.69662	-1.22310
9426.999	-1.34740	2.60334	0.92279	-1.00752
9431.015	-1.53133	2.69693	1.05463	-1.03898
9435.020	-1.71573	0.65773	0.93222	-0.77609
9439.009	-1.76983	0.47771	-0.13114	-0.85559
9442.978	-1.57171	0.47555	-0.27341	-0.50663
9446.980	-1.81210	1.14718	0.52949	-2.68290
9451.017	-1.86885	1.32565	0.73464	-3.03561
9455.009	-1.81119	1.18035	0.63933	-3.39614
9459.018	-1.73772	1.53046	0.68650	-3.18689
9463.018	-1.74605	2.29139	0.82836	-2.72689
9467.019	-1.90413	2.28147	1.10222	-2.05925
9471.011	-1.76090	1.88418	0.72829	-1.80748
9475.021	-1.58602	1.23364	0.84982	-1.23326
9479.017	-1.54123	1.36262	0.80950	-1.32188
9483.020	-1.24106	-0.19882	1.46608	-1.20039
9486.915	-1.21794	0.47612	1.25443	-0.71162
9491.018	-1.30427	-0.55052	1.45626	-0.78364
9495.020	-1.30184	-0.42803	1.45043	-0.70317
9499.020	-1.24833	-0.56869	1.92265	-0.41260
9503.017	-1.29479	-0.52894	1.11045	-0.13088
9507.019	-1.24310	-0.89309	1.08458	-0.70627
9511.000	-1.10189	-0.73131	1.81667	-0.09401
9515.020	-0.98110	-0.49975	-0.67104	-3.37871
9519.023	-0.88505	-0.70699	0.22271	0.32857
9523.019	-0.85962	-0.36352	-0.18601	-0.55126
9527.020	-0.97487	-0.42562	0.07487	-0.70320
9531.019	-0.91001	-0.41599	-0.02179	-0.68354
9534.925	-1.14409	0.10514	0.24205	-0.80610
9539.019	-1.23449	0.07962	0.24971	-0.31252
9543.021	-1.32237	0.41770	-0.17303	0.67154
9547.021	-1.13796	0.44644	-0.10381	-0.21147
9550.931	-1.44884	0.55079	-0.07530	-0.17946
9555.010	-1.27128	0.25936	0.04911	0.50845
9559.018	-1.29271	0.37790	0.38571	0.42473
9563.020	-1.29449	0.39619	0.76650	0.12622
9566.919	-1.26376	0.30169	-0.02323	-0.64988
9571.020	-1.13571	0.64404	-0.35104	-2.79401
9575.021	-1.41638	0.56863	-0.04140	-2.72997
9579.020	-1.37116	0.80222	0.07850	-3.03308
9583.026	-1.16307	1.05049	-0.37348	-3.23780
9587.022	-1.10549	1.07296	0.08267	-3.12617
9591.021	-0.93547	1.41920	0.06376	-3.37443
9594.987	-1.11891	1.51322	0.12414	-0.43261
9598.901	-1.14707	1.88874	0.09525	-0.42524
9603.019	-1.29333	2.04660	0.21772	-0.22133
9607.020	-1.13092	1.88399	0.76168	-0.42724
9611.019	-1.12462	1.82899	0.90088	-0.29606
9614.918	-1.02823	2.18425	0.17553	-0.38016
9619.023	-0.95691	1.81827	0.21087	-1.73765
9623.021	-0.92150	1.81516	-0.01221	-1.82843
9627.019	-1.02131	2.01925	0.55240	-0.65188
9630.922	-1.15352	2.08514	0.32466	-0.68251
9634.982	-1.05361	2.19408	0.20752	-0.48459
9639.015	-1.07006	2.01835	-0.11595	1.53347
9643.020	-0.99233	1.99431	0.46956	0.09385
9646.920	-1.10172	2.11989	0.28746	-0.59742
9651.020	-1.15788	2.18740	0.41311	-0.13649
9655.020	-1.29814	2.18692	0.84354	-0.34057
9658.983	-1.06982	1.71763	0.26324	-0.90549
9662.918	-0.93969	1.97267	0.13665	-0.72508
9667.026	-1.04811	1.60638	-0.48433	-0.58600
9671.019	-1.34266	1.81085	0.34774	-0.50645
9675.014	-1.20422	1.70740	-0.29235	-0.60676
9678.919	-1.07971	1.46222	-0.29684	-0.73703
9683.021	-0.97112	1.55647	0.15625	-0.82729
9687.023	-0.77101	1.13446	0.15727	-1.07492
9690.982	-1.07607	1.22374	0.09647	-1.66859
9694.919	-1.12683	1.07963	0.19211	-0.79236
9699.024	-1.20941	0.95028	0.76089	2.14950
9703.024	-1.36843	0.52147	0.10548	-0.34440
9707.024	-1.67310	2.33329	0.46549	-0.92932
9710.919	-1.50440	2.13808	2.39867	-0.90684
9715.024	-1.38637	1.69293	0.46244	-1.26085
9719.000	-1.34006	1.62440	0.91902	-1.88647
9722.986	-1.29529	1.29938	0.45738	-2.99024
9726.919	-1.38704	0.66928	0.81106	2.65847
9731.023	-1.35502	0.82495	2.47182	2.91132
9735.021	-1.39024	2.14866	1.17895	3.06841
9739.024	-1.42494	1.88238	1.02092	2.84931
9742.922	-1.19849	2.45946	0.35980	1.41037
9747.021	-1.26832	1.73960	0.75618	0.76733
9751.024	-1.63876	1.75214	1.00295	-1.03234
9754.983	-1.34294	1.30348	1.15213	-0.38331
9758.919	-1.28842	1.11498	1.95044	1.84895
9763.014	-2.17281	1.80704	2.57001	3.44748
9767.021	-4.20839	1.48008	2.37815	2.73372
9771.025	-8.78614	0.70678	6.04276	-0.10507
9774.922	-4.61894	1.22773	-0.18611	-0.47229
9779.023	-4.66948	2.50017	0.42919	-0.13038
9783.021	NaN	NaN	-1.20909	2.35752
9787.023	NaN	NaN	NaN	NaN
9791.024	NaN	NaN	NaN	NaN
9795.027	NaN	NaN	NaN	NaN
9799.024	NaN	NaN	NaN	NaN
9803.026	NaN	NaN	NaN	NaN
9807.026	NaN	NaN	NaN	NaN
9811.024	NaN	NaN	NaN	NaN
9815.021	NaN	NaN	NaN	NaN
9819.022	NaN	NaN	NaN	NaN
9823.023	NaN	NaN	NaN	NaN
9826.900	NaN	NaN	NaN	NaN
9830.897	NaN	NaN	NaN	NaN
9834.899	NaN	NaN	NaN	NaN
9839.040	NaN	NaN	NaN	NaN
9842.862	NaN	NaN	NaN	NaN
9846.894	NaN	NaN	NaN	NaN
9850.898	NaN	NaN	NaN	NaN
9854.889	NaN	NaN	NaN	NaN
9858.897	NaN	NaN	NaN	NaN
9862.898	NaN	NaN	NaN	NaN
9866.904	NaN	NaN	NaN	NaN
9870.899	NaN	NaN	NaN	NaN
9874.898	NaN	NaN	NaN	NaN
9878.895	NaN	NaN	NaN	NaN
9882.870	NaN	NaN	NaN	NaN
9886.901	NaN	NaN	NaN	NaN
9890.873	NaN	NaN	NaN	NaN
9894.898	NaN	NaN	NaN	NaN
9898.900	NaN	NaN	NaN	NaN
9902.902	NaN	NaN	NaN	NaN
9906.927	NaN	NaN	NaN	NaN
9910.899	NaN	NaN	NaN	NaN
9914.900	NaN	NaN	NaN	NaN
9918.900	NaN	NaN	-0.30265	7.67728
9922.893	NaN	NaN	NaN	NaN
9926.904	NaN	NaN	-2.65159	6.50657
9930.888	NaN	NaN	2.10275	4.49059
9934.890	NaN	NaN	3.89878	4.11198
9938.899	NaN	NaN	0.47765	6.82524
9942.861	NaN	NaN	1.01853	4.35146
9946.900	NaN	NaN	3.79366	4.24932
9950.864	-0.92924	-1.30585	9.08326	1.43377
9954.922	NaN	NaN	0.00141	4.53677
9958.901	-4.19082	1.82389	3.63149	1.05251
9962.902	-0.71856	2.63998	1.46137	0.86547
9966.905	7.23755	3.17858	1.84743	0.73712
9970.902	6.97685	2.76026	0.73836	-0.64058
9974.900	4.83848	2.63841	0.80332	-0.79820
9978.906	2.00703	3.08660	1.51975	-0.31567
9982.902	-0.68809	3.51454	0.72154	1.28287
9986.900	-0.27302	3.70128	1.19100	0.32610
9990.899	-0.68573	4.09255	0.89178	-0.72485
9994.903	-0.84940	4.24231	1.00873	-0.73473
9998.900	-0.86830	3.71445	0.97120	-0.00800
10002.902	-2.11356	4.00388	0.98822	-0.09553
10006.899	-1.67008	3.81908	0.94465	-0.45907
10010.864	-2.48014	3.65746	0.77588	0.41007
10014.864	-2.86440	4.00082	0.91483	0.43495
10018.902	-2.85720	3.99904	0.18162	0.98360
10022.894	-2.35137	3.65333	0.46693	1.74084
10026.902	-2.24359	2.34253	0.75955	2.15285
10030.905	-2.77361	1.85748	0.08505	1.86625
10034.903	-3.09451	1.60969	-0.28091	2.27295
10038.895	-3.12670	1.46048	-0.56349	2.31541
10042.904	-2.70141	1.41432	-0.52741	0.30493
10046.903	-2.58133	1.11555	0.80491	0.53036
10050.904	-2.39725	1.24773	0.72556	1.37234
10054.894	-2.54487	1.87840	-0.16762	0.11803
10058.895	-2.39683	1.15243	0.27431	-0.37762
10062.902	-2.34651	1.23527	0.12230	1.00765
10066.904	-2.44103	1.32704	0.84972	-0.52549
10070.902	-2.50987	1.33543	1.05600	-0.79516
10074.905	-2.54068	1.37599	-0.19983	-0.64890
10078.907	-2.48175	1.40848	-0.02839	-0.86826
10082.904	-2.36676	2.02122	0.67297	-0.45505
10086.893	-1.88578	2.95897	-0.48828	1.76491
10090.900	-0.06160	3.89305	0.72201	4.35432
10094.903	0.39772	2.50914	1.60754	1.68395
10098.876	0.56089	2.76797	2.99250	2.24488
10102.874	0.59233	2.05736	3.84406	2.78578
10106.904	0.55456	2.03367	4.32182	2.66578
10110.906	0.63655	2.48159	2.06790	1.81461
10114.905	0.81602	2.87659	1.79207	1.88688
10118.897	0.82017	2.52643	1.88147	2.02779
10122.902	0.88019	4.28732	3.80530	6.01084
10126.865	0.92068	3.25383	3.60781	6.07773
10130.907	0.79483	4.23295	3.20545	6.12956
10134.926	0.79253	3.18349	2.31433	5.99400
10138.887	0.77213	3.09373	3.16941	5.95596
10142.867	0.77714	3.35137	2.09571	5.76995
10146.903	0.70647	3.17100	2.49488	5.48747
10150.894	0.61645	3.52739	1.31317	5.26215
10154.907	0.58141	3.44745	0.82575	4.92653
10158.903	0.59915	3.22254	0.48158	4.75643
10162.904	0.54118	3.34484	1.11174	4.23533
10166.904	0.48507	3.84795	1.27993	4.35891
10170.906	0.05470	3.29320	2.33361	4.37632
10174.907	0.21981	3.55193	2.60565	4.05184
10178.904	0.30377	3.38957	2.81682	4.03195
10182.902	0.30193	3.39742	2.71731	3.49582
10186.906	0.39574	3.60660	3.06107	3.20215
10190.904	0.55225	3.42511	3.21438	2.94353
10194.905	1.14484	3.69880	3.27838	2.71717
10198.903	1.60094	3.61510	3.36446	2.29398
10202.903	0.39107	3.56299	2.94886	2.41532
10206.908	0.28086	3.58226	3.02427	2.66641
10210.906	0.58399	3.46649	1.85608	2.36244
10214.902	-0.11505	3.55039	2.61843	1.71894
10218.905	-1.09470	3.19067	-0.43440	2.40345
10222.884	-4.53630	3.45431	-2.40907	1.99183
10226.908	-5.49947	3.24041	-5.12597	1.36642
10230.926	-6.18269	4.46689	-7.73177	1.84898
10234.906	-7.54652	3.67160	-7.81281	2.37059
10238.907	-10.25773	3.31209	-9.73540	1.79869
10242.908	-10.30747	2.16891	-10.01554	0.87287
10246.895	-11.16528	2.79386	-11.76442	0.42898
10250.904	-13.15649	1.01193	-12.92352	0.14898
10254.868	-13.39682	1.17450	-13.50776	-0.10191
10258.909	-11.77853	1.56807	-12.54672	-0.49400
10262.896	-11.85179	1.32447	-12.30230	0.59281
10266.894	-11.85842	0.71161	-12.51196	0.70563
10270.909	-12.95018	-0.08883	-13.19404	0.20712
10274.908	-13.40471	-0.44664	-12.71370	-0.47468
10278.906	-13.36053	-0.62061	-12.36587	-0.62572
10282.904	-13.54985	-0.72874	-12.65453	-1.16874
10286.905	-13.58618	-0.40172	-12.77506	-0.09553
10290.909	-13.70301	0.55001	-12.37820	-0.38785
10294.908	-13.73865	0.18446	-12.20195	1.96229
10298.904	-13.68017	0.88609	-12.27683	1.84216
10302.909	-13.62397	-0.48533	-12.33724	1.52430
10306.878	-12.06083	0.08969	-12.77440	2.01351
10310.896	-13.17887	-0.11846	-11.92284	1.22704
10314.906	-13.34397	-0.26074	-12.13609	1.04173
10318.903	-13.48800	0.34600	-12.41817	1.05708
10322.906	-13.46369	0.60972	-11.77986	0.99179
10326.904	-13.66126	0.78868	-11.95104	2.08123
10330.906	-13.57865	1.24502	-12.03947	1.72307
10334.908	-13.19491	0.11489	-12.36080	0.70614
10338.870	-12.48476	-0.12123	-12.08563	0.85087
10342.908	-13.12286	0.49428	-12.07213	0.30576
10346.893	-13.27844	0.38166	-12.11389	0.26941
10350.903	-13.65552	0.62675	-11.73245	0.14060
10354.906	-13.69148	1.75846	-12.25654	0.02227
10358.901	-13.05051	1.44514	-12.33797	0.20505
10362.908	-13.20072	1.75725	-12.26296	0.07071
10366.910	-13.51480	0.47676	-11.86550	1.89241
10370.912	-13.38282	1.74659	-11.92355	-0.24230
10374.898	-12.89353	2.22530	-11.79886	-0.45098
10378.904	-13.30534	1.95033	-12.21350	0.86979
10382.909	-13.53244	0.75370	-11.93688	0.23181
10386.906	-13.75631	1.41758	-12.06964	0.05781
10390.901	-13.12834	2.11030	-12.12307	-0.58610
10394.907	-13.17727	2.12607	-11.70283	-0.19164
10398.907	-13.44458	1.70864	-12.20928	-0.15796
10402.907	-13.15946	1.81721	-11.77082	-0.22517
10406.907	-13.39257	1.89069	-11.95149	-0.00053
10410.906	-13.02775	2.26923	-11.89490	-0.14322
10414.910	-13.15673	2.18317	-11.81077	-0.12804
10418.911	-13.13100	0.75585	-11.65715	0.60287
10422.898	-13.20658	1.83723	-11.66653	0.66692
10426.870	-13.10586	1.92466	-11.89354	0.89487
10430.908	-13.08442	1.95679	-11.77360	0.33738
10434.909	-13.24061	1.91582	-11.80038	1.14154
10438.878	-13.11307	1.75885	-11.54937	1.30501
10442.907	-13.13997	1.95598	-11.67915	1.48109
10446.899	-13.08343	1.90037	-11.71018	1.65419
10450.870	-13.10942	2.05050	-11.97954	1.57462
10454.908	-13.29843	1.76677	-11.55076	1.63181
10458.909	-13.22509	1.86261	-11.68584	1.96044
10462.911	-13.39999	1.84248	-11.86678	1.63679
10466.910	-13.08734	1.93496	-11.68169	1.16488
10470.896	-13.13703	1.89616	-11.99906	1.05108
10474.898	-13.13541	1.87719	-11.63209	1.05470
10478.908	-13.34597	1.62895	-11.59525	1.42539
10482.908	-13.31474	1.49326	-11.95104	0.76710
10486.908	-13.15520	0.55688	-12.25585	0.49261
10490.910	-12.70969	-0.11298	-12.10039	0.16308
10494.912	-12.35590	-0.01617	-11.74984	1.12390
10498.914	-11.87320	1.17265	-11.47174	2.20790
10502.809	-10.95193	1.59922	-9.06654	1.69780
10506.911	-10.11247	1.66557	-8.54280	2.44181
10510.912	-10.05892	1.68670	-8.48614	3.62700
10514.884	-10.44792	1.72472	-8.80771	4.29686
10518.795	-11.08923	2.24609	-8.24339	2.95219
10522.908	-11.39597	2.05487	-8.85005	3.76344
10526.910	-10.26816	2.21019	-8.91270	3.80552
10530.911	-9.91035	2.09498	-8.99131	2.79193
10534.913	-10.12751	2.13852	-9.35046	2.90820
10538.909	-9.99806	2.28338	-10.42980	2.68642
10542.910	-10.29008	2.36041	-10.82229	2.70509
10546.912	-10.96413	2.39486	-8.59779	2.74599
10550.910	-10.80144	2.34570	-9.03077	2.79131
10554.873	-10.87481	2.39480	-8.84668	2.07696
10558.906	-10.85667	2.50466	-8.92890	2.32237
10562.909	-10.38865	2.48688	-8.87752	2.58246
10566.914	-10.47297	2.51004	-8.84663	2.32819
10570.879	-10.47499	2.82838	-8.68356	2.23714
10574.909	-10.63780	2.69533	-9.14733	2.31073
10578.911	-10.76338	2.59239	-8.91531	1.97511
10582.809	-10.68123	2.49440	-8.78665	2.20737
10586.908	-10.60200	2.22858	-8.75133	2.60055
10590.911	-10.70596	2.02664	-8.92617	3.96695
10594.915	-10.67183	1.44691	-8.82860	4.49979
10598.810	-10.67962	1.47074	-8.66828	4.90349
10602.910	-10.73198	1.59771	-8.81549	4.44525
10606.912	-10.79042	1.66082	-8.66736	4.45214
10610.873	-10.64748	1.95090	-8.60497	1.71409
10614.913	-10.21236	1.70634	-8.76098	1.44549
10618.920	-10.07721	1.87019	-8.66195	1.30760
10622.911	-10.30867	2.08086	-8.63998	1.22402
10626.913	-10.18752	2.78126	-8.68431	1.00133
10630.808	-10.47748	2.89818	-8.74862	1.13408
10634.913	-10.43673	3.09721	-8.80112	1.35309
10638.891	-10.58440	3.47899	-8.87958	1.83829
10642.915	-10.52396	3.29070	-8.95017	2.44155
10646.809	-10.43462	2.07465	-8.78454	2.11946
10650.913	-10.33586	2.02616	-8.89053	2.53077
10654.911	-10.44900	1.29377	-8.94341	2.70298
10658.912	-10.46796	1.57245	-8.75272	2.95193
10662.810	-10.47168	1.31366	-8.72520	2.91376
10666.911	-10.50978	1.06847	-8.83871	3.25651
10670.910	-10.53356	1.28285	-8.77296	3.82014
10674.911	-10.55481	1.30857	-8.70211	4.13874
10678.810	-10.50892	1.32598	-8.84751	4.32245
10682.902	-10.50949	1.60469	-8.60383	3.43407
10686.909	-10.50124	1.81828	-8.57027	3.46794
10690.871	-10.49503	1.71826	-8.67224	3.71746
10694.809	-10.49774	1.86743	-8.66423	1.82134
10698.912	-10.46174	2.30733	-8.73545	1.83187
10702.914	-10.50661	2.14561	-8.55027	2.38225
10706.875	-10.51962	2.32912	-8.64407	2.27537
10710.809	-10.51938	2.65700	-8.72646	1.82290
10714.913	-10.59011	2.81331	-8.85625	2.23345
10718.916	-10.55629	3.21884	-8.78374	2.02563
10722.888	-10.63267	2.94710	-8.80992	2.14610
10726.785	-10.57579	3.25557	-8.72074	1.93292
10730.913	-10.64132	3.51282	-8.93791	1.69961
10734.913	-10.59042	3.37047	-9.02045	1.54564
10738.911	-10.66210	3.37172	-9.11404	1.52256
10742.792	-10.67502	3.38557	-9.09323	1.34141
10746.915	-10.70950	3.24247	-9.04001	1.45442
10750.911	-10.58411	3.29300	-9.02355	1.49412
10754.915	-10.87383	2.82699	-8.83827	1.55348
10758.810	-10.90018	1.57807	-9.08709	1.77779
10762.897	-11.29949	1.27382	-9.05650	1.80378
10766.909	-11.16738	1.18366	-9.06030	1.83218
10770.916	-11.30682	1.31307	-9.09531	2.03172
10774.810	-11.24120	1.17878	-9.02750	2.13467
10778.916	-11.22532	0.17110	-8.64065	2.23156
10782.912	-11.16784	0.62268	-8.72209	2.49530
10786.914	-11.24249	0.51926	-8.69161	2.99660
10790.810	-11.21140	0.87185	-8.64609	3.52434
10794.915	-11.20061	0.96210	-8.58990	3.25561
10798.913	-11.10553	0.88845	-8.57726	2.89394
10802.915	-11.00819	0.90504	-8.43520	3.28449
10806.810	-10.89920	1.00636	-8.49195	2.84519
10810.915	-10.72493	0.63833	-8.40771	1.29702
10814.913	-10.95466	2.37945	-8.43673	0.92738
10818.914	-10.89487	0.88838	-8.32595	-0.12412
10822.812	-10.76051	0.54584	-8.41218	1.62857
10826.916	-10.81173	-1.02532	-8.32400	-0.14516
10830.913	-10.87807	-1.38063	-7.92483	-0.60695
10834.915	-10.74350	-1.52688	-7.85312	-0.14361
10838.810	-10.72390	-1.56592	-7.90238	-0.40722
10842.914	-10.78144	-1.65970	-7.87903	-0.31265
10846.894	-10.74022	-1.58425	-7.94986	-0.37801
10850.918	-10.69661	-1.64152	-7.90102	-0.44342
10854.812	-10.75351	-1.77988	-7.99627	-0.61935
10858.789	-10.66416	-1.77074	-7.87638	-0.89561
10862.789	-10.67346	-1.82672	-7.89447	-1.14586
10866.785	-10.61996	-1.86820	-7.85110	-1.28798
10870.750	-10.63032	-1.94996	-7.86069	-1.81814
10874.788	-10.60920	-1.96771	-7.84937	-1.75956
10878.785	-10.55721	-2.07644	-7.91012	-1.73427
10882.790	-10.52130	-2.03218	-7.96412	-1.95555
10886.783	-10.49198	-1.90835	-8.05808	-2.08587
10890.789	-10.46959	-1.94000	-7.92113	-1.83157
10894.792	-10.56534	-1.50912	-7.88923	-1.68159
10898.789	-10.67941	-0.54867	-7.92028	-1.63213
10902.919	-10.78197	-0.82365	-7.99844	-1.75148
10906.789	-10.85112	-1.40222	-7.94513	-2.01768
10910.790	-10.61286	0.86482	-7.91670	-1.94786
10914.791	-10.68228	1.02359	-8.17223	-1.96417
10918.920	-10.64676	0.80866	-8.06341	-2.03341
10922.790	-10.60234	1.21557	-8.25384	-1.90241
10926.791	-10.74985	0.75493	-8.13485	-1.83321
10930.795	-10.58639	0.99588	-8.04387	-1.78555
10934.917	-10.56073	0.74226	-8.08842	-1.67012
10938.788	-10.32683	0.84041	-7.96638	-1.46342
10942.790	-10.18144	0.89839	-7.99681	-1.27119
10946.791	-10.22971	1.03070	-8.04840	-0.91759
10950.782	-10.09273	1.01097	-7.91646	-1.02785
10954.793	-9.96706	1.01980	-7.97011	-1.11059
10958.794	-9.73123	1.14735	-7.68047	-0.85907
10962.790	-9.58309	1.06465	-7.92661	-1.11625
10966.785	-9.48975	1.11889	-7.96417	-0.90543
10970.791	-9.56680	1.04136	-7.84021	-1.31158
10974.792	-9.49487	1.11635	-7.94143	-1.21702
10978.786	-9.51836	1.15498	-7.99172	-1.37817
10982.790	-9.49627	0.97782	-8.15409	-1.42336
10986.790	-9.55449	0.52289	-7.62219	-1.71418
10990.789	-9.52936	0.59232	-7.71830	-1.73711
10994.792	-9.53752	0.33401	-7.93980	-1.88403
10998.790	-9.72559	-0.00698	-7.62433	-1.93224
11002.793	-9.61841	0.32616	-7.94596	-1.30549
11006.772	-9.65597	0.16536	-8.06779	-1.46588
11010.793	-9.69610	0.28308	-7.91558	-1.21675
11014.813	-9.66943	0.35548	-7.81873	-0.28047
11018.761	-9.74588	0.04460	-7.60544	-0.01328
11022.794	-9.65602	0.23311	-7.52369	0.85222
11026.793	-9.44622	0.31343	-7.74121	0.75907
11030.785	-9.65671	0.08304	-7.67562	1.08905
11034.793	-9.59969	-0.13848	-7.77763	0.76194
11038.794	-9.42450	-0.13392	-7.74074	0.38108
11042.794	-9.44721	-0.45052	-7.83454	0.06186
11046.791	-9.42769	-0.76703	-7.87019	-0.09115
11050.792	-9.49180	-1.15853	-7.75590	-0.36949
11054.795	-9.45131	-1.67897	-7.65878	-0.01438
11058.779	-9.47345	-1.50299	-7.59793	-0.48726
11062.795	-9.55010	-1.59889	-7.58081	-0.46819
11066.789	-9.52159	-2.37661	-7.73004	-0.72610
11070.792	-9.58774	-1.54463	-7.76333	-1.23361
11074.797	-9.67623	-0.98184	-7.82070	-1.50938
11078.795	-9.71710	0.83259	-7.85441	-1.59468
11082.793	-9.78243	-0.82545	-7.74167	-1.51146
11086.791	-9.45800	-1.40368	-7.20082	-0.96838
11090.795	-7.32653	-4.32748	-5.81182	-2.17180
11094.786	-6.74841	-2.04123	-5.37384	-5.32961
11098.796	-6.75294	-2.31934	-4.54402	-2.31281
11102.766	-6.33258	-3.37395	-3.80802	-4.47889
11106.794	-6.28403	-5.14709	-3.97133	-4.90768
11110.754	-6.33802	-5.19264	-4.04648	-4.88083
11114.796	-6.29026	-5.38196	-3.96802	-4.88167
11118.791	-6.13986	-5.41505	-4.65363	-5.47592
11122.792	-6.15664	-5.60899	-4.40574	-5.59872
11126.763	-5.94845	-5.74087	-4.16448	-5.72729
11130.794	-5.98069	-5.41397	-4.16593	-5.55505
11134.796	-5.99959	-5.61879	-4.02591	-6.09207
11138.796	-6.00072	-5.50002	-4.02571	-5.82043
11142.808	-6.12673	-5.58836	-3.85451	-6.31054
11146.791	-6.02386	-5.60538	-3.79826	-6.35999
11150.792	-6.04011	-5.92473	-3.70109	-5.36256
11154.794	-5.80035	-6.02082	-4.10182	-4.67318
11158.815	-5.90472	-5.77666	-3.49287	-5.24084
11162.795	-5.97008	-5.98951	-3.96370	-5.28930
11166.793	-6.04779	-6.13635	-3.97479	-3.36896
11170.794	-6.12774	-6.08156	-3.72652	-3.48782
11174.822	-6.08397	-6.42219	-3.52324	-3.58741
11178.796	-6.16393	-6.51390	-3.46780	-4.03026
11182.790	-6.02764	-6.50469	-3.24462	-4.56863
11186.792	-6.04296	-6.59577	-3.37096	-4.51550
11190.788	-6.01640	-6.26530	-3.67635	-4.77451
11194.795	-6.03560	-6.28085	-3.80485	-5.11287
11198.795	-6.10818	-5.82841	-3.60660	-5.96720
11202.797	-6.05008	-5.81838	-3.49920	-5.34340
11206.795	-6.09172	-6.06823	-3.30455	-5.44266
11210.795	-6.33177	-5.53021	-3.54900	-5.57584
11214.795	-5.61620	-5.55413	-3.34022	-6.32373
11218.796	-4.37194	-3.98188	-2.18357	-5.47173
11222.761	-1.70965	-2.62794	1.03627	-4.62293
11226.774	1.10867	-1.71058	2.56290	-4.19277
11230.797	1.35566	-1.16633	4.59603	-3.12296
11234.798	3.02168	-3.42242	6.46968	-0.70780
11238.788	4.78301	-2.58893	9.01590	-0.27715
11242.757	5.70313	-1.38526	13.04872	-0.89452
11246.793	8.39513	-1.41711	12.40723	1.10785
11250.794	8.73031	-1.26367	11.16108	-1.91062
11254.761	10.15564	-1.22804	11.97216	-1.44470
11258.794	10.40588	-1.14943	12.39478	0.58879
11262.800	8.44904	-1.16012	12.61764	0.22486
11266.788	10.04456	-1.72283	12.94811	-0.26833
11270.787	7.96188	-1.18761	12.62497	-1.16357
11274.800	8.76062	-1.64031	9.52801	0.87194
11278.795	10.02314	-1.32596	13.29220	-1.39977
11282.794	7.18122	-1.61388	13.45270	-1.69678
11286.790	8.83275	-1.44122	13.16522	-1.68757
11290.794	9.28722	-1.67653	9.85573	-1.22954
11294.795	7.95738	-1.72616	10.67222	-1.14331
11298.800	8.84816	-1.44888	13.63384	-1.60100
11302.787	9.40735	-1.71436	13.76156	-0.15633
11306.795	8.82492	-1.75221	10.89037	-1.65604
11310.797	9.17732	-1.58921	13.64169	0.28352
11314.800	8.92900	-1.65474	13.44836	0.57945
11318.789	8.72348	-1.34865	13.47266	0.39906
11322.796	9.49946	-1.46234	14.28748	-1.17439
11326.800	9.42076	-1.03242	13.58479	-0.84431
11330.795	9.13427	-1.01445	13.94177	-0.72309
11334.788	8.89019	-0.46162	13.92388	-1.63969
11338.807	8.49445	-1.13588	13.17875	-0.68581
11342.759	9.30435	-1.23460	14.57618	-2.75715
11346.799	8.39960	-1.11933	14.55444	-2.65236
11350.786	8.74581	-1.04234	13.29934	-1.68916
11354.793	8.58063	-1.12096	12.78736	-2.26708
11358.798	8.96421	-1.02477	13.37432	-2.44633
11362.794	8.78079	-0.96855	15.01915	-2.57194
11366.792	8.97160	-0.55632	14.27536	-3.96001
11370.795	8.91522	-0.40505	13.27725	-1.76794
11374.794	8.78697	-0.33540	15.35634	-3.03769
11378.797	9.06426	-1.02176	12.06866	-2.57961
11382.790	8.14429	-0.23774	14.31761	1.11081
11386.798	8.41901	-0.64553	13.25336	-1.63121
11390.796	9.08159	-0.85561	13.11719	-1.22101
11394.800	8.77785	-1.23135	13.39678	-0.92693
11398.799	9.29860	-0.72713	13.54474	-0.90469
11402.796	9.14063	-1.53593	14.20663	-1.66922
11406.799	9.15449	-1.00701	13.69457	-1.49525
11410.760	9.22272	-1.23013	13.80308	-1.74154
11414.799	9.08895	-0.82456	14.68487	-2.96770
11418.797	9.10758	-1.02826	13.83093	-3.26871
11422.800	8.25209	-1.01411	13.84549	-3.48831
11426.761	9.00479	-0.60000	14.55318	-1.81363
11430.800	9.07893	-0.71949	12.66918	-3.42595
11434.770	9.02028	-0.12644	14.22433	-2.59770
11438.798	9.01837	0.00535	14.48504	-0.75874
11442.760	9.01029	-0.44735	13.65594	-4.69860
11446.801	8.98039	-0.27819	14.84696	0.01136
11450.762	8.68521	0.10393	14.02218	0.81851
11454.797	8.47041	0.02657	13.89603	0.80055
11458.800	6.64452	0.28503	13.46482	-1.51484
11462.798	5.54855	0.15218	12.08613	-1.87543
11466.800	3.18252	0.03918	7.78616	-1.79313
11470.797	2.58846	0.11501	6.32691	-1.59425
11474.790	1.72585	0.17769	3.71300	-1.54896
11478.807	-0.90220	0.20890	1.61523	-2.06010
11482.799	-1.04332	0.09317	-0.59478	-1.93774
11486.798	-3.58423	0.17638	-1.05776	-1.64716
11490.798	-3.47596	0.12193	-1.35876	-1.66051
11494.801	-3.21693	-1.75719	-0.76431	-2.97176
11498.800	-3.57345	0.18236	-1.31354	-3.25171
11502.801	-3.68577	-0.40529	-1.19713	-2.60878
11506.756	-3.55332	-1.71076	-1.07751	-3.89410
11510.759	-3.38719	-1.46957	-0.74057	-4.43786
11514.803	-3.55058	-0.75221	-1.04771	-3.74147
11518.798	-3.56608	-0.14099	-1.00916	-3.86770
11522.801	-3.56616	-0.94545	-3.80270	-3.64556
11526.804	-3.59421	-0.84474	-0.64216	-1.17759
11530.809	-3.62583	-0.40777	-0.19621	-0.76237
11534.800	-3.71251	0.11399	-0.99067	0.00768
11538.798	-3.72464	-0.45709	-0.81287	-1.14972
11542.765	-3.59392	-0.52597	-0.85220	-1.46661
11546.798	-3.53122	-0.37297	-0.51830	-0.51655
11550.800	-3.51955	-0.20179	-0.45443	-0.39319
11554.804	-3.65104	0.07380	-0.46540	-0.82463
11558.786	-3.71127	0.10754	-0.40782	-0.27105
11562.775	-3.62225	0.48861	-0.76136	-0.30870
11566.802	-3.64234	0.52362	-0.58012	-0.84487
11570.763	-3.22386	0.42501	-0.58935	-0.93608
11574.804	-3.46526	0.65809	-0.65985	-1.27039
11578.803	-3.38209	0.77285	-0.59153	-1.38090
11582.800	-3.34007	0.66070	-0.56498	-0.30409
11586.798	-3.31002	0.83075	-0.57744	-0.13559
11590.803	-3.53990	0.97776	-0.58540	-0.45247
11594.803	-3.52697	1.23788	-0.48840	-0.46311
11598.799	-3.53046	1.38879	-0.57181	-0.95991
11602.801	-3.54855	1.16596	-0.51304	-0.55375
11606.699	-3.55496	1.23938	-1.15109	-0.26926
11610.799	-3.48459	1.07891	-0.98142	0.35849
11614.801	-3.32197	1.12071	-0.72409	-0.24397
11618.797	-3.37509	1.22040	-0.69464	-0.13375
11622.799	-3.18962	1.25204	-0.93075	-0.87423
11626.803	-3.54482	0.95098	-0.54920	-1.88394
11630.803	-3.42243	0.67094	-0.69280	-1.45544
11634.801	-3.32159	0.59233	-0.56893	-1.73649
11638.807	-3.44785	0.55654	-0.35074	-2.68929
11642.779	-3.28724	0.56774	-0.27835	-2.37350
11646.801	-3.34455	0.43778	-0.60148	-3.21602
11650.801	-3.52769	0.25075	-0.50791	-3.81538
11654.697	-3.52393	0.16025	-0.55754	-4.52063
11658.803	-3.83342	-1.29269	-0.69007	-4.31768
11662.801	-3.51340	-0.30678	-0.48942	-4.57406
11666.801	-3.53088	-0.11032	-0.63191	-3.95648
11670.802	-3.39399	-0.69785	-0.78796	-3.63141
11674.801	-3.39888	-0.82718	-0.86061	-4.07369
11678.819	-3.28850	-0.83985	-0.96013	-3.86182
11682.793	-3.16644	-1.21095	-0.75484	-3.64267
11686.803	-3.21993	-1.10993	-0.76965	-3.13880
11690.801	-3.19113	-1.03414	-1.18383	-3.53137
11694.804	-3.11445	-1.03606	-0.77997	-2.75282
11698.804	-3.02027	-0.99278	-1.21633	-2.64550
11702.804	-3.00032	-0.79840	-1.22360	-2.83370
11706.803	-2.99123	-0.80265	-1.30134	-2.87666
11710.803	-2.95614	-0.91127	-1.11784	-2.65593
11714.803	-2.93901	-0.74994	-0.92406	-2.16858
11718.803	-2.89713	1.18707	-0.56558	-1.25912
11722.802	-2.81038	2.23441	1.77962	-1.03269
11726.769	-1.78280	2.33365	2.40753	-0.55730
11730.804	-2.06622	2.39796	2.19658	-0.39659
11734.807	-2.04470	2.07771	0.72516	0.02510
11738.802	-1.99404	1.75103	1.32533	0.21697
11742.806	-1.94434	1.94826	1.07076	-0.21108
11746.801	-1.05193	1.83167	1.22216	-0.50366
11750.701	-1.60605	2.13890	1.52560	-0.93893
11754.764	-1.43585	2.31631	2.63225	-2.12332
11758.804	-1.31764	2.44147	1.11273	-0.48438
11762.805	-1.05686	2.45400	0.06805	2.52688
11766.707	-1.55938	2.59836	0.94827	2.63271
11770.802	-1.17346	2.49702	0.93348	4.49800
11774.803	-1.10110	2.37864	0.81985	4.18837
11778.809	-1.07302	1.91457	0.82307	2.91180
11782.705	-0.90947	2.11349	0.77082	3.00057
11786.804	-1.01201	2.02730	0.61967	2.85755
11790.805	-1.11631	1.86853	0.90297	2.88294
11794.804	-1.14843	1.83086	0.97931	2.73339
11798.701	-1.02020	1.65895	0.98142	2.69164
11802.805	-1.10346	1.51924	0.99611	2.68923
11806.801	-1.13300	1.25764	1.47089	2.36206
11810.798	-0.99670	1.15466	1.47370	2.93400
11814.700	-0.91515	1.56310	1.55360	2.33608
11818.768	-1.04324	1.57537	2.03308	2.44437
11822.808	-1.43478	1.62220	2.20927	2.47311
11826.804	-1.21325	0.90453	1.85879	3.73974
11830.710	-1.66581	1.30582	2.20961	2.55046
11834.768	-2.13319	1.15418	2.70208	2.30118
11838.804	-1.04560	1.53049	3.50187	1.79912
11842.809	-1.19782	2.79295	3.16782	2.17415
11846.703	-1.85194	3.89095	2.13604	2.20612
11850.803	NaN	NaN	9.54679	2.29088
11854.805	NaN	NaN	13.53714	2.36238
11858.802	NaN	NaN	NaN	NaN
11862.801	NaN	NaN	2.99675	10.14473
11866.705	NaN	NaN	NaN	NaN
11870.804	NaN	NaN	NaN	NaN
11874.803	NaN	NaN	NaN	NaN
11878.810	NaN	NaN	NaN	NaN
11882.804	NaN	NaN	NaN	NaN
11886.767	NaN	NaN	NaN	NaN
11890.680	NaN	NaN	NaN	NaN
11894.681	NaN	NaN	NaN	NaN
11898.679	NaN	NaN	NaN	NaN
11902.679	NaN	NaN	NaN	NaN
11906.677	NaN	NaN	NaN	NaN
11910.678	NaN	NaN	NaN	NaN
11914.678	NaN	NaN	NaN	NaN
11918.677	NaN	NaN	NaN	NaN
11922.679	NaN	NaN	NaN	NaN
11926.678	NaN	NaN	NaN	NaN
11930.679	NaN	NaN	NaN	NaN
11934.682	NaN	NaN	NaN	NaN
11938.659	NaN	NaN	NaN	NaN
11942.684	NaN	NaN	NaN	NaN
11946.679	NaN	NaN	NaN	NaN
11950.660	NaN	NaN	NaN	NaN
11954.680	NaN	NaN	NaN	NaN
11958.685	NaN	NaN	NaN	NaN
11962.684	NaN	NaN	NaN	NaN
11966.680	NaN	NaN	NaN	NaN
11970.648	NaN	NaN	NaN	NaN
11974.682	NaN	NaN	NaN	NaN
11978.682	NaN	NaN	NaN	NaN
11982.683	NaN	NaN	NaN	NaN
11986.681	NaN	NaN	NaN	NaN
11990.682	NaN	NaN	NaN	NaN
11994.683	NaN	NaN	NaN	NaN
11998.706	NaN	NaN	NaN	NaN
12002.681	NaN	NaN	-2.88628	9.51057
12006.681	NaN	NaN	1.43634	-1.48342
12010.684	NaN	NaN	-0.14067	-1.14805
12014.680	NaN	NaN	1.57297	-1.37452
12018.639	NaN	NaN	8.98448	4.88591
12022.653	NaN	NaN	-5.82800	4.04630
12026.683	NaN	NaN	10.55356	4.86854
12030.674	NaN	NaN	15.11683	1.12349
12034.679	NaN	NaN	14.24301	1.14185
12038.643	-3.36030	-1.18900	11.75101	1.33966
12042.649	7.03056	3.73145	2.21115	1.50687
12046.683	4.46258	4.62336	0.79409	2.26762
12050.683	8.19927	1.56104	1.03511	2.78592
12054.705	6.81654	2.19070	0.84493	2.54020
12058.684	4.18435	2.81073	2.43243	3.66625
12062.671	0.67861	3.09531	1.79973	4.49273
12066.641	0.72866	3.55573	-1.42005	1.63085
12070.648	0.50416	3.74881	0.32883	1.40834
12074.685	-0.64469	3.84646	0.47155	-5.06469
12078.686	-0.05031	3.61948	3.01915	4.81595
12082.685	0.12570	3.87739	3.34440	2.67387
12086.681	-0.15801	3.79216	3.20145	0.82506
12090.682	-0.19638	3.59216	3.57988	0.39316
12094.686	-0.08999	3.14710	3.46993	-0.10524
12098.687	-0.06269	2.96389	2.94527	-0.69480
12102.684	-0.32302	3.13135	2.52664	-0.25949
12106.647	-0.44941	3.58405	3.29409	-0.64660
12110.687	-0.71598	2.93559	2.51291	-0.56498
12114.647	-0.60126	3.46930	3.17520	0.75766
12118.684	-0.42271	3.01360	3.87020	-0.13772
12122.684	-0.64826	3.29820	4.16591	0.16932
12126.681	-0.50964	3.07179	4.21303	-0.15754
12130.685	-0.56684	2.98236	4.16013	-0.12439
12134.680	-0.63672	3.10757	3.94107	0.10903
12138.649	-0.72126	3.27343	3.86245	0.97642
12142.648	-0.75168	3.20832	3.61579	0.36324
12146.664	-0.77404	3.42196	3.70381	1.24237
12150.708	-0.70561	3.57473	3.76028	1.60743
12154.683	-0.66836	3.45225	3.51706	1.67039
12158.684	-0.69950	4.06593	3.57570	2.22260
12162.687	-0.64992	3.60848	3.54255	2.18189
12166.675	-0.54515	3.66779	3.43150	2.24865
12170.684	-0.38303	3.83585	3.41948	1.84014
12174.684	-0.38281	3.88560	3.27898	2.26235
12178.685	-0.02680	3.56101	3.28659	2.33322
12182.647	-0.32456	3.54977	3.24583	2.44887
12186.685	-0.19241	3.99873	3.19791	2.44339
12190.677	-0.04668	3.88744	3.17027	2.33084
12194.685	-0.08661	3.98577	3.16151	2.16649
12198.686	-0.10203	4.00879	3.13850	2.34386
12202.685	-0.06185	4.00298	3.10886	2.36176
12206.687	-0.03216	4.20704	3.14303	2.23708
12210.688	-0.04132	3.95991	3.16968	2.20923
12214.689	-0.07976	4.15844	3.17089	2.08621
12218.683	-0.05827	4.03748	3.17618	2.28480
12222.687	-0.06924	3.90740	3.21631	2.22209
12226.685	-0.00375	3.60742	3.26376	2.17546
12230.708	0.02646	3.74660	3.26750	2.43597
12234.688	-0.24659	3.43279	3.49258	2.11409
12238.687	-0.14732	2.76559	3.58410	2.77319
12242.680	-0.20586	3.19715	3.64565	2.65621
12246.684	-0.29979	3.37337	3.59834	3.16893
12250.682	-0.21140	3.24162	3.79082	2.72171
12254.685	-0.30396	2.46095	3.63268	3.31382
12258.686	-0.28275	2.48239	3.78207	2.86023
12262.687	-0.46411	2.54560	3.62704	2.90637
12266.690	-0.52525	2.48360	3.59973	3.03295
12270.670	-0.61372	2.53316	3.72272	3.36466
12274.682	-0.64397	2.70335	3.78486	2.84402
12278.676	-0.54495	2.42062	3.50457	2.94035
12282.688	-0.63037	2.76062	3.60079	2.82539
12286.689	-0.48917	2.65058	3.70559	2.81967
12290.687	-0.52865	2.66202	3.56121	2.63396
12294.679	-0.57131	2.56870	3.52974	2.61598
12298.687	-0.53193	2.70080	3.62318	2.42917
12302.689	-0.48364	2.71572	3.73947	2.18428
12306.688	0.42651	3.08655	3.85274	2.22896
12310.681	0.54548	3.02195	4.00428	1.79794
12314.654	0.87669	3.16918	4.17704	1.80042
12318.685	0.81727	3.24767	3.74748	2.07697
12322.689	-0.48488	3.27612	4.12841	1.70951
12326.688	-0.50145	3.32785	3.00131	1.91578
12330.689	-0.57786	3.40873	2.77978	1.55491
12334.684	-0.23517	3.21508	2.09284	2.10823
12338.685	0.17926	3.33886	2.32132	1.77174
12342.685	0.11917	3.68602	2.60332	1.70103
12346.687	1.70834	8.07963	2.09123	1.91822
12350.691	0.03832	3.67801	2.23804	2.05186
12354.667	-0.26252	3.91211	2.04225	2.11891
12358.657	-0.11081	4.26839	2.01575	2.31437
12362.689	-0.07589	4.24878	2.24468	2.64070
12366.686	-0.00903	4.27564	2.07752	2.58880
12370.688	0.10721	4.10156	2.06897	2.32374
12374.687	0.05299	4.32570	2.29869	2.19090
12378.648	0.17884	4.22620	2.33532	2.25505
12382.690	0.10622	4.34262	2.45431	1.86551
12386.646	0.34581	4.02104	2.48839	1.72933
12390.687	-0.12540	4.23819	2.77720	1.56565
12394.651	-0.01623	4.13244	3.09097	0.64285
12398.680	0.14670	4.33293	2.97567	0.86218
12402.687	-0.07195	4.27403	3.19670	0.55040
12406.688	-0.04167	4.17434	3.15926	0.16423
12410.688	0.01658	4.02989	3.22302	-0.86997
12414.690	-0.45001	4.07427	3.46711	-0.57766
12418.689	-0.56491	4.10451	3.70146	-1.26498
12422.688	-0.80595	4.33998	3.55397	-1.29394
12426.692	-0.72196	4.00262	3.77251	0.70938
12430.689	-0.39581	2.65677	3.90061	0.42252
12434.698	-0.04996	3.06792	3.73959	-0.64527
12438.682	0.07827	2.10973	3.80770	-0.14339
12442.687	0.41728	1.81214	4.25882	0.18010
12446.690	0.68615	2.10365	4.55228	-0.95250
12450.689	0.94418	0.24739	4.82821	-0.57293
12454.680	0.63225	1.32715	4.90018	-0.73296
12458.694	0.01559	1.60722	5.00925	-0.92518
12462.690	-0.04246	1.49007	5.09613	-0.69101
12466.689	-0.01961	1.55942	5.14704	-0.58762
12470.681	0.22559	1.33541	5.28342	-0.77354
12474.689	0.00906	1.97344	3.98393	-0.62283
12478.676	-0.09262	1.78938	4.27259	-0.68365
12482.697	-0.17261	1.88211	5.19411	-0.70323
12486.680	-0.00620	1.83217	4.68597	-0.65288
12490.689	0.18916	1.11320	3.69909	0.19597
12494.690	0.12798	1.00810	3.86613	-0.21195
12498.691	0.53307	1.46701	3.63198	-0.14272
12502.690	1.12013	1.16805	3.35654	0.35897
12506.692	1.27688	1.12425	3.98247	-0.65785
12510.656	0.41867	0.92436	3.65341	-1.06557
12514.694	0.19159	1.37799	4.10342	-0.87917
12518.693	0.20787	1.87473	3.77706	-1.32710
12522.655	0.20375	1.45775	4.38630	-1.36715
12526.691	0.47654	1.62807	4.53423	-1.83082
12530.692	0.30344	2.04637	4.26400	-1.60059
12534.685	0.24922	2.24440	4.69758	-2.20257
12538.688	0.16189	3.03042	4.45399	-2.72401
12542.689	-0.02794	2.76939	5.05306	-2.62908
12546.690	0.03199	2.72556	4.94888	-2.75526
12550.682	0.08751	2.63940	5.11681	-2.91631
12554.690	0.03385	2.29816	4.71720	-2.26605
12558.690	0.10979	2.07526	4.52035	-2.93725
12562.671	0.08423	1.87832	4.88446	-2.25376
12566.580	0.04561	2.54479	4.94068	-2.64097
12570.690	0.13729	2.13479	4.70355	-2.42183
12574.689	0.09473	1.59284	4.77106	-2.86848
12578.691	0.21504	2.17126	4.73949	-2.26655
12582.591	0.32709	1.82465	2.28997	-2.01824
12586.690	0.41080	1.45487	2.71825	-1.12391
12590.692	0.61635	1.20576	2.93188	-1.53152
12594.692	0.77287	1.42627	3.55627	-0.54085
12598.590	0.75841	1.30556	3.31249	-0.35688
12602.686	0.95018	1.08702	2.70480	-0.85079
12606.691	1.01563	1.15989	3.42114	-0.42939
12610.692	1.07599	1.17477	3.25525	-0.32447
12614.591	1.24786	1.24060	3.23042	-0.48492
12618.692	1.01940	0.91246	3.09968	-0.25279
12622.691	1.08460	0.91125	3.23361	-0.53046
12626.691	1.15612	0.94128	3.08961	-0.26346
12630.589	1.10063	0.91564	3.33703	-0.27689
12634.693	0.94420	0.89502	3.51078	-0.14182
12638.693	1.04173	0.92989	3.56405	-0.40854
12642.667	1.11983	0.77299	3.38521	-0.27661
12646.590	1.24396	0.85802	3.39018	-0.43766
12650.693	1.05575	0.66087	3.43237	-0.38536
12654.690	1.05458	0.85083	3.36475	-0.50862
12658.691	0.85022	0.71333	3.33804	-0.52321
12662.591	0.86426	0.82611	3.53033	-0.64668
12666.691	1.10993	0.78365	3.48395	-0.86728
12670.694	0.96422	0.74113	3.39033	-0.63748
12674.693	1.17374	0.78537	3.25775	-0.86775
12678.658	1.14404	0.85644	3.20065	-0.78138
12682.700	1.29926	0.86441	3.14679	-0.79963
12686.676	1.19626	0.89972	3.14140	-0.72571
12690.689	1.08026	0.93465	3.06885	-0.84985
12694.589	1.11400	1.02549	3.03281	-0.86658
12698.695	0.80818	0.99494	3.38080	-0.89011
12702.692	1.09314	1.15413	3.03408	-1.00562
12706.692	0.93371	0.98412	3.76087	-1.11098
12710.589	1.07406	0.99774	3.21775	-0.89589
12714.695	1.00323	1.07511	3.37225	-0.93364
12718.692	0.87113	1.30753	6.03182	-1.22595
12722.692	1.12417	1.00503	4.78047	-1.17537
12726.591	0.99157	0.99086	4.88919	-1.30278
12730.660	0.71682	1.37093	4.68755	-1.30210
12734.693	0.82945	1.38361	5.05991	-1.28052
12738.692	0.65350	1.41841	5.21658	-1.44099
12742.592	0.35883	1.40881	4.59339	-0.98394
12746.694	-0.35514	0.96558	3.87517	-0.92559
12750.696	-0.93378	1.33008	0.87964	-0.64709
12754.693	-1.32009	1.23036	0.49068	0.13547
12758.590	-1.92344	1.52938	0.64846	-0.57888
12762.693	-2.28601	1.30448	1.58822	-1.08303
12766.696	-2.67283	1.29941	1.05808	-1.16233
12770.670	-1.95336	1.11303	1.82286	-1.29858
12774.590	-1.88115	1.19217	1.72490	-1.00094
12778.695	-2.16615	1.07098	0.89190	-0.91381
12782.695	-2.23273	1.08423	1.29266	-0.80647
12786.695	-2.27919	1.07727	0.65044	-0.86480
12790.593	-2.61781	1.01010	0.90026	-0.72763
12794.696	-2.48946	1.00320	1.51425	-0.20635
12798.694	-2.85376	1.00224	0.89967	0.29378
12802.694	-2.39842	0.97257	0.15238	-0.29913
12806.593	-2.51368	0.95931	0.52056	0.15823
12810.689	-2.51841	1.06857	0.69183	0.24663
12814.683	-1.29303	1.12777	0.34372	-0.19603
12818.697	-1.78632	1.26457	0.23433	0.37216
12822.590	-1.60719	1.45776	0.24564	0.23619
12826.695	-1.53644	1.34160	0.29979	0.12775
12830.695	-1.16657	1.28718	0.28349	0.24061
12834.691	-2.00021	1.40192	1.05136	0.46183
12838.590	-1.93422	1.33735	0.57116	0.52251
12842.658	-1.79279	1.53012	0.44373	0.63083
12846.694	-1.69093	1.66047	0.53801	0.60123
12850.697	-1.98975	1.72399	0.74891	0.62339
12854.593	-1.87089	1.62870	1.23965	0.40996
12858.695	-2.13331	1.72832	1.11206	0.56445
12862.693	-2.39113	1.67888	0.79171	0.69933
12866.695	-2.36081	1.61784	1.32870	0.74988
12870.698	-2.40305	1.81204	1.38347	0.65205
12874.693	-2.46127	1.79951	1.36323	0.62694
12878.655	-2.55876	1.69136	1.34447	0.36376
12882.697	-2.62546	1.75241	1.44651	0.39164
12886.699	-2.68841	1.83110	1.34676	0.22137
12890.697	-2.75272	1.76792	1.34070	0.17109
12894.680	-2.82793	1.71651	1.34085	0.27667
12898.693	-2.71874	1.71786	1.27395	0.06054
12902.593	-2.73090	1.29124	1.23625	0.25864
12906.694	-2.72805	1.71120	0.94199	-0.11846
12910.699	-2.66531	1.84879	1.12258	0.03950
12914.696	-2.22361	1.58544	1.04751	-0.29655
12918.595	-1.87354	1.10158	1.09353	-0.72289
12922.573	-1.62577	0.99292	1.15188	-0.58806
12926.572	-1.77591	0.73169	1.67338	-0.88247
12930.571	-1.59013	0.68643	2.03209	-0.91869
12934.570	-1.49242	0.31577	0.97393	-1.18722
12938.573	-1.46581	0.17048	1.82276	-1.13717
12942.546	-1.61595	1.47649	0.63635	-1.40900
12946.572	-1.63154	1.58535	1.19048	-1.01735
12950.564	-2.29939	1.71087	0.75667	-1.23254
12954.572	-1.91137	1.83468	1.37439	-1.19724
12958.574	-2.84160	1.82387	0.65211	-1.28877
12962.572	-2.66394	2.17867	0.51920	-1.15613
12966.699	-2.59217	2.16330	0.24852	-0.99838
12970.570	-2.72971	2.15476	0.41820	-0.89673
12974.535	-2.71765	2.46229	0.41276	-0.65259
