time (ms)	lx (deg)	ly (deg)	rx (deg)	ry (deg)
0.000	1.33567	-1.09922	-0.68838	-0.23356
3.897	1.46462	-1.12756	-0.91066	-0.17705
7.996	1.39247	-0.97912	-0.74771	-0.21587
11.994	1.31893	-1.00406	-0.68233	-0.13447
15.997	1.35214	-0.91856	-0.66739	-0.11661
20.001	1.27428	-0.93814	-0.70481	-0.10563
23.997	1.20097	-0.98530	-0.70950	-0.11917
27.996	1.24793	-0.89856	-0.72171	-0.12222
31.997	1.07567	-0.90038	-0.87369	-0.13700
35.898	0.98045	-0.85947	-0.93408	-0.21837
39.997	1.12630	-0.86295	-0.92517	-0.25194
43.998	1.18731	-0.83872	-0.82458	-0.31629
48.000	1.11435	-0.78668	-0.75506	-0.35459
52.003	1.06508	-0.79645	-0.68297	-0.28246
55.977	0.83669	-0.76463	-0.64312	-0.26343
59.998	0.93150	-0.63034	-0.65915	-0.20464
63.994	1.08996	-0.80022	-0.59392	-0.12598
67.909	1.12643	-0.90312	-0.52401	-0.04908
71.993	1.06719	-0.99722	-0.44713	0.09229
75.998	1.00020	-0.98693	-0.45879	0.18688
79.999	1.06629	-1.00048	-0.41606	0.32328
83.957	1.04498	-1.20128	-0.41718	-0.11077
87.857	0.73444	-1.22535	-0.39546	-0.04525
91.998	0.88738	-1.28475	-0.43730	0.05998
95.987	0.76863	-1.26661	-0.50088	-0.02967
99.898	0.85146	-1.17949	-0.35496	0.03655
103.998	1.03372	-1.19128	-0.27944	0.10307
107.962	1.09041	-1.05009	-0.20204	0.03635
111.998	1.32977	-0.87543	-0.01596	-0.01511
115.897	1.21124	-0.86916	-0.29855	0.07278
119.999	1.23791	-0.89481	-0.21924	0.02932
124.001	0.93485	-0.99336	-0.24128	-0.09092
127.997	1.05198	-0.87549	-0.20033	-0.11346
131.899	1.18733	-0.76678	-0.23855	-0.11982
136.000	1.19614	-0.55740	-0.15806	-0.11607
139.999	1.25155	-0.37396	-0.13784	-0.26111
144.001	1.23268	-0.17038	-0.27473	-0.27177
148.002	1.34810	-0.25096	-0.34516	-0.35563
151.999	1.21849	-0.12136	-0.41011	-0.35262
155.999	1.18651	-0.26993	-0.46281	-0.44100
160.002	1.18185	-0.18732	-0.47577	-0.39670
164.001	1.12747	-0.13669	-0.50277	-0.47136
168.000	1.18083	-0.16958	-0.52600	-0.48875
172.001	1.23325	-0.00601	-0.58116	-0.59032
176.002	1.22395	0.02248	-0.58223	-0.60050
180.000	1.26329	0.24532	-0.52902	-0.62264
183.998	1.26981	0.21166	-0.50091	-0.61996
188.002	1.25041	0.15445	-0.42800	-0.52059
191.998	1.19289	0.19910	-0.33181	-0.53918
196.001	1.13288	0.01083	-0.33908	-0.51908
199.961	1.06344	0.00847	-0.27478	-0.55521
204.000	0.93234	-0.10463	-0.24401	-0.46727
208.000	0.98293	-0.07734	-0.26021	-0.46536
211.899	0.92135	-0.16639	-0.34345	-0.36296
216.002	0.87654	-0.20250	-0.24515	-0.29550
220.000	0.86989	-0.32369	-0.26669	-0.22433
223.995	0.88086	-0.33602	-0.27324	-0.22451
228.004	0.95261	-0.34267	-0.35648	-0.19392
232.003	0.93192	-0.39492	-0.20822	-0.11517
236.002	1.05788	-0.40993	-0.26885	-0.13008
240.000	1.26954	-0.34507	-0.23338	-0.11669
244.002	1.33669	-0.28658	-0.17330	-0.10566
247.964	1.24213	0.19206	-0.17348	-0.18716
252.002	1.00343	-0.23181	-0.23597	-0.18552
256.003	0.94346	-0.17412	-0.10562	-0.09490
260.003	0.97139	-0.46127	-0.10538	-0.17402
263.963	1.07703	-0.45189	-0.28473	-0.17717
268.000	0.91599	-0.56391	-0.36869	-0.17615
272.001	0.81091	-0.57381	-0.27930	-0.21554
276.004	0.79297	-0.49638	-0.31883	-0.20199
280.013	0.63801	-0.58283	-0.34553	-0.24312
284.002	0.59550	-0.66599	-0.45048	-0.36189
288.006	0.58694	-0.65598	-0.47277	-0.34618
292.002	0.65784	-0.63918	-0.62436	-0.44807
295.964	0.57784	-0.55178	-0.69263	-0.43440
300.003	0.62672	-0.50223	-0.93547	-0.53077
303.988	0.72139	-0.53867	-0.76739	-0.55472
307.901	0.71898	-0.54543	-0.72600	-0.59268
311.964	0.81741	-0.49670	-0.76017	-0.61395
316.003	0.48418	-0.52955	-0.71506	-0.58796
320.000	0.35871	-0.54377	-0.67580	-0.51736
324.000	0.51195	-0.53596	-0.76087	-0.50761
328.003	0.57833	-0.59874	-0.73305	-0.28204
332.005	0.58176	-0.59136	-0.52061	-0.30796
336.005	0.26393	-0.65193	-0.52731	-0.24778
339.877	0.49247	-0.67800	-0.51676	-0.19217
343.878	0.47495	-0.71758	-0.54562	-0.13840
347.881	0.51140	-0.74364	-0.54379	-0.31713
351.880	0.38673	-0.78981	-0.48021	-0.28839
355.909	0.48373	-0.80473	-0.43112	-0.22209
359.877	0.58253	-0.82089	-0.36777	-0.42287
363.880	0.61655	-0.85047	-0.40393	-0.50332
367.878	0.69345	-0.89980	-0.32335	-0.67131
371.872	0.71302	-0.90431	-0.32374	-0.66805
375.881	0.66789	-0.98766	-0.34040	-0.70659
379.877	0.75819	-0.97016	-0.39422	-0.81249
383.879	0.79930	-0.96384	-0.45177	-0.87529
387.907	0.81463	-1.01826	-0.43212	-0.86784
391.871	0.82449	-1.06232	-0.45740	-0.86888
395.870	0.84034	-1.07362	-0.45644	-0.90272
399.876	0.82300	-1.06513	-0.54290	-0.88176
403.879	0.88061	-1.13207	-0.58275	-0.85346
407.878	0.85711	-1.14315	-0.62151	-0.93414
411.878	0.86495	-1.08873	-0.65002	-0.88786
415.877	0.85806	-0.95570	-0.68273	-0.88942
419.900	0.86294	-0.91596	-0.63015	-0.81776
423.879	0.69342	-0.79236	-0.60099	-0.74969
427.878	0.63610	-0.84588	-0.47823	-0.67410
431.844	0.43361	-0.66350	-0.35973	-0.59478
435.839	0.56178	-0.66547	-0.17025	-0.50149
439.877	0.45433	-0.53042	-0.17479	-0.38838
443.878	0.56503	-0.38064	-0.10888	-0.41549
447.840	0.57329	-0.29323	-0.32484	-0.62862
451.879	0.53423	-0.17294	-0.21862	-0.59558
455.879	0.53183	-0.35910	-0.30915	-0.49361
459.878	0.44338	-0.26555	-0.15072	-0.46405
463.880	0.42668	-0.29030	-0.39546	-0.54253
467.870	0.52647	-0.26950	-0.44060	-0.58921
471.880	0.55575	-0.19441	-0.55076	-0.59181
475.864	0.57950	-0.21339	-0.62471	-0.66845
479.879	0.72925	-0.09909	-0.67238	-0.69286
483.875	0.69300	-0.09820	-0.72069	-0.74008
487.881	0.77484	-0.03948	-0.74012	-0.76656
491.883	0.71987	-0.00760	-0.72414	-0.74329
495.891	0.62414	-0.05730	-0.73610	-0.74597
499.870	0.64580	-0.00663	-0.73374	-0.74033
503.879	0.64310	-0.00616	-0.81101	-0.76426
507.880	0.62853	0.02922	-0.78717	-0.72792
511.877	0.66084	0.03978	-0.65677	-0.77445
515.878	0.61069	0.03031	-0.69446	-0.83980
519.847	0.72682	0.00092	-0.68245	-0.86813
523.880	0.59282	-0.06552	-0.64873	-0.94912
527.882	0.59315	-0.12908	-0.66332	-0.98026
531.907	0.60081	-0.20584	-0.69977	-0.99747
535.882	0.62647	-0.16196	-0.67059	-0.93649
539.877	0.63069	-0.13408	-0.69310	-0.84569
543.880	0.36328	-0.13950	-0.74556	-0.80556
547.907	0.40281	-0.09040	-0.74975	-0.79051
551.879	0.52915	-0.02631	-0.75501	-0.88289
555.882	0.42867	-0.05139	-0.79709	-0.76705
559.861	0.52905	0.04821	-0.91406	-0.66733
563.849	0.40924	0.08347	-0.87602	-0.62103
567.844	0.32037	0.11423	-0.93929	-0.55847
571.881	0.31607	-0.04555	-0.86208	-0.52924
575.880	0.38224	-0.39447	-0.91257	-0.49981
579.877	0.36908	-0.66897	-0.85505	-0.53413
583.840	0.39730	-0.61644	-0.87173	-0.79945
587.884	0.37266	-0.77267	-0.83836	-0.79740
591.885	0.41442	-0.90203	-0.83128	-0.77395
595.907	0.35340	-0.85374	-0.78151	-0.98384
599.878	0.32354	-0.80870	-0.72754	-0.96169
603.873	0.32176	-0.88730	-0.68159	-0.85831
607.882	0.31148	-0.69757	-0.58980	-0.89683
611.872	0.37097	-0.88255	-0.50108	-0.82058
615.881	0.49895	-0.84073	-0.53788	-0.80088
619.883	0.60945	-0.91005	-0.41862	-0.81858
623.879	0.65049	-0.86960	-0.43696	-0.65316
627.872	0.59553	-0.80454	-0.31476	-0.55409
631.883	0.51964	-0.79549	-0.28674	-0.56800
635.881	0.59875	-0.85174	-0.19427	-0.44317
639.885	0.58248	-0.82651	-0.59719	-0.49965
643.880	0.62258	-0.91837	-0.99286	-0.51752
647.881	0.57372	-0.87031	-0.91212	-0.52451
651.881	0.41514	-0.99270	-0.76722	-0.58980
655.882	0.49346	-1.01529	-0.67297	-0.64464
659.909	0.42904	-1.05810	-0.67685	-0.77912
663.884	0.51565	-0.97828	-0.78295	-0.67198
667.846	0.61657	-0.95585	-0.87498	-0.67944
671.882	0.56917	-0.88402	-1.31079	-0.46050
675.873	0.53419	-0.90303	-1.15927	-0.50104
679.885	0.43954	-0.87062	-1.00854	-0.58134
683.868	0.59965	-0.79252	-0.92535	-0.64557
687.883	0.54694	-0.75193	-0.78883	-0.69968
691.885	0.50825	-0.80366	-0.73690	-0.81813
695.884	0.62037	-0.73004	-0.56314	-0.81290
699.884	0.63379	-0.71212	-0.87287	-0.57783
703.894	0.63652	-0.61943	-0.89302	-0.52421
707.905	0.56793	-0.56810	-0.99660	-0.52236
711.884	0.55620	-0.55792	-0.86902	-0.42071
715.880	0.54285	-0.56808	-0.83602	-0.77308
719.885	0.54339	-0.51310	-0.68010	-0.84060
723.905	0.57883	-0.44810	-0.63881	-0.83698
727.849	0.56307	-0.47215	-0.65047	-0.78180
731.881	0.45383	-0.48103	-0.71757	-0.77586
735.882	0.57434	-0.45687	-0.81692	-0.71525
739.874	0.53270	-0.47976	-0.84185	-0.62986
743.882	0.59109	-0.43866	-0.83064	-0.51043
747.881	0.70238	-0.48153	-0.82039	-0.63687
751.884	0.68811	-0.49162	-0.81590	-0.67592
755.882	0.60295	-0.65392	-0.79044	-0.63121
759.884	0.63965	-0.60618	-0.92148	-0.60167
763.883	0.59451	-0.61610	-0.87136	-0.55791
767.866	0.68744	-0.64151	-0.89996	-0.47833
771.879	0.67511	-0.64837	-0.92683	-0.44282
775.886	0.74707	-0.66264	-0.91361	-0.41480
779.885	0.62047	-0.73317	-0.87359	-0.41502
783.882	0.62590	-0.76723	-0.78672	-0.56137
787.877	0.56793	-0.76781	-0.76960	-0.60016
791.889	0.47832	-0.81226	-0.74831	-0.61432
795.884	0.52766	-0.82483	-0.67223	-0.64054
799.885	0.44495	-0.76762	-0.52518	-0.60538
803.886	0.56992	-0.76440	-0.57327	-0.59832
807.888	0.58434	-0.85455	-0.37479	-0.64067
811.847	0.49450	-0.74377	-0.56774	-0.70706
815.886	0.31086	-0.80999	-0.48659	-0.70749
819.889	0.46167	-0.82424	-0.51642	-0.76582
823.845	0.58927	-0.85284	-0.39487	-0.77160
827.881	0.58903	-0.64887	-0.38554	-0.71260
831.887	0.67444	-0.65316	-0.40105	-0.66385
835.883	0.67089	-0.59791	-0.45520	-0.67152
839.880	0.69667	-0.52973	-0.47284	-0.69664
843.884	0.70734	-0.60680	-0.55153	-0.70190
847.883	0.70987	-0.75842	-0.64618	-0.55960
851.883	0.57880	-0.70236	-0.74980	-0.56980
855.884	0.63694	-0.76760	-0.69466	-0.60546
859.884	0.64603	-1.01827	-0.59255	-0.67782
863.883	0.64129	-0.97671	-0.54672	-0.64550
867.887	0.55297	-0.94290	-0.52235	-0.70737
871.884	0.54726	-1.18911	-0.46177	-0.78166
875.884	0.45631	-1.15892	-0.57910	-0.55198
879.884	0.38933	-1.19673	-0.48890	-0.53454
883.890	0.59930	-1.21634	-0.51540	-0.59181
887.847	0.69317	-1.17462	-0.49336	-0.49534
891.890	0.69156	-1.27620	-0.50381	-0.66252
895.850	0.76754	-1.20162	-0.76615	-0.71024
899.888	0.58295	-1.26174	-0.62379	-0.69595
903.886	0.69181	-1.19568	-0.68146	-0.54454
907.886	0.67667	-1.24848	-0.64680	-0.46486
911.886	0.69521	-1.19131	-0.71970	-0.48535
915.892	0.62042	-1.10079	-0.71796	-0.27496
919.885	0.70965	-1.14685	-0.82339	-0.36079
923.887	0.67156	-1.11812	-0.77488	-0.32830
927.885	0.69379	-1.11975	-0.74481	-0.12915
931.884	0.63342	-1.14018	-0.72022	-0.09822
935.850	0.55518	-1.11635	-0.54525	-0.01849
939.885	0.56354	-1.14628	-0.49249	0.00745
943.885	0.57615	-1.18043	-0.31794	0.02328
947.880	0.64248	-1.11591	-0.23187	-0.01034
951.848	0.54801	-1.04350	-0.19110	-0.03911
955.885	0.64124	-1.09594	-0.24152	-0.14263
959.849	0.71139	-1.07946	-0.14608	-0.23460
963.878	0.69975	-1.15194	-0.08336	-0.28365
967.884	0.69439	-1.09767	-0.03554	-0.34212
971.888	0.65791	-0.87752	-0.24810	-0.32522
975.864	0.65340	-0.93187	-0.36973	-0.40426
979.790	0.81431	-0.97191	-0.55458	-0.48768
983.885	0.87838	-0.87273	-0.28515	-0.48086
987.887	0.86309	-0.84851	-0.56295	-0.32625
991.894	0.84270	-0.91308	-0.56175	-0.30933
995.888	0.83550	-0.89455	-0.82622	-0.20610
999.888	0.68307	-0.81173	-0.81605	-0.13236
1003.889	0.68494	-0.82796	-0.74464	-0.02057
1007.887	0.68923	-0.74771	-0.78436	-0.03456
1011.891	0.61558	-0.77016	-0.71940	-0.04681
1015.851	0.43480	-0.90572	-0.34511	0.02097
1019.888	0.51751	-0.90822	-0.17429	0.05989
1023.887	0.57605	-0.90727	-0.38057	-0.04485
1027.886	0.54101	-0.91843	-0.57853	-0.02187
1031.885	0.55677	-0.79404	-0.47659	-0.12842
1035.888	0.44534	-0.80459	-0.48550	-0.39252
1039.887	0.64543	-0.79413	-0.63389	-0.17073
1043.888	0.51518	-0.78687	-0.55637	-0.16094
1047.888	0.53535	-0.82895	-0.54059	-0.20415
1051.888	0.43249	-0.79316	-0.35002	-0.37489
1055.900	0.22398	-0.81454	-0.23750	-0.58589
1059.891	0.51411	-0.87834	-0.07162	-0.55862
1063.887	0.36970	-0.93182	-0.59079	-0.67384
1067.887	0.58312	-0.92804	-0.47991	-0.71689
1071.888	0.54012	-0.91354	-0.39070	-0.66683
1075.856	0.61501	-0.90627	-0.56228	-0.48062
1079.887	0.72752	-0.95295	-0.66575	-0.43708
1083.891	0.53384	-0.91932	-0.57640	-0.55938
1087.891	0.68913	-0.93788	-0.67878	-0.59142
1091.778	0.64114	-0.87832	-0.56813	-0.69141
1095.893	0.72293	-0.92076	-0.76188	-0.49094
1099.874	0.75734	-0.85604	-0.94755	-0.52845
1103.889	0.76000	-0.75888	-0.81672	-0.44132
1107.795	0.78816	-0.66229	-0.88255	-0.22707
1111.890	0.76558	-0.69906	-0.93142	-0.10433
1115.889	0.74799	-0.58451	-1.01342	-0.01533
1119.890	0.74017	-0.59263	-0.93855	0.10930
1123.799	0.74173	-0.58262	-0.93123	0.21479
1127.891	0.75397	-0.58364	-0.86716	0.11688
1131.889	0.65953	-0.63632	-0.79230	0.20036
1135.887	0.70876	-0.67822	-0.94755	0.25126
1139.786	0.69365	-0.66123	-0.80719	0.36378
1143.856	0.73928	-0.60476	-0.68044	0.31916
1147.890	0.73680	-0.66267	-0.60183	0.35442
1151.891	0.67714	-0.68409	-0.52590	0.39888
1155.890	0.70590	-0.56866	-0.64211	0.29129
1159.891	0.81935	-0.54219	-0.47932	0.31199
1163.890	2.10981	0.19166	0.19410	0.57732
1167.890	3.39554	1.78802	1.22945	2.09692
1171.892	3.47337	2.49514	1.55903	3.14235
1175.891	2.84715	2.54614	1.62797	3.03122
1179.856	3.07810	2.78857	1.62520	3.04420
1183.872	3.29859	2.50522	1.34849	3.09948
1187.780	3.22693	2.12644	0.88595	2.84104
1191.889	2.94839	1.81128	1.00801	2.67943
1195.892	2.86096	1.92425	1.26130	2.61655
1199.889	2.81714	2.44875	1.20643	2.59545
1203.893	2.98817	2.55513	1.50202	2.69828
1207.890	2.93379	2.43661	1.55732	2.64430
1211.891	2.85351	2.56532	1.50247	2.65265
1215.890	2.86143	2.50063	1.50219	2.70780
1219.895	2.92470	2.26197	1.31439	2.65772
1223.888	2.99195	2.24952	1.38309	2.52836
1227.887	3.03130	2.20476	1.40145	2.49092
1231.891	2.91428	2.36922	1.45956	2.47301
1235.793	2.93052	2.30437	1.44225	2.48272
1239.892	2.99700	2.38339	1.45301	2.49280
1243.892	3.01757	2.36665	1.50331	2.49570
1247.892	2.99901	2.40072	1.47675	2.43436
1251.792	3.02960	2.47224	1.40986	2.43356
1255.891	3.02514	2.44352	1.39619	2.44206
1259.893	3.02418	2.51181	1.40480	2.35325
1263.889	3.02294	2.60195	1.42189	2.31337
1267.779	2.99161	2.63613	1.46683	2.38706
1271.893	2.94700	2.65149	1.46573	2.39083
1275.894	2.94983	2.64336	1.24724	2.45205
1279.893	3.01386	2.65232	1.11167	2.49368
1283.790	3.03061	2.71863	1.22851	2.47151
1287.891	3.05538	2.75687	1.32691	2.54585
1291.895	3.04417	2.77854	1.53662	2.53887
1295.895	3.12472	2.71681	1.50465	2.56154
1299.790	3.12249	2.62912	1.45877	2.67872
1303.892	3.40895	2.51220	1.37607	2.69810
1307.877	3.31848	2.43433	1.62066	2.68053
1311.851	3.34603	2.54982	1.62703	2.64713
1315.791	3.34559	2.50642	1.57424	2.55266
1319.891	3.35068	2.53099	1.67469	2.64620
1323.853	3.33240	2.59679	1.71523	2.69061
1327.890	3.30646	2.55658	1.64248	2.66315
1331.795	3.40976	2.62879	1.57664	2.69989
1335.893	3.40578	2.47997	1.49741	2.73962
1339.892	3.43284	2.49475	1.48434	2.72442
1343.894	3.42312	2.48344	1.55943	2.77456
1347.787	3.41891	2.52012	1.56380	2.77334
1351.857	3.35639	2.50498	1.47985	2.81290
1355.894	3.30571	2.46145	1.69443	2.89512
1359.891	3.27895	2.48343	1.63588	2.84097
1363.791	3.27252	2.49548	1.60223	2.74400
1367.891	3.24939	2.53598	1.54730	2.79302
1371.856	3.18009	2.55554	1.73170	2.66657
1375.768	3.09948	2.56514	1.58708	2.74613
1379.728	3.04642	2.61698	1.90076	2.70468
1383.767	2.98599	2.47925	1.83060	2.77549
1387.732	3.01007	2.50966	1.78649	2.58926
1391.765	2.90047	2.49135	1.52603	2.62736
1395.759	2.53266	2.54818	0.07604	2.50903
1399.760	-0.73263	2.49337	-1.22578	2.46000
1403.768	-1.23151	2.53726	-3.69798	2.42406
1407.767	-2.69695	2.23862	-4.41980	2.26234
1411.896	-3.09634	2.17472	-4.34796	1.88111
1415.768	-3.15137	1.89447	-5.44692	2.07603
1419.769	-2.97559	2.05834	-4.83851	1.87589
1423.769	-2.99537	1.80538	-5.19057	1.85470
1427.761	-2.79055	1.66969	-4.90491	1.75748
1431.767	-2.88856	1.47458	-4.85260	1.58531
1435.772	-3.08206	1.69018	-4.81569	1.50745
1439.741	-3.36015	1.35738	-5.20757	1.40424
1443.792	-3.61980	1.38067	-5.23824	1.33539
1447.770	-3.73060	1.53372	-5.34747	1.25489
1451.732	-3.77402	1.33721	-5.53102	1.06866
1455.769	-3.68162	1.44804	-5.20086	0.96469
1459.792	-3.96852	1.45808	-5.25032	0.96377
1463.768	-3.89589	1.42610	-5.26866	0.91224
1467.768	-3.91650	1.33300	-5.21181	0.77956
1471.768	-3.95962	1.20570	-5.08712	0.79993
1475.795	-3.97938	1.25389	-5.14032	0.82065
1479.752	-4.01774	1.11986	-5.18500	0.84479
1483.765	-4.08604	1.23296	-5.07343	0.96558
1487.773	-4.07243	1.13849	-5.00450	1.07644
1491.795	-4.13332	1.25239	-5.02437	1.68732
1495.769	-4.15147	1.25243	-4.95977	1.47323
1499.767	-4.16275	1.17899	-4.89506	1.46739
1503.770	-4.19440	1.15186	-4.84731	1.38658
1507.796	-4.10740	1.15687	-5.00319	1.15650
1511.734	-4.27856	1.14641	-4.91600	1.07599
1515.733	-4.38349	1.22404	-4.93898	1.16987
1519.765	-4.40184	1.24516	-4.87897	1.05791
1523.791	-4.38156	1.29170	-4.91607	1.06206
1527.771	-4.41694	1.27696	-5.05528	1.07487
1531.771	-4.38590	1.32934	-5.13515	1.24534
1535.771	-4.29922	1.32213	-5.04065	1.14161
1539.793	-4.30677	1.23811	-5.08426	1.18809
1543.772	-4.31185	1.18272	-5.07129	1.17597
1547.774	-4.29150	1.15925	-5.04511	1.17495
1551.775	-4.37362	1.17626	-4.96039	1.21324
1555.770	-4.28831	1.23272	-4.92932	1.23614
1559.772	-4.26232	1.21473	-4.85699	1.14881
1563.749	-4.25354	1.20412	-4.91427	1.16957
1567.771	-4.22056	1.13855	-4.89486	1.11001
1571.766	-4.22950	1.02944	-4.89651	1.16762
1575.768	-4.25285	1.06198	-4.83528	1.09922
1579.771	-4.29221	1.30632	-4.85371	1.07857
1583.772	-4.35395	1.45402	-4.79373	1.16357
1587.760	-4.32960	1.64695	-4.68166	1.13615
1591.772	-4.31501	1.68627	-4.51494	1.57810
1595.775	-4.58274	1.90901	-3.39861	1.51110
1599.772	-1.73901	2.76616	0.79248	2.19965
1603.787	-2.10528	14.45010	0.82622	15.01722
1607.763	NaN	NaN	NaN	NaN
1611.771	NaN	NaN	NaN	NaN
1615.774	NaN	NaN	NaN	NaN
1619.798	NaN	NaN	NaN	NaN
1623.774	NaN	NaN	NaN	NaN
1627.774	NaN	NaN	NaN	NaN
1631.773	NaN	NaN	NaN	NaN
1635.772	NaN	NaN	NaN	NaN
1639.736	NaN	NaN	NaN	NaN
1643.773	NaN	NaN	NaN	NaN
1647.737	NaN	NaN	NaN	NaN
1651.734	NaN	NaN	NaN	NaN
1655.771	NaN	NaN	NaN	NaN
1659.771	NaN	NaN	NaN	NaN
1663.771	NaN	NaN	NaN	NaN
1667.770	NaN	NaN	NaN	NaN
1671.773	NaN	NaN	NaN	NaN
1675.773	NaN	NaN	NaN	NaN
1679.772	NaN	NaN	NaN	NaN
1683.775	NaN	NaN	NaN	NaN
1687.771	NaN	NaN	NaN	NaN
1691.770	NaN	NaN	NaN	NaN
1695.778	-5.51204	14.78109	-2.23546	12.73992
1699.771	NaN	NaN	NaN	NaN
1703.771	NaN	NaN	-2.05700	12.32289
1707.735	NaN	NaN	-1.78882	12.58619
1711.768	-6.96553	14.24218	NaN	NaN
1715.735	-8.67054	4.71544	NaN	NaN
1719.771	-6.30536	4.37854	-0.69265	3.95136
1723.773	-3.15795	3.84927	-0.32131	1.47256
1727.802	-2.34515	2.33954	-0.41110	3.28269
1731.766	-0.86024	1.51195	-0.51855	2.23952
1735.774	-1.44091	1.58780	-1.04637	2.46462
1739.773	-1.99669	1.86423	-1.66090	2.17798
1743.778	-2.42802	1.94312	-3.84928	2.31808
1747.773	-2.85735	2.67406	-4.79792	2.40694
1751.770	-2.63851	2.78939	-4.22022	2.27657
1755.769	-2.78037	2.72325	-4.09772	2.38271
1759.800	-2.80189	2.73006	-4.03438	2.47783
1763.776	-3.07221	2.69065	-4.02939	2.29924
1767.776	-3.14946	2.83898	-3.92944	2.37921
1771.755	-3.23304	2.96127	-3.87102	2.30025
1775.800	-3.39352	3.13005	-3.75168	2.33159
1779.776	-3.35921	3.15029	-3.76193	2.38537
1783.775	-3.29792	3.25636	-3.76994	2.45537
1787.776	-3.28664	3.26003	-3.84695	2.48599
1791.767	-3.21824	3.22078	-3.80441	2.44609
1795.737	-3.31967	3.36772	-3.89550	2.49131
1799.776	-3.34002	3.22897	-4.13663	2.51739
1803.775	-3.40952	3.21326	-4.05073	2.52350
1807.798	-3.50061	3.10312	-3.95661	2.54994
1811.738	-3.48929	2.85705	-4.11646	2.55820
1815.777	-3.36493	3.20906	-4.10192	2.51961
1819.775	-3.34183	3.08980	-4.06268	2.55676
1823.798	-3.37363	3.04070	-4.04959	2.59992
1827.736	-3.48971	2.97842	-4.09224	2.51417
1831.773	-3.50655	2.84451	-4.06979	2.47379
1835.775	-3.48293	2.86687	-4.10103	2.42805
1839.801	-3.41187	2.78077	-4.12357	2.41714
1843.775	-3.46162	2.74727	-4.05601	2.42700
1847.776	-3.43004	2.64027	-4.05125	2.40261
1851.776	-3.43590	2.43139	-4.04256	2.40598
1855.777	-3.38780	2.52267	-4.04969	2.40061
1859.738	-3.43365	2.55045	-4.06809	2.47248
1863.776	-3.48392	2.53307	-4.06789	2.39947
1867.774	-3.37588	2.50510	-4.09540	2.33330
1871.778	-3.31252	2.44542	-4.09004	2.32225
1875.777	-3.31076	2.41781	-4.13056	2.32953
1879.779	-3.38709	2.36262	-4.12851	2.32422
1883.777	-3.41963	2.84915	-4.18154	2.30244
1887.780	-3.41805	2.43044	-4.16073	2.26642
1891.780	-3.42950	2.43722	-4.19129	2.28398
1895.761	-3.37710	2.48574	-4.22212	2.23804
1899.772	-3.35991	2.54275	-4.18104	2.20962
1903.781	-3.35704	2.53298	-4.15557	2.14253
1907.777	-3.34121	2.50710	-4.13135	2.14005
1911.740	-3.38904	2.46397	-4.11359	2.11346
1915.774	-3.45942	2.44812	-4.15265	2.11051
1919.778	-3.46288	2.38163	-4.10757	2.05395
1923.775	-3.36443	2.34765	-4.16914	2.00864
1927.778	-3.30609	2.32673	-4.10727	1.93074
1931.776	-3.18670	2.29515	-4.08816	1.95988
1935.777	-3.20654	2.17808	-4.06685	1.96040
1939.771	-3.12860	2.16549	-4.07964	1.95616
1943.776	-3.19016	2.13630	-4.10841	1.95646
1947.777	-3.16579	2.09326	-4.10436	2.02049
1951.741	-3.17037	2.14776	-4.06199	2.01322
1955.776	-3.16587	2.26701	-4.09327	2.03584
1959.778	-3.14706	2.43561	-4.08061	2.02854
1963.779	-3.21458	2.48139	-4.05453	2.03794
1967.771	-3.21604	2.34775	-4.05683	2.05903
1971.779	-3.21431	2.38812	-4.06545	2.05230
1975.781	-3.33070	2.28953	-4.08814	2.01038
1979.776	-3.34314	2.20887	-4.13665	1.95817
1983.783	-3.35135	2.35006	-4.09518	1.94741
1987.777	-3.38874	2.64447	-4.05940	1.96794
1991.776	-3.38921	2.57171	-4.10194	1.92031
1995.776	-3.42525	2.42988	-4.08542	1.86617
1999.783	-3.44124	2.28491	-4.05505	1.98717
2003.790	-3.49020	2.33773	-4.00954	1.95529
2007.776	-3.41464	2.29871	-4.02747	1.97864
2011.778	-3.37292	2.25223	-4.01956	2.03343
2015.744	-3.43393	2.46628	-3.97605	2.10565
2019.777	-3.42858	2.28434	-3.97247	2.13940
2023.769	-3.35192	2.31355	-3.97918	2.18008
2027.777	-3.27843	2.33621	-3.99193	2.18678
2031.782	-3.29696	2.36078	-3.95804	2.16588
2035.778	-3.27101	2.25511	-3.99351	2.20116
2039.779	-3.29087	2.26507	-3.97793	2.23459
2043.774	-3.26084	2.26227	-4.00065	2.18173
2047.779	-3.26119	2.26776	-4.04014	2.15502
2051.778	-3.28998	2.26678	-4.09172	2.19059
2055.781	-3.33626	2.31572	-4.12006	2.12872
2059.778	-3.32850	2.20643	-4.18324	2.16601
2063.780	-3.33270	2.18987	-4.20015	2.15500
2067.777	-3.29693	2.15242	-4.24742	2.13327
2071.778	-3.30571	2.15077	-4.28323	2.15208
2075.778	-3.14833	2.06014	-4.33614	2.09024
2079.782	-3.18220	2.10559	-4.38149	2.01385
2083.778	-3.08085	2.05519	-4.31701	2.01298
2087.773	-3.16040	2.05794	-4.25243	2.09111
2091.776	-3.09352	2.05921	-4.28254	2.13488
2095.782	-3.17955	2.12393	-4.24660	2.17935
2099.788	-3.16411	2.06132	-4.21906	2.11966
2103.781	-3.10720	2.16154	-4.13352	2.10061
2107.777	-3.08137	2.16529	-4.05083	2.05686
2111.783	-3.04709	2.25007	-4.05068	2.01352
2115.781	-3.17289	2.26065	-3.96459	1.95852
2119.781	-3.26389	2.38806	-3.96387	1.98333
2123.779	-3.22623	2.23566	-3.89668	2.08798
2127.780	-3.22413	2.22792	-3.93892	2.14172
2131.779	-3.32234	2.33846	-3.93885	2.04437
2135.778	-3.34091	2.23749	-3.94732	1.97505
2139.743	-3.34883	2.36262	-3.95056	1.87740
2143.796	-3.34173	2.33601	-3.89760	1.88314
2147.774	-3.26742	2.14783	-3.94206	1.90053
2151.779	-3.23722	2.32791	-3.97469	1.81162
2155.781	-3.27101	2.31646	-3.98840	1.81870
2159.784	-3.19187	2.35474	-3.99460	1.82188
2163.779	-3.21364	2.43352	-3.95560	2.00454
2167.781	-3.29693	2.58592	-3.97647	1.89577
2171.781	-3.34153	2.54015	-3.92292	1.92201
2175.783	-3.30228	2.49811	-3.91472	1.93905
2179.783	-3.17381	2.52519	-3.95903	2.03256
2183.784	-3.21785	2.50758	-3.98373	2.03540
2187.761	-3.18974	2.51419	-4.08315	2.08589
2191.785	-3.25347	2.54785	-3.97565	2.16098
2195.780	-3.29693	2.65736	-3.87354	2.22992
2199.784	-3.34237	2.69447	-3.83665	2.26561
2203.783	-2.76284	3.04748	-3.58660	4.58229
2207.784	-3.58057	7.04064	2.04634	10.03934
2211.781	-3.80705	15.17993	NaN	NaN
2215.781	NaN	NaN	NaN	NaN
2219.779	NaN	NaN	NaN	NaN
2223.679	NaN	NaN	NaN	NaN
2227.773	NaN	NaN	NaN	NaN
2231.772	NaN	NaN	NaN	NaN
2235.777	NaN	NaN	NaN	NaN
2239.778	NaN	NaN	NaN	NaN
2243.780	NaN	NaN	NaN	NaN
2247.779	NaN	NaN	NaN	NaN
2251.778	NaN	NaN	NaN	NaN
2255.780	NaN	NaN	NaN	NaN
2259.778	NaN	NaN	NaN	NaN
2263.745	NaN	NaN	NaN	NaN
2267.818	NaN	NaN	NaN	NaN
2271.747	NaN	NaN	NaN	NaN
2275.778	NaN	NaN	NaN	NaN
2279.777	NaN	NaN	NaN	NaN
2283.778	NaN	NaN	NaN	NaN
2287.778	NaN	NaN	NaN	NaN
2291.781	NaN	NaN	NaN	NaN
2295.780	NaN	NaN	NaN	NaN
2299.750	NaN	NaN	NaN	NaN
2303.780	NaN	NaN	NaN	NaN
2307.782	NaN	NaN	6.08804	1.90987
2311.783	NaN	NaN	NaN	NaN
2315.779	-0.27210	11.42400	NaN	NaN
2319.787	NaN	NaN	-0.04782	13.38373
2323.780	5.24016	5.42051	-0.78245	13.14432
2327.783	12.28690	6.22112	NaN	NaN
2331.783	0.49681	5.25801	-0.25813	12.58715
2335.761	12.25502	5.56091	-0.76166	4.14268
2339.682	1.68362	5.92167	-1.05954	3.05080
2343.783	0.41507	3.73027	-0.85287	2.81645
2347.784	0.30627	2.89089	-0.28361	2.49298
2351.786	3.51048	3.05315	2.86086	3.06205
2355.756	4.81199	3.25341	2.67717	3.03837
2359.787	4.92464	3.44749	3.18254	3.09145
2363.785	5.02928	3.33069	2.77453	3.06728
2367.786	4.07621	3.37355	2.81102	2.91872
2371.785	3.78207	3.52596	3.08342	2.84671
2375.781	3.28377	3.46000	3.16540	2.89504
2379.783	3.37462	3.47632	3.26799	2.91177
2383.783	3.35627	3.58660	3.34346	2.91376
2387.786	3.30985	3.66028	3.31991	3.01811
2391.786	3.31489	3.64939	3.34183	3.01950
2395.757	3.46471	3.64257	3.51233	2.99752
2399.792	3.39760	3.63952	3.56173	3.03918
2403.750	3.33703	3.54550	3.61325	3.05506
2407.782	3.50558	3.53559	3.64684	3.08329
2411.784	3.45445	3.61699	3.62336	3.09343
2415.659	3.41602	3.53204	3.64570	3.19359
2419.687	3.50788	3.56266	3.64422	3.25633
2423.658	3.49315	3.62735	3.64602	3.27874
2427.659	3.57157	3.58991	3.63819	3.30930
2431.658	3.61500	3.54688	3.63391	3.27965
2435.650	3.65393	3.55641	3.64521	3.27949
2439.662	3.70593	3.55692	3.66481	3.28463
2443.627	3.73297	3.57326	3.65645	3.25310
2447.661	3.83154	3.57459	3.66906	3.19956
2451.659	3.81825	3.55348	3.60193	3.20788
2455.664	3.80298	3.50189	3.65754	3.06448
2459.661	3.82237	3.48099	3.67823	3.03939
2463.659	3.88715	3.51809	3.66426	3.00605
2467.686	3.87109	3.54508	3.66424	2.90888
2471.627	3.84362	3.55737	3.66706	2.98413
2475.661	3.78412	3.55653	3.64884	3.06978
2479.659	3.75032	3.47475	3.58875	2.95983
2483.667	3.84723	3.49314	3.53204	2.89584
2487.661	3.81266	3.48135	3.48509	2.93465
2491.660	3.87045	3.61487	3.44807	2.95745
2495.659	3.82776	3.65476	3.43237	2.98931
2499.685	3.87124	3.69840	3.37895	2.98705
2503.662	3.85301	3.78671	3.36953	3.01190
2507.662	3.81269	3.78566	3.37143	3.01313
2511.660	3.81229	3.87181	3.34383	3.08999
2515.684	3.89745	3.81579	3.37522	2.98501
2519.660	3.91099	3.81348	3.36950	2.98280
2523.659	3.93443	3.83233	3.40376	3.00956
2527.654	3.88829	3.80578	3.42910	3.00899
2531.682	3.87791	3.76631	3.44310	2.94876
2535.662	3.85459	3.76153	3.53619	2.89140
2539.624	3.82413	3.65263	3.55078	2.83591
2543.664	3.80325	3.59384	3.60220	2.73894
2547.689	3.79559	3.52632	3.65057	2.65503
2551.661	3.83831	3.51281	3.63013	2.54539
2555.662	3.88181	3.46805	3.66629	2.47531
2559.661	3.94359	3.40288	3.67697	2.45848
2563.682	3.95407	3.37134	3.66627	2.35127
2567.637	3.96172	3.32652	3.65774	2.35354
2571.661	4.06283	3.31827	3.67512	2.32495
2575.666	4.07490	3.33495	3.67766	2.27239
2579.683	4.14463	3.25393	3.39493	2.19053
2583.663	4.17638	3.27255	3.28674	2.15537
2587.662	4.26368	3.19573	3.21255	2.16167
2591.662	4.26304	3.02659	3.51987	2.24990
2595.656	4.26173	2.84078	3.54141	2.26010
2599.661	4.28412	3.01425	3.55127	2.35867
2603.663	4.31055	2.85721	3.55790	2.33937
2607.624	4.32713	2.72312	3.58072	2.38031
2611.705	4.30087	3.00370	3.56381	2.41546
2615.662	4.27252	2.90864	3.44770	2.38684
2619.664	4.30986	2.87142	3.44337	2.45348
2623.661	4.23663	2.97269	3.46150	2.50951
2627.656	4.20600	2.89670	3.50971	2.54451
2631.662	4.24628	2.84432	3.54905	2.61984
2635.663	4.27881	2.86756	3.61443	2.63240
2639.665	4.27844	2.87787	3.56274	2.66692
2643.654	4.36720	2.90917	3.61058	2.59836
2647.665	4.39760	2.97105	3.63305	2.62586
2651.628	4.41176	2.98542	3.60106	2.59227
2655.662	4.42321	2.98058	3.60912	2.61257
2659.688	4.48794	2.97684	3.53137	2.66147
2663.663	4.47654	2.99798	3.49757	2.69124
2667.663	4.46472	3.00033	3.48219	2.67121
2671.663	4.51625	2.98507	3.44582	2.74967
2675.690	4.47203	3.04479	3.40094	2.75247
2679.664	4.38536	3.14154	3.46216	2.66233
2683.665	4.44519	3.16646	3.43724	2.74380
2687.663	4.36730	3.25919	3.35370	2.85793
2691.687	4.32276	3.31584	3.40863	2.85393
2695.661	4.24845	3.34404	3.42525	2.89248
2699.662	4.24248	3.34573	3.32429	2.85636
2703.663	4.18008	3.39013	3.37373	2.83204
2707.685	4.11308	3.44075	3.39923	2.83827
2711.666	4.07411	3.43923	3.37502	2.84475
2715.663	3.99963	3.40727	3.37351	2.86200
2719.665	3.98104	3.37098	3.41239	2.85145
2723.690	3.96676	3.36476	3.39060	2.88902
2727.668	3.92388	3.33766	3.46998	2.79409
2731.660	3.93315	3.36265	3.51923	2.81238
2735.656	3.92121	3.32888	3.58633	2.82544
2739.687	3.94186	3.28929	3.56685	2.80204
2743.665	3.94372	3.26934	3.35528	2.66803
2747.663	3.96429	3.19782	3.39950	2.74738
2751.663	3.99936	3.14252	3.42638	2.73507
2755.687	4.02542	3.18256	3.42947	2.75902
2759.667	4.03295	3.17469	3.39574	2.74907
2763.628	3.90232	3.44022	3.36614	2.84693
2767.665	3.80485	3.54681	2.61422	2.97285
2771.689	-0.59627	6.34813	1.71243	8.43457
2775.629	-4.82471	11.81823	NaN	NaN
2779.665	-4.84228	11.72647	NaN	NaN
2783.664	NaN	NaN	-7.67869	6.53318
2787.688	NaN	NaN	NaN	NaN
2791.665	NaN	NaN	NaN	NaN
2795.661	NaN	NaN	NaN	NaN
2799.663	NaN	NaN	NaN	NaN
2803.665	NaN	NaN	NaN	NaN
2807.660	NaN	NaN	NaN	NaN
2811.627	NaN	NaN	NaN	NaN
2815.649	NaN	NaN	NaN	NaN
2819.655	NaN	NaN	NaN	NaN
2823.666	NaN	NaN	NaN	NaN
2827.664	NaN	NaN	NaN	NaN
2831.662	NaN	NaN	NaN	NaN
2835.665	NaN	NaN	NaN	NaN
2839.665	NaN	NaN	NaN	NaN
2843.664	NaN	NaN	NaN	NaN
2847.668	NaN	NaN	NaN	NaN
2851.629	NaN	NaN	NaN	NaN
2855.666	NaN	NaN	NaN	NaN
2859.632	NaN	NaN	NaN	NaN
2863.668	NaN	NaN	NaN	NaN
2867.667	NaN	NaN	NaN	NaN
2871.663	NaN	NaN	NaN	NaN
2875.663	NaN	NaN	NaN	NaN
2879.663	NaN	NaN	NaN	NaN
2883.657	NaN	NaN	NaN	NaN
2887.665	NaN	NaN	NaN	NaN
2891.668	NaN	NaN	NaN	NaN
2895.669	NaN	NaN	NaN	NaN
2899.665	NaN	NaN	NaN	NaN
2903.665	NaN	NaN	NaN	NaN
2907.665	NaN	NaN	NaN	NaN
2911.667	NaN	NaN	NaN	NaN
2915.665	NaN	NaN	NaN	NaN
2919.630	NaN	NaN	-2.93423	14.54445
2923.665	2.37377	7.21224	-6.20352	14.43489
2927.669	1.21707	-3.20200	NaN	NaN
2931.668	3.43064	-0.02654	-5.08123	2.20341
2935.668	-1.10145	4.20389	-3.07040	5.66006
2939.661	4.16569	2.59422	0.53255	3.87416
2943.668	-0.70727	5.36243	0.26912	4.14384
2947.665	1.43292	4.54649	0.24056	4.25294
2951.629	-0.78389	5.27597	-1.42749	4.28297
2955.666	-0.51451	5.28721	-2.67717	4.37979
2959.668	-2.18111	5.44833	-2.79691	4.29081
2963.669	-2.05950	5.30003	-2.89314	4.41143
2967.666	-2.31978	5.37818	-2.94874	4.43494
2971.665	-2.28113	5.36129	-2.92114	4.41401
2975.671	-2.11968	5.39370	-2.85306	4.48172
2979.666	-1.96856	5.43137	-2.84789	4.52813
2983.642	-2.23370	5.41271	-2.77163	4.59815
2987.667	-2.17482	5.42547	-2.91539	4.65397
2991.671	-2.16612	5.47147	-2.86952	4.75944
2995.666	-2.33261	5.49766	-2.99467	4.74861
2999.668	-2.37389	5.66080	-2.96530	4.80778
3003.673	-2.30786	5.64548	-3.01084	4.77188
3007.671	-2.33108	5.68199	-3.03128	4.86172
3011.669	-2.36116	5.58032	-3.06771	4.84921
3015.633	-2.40268	5.64347	-3.12017	4.88157
3019.708	-2.61365	5.65602	-3.09357	4.96750
3023.659	-2.73199	5.73316	-3.12920	4.86763
3027.667	-2.60911	5.77899	-3.18739	4.79010
3031.668	-2.63108	5.86925	-3.15518	4.81011
3035.668	-2.67452	5.85701	-3.19647	4.71407
3039.671	-2.64143	5.93036	-3.16456	4.83222
3043.666	-2.69671	5.87336	-3.17371	4.62996
3047.669	-2.72954	5.92939	-3.17035	4.52002
3051.669	-2.73479	6.02716	-3.15807	4.38539
3055.667	-2.77376	6.09804	-3.13736	4.41439
3059.670	-2.76941	6.23153	-3.13049	4.40482
3063.668	-2.70285	6.18644	-3.15184	4.34376
3067.635	-2.73358	6.32902	-3.16797	4.38535
3071.671	-2.78424	6.30752	-3.23046	4.33151
3075.667	-2.87566	6.29259	-3.29505	4.36715
3079.633	-2.98091	6.34686	-3.37400	4.36098
3083.632	-2.90507	6.22872	-3.52400	4.33889
3087.669	-2.89163	6.20934	-3.31271	4.35987
3091.664	-2.83598	6.01717	-3.21607	4.40878
3095.668	-2.76633	5.93091	-3.21711	4.44779
3099.672	-2.70624	5.73930	-3.27259	4.45669
3103.677	-2.73808	5.97340	-3.15258	4.47315
3107.649	-2.75730	6.00677	-3.20624	4.47923
3111.671	-2.77805	5.82758	-3.40509	4.45868
3115.669	-2.63004	5.82192	-3.10789	4.41212
3119.568	-2.54824	5.79237	-3.01633	4.45517
3123.669	-2.48435	5.75350	-3.01138	4.46691
3127.671	-2.51680	5.76739	-3.05486	4.50959
3131.670	-2.47212	5.79002	-3.09329	4.60088
3135.635	-2.48393	5.82204	-3.26797	4.66618
3139.672	-2.48383	5.84287	-3.36693	4.71211
3143.671	-2.49488	5.90412	-3.50000	4.76257
3147.665	-2.49510	5.88984	-3.67907	4.80784
3151.637	-2.45312	5.81259	-3.80900	4.85750
3155.670	-2.42287	5.74956	-3.84540	4.90820
3159.668	-2.40617	5.66015	-3.65119	4.95344
3163.669	-2.44782	5.62044	-3.66444	4.96708
3167.673	-2.44990	5.56270	-3.51209	4.76712
3171.671	-2.45198	5.47539	-3.54826	4.47571
3175.669	-2.44083	5.42926	-3.40205	4.45004
3179.670	-2.42842	5.44464	-3.43009	4.41919
3183.674	-2.38752	5.46788	-3.35622	4.32011
3187.673	-2.30442	5.34688	-3.34734	4.20865
3191.641	-2.22525	5.28944	-3.23549	4.15073
3195.670	-2.22039	5.30793	-3.21866	4.18597
3199.674	-2.21831	5.29144	-3.17500	4.21884
3203.634	-2.26086	5.28747	-3.15194	4.15598
3207.673	-2.25915	5.31249	-3.10327	4.17619
3211.635	-2.21896	5.28440	-3.12818	4.22103
3215.674	-2.26876	5.32779	-3.09765	4.28950
3219.671	-2.30182	5.34760	-3.09391	4.35019
3223.672	-2.34456	5.39730	-3.06823	4.37814
3227.672	-2.38521	5.35519	-3.07753	4.46939
3231.675	-2.40915	5.48169	-3.06934	4.54915
3235.671	-2.51405	5.42522	-3.08491	4.58168
3239.673	-2.61137	5.48685	-3.06095	4.62804
3243.670	-2.57949	5.55556	-3.04630	4.56180
3247.580	-2.51586	5.61529	-3.10866	4.70614
3251.669	-2.40877	5.54398	-2.81397	4.61103
3255.670	-0.90388	5.58506	-1.90792	4.43877
3259.671	2.51591	5.45383	0.50195	4.61689
3263.647	3.73806	4.16364	2.97319	4.17795
3267.674	5.78099	3.43201	4.13665	3.56675
3271.674	6.33191	3.04932	5.20819	2.80836
3275.669	6.94249	2.55371	5.88022	2.34138
3279.674	7.32758	1.62543	5.97079	2.68535
3283.673	7.43605	2.03152	6.21252	2.04283
3287.636	7.71974	1.82909	6.18164	2.11571
3291.672	7.48158	1.95525	6.08065	2.02547
3295.673	7.47253	1.93424	5.83599	1.92410
3299.672	7.76569	1.83742	6.32525	1.68981
3303.671	7.98469	1.80673	6.53607	1.46119
3307.674	8.52161	1.70757	6.63994	1.26221
3311.671	8.46621	1.51061	6.60698	1.11911
3315.653	8.57709	1.30463	6.71539	1.42347
3319.675	8.26638	1.08903	6.69221	1.32510
3323.636	8.38109	0.89662	6.73945	1.36791
3327.676	8.38308	0.87324	6.73059	1.43467
3331.676	8.22805	1.03768	6.73299	1.33041
3335.676	8.25297	0.99963	6.70856	1.29824
3339.637	8.34604	1.00500	6.73334	1.31364
3343.678	8.25173	1.21453	6.59466	1.42229
3347.675	8.20486	1.22102	6.63426	1.47521
3351.675	8.20992	1.15625	6.64102	1.54539
3355.636	8.05494	1.31537	6.65571	1.61109
3359.674	7.98634	1.39705	6.61315	1.57929
3363.673	7.97950	1.32791	6.58614	1.59107
3367.671	7.89566	1.37480	6.60742	1.58439
3371.672	7.89328	1.32893	6.58425	1.53434
3375.675	7.98571	1.33876	6.57448	1.54448
3379.672	7.93359	1.36348	6.61886	1.53194
3383.672	7.91979	1.41243	6.61251	1.46171
3387.654	7.93055	1.27344	6.65970	1.37538
3391.682	7.91831	1.34166	6.68932	1.30123
3395.670	7.89900	1.35154	6.71113	1.28768
3399.645	7.91460	1.40447	6.68805	1.19170
3403.673	7.84978	1.45146	6.70066	1.17574
3407.680	7.78523	1.50065	6.71669	1.12530
3411.677	7.80976	1.48255	6.71933	1.09061
3415.673	7.70577	1.59886	6.76826	1.02204
3419.674	7.69463	1.65727	6.80558	0.96383
3423.641	7.66068	1.67399	6.83736	0.91209
3427.675	7.62889	1.64882	6.84345	0.87103
3431.676	7.61636	1.71602	6.86777	0.85387
3435.676	7.61455	1.72016	6.87900	0.87883
3439.543	7.58464	1.73320	6.86797	0.85054
3443.671	7.54986	1.65424	6.90099	0.87803
3447.545	7.56559	1.66168	6.89722	0.83009
3451.542	7.56505	1.58017	6.92948	0.81802
3455.542	7.52842	1.55458	6.96668	0.78797
3459.513	7.61587	1.33017	6.89130	0.78195
3463.552	7.66809	1.26205	6.88871	0.77629
3467.553	7.74220	1.25629	6.88025	0.80716
3471.548	7.73294	1.15706	6.88255	0.82424
3475.549	7.83860	1.13824	6.88710	0.81168
3479.547	7.68927	1.16697	6.84497	0.75157
3483.552	7.73999	1.17387	6.86716	0.71613
3487.542	7.75185	1.20704	6.85197	0.66255
3491.512	7.80436	1.36578	6.84206	0.72019
3495.548	7.78803	1.44580	6.83487	0.67846
3499.552	7.81332	1.36321	6.86799	0.68636
3503.575	7.81052	1.34536	6.94443	0.70386
3507.556	7.79286	1.39640	6.92677	0.69501
3511.514	7.73270	1.30237	6.91104	0.75896
3515.552	7.71301	1.37651	6.88538	0.77587
3519.546	7.67348	1.38705	6.89717	0.84960
3523.552	7.67894	1.49736	6.85715	0.86252
3527.544	7.68052	1.44774	6.91160	0.71360
3531.556	7.68318	1.44126	6.98754	0.74463
3535.574	7.65078	1.45461	7.03325	0.65655
3539.553	7.66926	1.36939	6.98795	0.72313
3543.553	7.65544	1.39663	6.98944	0.77733
3547.553	7.61185	1.46865	6.97238	0.86690
3551.577	7.55318	1.53647	6.95978	0.93101
3555.549	7.59632	1.51050	6.96311	0.92901
3559.552	7.67526	1.55717	7.05320	0.88270
3563.555	7.56120	1.58562	6.97438	0.79863
3567.577	7.63718	1.57542	7.04066	0.80809
3571.524	7.63394	1.59542	6.95514	0.79245
3575.551	7.68630	1.64704	6.92863	0.81519
3579.552	7.61699	1.72660	6.91990	0.80889
3583.574	7.60285	1.78035	6.88037	0.75385
3587.552	7.56966	1.76585	6.88480	0.72745
3591.550	7.57886	1.76182	6.85703	0.74146
3595.549	7.71998	1.68190	6.88450	0.81484
3599.576	7.62482	1.80833	6.82491	0.87595
3603.553	7.57022	2.51942	6.83905	1.43812
3607.558	3.09028	4.24645	6.86126	3.48784
3611.537	13.85466	8.64282	17.35697	6.70978
3615.575	NaN	NaN	21.77344	10.66536
3619.553	NaN	NaN	NaN	NaN
3623.510	NaN	NaN	NaN	NaN
3627.554	NaN	NaN	NaN	NaN
3631.552	NaN	NaN	NaN	NaN
3635.547	NaN	NaN	NaN	NaN
3639.556	NaN	NaN	NaN	NaN
3643.552	NaN	NaN	NaN	NaN
3647.517	NaN	NaN	NaN	NaN
3651.578	NaN	NaN	NaN	NaN
3655.549	NaN	NaN	NaN	NaN
3659.555	NaN	NaN	NaN	NaN
3663.518	NaN	NaN	NaN	NaN
3667.553	NaN	NaN	NaN	NaN
3671.583	NaN	NaN	NaN	NaN
3675.555	NaN	NaN	NaN	NaN
3679.516	NaN	NaN	NaN	NaN
3683.556	NaN	NaN	NaN	NaN
3687.552	NaN	NaN	NaN	NaN
3691.555	NaN	NaN	NaN	NaN
3695.528	NaN	NaN	NaN	NaN
3699.511	NaN	NaN	NaN	NaN
3703.516	NaN	NaN	NaN	NaN
3707.558	NaN	NaN	NaN	NaN
3711.516	NaN	NaN	NaN	NaN
3715.556	NaN	NaN	NaN	NaN
3719.514	NaN	NaN	NaN	NaN
3723.554	NaN	NaN	NaN	NaN
3727.555	NaN	NaN	NaN	NaN
3731.555	NaN	NaN	NaN	NaN
3735.542	13.44890	3.95985	12.02430	1.62212
3739.555	12.85735	3.12821	0.54699	10.21936
3743.575	14.16662	4.64338	14.14394	1.69373
3747.554	14.26490	4.73936	0.37769	1.14683
3751.556	14.13311	4.45844	0.15062	-1.24733
3755.556	1.03727	1.19048	-0.03817	-1.67252
3759.578	0.04720	-1.15344	0.86954	-1.79734
3763.516	1.10527	-1.09765	2.73727	-1.55881
3767.555	4.17949	-0.67424	5.61669	-0.88773
3771.518	7.77517	-0.38216	4.99140	-1.23166
3775.579	7.34680	-0.47332	4.86320	-0.57767
3779.521	7.02399	-0.39558	4.96024	-0.74093
3783.558	6.71862	0.02344	4.93534	-0.22477
3787.554	6.55599	-0.27111	4.96544	-0.55249
3791.578	6.43986	-0.02803	4.99923	-0.23913
3795.554	6.05336	-0.15862	5.06895	-0.22472
3799.555	5.79750	-0.24601	5.07464	-0.14361
3803.559	5.60632	-0.16272	5.08419	-0.14868
3807.582	5.88132	-0.15333	5.05297	-0.10901
3811.558	5.93095	-0.13856	5.04201	-0.16646
3815.571	5.76205	-0.15670	5.11386	-0.15291
3819.556	5.82552	-0.12504	5.59664	-0.14875
3823.577	5.73851	0.02314	5.22200	-0.12121
3827.558	5.72404	0.00270	5.32124	-0.57674
3831.520	5.64444	-0.04839	5.23999	-0.33831
3835.556	5.65688	-0.12829	5.20413	-0.35712
3839.579	5.72802	-0.20774	5.10278	-0.42999
3843.555	5.75652	-0.10861	5.08022	-0.41696
3847.554	5.82754	-0.16350	5.11275	-0.43725
3851.555	5.78767	-0.00272	5.27397	-0.45936
3855.557	5.82078	-0.01248	5.25763	-0.47162
3859.556	5.85971	-0.00618	5.38171	-0.55910
3863.551	5.92697	-0.15606	5.16790	-0.67210
3867.559	5.89750	-0.24287	5.21442	-0.77357
3871.559	6.00946	-0.36357	5.18948	-0.64350
3875.556	5.99880	-0.41389	5.21951	-0.57278
3879.555	5.99630	-0.41525	5.27454	-0.63812
3883.556	6.08269	-0.37609	5.22254	-0.65423
3887.561	6.01787	-0.28419	5.25042	-0.41687
3891.558	5.80042	-0.12625	5.21562	-0.47277
3895.558	5.77740	-0.36451	5.17471	-0.50375
3899.522	5.81931	-0.41059	5.21469	-0.54007
3903.561	5.91764	-0.46073	5.18466	-0.37940
3907.558	5.76470	-0.36610	5.24250	-0.33425
3911.559	5.83822	-0.32440	5.20103	-0.35553
3915.556	5.74126	-0.25419	5.22813	-0.34065
3919.559	5.88638	-0.30166	5.19559	-0.47818
3923.558	5.67642	-0.34596	5.17174	-0.51858
3927.554	5.79880	-0.25506	5.23300	-0.42616
3931.555	5.76463	-0.31851	5.24469	-0.52018
3935.559	5.70868	-0.18819	5.23032	-0.49092
3939.559	5.72089	-0.21199	5.13557	-0.51685
3943.545	5.70679	-0.24639	5.14796	-0.47680
3947.556	5.73900	-0.23439	5.16361	-0.50438
3951.524	5.77342	-0.23519	5.12767	-0.47828
3955.557	5.65199	-0.18000	5.13156	-0.48788
3959.556	5.70055	-0.13849	5.11083	-0.48262
3963.555	5.67337	-0.06488	5.16831	-0.44286
3967.559	5.72318	-0.06540	5.29683	-0.42948
3971.559	5.80324	-0.13619	5.15862	-0.38231
3975.557	5.87607	-0.18025	5.23516	-0.36870
3979.556	5.89348	-0.23489	5.29587	-0.41748
3983.560	5.81395	-0.23231	5.27006	-0.42522
3987.526	5.92469	-0.23782	5.32764	-0.46335
3991.558	5.92864	-0.26177	5.29317	-0.48065
3995.557	5.94693	-0.27847	5.23770	-0.61742
3999.561	5.96699	-0.33814	5.23391	-0.65273
4003.559	5.99517	-0.37173	5.21592	-0.72968
4007.560	6.07467	-0.38314	5.29368	-0.74151
4011.560	6.09930	-0.39906	5.29479	-0.82253
4015.562	6.10897	-0.35596	5.34506	-0.87676
4019.562	6.00246	-0.33112	5.34181	-0.86714
4023.562	6.00919	-0.33940	5.34676	-0.87938
4027.546	6.03861	-0.30113	5.27589	-0.68604
4031.560	6.02997	-0.28475	5.36019	-0.52686
4035.521	6.09670	-0.30920	5.29339	-0.71541
4039.559	6.12553	-0.33288	5.37719	-0.70322
4043.559	6.10073	-0.41215	5.45936	-0.71601
4047.563	6.14818	-0.74799	5.42572	-0.72520
4051.557	6.05790	-0.88202	5.37670	-0.78616
4055.559	6.08917	-1.17238	5.33805	-0.80602
4059.560	6.05906	-0.81408	5.31423	-0.81548
4063.563	6.08480	-0.66447	5.36098	-0.79629
4067.559	6.09150	-0.53901	5.10620	-0.80686
4071.533	6.07575	-0.52116	5.10342	-0.85091
4075.559	6.07506	-0.62980	5.18764	-0.83079
4079.563	6.02602	-0.65938	5.16300	-0.82589
4083.559	6.02659	-0.67104	5.26332	-0.79979
4087.554	6.07972	-0.62436	5.28574	-0.83231
4091.564	5.96505	-0.49337	5.41012	-0.83605
4095.563	5.99900	-0.45303	5.36467	-0.68268
4099.556	5.96802	-0.49499	5.23790	-0.70543
4103.524	5.91295	-0.52312	5.37433	-0.69263
4107.557	5.88471	-0.68105	5.33158	-0.66211
4111.570	5.88739	-0.88064	5.31590	-0.71083
4115.561	6.02269	-0.86972	5.29149	-0.54869
4119.562	6.13500	-0.97476	5.34880	-0.60074
4123.560	6.11007	-0.92798	5.40358	-0.60867
4127.563	6.05417	-0.86115	5.23096	-0.77105
4131.562	6.09896	-0.96263	5.25571	-0.76793
4135.561	6.07535	-0.88945	5.26152	-0.79157
4139.560	6.07121	-0.92861	5.26676	-0.82066
4143.561	6.10794	-0.96407	5.39908	-0.80134
4147.559	6.07783	-0.91598	5.44881	-0.81831
4151.548	6.10811	-0.78962	5.40068	-0.66213
4155.552	6.10774	-0.77495	5.52047	-0.78360
4159.459	6.10465	-0.76497	5.43433	-0.80941
4163.562	6.04782	-0.73807	5.33918	-0.75333
4167.562	6.06777	-0.70946	5.45263	-0.64508
4171.559	6.08853	-0.58647	5.40966	-0.60951
4175.564	6.07766	-0.57831	5.51550	-0.55230
4179.559	6.06254	-0.63965	5.22918	-0.54251
4183.562	6.08058	-0.59846	5.26721	-0.64649
4187.562	6.08939	-0.51737	5.25667	-0.58675
4191.565	6.08232	-0.44896	5.08488	-0.48049
4195.561	6.08451	-0.60140	5.18572	-0.54618
4199.562	6.10453	-0.57934	5.11017	-0.57144
4203.561	6.19326	-0.56647	5.36781	-0.47891
4207.563	6.24067	-0.58003	5.37426	-0.43809
4211.527	6.31147	-0.58514	5.31475	-0.49157
4215.563	6.40334	-0.59948	5.42678	-0.55168
4219.561	6.44856	-0.65525	5.46738	-0.59889
4223.566	6.50949	-0.58326	5.53195	-0.52607
4227.564	6.61864	-0.63560	5.59024	-0.56882
4231.565	6.68296	-0.67826	5.64400	-0.49585
4235.561	6.72668	-0.70894	5.67706	-0.54470
4239.541	6.77494	-0.69587	5.78276	-0.65965
4243.561	6.78999	-0.70391	5.80646	-0.64714
4247.561	6.81571	-0.75699	5.75325	-0.68957
4251.560	6.76271	-0.79174	5.69104	-0.81481
4255.563	6.60032	-0.99419	5.66607	-0.87255
4259.563	6.48575	-1.09626	5.61514	-1.07617
4263.561	6.29183	-1.10536	5.63879	-0.98688
4267.564	6.42991	-1.22206	5.58803	-0.94823
4271.566	6.32350	-1.24056	5.61777	-0.90612
4275.563	6.26915	-1.49044	5.49645	-1.02711
4279.559	6.19866	-1.37167	5.48582	-0.94888
4283.560	6.12124	-1.41572	5.40181	-0.88874
4287.562	6.09727	-1.44561	5.32092	-0.80204
4291.562	6.07302	-1.46939	5.29373	-0.78765
4295.564	6.01756	-1.43402	5.28625	-0.65958
4299.561	6.05106	-1.36837	5.26977	-0.63731
4303.565	6.01351	-1.31084	5.25798	-0.58541
4307.525	6.06487	-1.26011	5.29575	-0.73176
4311.569	6.03108	-1.19362	5.31315	-0.72014
4315.564	5.99566	-1.15452	5.31352	-0.67506
4319.565	5.99662	-1.08112	5.35431	-0.77266
4323.527	6.02485	-1.02664	5.38462	-0.78157
4327.563	6.04139	-0.97259	5.42641	-0.76279
4331.566	6.06512	-0.89767	5.53306	-0.86657
4335.567	6.06316	-0.92433	5.59268	-0.88537
4339.563	6.09773	-0.85999	5.64041	-0.90376
4343.565	6.06051	-0.83848	5.68642	-0.92562
4347.565	6.10136	-0.82162	5.66664	-0.94681
4351.563	6.25767	-0.81167	5.53510	-0.92650
4355.559	5.92675	-0.78445	4.97157	-0.90462
4359.554	5.50110	-0.61820	4.05498	-0.79308
4363.556	4.72019	-0.00471	3.39475	0.36965
4367.564	4.00895	1.51233	2.48614	0.16844
4371.562	4.18196	1.43038	3.22883	0.73567
4375.564	4.49679	1.52489	3.18838	0.74316
4379.563	4.66908	1.10857	3.30529	0.79697
4383.566	4.59157	0.18827	3.27195	0.29078
4387.564	4.40979	0.17422	3.38135	0.33969
4391.563	4.49112	0.41865	3.17782	0.73990
4395.565	4.41368	0.89053	3.04620	0.93469
4399.563	4.34852	0.73434	2.75898	1.25040
4403.531	4.31198	0.73193	3.03613	1.06238
4407.564	4.20859	1.06177	2.99727	1.06472
4411.534	4.29621	1.29933	3.05749	1.01021
4415.565	4.25248	1.10915	2.89193	1.28476
4419.565	4.21007	1.27914	2.98507	1.06669
4423.564	4.08732	1.32817	3.03004	0.98186
4427.564	4.07819	1.36333	2.98846	1.10385
4431.464	3.98630	1.36983	2.92064	1.09652
4435.567	3.97667	1.38035	3.05531	1.00766
4439.568	3.96567	1.44877	3.13395	1.07359
4443.548	3.97306	1.43283	2.99067	1.12325
4447.530	4.00280	1.38335	3.04501	1.23528
4451.564	4.12384	1.24688	3.11002	1.13319
4455.565	4.10350	1.35915	3.11603	1.04543
4459.567	4.04107	1.29351	3.11722	0.88280
4463.533	4.07989	1.35454	3.12521	0.90470
4467.564	4.12461	1.37576	3.09320	0.91602
4471.566	3.96469	1.29435	3.07295	1.02717
4475.566	4.04819	1.30655	3.07756	1.08964
4479.462	4.11592	1.30662	3.03885	1.07956
4483.441	4.05762	1.25136	2.89755	1.22946
4487.441	4.12350	1.29149	2.96416	1.25432
4491.414	4.20550	1.25069	2.93012	1.20316
4495.462	4.18038	1.32504	2.93007	1.22945
4499.440	4.10957	1.29635	2.91762	1.28416
4503.442	3.98546	1.33133	2.95950	1.31068
4507.439	3.99482	1.36379	2.96520	1.30841
4511.436	3.96162	1.37497	2.93022	1.29350
4515.406	3.92060	1.42583	2.96386	1.28527
4519.403	3.95365	1.47758	2.94760	1.28437
4523.441	3.90624	1.58231	2.94077	1.27580
4527.439	3.76663	1.53497	2.97141	1.16231
4531.430	3.75472	1.60528	2.99141	1.19838
4535.441	3.70181	1.60771	2.94131	1.16192
4539.440	3.69242	1.66630	2.79152	1.25188
4543.464	3.63846	1.67024	2.68170	1.28588
4547.442	3.63831	1.63166	2.77931	1.33495
4551.441	3.59369	1.54974	2.74895	1.26202
4555.442	3.59159	1.37192	2.73719	1.36322
4559.466	3.61505	1.23540	2.83217	1.28964
4563.440	3.61476	1.00595	3.13843	1.34654
4567.437	3.60786	0.95781	2.98227	1.42422
4571.441	3.65863	1.04653	3.16023	1.35189
4575.465	3.67096	1.21624	2.98846	1.27986
4579.443	3.66597	1.22309	3.13843	1.31381
4583.443	3.65653	1.07628	2.96765	1.23963
4587.439	3.69343	1.04760	2.97525	1.26924
4591.466	3.71992	0.91361	3.09302	1.28973
4595.441	3.75746	0.93762	3.21651	1.24499
4599.444	3.80802	1.04367	3.18462	1.16778
4603.440	3.89313	0.97576	3.18423	1.00134
4607.435	3.87245	1.04712	3.22463	1.05321
4611.406	3.87593	1.06820	3.35860	1.01331
4615.424	3.93636	1.24265	2.98401	1.07366
4619.442	3.88354	1.18222	2.95792	1.14374
4623.466	4.00907	1.10124	2.87356	1.19054
4627.443	3.99563	1.04979	2.93411	1.27400
4631.446	4.02875	1.08823	2.95881	1.36929
4635.445	4.06636	1.18198	2.91671	1.21302
4639.435	4.09471	1.32399	2.88482	1.24937
4643.444	3.98533	1.28118	2.93718	1.39012
4647.409	3.93319	1.28295	2.82085	1.41760
4651.445	3.93710	1.28592	2.76542	1.36617
4655.467	3.99963	1.31944	2.72258	1.47254
4659.436	4.08093	1.30472	2.78476	1.49915
4663.447	4.10392	1.19825	2.83571	1.55704
4667.447	4.14238	1.18380	2.84625	1.55360
4671.434	4.14214	1.15444	2.84482	1.45887
4675.444	4.08204	1.12780	2.87591	1.42810
4679.445	4.02660	1.10384	2.91468	1.33330
4683.446	4.04740	1.10780	2.94243	1.32635
4687.442	4.04401	1.19249	2.92072	1.24946
4691.445	3.91022	1.38279	2.94579	1.26019
4695.446	3.88562	1.46392	3.01155	1.34990
4699.412	3.82652	1.62574	3.04650	1.34708
4703.446	3.77125	1.52646	3.10277	1.28853
4707.444	3.75188	1.53279	3.09193	1.29926
4711.444	3.71641	1.66279	3.09216	1.25588
4715.446	3.68186	1.72799	3.11653	1.28231
4719.443	3.66748	1.78022	3.08020	1.39624
4723.442	3.68087	1.80447	3.00957	1.40689
4727.443	3.66701	1.81262	2.94104	1.53307
4731.442	3.67324	1.79467	2.88450	1.53855
4735.414	3.70223	1.69594	2.90735	1.50878
4739.434	3.79596	1.56465	2.88727	1.55511
4743.434	3.84905	1.45291	2.89510	1.53891
4747.447	3.98640	1.31867	2.73883	1.62860
4751.438	4.53569	1.61127	2.84823	1.26333
4755.443	4.96366	1.64134	4.11562	1.65823
4759.444	8.58638	1.63542	6.32625	1.71781
4763.448	10.23445	1.86880	8.47932	1.99202
4767.470	12.28289	1.51574	9.64598	2.33489
4771.446	12.53793	1.92251	11.38268	1.98421
4775.444	13.40079	1.35315	12.15267	2.45234
4779.445	13.82560	1.66696	13.29737	2.04238
4783.412	14.19732	1.95356	13.82473	2.56205
4787.443	14.43906	1.99590	13.80240	2.44397
4791.444	14.51746	2.12077	13.58259	2.41618
4795.443	14.41033	2.16220	13.12303	2.33913
4799.469	14.50686	2.21579	13.68178	2.42021
4803.445	14.52298	2.28581	13.87243	2.44860
4807.447	14.64931	2.25490	14.13841	2.34970
4811.445	14.80834	2.30598	13.87265	2.42380
4815.448	14.90693	2.26870	13.86886	2.41001
4819.449	14.98324	2.29495	13.99141	2.34654
4823.428	14.94148	2.32843	14.18916	2.34311
4827.445	15.08484	2.29978	14.13066	2.31001
4831.469	15.20556	2.26845	14.28998	2.30351
4835.445	14.96622	2.30427	14.40877	2.34328
4839.445	14.95616	2.33721	14.30086	2.42568
4843.445	14.81133	2.38480	14.36434	2.58008
4847.469	14.87995	2.29565	14.49495	2.41646
4851.408	14.87225	2.31146	14.37461	2.41380
4855.448	14.77475	2.25809	14.39385	2.36405
4859.446	14.52244	2.22966	14.47064	2.30996
4863.471	14.51860	2.17877	14.49707	2.39987
4867.439	14.45737	2.13773	14.36679	2.42593
4871.448	14.40186	2.08238	14.46682	2.50405
4875.446	14.42353	2.09752	14.44867	2.54763
4879.470	14.42674	1.99094	14.44879	2.54933
4883.448	14.48222	1.92527	14.52246	2.63611
4887.410	14.55537	1.88735	14.49932	2.67054
4891.447	14.69462	1.84557	14.40433	2.64913
4895.472	14.82291	1.80304	14.37252	2.62059
4899.448	15.02346	1.73504	14.36886	2.68868
4903.446	14.93928	1.69751	14.46235	2.71555
4907.446	15.07181	1.67033	14.31712	2.63284
4911.471	15.14895	1.63612	14.46198	2.61709
4915.446	15.12449	1.70761	14.40419	2.41077
4919.409	15.12351	1.77123	14.41399	2.35317
4923.446	15.11977	1.80630	14.40905	2.26696
4927.470	15.14132	1.79876	14.49704	2.31329
4931.445	15.16003	1.85689	14.56041	2.31728
4935.449	15.12051	1.95445	14.60002	2.24503
4939.447	15.18603	1.89324	14.65326	2.23290
4943.473	15.18548	1.89155	14.66582	2.23970
4947.436	15.22241	1.96920	14.59782	2.25675
4951.447	15.18541	1.98099	14.62737	2.35302
4955.448	15.19685	1.99899	14.63065	2.35538
4959.470	15.08465	1.95658	14.72383	2.44125
4963.448	15.13263	1.93309	14.73820	2.52883
4967.448	15.13526	1.91361	14.76043	2.51807
4971.449	15.10774	1.92301	14.74302	2.54914
4975.453	15.11489	1.92999	14.72076	2.50193
4979.447	15.15140	1.90311	14.59052	2.52665
4983.448	15.14472	1.96626	14.49334	2.52027
4987.413	15.07116	2.00296	14.63232	2.45540
4991.451	15.08039	1.97505	14.66454	2.42552
4995.447	14.95009	2.00016	14.71556	2.31298
4999.449	14.84654	2.00993	14.62777	2.45521
5003.449	14.94048	1.98864	14.61143	2.30078
5007.453	14.98065	1.90584	14.62803	2.23630
5011.450	14.96256	1.94250	14.62247	2.19321
5015.452	14.84536	1.97042	14.58929	2.17023
5019.450	14.82221	1.95079	14.47387	2.21431
5023.454	14.83172	1.87844	14.34862	2.23897
5027.450	14.80857	1.75948	14.20721	2.27588
5031.430	14.68981	1.85234	14.07877	2.25954
5035.451	14.69694	1.87511	14.21267	2.30555
5039.454	14.67246	1.88793	14.25928	2.29235
5043.452	14.73047	1.86337	14.21957	2.27469
5047.450	14.65755	1.86092	14.22249	2.27531
5051.451	14.61206	1.88650	14.04271	2.30310
5055.448	14.55118	1.89180	14.16763	2.35825
5059.450	14.46014	1.85258	14.09579	2.38534
5063.451	14.42754	1.82338	14.03468	2.41589
5067.451	14.48709	1.86788	14.10289	2.43819
5071.445	14.51458	1.85943	14.23368	2.37882
5075.445	14.64478	1.79231	14.26436	2.29879
5079.449	14.58956	1.69296	14.29226	2.28093
5083.446	14.74131	1.67032	14.35235	2.20905
5087.448	14.93019	1.70197	14.32136	2.16940
5091.452	14.71566	1.66024	14.30505	2.14879
5095.451	14.72794	1.80762	14.34208	2.07825
5099.449	14.87232	2.11757	14.32206	1.95580
5103.454	14.86755	1.87973	14.39250	1.85870
5107.451	15.00008	1.89457	14.36150	1.92359
5111.453	14.91497	1.86402	14.50316	2.13559
5115.426	15.06966	1.97608	14.31065	2.17636
5119.454	14.22519	1.04500	14.01330	1.93440
5123.414	14.57441	1.62652	14.11902	1.91420
5127.450	15.11634	1.84628	17.93037	4.10532
5131.451	19.26356	2.84804	22.61451	5.36322
5135.440	19.59261	3.51170	7.02091	0.63115
5139.450	19.42710	4.22507	NaN	NaN
5143.453	NaN	NaN	NaN	NaN
5147.450	NaN	NaN	NaN	NaN
5151.451	NaN	NaN	NaN	NaN
5155.434	NaN	NaN	NaN	NaN
5159.456	NaN	NaN	NaN	NaN
5163.452	NaN	NaN	NaN	NaN
5167.452	NaN	NaN	NaN	NaN
5171.454	18.40935	3.63353	NaN	NaN
5175.444	17.67957	3.16414	4.44738	12.92254
5179.452	17.30975	0.51816	4.39518	-1.12130
5183.452	15.00234	2.07233	1.68910	-0.81949
5187.453	16.36569	0.68532	1.62949	-3.37852
5191.418	16.48502	0.38824	1.74501	-0.79068
5195.453	1.87054	-2.02051	1.28172	-2.35599
5199.453	0.68833	-4.19831	1.34839	-3.31272
5203.462	1.26564	-4.41243	1.44354	-3.60311
5207.350	8.64213	-2.92153	1.46214	-3.73242
5211.413	8.95632	-3.90000	4.90161	-3.44378
5215.452	8.32935	-4.32469	7.98079	-2.83620
5219.455	8.19234	-4.16739	7.73229	-2.93304
5223.356	6.85216	-4.16473	7.32622	-2.91066
5227.451	7.41895	-4.11652	5.86963	-3.00185
5231.451	7.25792	-4.22109	5.58523	-2.90145
5235.452	7.12381	-4.00830	5.88314	-3.02402
5239.435	7.01719	-3.98073	6.97279	-3.18863
5243.452	6.93166	-4.00254	6.44486	-3.21241
5247.450	7.18125	-4.05171	5.97023	-3.51316
5251.453	6.92904	-4.17007	6.26829	-3.07666
5255.454	6.99379	-4.08732	6.23371	-3.10573
5259.415	6.97152	-4.09083	6.24190	-3.25093
5263.454	6.89292	-4.03316	6.35050	-3.35875
5267.416	6.88693	-4.01114	6.13569	-3.37824
5271.456	6.79569	-3.93755	6.01422	-3.40671
5275.452	6.76178	-3.86458	6.26618	-3.39981
5279.449	6.76261	-4.07799	6.08610	-3.44427
5283.442	6.89370	-4.19918	6.15048	-3.46734
5287.456	6.90889	-4.33101	6.13836	-3.42050
5291.453	6.90221	-4.29413	6.20568	-3.37955
5295.453	6.93503	-4.26854	6.23062	-3.39278
5299.454	6.93423	-4.29168	6.14464	-3.40404
5303.355	6.87421	-4.19425	6.18286	-3.47673
5307.452	7.04227	-4.53837	6.26954	-3.44571
5311.416	7.13695	-4.57873	6.19645	-3.59332
5315.453	7.11186	-4.53764	6.07925	-3.53651
5319.456	7.05831	-4.30197	6.15956	-3.51026
5323.427	7.07862	-4.40324	5.95415	-3.47934
5327.450	7.10372	-4.61522	6.25666	-3.46015
5331.454	6.86007	-4.60935	6.14720	-3.39043
5335.355	7.04147	-4.52377	5.94730	-3.50952
5339.455	7.01810	-4.66718	6.00813	-3.37880
5343.452	7.00296	-4.47956	6.00118	-3.39280
5347.456	6.93570	-4.35110	5.93048	-3.33550
5351.454	6.90620	-4.10592	5.73686	-3.30920
5355.455	6.89429	-4.03482	5.71251	-3.31610
5359.457	6.82315	-4.22407	5.74296	-3.29478
5363.438	6.84913	-4.07418	5.71428	-3.26754
5367.457	6.85828	-4.17996	5.85330	-3.27691
5371.454	6.83680	-4.36873	5.91592	-3.24994
5375.456	6.81001	-4.47130	5.94347	-3.26746
5379.455	6.87391	-4.39049	6.03437	-3.20753
5383.459	6.83949	-4.41043	5.96493	-3.19860
5387.454	6.86777	-4.46037	5.84011	-3.16432
5391.456	7.63579	-4.13743	6.04527	-3.08073
5395.435	8.78336	-1.87149	2.83801	-3.08560
5399.352	13.99870	-0.58424	1.52295	-1.01348
5403.455	15.43247	1.41927	15.82743	1.48382
5407.421	15.45767	3.90991	15.19912	2.82492
5411.420	NaN	NaN	NaN	NaN
5415.455	NaN	NaN	NaN	NaN
5419.460	NaN	NaN	NaN	NaN
5423.454	NaN	NaN	NaN	NaN
5427.456	NaN	NaN	NaN	NaN
5431.455	NaN	NaN	NaN	NaN
5435.451	NaN	NaN	NaN	NaN
5439.451	NaN	NaN	NaN	NaN
5443.453	NaN	NaN	NaN	NaN
5447.453	NaN	NaN	NaN	NaN
5451.450	NaN	NaN	NaN	NaN
5455.454	NaN	NaN	NaN	NaN
5459.453	NaN	NaN	NaN	NaN
5463.417	NaN	NaN	NaN	NaN
5467.454	NaN	NaN	NaN	NaN
5471.451	NaN	NaN	NaN	NaN
5475.452	NaN	NaN	NaN	NaN
5479.455	NaN	NaN	NaN	NaN
5483.457	NaN	NaN	NaN	NaN
5487.454	NaN	NaN	NaN	NaN
5491.454	NaN	NaN	NaN	NaN
5495.455	NaN	NaN	NaN	NaN
5499.455	NaN	NaN	NaN	NaN
5503.457	NaN	NaN	NaN	NaN
5507.457	NaN	NaN	NaN	NaN
5511.418	NaN	NaN	0.38422	14.71850
5515.457	NaN	NaN	0.16481	8.81787
5519.422	NaN	NaN	-1.51487	1.84270
5523.336	-3.61527	5.03998	-1.31798	2.61562
5527.336	-2.85504	4.76014	-1.19552	2.19806
5531.296	-2.85737	4.48150	-0.13553	2.67889
5535.320	-0.49493	4.62131	-0.53101	3.48336
5539.313	-1.56045	4.48192	-0.48083	3.57101
5543.331	-1.28998	4.34773	-1.36697	3.66920
5547.334	-1.49758	4.15918	-1.86330	3.69820
5551.334	-1.01166	4.17641	-1.70576	3.96580
5555.337	-1.15756	4.41298	-2.04500	3.54623
5559.331	-1.34998	4.14360	-2.23848	3.35177
5563.333	-1.59244	4.03934	-2.63948	3.36235
5567.333	-1.30677	4.06432	-2.69520	3.73325
5571.358	-1.49612	4.09728	-2.54306	3.75723
5575.331	-1.55402	4.35203	-2.26118	3.76696
5579.298	-1.55202	4.38394	-2.53778	3.92303
5583.295	-1.66700	4.17300	-2.31455	3.51268
5587.357	-1.77819	4.17804	-2.50548	3.68610
5591.299	-1.71521	4.16711	-2.53803	3.79739
5595.334	-1.76770	4.07009	-2.53394	3.90656
5599.331	-1.78761	4.23892	-2.43860	3.80702
5603.356	-1.82666	4.17489	-2.46077	3.84086
5607.334	-1.86446	4.35854	-2.47333	3.93298
5611.335	-1.96786	4.47280	-2.44772	4.03900
5615.336	-1.92337	4.55861	-2.52062	3.99594
5619.297	-1.89421	4.27714	-2.52327	3.95383
5623.333	-1.79500	4.11226	-2.52718	3.92150
5627.333	-1.80546	4.13613	-2.62796	3.97903
5631.335	-1.83075	4.47797	-2.62925	3.91407
5635.325	-1.80127	4.44861	-2.59946	3.85553
5639.336	-1.88824	4.09811	-2.72897	3.85666
5643.334	-1.95051	4.38753	-2.75314	3.82920
5647.334	-2.02926	4.48724	-2.79149	3.84151
5651.361	-1.81044	4.15228	-2.74125	3.82842
5655.333	-1.81121	4.26840	-2.66966	3.79919
5659.324	-1.67809	4.28212	-2.55715	3.79128
5663.326	-1.70643	4.18248	-2.77188	3.86171
5667.329	-2.26594	4.22470	-2.61600	3.84218
5671.332	-0.45879	5.79251	-2.66206	3.83619
5675.333	-1.39656	9.31618	-2.50771	3.91271
5679.335	-1.71613	3.88553	-2.58881	3.95721
5683.358	-1.92287	4.05758	-2.50642	3.89547
5687.334	-1.39497	3.88646	-2.58105	3.87187
5691.333	-1.66053	3.94955	-2.40350	3.84819
5695.332	-1.51092	3.98768	-2.48901	3.85522
5699.333	-1.55983	3.99394	-2.50417	3.87383
5703.298	-1.75691	3.98391	-2.60485	3.90916
5707.334	-1.80878	4.03753	-2.57694	3.92244
5711.297	-1.81994	4.18773	-2.59190	3.95120
5715.333	-1.80992	4.13486	-2.58638	3.80394
5719.342	-1.89716	3.93307	-2.45624	3.81604
5723.337	-1.83670	4.05597	-2.66729	3.63015
5727.335	-1.74945	4.29495	-2.62283	3.74985
5731.359	-1.68332	4.35837	-2.61218	3.76054
5735.336	-1.84820	4.27908	-2.66201	3.75663
5739.339	-1.80605	4.23690	-2.73561	3.81507
5743.320	-1.82671	4.19248	-2.12478	3.55825
5747.357	-1.52796	4.51305	-2.51935	3.82226
5751.337	0.54835	4.35861	-0.19531	3.80400
5755.334	3.52432	4.21283	1.37421	3.65239
5759.338	5.26393	2.82100	3.56675	3.01505
5763.361	7.23022	2.59035	4.82377	1.86388
5767.301	7.85784	0.78269	5.50294	2.03619
5771.329	8.95528	1.28655	7.34763	1.41998
5775.335	9.67521	0.71485	8.30741	1.57511
5779.363	10.46940	0.82344	9.03977	1.32412
5783.331	10.95306	0.57374	8.83289	1.45469
5787.334	11.23370	0.53563	8.89514	1.53182
5791.335	10.44292	0.59750	8.36997	1.95386
5795.359	10.82533	0.48698	8.28928	1.81361
5799.338	10.66450	0.51124	8.76498	1.45625
5803.298	10.60879	0.51568	9.31414	0.81901
5807.335	10.63279	0.50727	8.92290	0.75219
5811.358	10.73583	0.47961	8.98273	0.96669
5815.337	10.67545	0.45585	9.01847	1.04626
5819.336	10.61176	0.41029	9.05645	1.00483
5823.339	10.41049	0.33101	9.01956	0.98048
5827.357	10.45874	0.35982	9.12307	1.20858
5831.337	10.35673	0.26541	9.17058	1.08461
5835.336	10.17767	0.45486	9.21512	1.03273
5839.339	10.20916	0.49385	9.21892	1.01573
5843.339	10.11512	0.51300	9.17171	0.93300
5847.340	10.04126	0.41334	9.19508	0.95317
5851.336	10.13799	0.39847	9.21350	1.03539
5855.339	10.13015	0.36223	9.33318	1.01116
5859.361	10.10006	0.17820	9.38189	0.92861
5863.338	10.21632	0.19342	9.31165	0.82968
5867.326	10.19784	0.24505	9.19092	0.77996
5871.301	10.19426	0.31821	9.23507	0.81218
5875.362	10.15014	0.37208	9.31661	0.74938
5879.335	10.22786	0.17353	9.40863	0.59343
5883.299	10.27323	0.01274	9.38566	0.61323
5887.338	10.38507	-0.10092	9.50882	0.61402
5891.334	10.42526	-0.13654	9.44486	0.70859
5895.338	10.39717	-0.00660	9.44846	0.72091
5899.336	10.28616	-0.09599	9.28398	0.67606
5903.336	10.16846	0.13768	9.27344	0.64389
5907.360	10.18945	0.13686	9.34720	0.67959
5911.301	10.11202	0.10424	9.39390	0.58915
5915.335	10.12258	0.09044	9.37431	0.63357
5919.340	10.19353	0.05740	9.39540	0.70676
5923.362	10.22654	0.04930	9.37530	0.83912
5927.337	10.22928	0.15284	9.39714	0.88085
5931.338	10.19101	0.21349	9.35305	0.90759
5935.336	10.14511	0.15858	9.37953	0.79243
5939.363	10.25204	0.14346	9.48202	0.78036
5943.340	10.33572	0.12133	9.53738	0.65043
5947.344	10.40298	0.06198	9.59064	0.53030
5951.321	10.53691	0.01407	9.62171	0.59449
5955.359	10.48564	-0.04063	9.62227	0.69722
5959.339	10.44691	-0.07319	9.51628	0.82138
5963.341	10.45759	-0.14987	9.10223	0.77596
5967.340	10.49090	-0.18267	9.28811	0.66399
5971.329	10.51583	-0.26843	9.31658	0.62520
5975.340	10.46793	-0.34412	9.30266	0.58648
5979.341	10.49622	-0.41094	9.30820	0.49668
5983.338	10.41551	-0.53331	9.14704	0.65265
5987.367	10.54260	-0.50585	9.21636	0.64497
5991.336	10.48900	-0.43577	9.13417	0.72023
5995.303	10.41347	-0.42310	9.07598	0.66451
5999.340	10.17735	-0.28445	8.99753	0.60909
6003.339	10.18541	-0.02534	8.93588	0.58421
6007.338	10.25370	-0.03670	9.05589	0.49230
6011.301	10.14143	-0.10606	9.15522	0.42742
6015.338	10.21875	-0.00347	9.19208	0.38661
6019.328	10.29887	0.02308	9.16806	0.48417
6023.346	10.16565	0.08514	9.32369	0.60182
6027.341	10.13828	0.14872	9.30745	0.57559
6031.343	10.04848	0.14617	9.30314	0.46331
6035.320	10.00336	0.13988	9.36573	0.42668
6039.340	9.91784	0.10738	9.41368	0.43434
6043.336	9.98969	0.12833	9.44684	0.38567
6047.337	9.92408	0.10214	9.49931	0.47111
6051.338	10.03277	0.06656	9.58721	0.48290
6055.343	10.04165	0.09716	9.53064	0.56796
6059.339	10.08435	0.08105	9.51401	0.63378
6063.341	10.00247	0.10263	9.49366	0.58086
6067.344	9.98906	0.03524	9.45430	0.57380
6071.342	9.93407	0.05850	9.50342	0.59406
6075.330	9.99597	0.01189	9.48777	0.50892
6079.331	10.00680	-0.01781	9.55348	0.40466
6083.346	9.96412	-0.04276	9.52811	0.43013
6087.342	10.06273	-0.22255	9.53820	0.40216
6091.342	10.21272	-0.45305	9.58859	0.19469
6095.340	10.20486	-0.66596	9.54402	0.22317
6099.342	10.12753	-0.82483	9.56600	0.26290
6103.340	10.20741	-0.67062	9.55555	0.19625
6107.342	10.34292	-0.63414	9.46338	0.17373
6111.304	10.26379	-0.36997	9.55809	0.10669
6115.342	10.22707	-0.52404	9.57416	0.08574
6119.308	10.29171	-0.37854	9.57124	0.19139
6123.346	10.21202	-0.22721	9.53480	0.22332
6127.343	10.24877	-0.11547	9.49214	0.30136
6131.343	10.16899	-0.24388	9.50407	0.32948
6135.342	10.27857	-0.35643	9.42912	0.33350
6139.305	10.22043	-0.43600	9.46821	0.36523
6143.342	10.22663	-0.18294	9.41117	0.34565
6147.346	10.29750	-0.16513	9.38844	0.36004
6151.305	10.17981	-0.24340	9.43837	0.36043
6155.343	10.26566	-0.23696	9.41755	0.45157
6159.326	10.28664	-0.15870	9.39180	0.49764
6163.344	10.31484	-0.19673	9.30189	0.48651
6167.342	10.31335	-0.26203	9.21406	0.51160
6171.341	10.23858	-0.20150	9.26703	0.38521
6175.343	10.23517	-0.14019	9.28296	0.40539
6179.344	10.28474	-0.05086	9.26331	0.45290
6183.342	10.20101	0.01069	9.30749	0.39995
6187.344	10.26821	0.17282	9.40607	0.34115
6191.344	10.23865	0.19959	9.40586	0.36279
6195.344	10.37143	0.01283	9.57476	0.50480
6199.340	10.40949	0.15314	9.57771	0.54279
6203.308	10.17375	0.02084	9.68894	0.52038
6207.344	10.21841	-0.06282	9.53974	0.49706
6211.311	10.29620	0.06961	9.43173	0.47042
6215.341	10.27520	0.24098	9.31820	0.77372
6219.341	10.29464	0.28730	9.29435	0.79010
6223.346	10.07054	0.71541	9.81260	1.41337
6227.241	13.24795	1.77671	6.81290	1.67215
6231.343	16.68293	4.65012	16.28025	4.01696
6235.343	-0.35787	13.14610	16.44464	5.62741
6239.344	19.34641	11.56484	10.71001	13.88275
6243.335	NaN	NaN	NaN	NaN
6247.343	NaN	NaN	NaN	NaN
6251.343	NaN	NaN	NaN	NaN
6255.341	NaN	NaN	NaN	NaN
6259.341	NaN	NaN	NaN	NaN
6263.344	NaN	NaN	NaN	NaN
6267.340	NaN	NaN	NaN	NaN
6271.345	NaN	NaN	NaN	NaN
6275.341	NaN	NaN	NaN	NaN
6279.306	NaN	NaN	NaN	NaN
6283.342	NaN	NaN	NaN	NaN
6287.334	NaN	NaN	NaN	NaN
6291.339	NaN	NaN	NaN	NaN
6295.306	NaN	NaN	NaN	NaN
6299.338	NaN	NaN	NaN	NaN
6303.341	NaN	NaN	NaN	NaN
6307.344	NaN	NaN	NaN	NaN
6311.221	NaN	NaN	NaN	NaN
6315.346	NaN	NaN	NaN	NaN
6319.347	NaN	NaN	NaN	NaN
6323.349	NaN	NaN	NaN	NaN
6327.341	11.39339	0.98685	-1.24513	-0.34502
6331.347	10.91459	0.00827	-1.48657	-2.70001
6335.344	-2.37473	0.46760	-1.62316	-2.12236
6339.343	-1.74380	-0.43798	-1.33004	-1.91144
6343.343	-1.05426	-1.10797	1.28899	-1.45622
6347.222	0.46438	-1.22215	1.32850	-1.67262
6351.343	0.37338	-1.11117	1.87743	-1.77169
6355.343	1.53166	-1.42539	1.59221	-1.90901
6359.346	1.97637	-1.48997	1.70256	-1.79752
6363.243	2.17978	-1.62568	1.86645	-1.76657
6367.327	2.39071	-2.12278	1.73782	-1.85009
6371.342	2.32251	-2.57861	1.79596	-1.84413
6375.341	2.45701	-2.40488	1.76016	-1.80570
6379.242	2.40003	-2.52916	1.70021	-1.82512
6383.344	2.37000	-2.39742	1.71769	-1.89298
6387.345	2.35353	-2.39584	1.71665	-1.99964
6391.345	2.36628	-2.55112	1.78362	-1.99071
6395.349	2.36467	-2.40839	1.73658	-1.97977
6399.345	2.35910	-2.38289	1.72451	-2.01610
6403.348	2.34523	-2.28050	1.74764	-2.01747
6407.347	2.31329	-2.04263	1.78498	-2.05265
6411.349	2.26842	-1.88196	1.86132	-2.01638
6415.311	2.26036	-1.65802	1.86134	-1.98145
6419.348	2.21638	-1.73421	1.88809	-2.00682
6423.349	2.22577	-1.49822	1.97877	-1.98555
6427.348	2.22508	-1.51004	1.96023	-1.94132
6431.344	2.25256	-1.62446	2.00324	-1.86616
6435.324	2.33799	-1.46436	1.99047	-1.86947
6439.347	2.44147	-1.43485	1.97912	-1.86495
6443.244	2.54933	-1.43111	1.98534	-1.84083
6447.344	2.52555	-1.44640	1.97639	-1.84877
6451.342	2.52037	-1.59252	1.88120	-1.90415
6455.344	2.52017	-1.69972	1.86305	-1.92057
6459.247	2.61486	-1.78809	1.83833	-1.91221
6463.346	2.62504	-2.02018	1.79383	-1.87986
6467.345	2.63237	-2.11971	1.75714	-1.87017
6471.349	2.65342	-2.14971	1.79524	-1.85036
6475.347	2.70914	-1.88555	1.87837	-1.88354
6479.345	2.76619	-1.98673	1.81644	-1.83041
6483.347	2.70262	-2.04299	1.86218	-1.90105
6487.346	2.70181	-1.98984	1.83890	-1.81193
6491.335	2.79392	-2.02347	1.77144	-1.75765
6495.338	2.69252	-1.91934	1.81376	-1.74158
6499.344	2.74576	-1.82169	1.81488	-1.75853
6503.345	2.69242	-1.79797	1.85586	-1.73961
6507.347	2.62690	-1.82375	1.90170	-1.78182
6511.350	2.57538	-1.77753	1.88727	-1.82133
6515.310	2.57028	-1.81932	1.90631	-1.81719
6519.339	2.52857	-1.89008	1.87674	-1.80509
6523.246	2.52461	-1.88374	1.89964	-1.78939
6527.307	2.52986	-1.96705	1.94659	-1.72761
6531.346	2.46644	-2.11113	1.94193	-1.62344
6535.321	2.43384	-2.09583	1.95817	-1.59432
6539.354	2.49897	-2.02125	1.92842	-1.75063
6543.343	2.58187	-2.18833	1.88556	-1.69402
6547.343	2.58494	-2.23369	1.90443	-1.70862
6551.311	2.63438	-2.14796	1.92436	-1.70952
6555.220	2.66053	-2.12414	1.77677	-1.62561
6559.221	2.84063	-1.99652	1.75875	-1.60098
6563.222	2.85848	-1.95070	1.76765	-1.58417
6567.220	2.81187	-1.92143	1.61208	-1.59690
6571.214	2.81484	-1.75546	1.59782	-1.60657
6575.186	2.81934	-1.75267	1.52474	-1.57557
6579.184	2.84955	-1.70321	1.52957	-1.60585
6583.217	2.83732	-1.79207	1.43912	-1.59805
6587.225	2.79503	-1.59946	1.49277	-1.56339
6591.223	2.73984	-1.65389	1.51628	-1.52256
6595.222	2.60077	-1.64976	1.49569	-1.47285
6599.221	2.46692	-1.67990	1.48404	-1.47145
6603.350	2.43724	-1.75529	1.54351	-1.48737
6607.224	2.45242	-1.76834	1.59529	-1.50754
6611.225	2.27696	-1.66257	1.68290	-1.53785
6615.223	2.29808	-1.69635	1.77085	-1.50512
6619.222	2.25741	-1.61106	1.92361	-1.53333
6623.203	2.27032	-1.57323	1.81763	-1.55799
6627.224	2.20887	-1.57161	1.87103	-1.66242
6631.221	2.18590	-1.51844	1.87971	-1.64204
6635.246	2.19432	-1.58580	1.87810	-1.70388
6639.226	2.27865	-1.59910	1.90073	-1.79274
6643.227	2.35201	-1.53888	1.89245	-1.80297
6647.226	2.45156	-1.53557	1.91008	-1.86113
6651.244	2.58019	-1.43673	1.85477	-1.85536
6655.225	2.56892	-1.48936	1.81111	-1.80603
6659.224	2.43536	-1.45567	1.81600	-1.84562
6663.223	2.48980	-1.44455	1.78171	-1.82891
6667.222	2.42579	-1.39100	1.74885	-1.70306
6671.225	2.44710	-1.40500	1.71665	-1.65678
6675.223	2.35580	-1.63566	1.68094	-1.59571
6679.225	2.39106	-1.90298	1.60154	-1.40312
6683.215	2.61030	-1.86060	1.52846	-1.37946
6687.223	2.60515	-1.84422	1.51650	-1.31830
6691.225	2.40308	-1.52570	1.49805	-1.29271
6695.223	2.39839	-1.48985	1.55512	-1.28012
6699.223	2.26396	-1.59153	1.64905	-1.34356
6703.225	2.34785	-1.63078	1.87961	-1.27099
6707.192	2.45542	-1.49277	1.66983	-1.24442
6711.188	2.52030	-1.51212	1.68173	-1.24642
6715.225	2.64131	-1.52351	1.82128	-1.22508
6719.227	2.80323	-1.45051	1.79314	-1.25119
6723.225	2.96824	-1.51049	1.85445	-1.30615
6727.227	2.82677	-1.61246	1.90730	-1.35566
6731.216	2.74135	-1.46678	1.83781	-1.32270
6735.226	2.79882	-1.58896	1.85378	-1.33547
6739.224	2.85843	-1.64086	1.82663	-1.33038
6743.228	2.91116	-1.83291	1.82222	-1.32266
6747.217	2.93678	-1.72827	1.72270	-1.37156
6751.224	2.93220	-1.94602	1.71937	-1.37608
6755.201	2.90973	-1.90027	1.66621	-1.38863
6759.222	2.87334	-1.97063	1.59551	-1.38985
6763.194	2.79706	-1.99382	1.55911	-1.33900
6767.221	2.79337	-2.03131	1.57357	-1.34463
6771.222	2.73083	-1.96026	1.60283	-1.33798
6775.229	2.78018	-1.95614	1.64451	-1.32472
6779.246	2.82650	-1.93169	1.65644	-1.36220
6783.224	2.84289	-1.94230	1.61391	-1.36429
6787.221	2.84313	-1.87043	1.63869	-1.36392
6791.219	2.98458	-1.89997	1.68005	-1.33555
6795.251	2.94950	-1.84083	1.62604	-1.36234
6799.227	2.96777	-1.85783	1.60642	-1.35935
6803.225	2.99948	-1.86031	1.69431	-1.39799
6807.228	2.99257	-1.92122	1.73299	-1.45119
6811.219	2.93379	-1.84834	1.79388	-1.45871
6815.226	3.03895	-1.85131	1.74945	-1.47679
6819.225	3.04014	-1.88711	1.72666	-1.52684
6823.190	3.00648	-1.91517	1.69324	-1.59344
6827.224	2.97497	-1.95640	1.70112	-1.65399
6831.197	2.93639	-1.98215	1.71699	-1.58334
6835.229	2.86158	-2.07441	1.70177	-1.63178
6839.229	2.78285	-2.08249	1.74838	-1.64896
6843.188	2.81229	-2.05200	1.77767	-1.63481
6847.228	2.83719	-2.02692	1.79943	-1.66619
6851.226	2.90223	-2.05097	1.83330	-1.69675
6855.227	2.93648	-2.08060	1.83950	-1.67161
6859.193	2.97987	-2.10133	1.87091	-1.64083
6863.229	2.97215	-2.14556	1.90517	-1.66137
6867.230	2.95817	-2.15389	1.94892	-1.62877
6871.215	3.01282	-2.18138	1.82760	-1.63621
6875.251	3.01541	-2.25561	1.92890	-1.67912
6879.228	2.94062	-2.12168	1.98613	-1.71340
6883.227	3.44819	-2.10280	2.83598	-1.71957
6887.226	6.76899	-2.14689	5.44141	-1.73607
6891.218	9.25325	-2.10413	6.64665	-1.73655
6895.232	10.56879	-2.20121	8.47806	-1.76647
6899.228	11.62392	-2.44102	9.66762	-1.79797
6903.230	12.20363	-2.72098	10.95036	-2.02214
6907.223	12.53034	-5.00088	11.24134	-2.02674
6911.191	12.71106	-4.24944	12.31073	-2.80226
6915.195	12.57462	-4.50336	11.85773	-2.76772
6919.231	12.80263	-4.42453	12.20833	-3.24073
6923.219	12.85067	-4.47889	12.16994	-2.98169
6927.233	12.98098	-4.35852	11.99267	-2.83012
6931.227	13.13049	-4.29940	12.29126	-3.20338
6935.230	13.20806	-4.19714	12.33198	-3.17462
6939.219	13.31069	-4.27808	12.43876	-3.23510
6943.229	13.43867	-4.34664	12.58162	-3.33250
6947.228	13.50558	-4.43075	12.66535	-3.31568
6951.230	13.40387	-4.53509	12.62225	-3.32204
6955.228	13.33727	-4.72689	12.57618	-3.27178
6959.231	13.32350	-4.74325	12.66254	-3.22502
6963.230	13.30907	-4.94816	12.40323	-3.17770
6967.230	13.31843	-4.96223	12.41885	-3.14064
6971.188	13.16534	-4.97285	12.54978	-3.16215
6975.230	13.21745	-4.79531	12.38696	-3.08217
6979.229	13.16301	-4.90688	12.31905	-3.04767
6983.228	13.14263	-4.99627	12.45901	-3.02417
6987.219	13.17941	-4.99756	12.33771	-3.03477
6991.231	13.11246	-4.97709	12.28979	-3.08164
6995.225	13.14011	-4.88257	12.21985	-3.09519
6999.219	13.14416	-4.86175	12.10824	-3.21705
7003.230	13.16009	-4.85584	12.20596	-3.29721
7007.230	13.21213	-4.90136	12.28104	-3.38765
7011.195	13.34113	-4.78868	12.33998	-3.41770
7015.192	13.41925	-4.73194	12.42581	-3.46245
7019.225	13.42371	-4.77466	12.58143	-3.52368
7023.225	13.32663	-4.81182	12.60670	-3.57351
7027.199	13.40624	-4.84096	12.54535	-3.52130
7031.232	13.36142	-4.78645	12.51158	-3.58746
7035.229	13.17426	-4.82587	12.64569	-3.56393
7039.202	13.19978	-4.89111	12.63657	-3.57606
7043.229	13.21460	-4.89420	12.73604	-3.54842
7047.233	13.25239	-4.87123	12.78925	-3.50951
7051.221	13.20341	-4.92139	12.83581	-3.51644
7055.229	13.22742	-4.90463	12.80636	-3.43885
7059.230	12.97504	-5.02504	12.80683	-3.25619
7063.233	12.94040	-5.02129	12.63530	-3.29191
7067.221	12.93655	-5.05247	12.55786	-3.25214
7071.231	12.99958	-5.01436	12.63993	-3.21272
7075.233	12.88968	-5.01310	12.49095	-3.12501
7079.191	13.01131	-4.96951	12.51489	-3.06183
7083.229	13.00980	-4.93709	12.56609	-2.95081
7087.226	13.02490	-5.03764	12.63698	-2.83473
7091.229	12.98652	-4.92150	12.53939	-2.82840
7095.217	12.97658	-5.01208	12.49668	-2.76798
7099.231	12.89999	-4.87898	12.46363	-2.72393
7103.229	12.92564	-5.00130	12.43985	-2.72077
7107.232	12.93297	-4.82691	12.44446	-2.67995
7111.195	12.93101	-4.74967	12.41483	-2.63153
7115.229	12.89977	-4.66055	12.52958	-2.64431
7119.229	12.84631	-4.64168	12.52208	-2.65949
7123.198	12.81438	-4.67775	12.60902	-2.65552
7127.239	12.85494	-4.62828	12.54741	-2.69786
7131.226	14.83919	-4.58264	12.61876	-3.06860
7135.228	15.30582	-4.99632	15.11119	-3.47870
7139.195	16.55126	-5.99621	16.57315	-5.36310
7143.232	18.54316	-9.46696	17.65625	-6.20132
7147.224	17.95919	-9.61303	18.20467	-6.58613
7151.230	18.10639	-10.26345	17.46240	-7.10428
7155.230	17.70131	-11.60608	18.42454	-7.96446
7159.236	18.12022	-12.30839	18.66350	-9.56605
7163.195	18.32651	-11.76164	17.85546	-9.62554
7167.233	19.03866	-12.13111	17.73238	-9.41211
7171.234	18.52690	-12.18592	17.88280	-9.38876
7175.232	18.70864	-11.84254	18.09686	-9.10179
7179.223	18.75801	-11.22445	18.07591	-9.06462
7183.231	18.99871	-11.42805	17.93005	-8.94857
7187.232	19.46102	-11.56373	18.55737	-9.00038
7191.231	18.57171	-11.52842	18.55541	-9.11455
7195.225	19.39001	-11.32029	18.20310	-9.41518
7199.233	19.30115	-11.36728	18.54774	-9.29846
7203.210	19.08269	-11.27205	18.30161	-9.24713
7207.225	18.78684	-11.58914	18.47954	-9.12312
7211.232	18.83729	-11.44239	18.54040	-9.20966
7215.234	18.81524	-11.59482	18.53609	-9.26707
7219.234	18.75349	-11.36928	18.62470	-9.24979
7223.234	18.62312	-11.44948	18.42092	-9.32062
7227.226	19.00960	-11.39122	18.65987	-9.32004
7231.197	19.00787	-11.51781	18.66528	-9.35895
7235.232	18.81157	-11.48255	18.50354	-9.35935
7239.234	18.72491	-11.67383	18.48671	-9.29680
7243.131	18.66931	-11.77445	18.42371	-9.32477
7247.203	18.64665	-11.74021	18.58766	-9.29558
7251.234	18.66969	-11.72729	18.52076	-9.29613
7255.233	18.56574	-11.68123	18.49543	-9.23204
7259.133	18.73057	-11.62097	18.52690	-9.07662
7263.233	18.16742	-11.88023	18.69728	-8.91358
7267.237	18.14712	-11.90326	18.73787	-8.82988
7271.235	18.13750	-12.05593	18.44813	-8.80675
7275.229	18.15568	-12.09946	18.61129	-8.76181
7279.233	18.24744	-11.86318	18.47916	-8.78971
7283.235	17.99635	-12.31951	18.46751	-8.74663
7287.217	18.28289	-11.82767	18.48222	-8.71411
7291.234	18.06024	-11.78474	18.72881	-8.63697
7295.234	18.09437	-11.59301	18.56701	-8.63150
7299.196	18.13905	-11.78017	18.54285	-8.64350
7303.232	18.13894	-11.79184	18.53150	-8.66488
7307.139	18.25064	-11.57476	18.61077	-8.68635
7311.235	18.34791	-11.52037	18.66194	-8.68478
7315.234	18.40687	-11.42315	18.63016	-8.76249
7319.236	18.46264	-11.55732	18.71926	-8.77398
7323.139	18.52862	-11.36201	18.85966	-8.78777
7327.233	18.62023	-11.27342	18.73433	-8.78254
7331.200	18.74149	-11.44771	18.71398	-8.90617
7335.235	18.88099	-11.62930	19.55502	-8.93993
7339.140	21.01645	-11.66427	19.78294	-10.13949
7343.234	20.43377	-12.93785	19.61454	-10.65388
7347.233	20.14495	-13.61301	19.86113	-11.03844
7351.234	21.27647	-11.72273	20.10029	-11.22790
7355.132	-19.99372	-11.92899	20.25431	-11.12407
7359.238	-19.99372	-11.98408	20.01756	-10.87960
7363.236	-19.99372	-12.02192	20.14832	-10.94093
7367.199	-19.99372	-12.05681	20.10078	-10.79370
7371.137	-19.99372	-12.07894	20.18182	-10.94803
7375.237	-19.99372	-12.10884	20.27585	-10.94906
7379.238	-19.99372	-12.10772	20.21977	-10.98065
7383.235	-19.99372	-12.09191	20.23349	-11.06578
7387.136	-19.99372	-12.07510	20.26722	-11.06867
7391.233	-19.99372	-12.07220	20.38073	-11.03324
