time (ms)	lx (deg)	ly (deg)	rx (deg)	ry (deg)
0.000	0.48289	-2.45733	-0.75836	-1.26004
3.999	0.46708	-2.35241	-0.73427	-1.22681
8.000	0.41579	-2.36250	-0.59925	-1.15340
12.001	0.46894	-2.29523	-0.63436	-1.12819
16.001	0.41460	-2.31631	-0.75223	-1.15401
19.996	0.42693	-2.31549	-0.71642	-1.17598
23.996	0.45386	-2.26499	-0.66543	-1.27476
27.995	0.40777	-2.14464	-0.56240	-1.30673
31.999	0.37472	-2.05537	-0.65541	-1.25413
35.899	0.41120	-2.14990	-0.72337	-1.16880
40.000	0.48455	-2.10973	-0.78699	-1.23601
44.003	0.55716	-2.15132	-0.73776	-1.27919
47.999	0.57605	-2.10734	-0.79067	-1.28881
52.004	0.65719	-2.10508	-0.83731	-1.34728
56.010	0.61248	-1.99606	-0.84749	-1.35673
59.965	0.64302	-1.97071	-0.78550	-1.37580
63.999	0.55890	-2.08948	-0.76260	-1.35721
68.002	0.65168	-2.08746	-0.81243	-1.27852
72.005	0.58962	-2.27204	-0.78297	-1.18530
75.998	0.62650	-2.18055	-0.64694	-1.27693
80.000	0.70727	-1.92313	-0.56183	-1.17219
83.899	0.63821	-1.34128	-0.58535	-1.14044
88.000	0.66573	-0.20479	-0.40400	-0.83590
92.003	0.68883	-0.60136	-0.46334	-0.22383
95.999	0.75749	-0.27008	-0.43457	0.35140
99.900	0.84903	-0.34921	-0.43693	0.17625
104.002	0.94207	-0.60661	-0.47589	0.12986
107.991	0.95214	-0.76158	-0.51805	-0.00027
111.991	0.94609	-0.58537	-0.43591	0.09172
115.881	1.00672	-0.47826	-0.42934	0.11622
120.003	0.97581	-0.64782	-0.48731	0.18937
123.999	1.00226	-0.53871	-0.56833	0.27265
128.000	1.05220	-0.59725	-0.51776	0.25944
132.006	1.04597	-0.59681	-0.56012	0.32118
136.002	1.00107	-0.63403	-0.62454	0.22616
140.001	0.97760	-0.65020	-0.61235	0.24520
144.001	0.98219	-0.66195	-0.68945	0.20392
148.002	0.90887	-0.64704	-0.69119	0.20454
151.969	0.89143	-0.62543	-0.70106	0.19875
156.001	0.89465	-0.60195	-0.70980	0.21952
160.003	0.84305	-0.58775	-0.74007	0.28214
163.974	0.85940	-0.52934	-0.74307	0.31292
168.001	0.85471	-0.53932	-0.68498	0.32517
171.999	0.83818	-0.53567	-0.75111	0.36964
176.006	0.81744	-0.52681	-0.75923	0.36134
180.005	0.81781	-0.50728	-0.71141	0.43278
184.003	0.80173	-0.53006	-0.70958	0.47743
188.002	0.76985	-0.56508	-0.64139	0.51013
192.005	0.76384	-0.61243	-0.56290	0.52356
196.005	0.76297	-0.55616	-0.51731	0.52152
200.002	0.68084	-0.69169	-0.41013	0.49462
203.999	0.66146	-0.78568	-0.37015	0.45944
208.003	0.62459	-0.84208	-0.21212	0.35240
211.968	0.61188	-0.85780	-0.27925	0.32987
215.960	0.59895	-0.84131	-0.14786	0.32179
220.003	0.46619	-0.77793	-0.06827	0.24866
224.004	0.56868	-0.76132	-0.06805	0.21216
228.006	0.44634	-0.72752	-0.07001	0.16922
232.002	0.53910	-0.61074	-0.00650	0.10116
235.997	0.66171	-0.36791	-0.02718	0.04165
240.002	0.66883	-0.37179	-0.13186	-0.01600
243.902	0.66895	-0.52134	-0.03760	-0.02823
248.003	0.81486	-0.45337	-0.10845	-0.06846
252.003	0.81429	-0.32029	-0.18296	-0.05397
256.005	0.88240	-0.24936	-0.20641	0.02333
259.899	0.87632	-0.21002	-0.24316	0.04465
263.965	0.79116	-0.24635	-0.25545	0.12812
268.006	0.76191	-0.16973	-0.30344	0.05924
271.966	0.86595	-0.13333	-0.28498	0.01056
275.907	0.86682	-0.02082	-0.20703	-0.00350
280.004	0.82151	-0.03153	-0.26761	-0.00219
284.005	0.89627	-0.08955	-0.23294	-0.03312
288.001	0.90374	-0.11372	-0.26537	-0.02786
292.005	0.81250	-0.07158	-0.21274	0.02977
296.001	0.86431	-0.00812	-0.22385	0.09343
300.003	0.77868	-0.09236	-0.18561	-0.00539
304.001	0.61444	-0.15376	-0.12525	-0.07979
308.007	0.75320	-0.14804	-0.17062	-0.17613
312.006	0.73496	-0.13800	-0.18129	-0.19221
315.992	0.73315	-0.09961	-0.20149	-0.23823
319.994	0.79704	-0.15907	-0.31320	-0.22761
323.905	0.80384	-0.18091	-0.32392	-0.24732
328.003	0.80679	-0.29697	-0.41380	-0.24585
331.971	0.82754	-0.29222	-0.29396	-0.28809
336.005	0.81076	-0.34616	-0.22115	-0.35849
339.964	0.76347	-0.40786	-0.27649	-0.37581
344.007	0.89207	-0.40620	-0.32139	-0.41156
348.003	0.89046	-0.45455	-0.39025	-0.42354
352.005	0.84850	-0.53552	-0.38812	-0.40585
356.007	0.72484	-0.58486	-0.39477	-0.42013
359.971	0.66032	-0.75957	-0.25967	-0.39472
364.007	0.55568	-0.84189	-0.10883	-0.40051
368.006	0.50058	-0.87737	-0.04988	-0.38170
371.860	0.49773	-0.82334	-0.02127	-0.31638
375.884	0.45788	-0.85161	0.07155	-0.28343
379.878	0.33702	-0.80736	0.18633	-0.24551
383.881	0.21442	-0.78033	0.04105	-0.26472
387.908	0.31943	-0.80067	0.01214	-0.23917
391.879	0.17246	-0.81263	0.04648	-0.18617
395.879	0.14067	-0.72901	-0.02358	-0.15019
399.843	0.26341	-0.59300	0.12382	-0.16823
403.872	0.24056	-0.51371	0.08726	-0.14291
407.870	0.32660	-0.46275	0.03291	-0.16701
411.881	0.30163	-0.44804	0.00489	-0.16900
415.878	0.39045	-0.40709	-0.02211	-0.22603
419.907	0.43021	-0.37876	0.00586	-0.25025
423.882	0.55714	-0.34523	-0.11247	-0.23318
427.878	0.62404	-0.32637	-0.18268	-0.18006
431.881	0.66431	-0.20959	-0.12300	-0.25155
435.906	0.61260	-0.20261	-0.09411	-0.21713
439.881	0.65722	-0.19088	-0.08217	-0.29394
443.881	0.57600	-0.14499	-0.15005	-0.37313
447.882	0.50701	-0.01297	-0.18020	-0.47938
451.911	0.71099	-0.07464	-0.16231	-0.42491
455.879	0.82491	-0.11129	-0.20611	-0.45257
459.883	0.96864	-0.10259	-0.18338	-0.47796
463.881	0.75742	-0.08614	-0.18566	-0.40329
467.877	0.73645	-0.06055	-0.28612	-0.42103
471.885	0.68044	-0.03389	-0.17444	-0.38515
475.885	0.60875	0.04048	-0.16072	-0.26221
479.881	0.66253	0.16248	-0.22212	-0.35698
483.906	0.62139	0.24967	-0.24775	-0.21271
487.868	0.68417	0.58210	-0.24450	-0.27175
491.880	0.61729	0.14161	-0.28548	-0.18179
495.881	0.56530	0.33969	-0.29379	-0.18080
499.907	0.56952	0.33601	-0.31193	-0.13150
503.880	0.56610	0.09025	-0.29553	-0.07246
507.882	0.54632	0.10006	-0.31387	-0.02390
511.880	0.56312	-0.24321	-0.30190	-0.01739
515.880	0.53652	-0.34926	-0.38343	0.05203
519.879	0.52659	-0.06505	-0.47197	-0.09067
523.885	0.56751	-0.33753	-0.39087	-0.13592
527.885	0.57451	-0.53603	-0.37434	-0.22518
531.888	0.54878	-0.59417	-0.48470	-0.17453
535.881	0.48423	-0.56185	-0.43524	-0.22098
539.880	0.60632	-0.60947	-0.54230	-0.23528
543.882	0.61548	-0.64124	-0.56774	-0.22793
547.907	0.68360	-0.56620	-0.56570	-0.31502
551.883	0.86865	-0.23691	-0.58585	-0.33527
555.882	0.68806	-0.05553	-0.63950	-0.35554
559.884	0.92545	0.25932	-0.55706	-0.31085
563.853	0.72146	0.00211	-0.55106	-0.29663
567.883	0.68317	-0.19808	-0.53456	-0.21185
571.885	0.77407	0.09911	-0.58528	-0.20271
575.887	0.70809	-0.14956	-0.63794	-0.21973
579.909	0.81583	-0.24176	-0.65265	-0.17267
583.889	0.84034	-0.29102	-0.68799	-0.17053
587.881	0.88207	-0.27733	-0.65067	-0.18800
591.881	0.79173	-0.54311	-0.62689	-0.18417
595.904	0.73836	-0.66369	-0.67330	-0.17279
599.882	0.74786	-0.61191	-0.64895	-0.17376
603.847	0.73369	-0.82780	-0.68613	-0.19947
607.885	0.74034	-0.81977	-0.75245	-0.23960
611.896	0.75414	-0.77881	-0.71183	-0.31044
615.874	0.71054	-0.81618	-0.73459	-0.36791
619.883	0.75464	-0.85316	-0.76712	-0.41084
623.882	0.74270	-0.83286	-0.70300	-0.48247
627.910	0.82369	-0.88628	-0.69861	-0.47937
631.880	0.76493	-0.90647	-0.70506	-0.54605
635.884	0.84620	-0.81948	-0.79776	-0.56676
639.881	0.95033	-0.89077	-0.82109	-0.57312
643.879	0.97911	-0.89628	-0.81223	-0.60296
647.880	0.98162	-0.91381	-0.92282	-0.62473
651.886	0.94763	-0.92329	-0.95140	-0.63898
655.856	1.01536	-0.87538	-1.07706	-0.61307
659.856	1.09058	-0.91110	-1.05235	-0.53246
663.884	1.11264	-0.73782	-1.06669	-0.54185
667.883	1.08108	-0.88420	-1.08994	-0.50813
671.882	1.07220	-0.89511	-1.03746	-0.54285
675.911	1.10847	-0.88365	-1.05185	-0.53681
679.884	1.09954	-0.91137	-0.99400	-0.52075
683.885	0.97715	-0.86548	-0.83056	-0.48402
687.882	0.93095	-0.87344	-0.86299	-0.41644
691.856	0.65392	-0.87683	-0.79491	-0.33893
695.883	0.57731	-0.83364	-0.71288	-0.29995
699.880	0.61910	-0.91318	-0.65129	-0.22636
703.883	0.48555	-0.94199	-0.60196	-0.17416
707.877	0.46800	-0.97789	-0.55515	-0.10645
711.886	0.40484	-1.00825	-0.52523	-0.04480
715.886	0.43624	-1.08098	-0.53724	-0.06682
719.885	0.40517	-1.08024	-0.52967	-0.03089
723.906	0.35419	-1.13755	-0.54255	-0.04803
727.885	0.35566	-1.16147	-0.55014	-0.01367
731.886	0.39164	-1.10553	-0.55771	-0.05546
735.885	0.48622	-1.03984	-0.54793	-0.09708
739.900	0.80970	-1.13231	-0.56704	-0.07335
743.884	0.68407	-1.02810	-0.58349	-0.09410
747.888	0.77818	-0.97102	-0.61243	-0.12116
751.887	0.92433	-0.97163	-0.63491	-0.19148
755.911	0.92803	-0.98445	-0.68749	-0.20966
759.886	1.02377	-0.95933	-0.70015	-0.21629
763.854	1.00080	-0.91602	-0.77610	-0.24924
767.885	0.95765	-0.88128	-0.89190	-0.22928
771.883	0.96983	-0.83803	-0.86411	-0.26908
775.895	0.92666	-0.82118	-0.78382	-0.26998
779.866	0.93041	-0.83881	-0.85684	-0.27768
783.889	0.84111	-0.77099	-0.84615	-0.29873
787.910	0.88456	-0.68746	-0.88925	-0.30998
791.885	0.91034	-0.74236	-0.91180	-0.28160
795.896	0.82736	-0.80778	-0.96050	-0.21516
799.888	0.88979	-0.77066	-0.80744	-0.23346
803.879	0.84503	-0.71154	-0.76116	-0.26897
807.885	0.90805	-0.65042	-0.76823	-0.21885
811.887	0.97834	-0.76316	-0.57607	-0.19848
815.886	0.91172	-0.69881	-0.58858	-0.11604
819.905	0.86657	-0.66702	-0.50066	-0.04957
823.878	0.75665	-0.81840	-0.52128	-0.05104
827.884	0.66754	-0.84833	-0.55721	-0.07037
831.885	0.70910	-0.79605	-0.59985	-0.07810
835.885	0.67868	-0.49443	-0.62729	-0.17997
839.886	0.51528	-0.59154	-0.58084	-0.17120
843.888	0.58257	-1.00867	-0.57880	-0.18370
847.887	0.52557	-0.84907	-0.62002	-0.15820
851.891	0.47418	-0.96681	-0.69228	-0.22944
855.889	0.45371	-0.86098	-0.77759	-0.21328
859.890	0.47855	-0.86162	-0.75283	-0.30656
863.860	0.49508	-0.96437	-0.83816	-0.35441
867.859	0.51265	-0.87118	-0.88118	-0.33040
871.886	0.62657	-0.87951	-0.91641	-0.36769
875.887	0.69345	-0.87592	-0.95048	-0.39986
879.889	0.72476	-0.88419	-0.91597	-0.32926
883.892	0.79230	-0.89789	-0.91356	-0.30222
887.889	0.75637	-0.88394	-0.93063	-0.29450
891.889	0.71315	-0.88929	-0.94381	-0.20299
895.857	0.73273	-0.83053	-0.92706	-0.11310
899.897	0.72563	-0.85811	-0.94661	-0.29156
903.873	0.60022	-0.84290	-0.97827	-0.26189
907.884	0.42594	-0.78399	-0.94070	-0.29112
911.885	0.39894	-0.75217	-0.94698	-0.28371
915.893	0.31933	-0.72192	-0.89371	-0.28185
919.890	0.53659	-0.44495	-0.93663	-0.28739
923.889	0.47197	-0.68556	-0.97750	-0.44547
927.887	0.37760	-0.73575	-0.94696	-0.41000
931.892	0.32521	-0.67990	-0.97018	-0.40441
935.889	0.34938	-0.62765	-0.98588	-0.40028
939.889	0.36586	-0.62624	-0.97594	-0.43427
943.888	0.38167	-0.19476	-0.94557	-0.39407
947.891	0.48532	-0.11507	-0.91547	-0.33303
951.888	0.49902	-0.43650	-0.92914	-0.39879
955.889	0.64022	-0.49132	-0.99633	-0.37541
959.852	0.67022	-0.49828	-1.03044	-0.42241
963.857	0.74779	-0.32666	-1.04257	-0.38221
967.891	0.69990	-0.28119	-1.05905	-0.35555
971.890	0.75925	-0.38783	-1.07145	-0.36812
975.891	0.75283	-0.30750	-1.04253	-0.38976
979.894	0.77315	-0.21870	-0.96971	-0.42898
983.892	0.74843	-0.17594	-0.93589	-0.40595
987.868	0.74516	-0.15191	-0.96150	-0.48463
991.889	0.73573	-0.10431	-0.88550	-0.49594
995.894	0.72724	-0.05533	-1.00801	-0.44691
999.890	0.66498	-0.12657	-0.99154	-0.47387
1003.888	0.69228	-0.12719	-0.98690	-0.40917
1007.891	0.64871	-0.18499	-1.04637	-0.47393
1011.883	0.53237	-0.22629	-0.92594	-0.43629
1015.889	0.41978	-0.22851	-0.92584	-0.45653
1019.886	0.49877	-0.24873	-0.94006	-0.43387
1023.891	0.41584	-0.30198	-0.98417	-0.41712
1027.877	0.40971	-0.27005	-1.01958	-0.35411
1031.883	0.40738	-0.31140	-0.90535	-0.29750
1035.889	0.40291	-0.33018	-0.77652	-0.26827
1039.890	0.39182	-0.31324	-0.95477	-0.23534
1043.891	0.44065	-0.28814	-0.93269	-0.15037
1047.889	0.41616	-0.26883	-0.93822	-0.15121
1051.889	0.41403	-0.29174	-0.99142	-0.12284
1055.887	0.42939	-0.35364	-0.92259	-0.13511
1059.789	0.48696	-0.33219	-0.89756	-0.11278
1063.854	0.44326	-0.31406	-0.97102	-0.14997
1067.890	0.38296	-0.30186	-0.88925	-0.15579
1071.865	0.36844	-0.26687	-0.82821	-0.26765
1075.896	0.33218	-0.33039	-0.90629	-0.35852
1079.892	0.31526	-0.36962	-0.97375	-0.28428
1083.892	0.30587	-0.38761	-1.01970	-0.37277
1087.894	0.29262	-0.48094	-1.00318	-0.44830
1091.894	0.21683	-0.54999	-1.03640	-0.48390
1095.892	0.18313	-0.56095	-1.01729	-0.46320
1099.892	0.14173	-0.59516	-1.06999	-0.51594
1103.890	0.11324	-0.53779	-1.10552	-0.56306
1107.894	0.11930	-0.55524	-1.13551	-0.61537
1111.875	0.17859	-0.54612	-1.16930	-0.58299
1115.855	0.14074	-0.58182	-1.24096	-0.59217
1119.893	0.13744	-0.54115	-1.24275	-0.53722
1123.792	0.08321	-0.51411	-1.29231	-0.55281
1127.892	0.06396	-0.53864	-1.32240	-0.56239
1131.889	-0.01829	-0.52154	-1.33150	-0.59756
1135.890	0.03864	-0.42484	-1.37228	-0.57420
1139.792	0.01241	-0.33114	-1.38361	-0.59204
1143.852	0.03884	-0.30348	-1.38165	-0.57502
1147.893	0.05259	-0.29173	-1.39609	-0.58105
1151.889	0.05835	-0.25045	-1.37655	-0.55565
1155.753	0.03782	-0.20249	-1.34725	-0.55484
1159.891	0.09840	-0.21959	-1.33376	-0.55829
1163.858	0.16285	-0.21020	-1.34418	-0.56355
1167.893	0.15672	-0.18905	-1.34678	-0.60173
1171.793	0.15727	-0.24240	-1.30119	-0.59263
1175.895	0.19422	-0.24933	-1.32208	-0.57841
1179.895	0.21490	-0.30733	-1.28765	-0.57455
1183.895	0.16144	-0.32733	-1.23002	-0.55069
1187.893	0.28436	-0.35526	-1.22084	-0.58191
1191.895	0.42653	-0.37645	-1.20623	-0.59305
1195.872	0.41172	-0.41138	-1.25284	-0.59239
1199.892	0.43271	-0.44224	-1.24823	-0.59048
1203.897	0.51681	-0.48860	-1.29186	-0.59186
1207.890	0.36888	-0.47718	-1.29204	-0.60902
1211.892	0.46396	-0.53370	-1.22598	-0.58850
1215.861	0.42651	-0.49755	-1.25146	-0.55707
1219.895	0.45788	-0.49417	-1.22975	-0.53419
1223.892	0.34742	-0.51507	-1.13973	-0.60466
1227.892	0.39050	-0.52640	-1.17974	-0.66499
1231.893	0.42522	-0.54128	-1.11462	-0.63346
1235.889	0.31645	-0.53155	-1.02960	-0.59616
1239.893	0.35814	-0.46528	-0.94150	-0.53263
1243.894	0.34064	-0.40118	-0.85751	-0.54591
1247.895	0.23145	-0.48179	-0.83114	-0.37217
1251.896	0.21457	-0.48087	-0.83987	-0.42849
1255.891	0.20673	-0.55737	-0.88724	-0.35147
1259.894	0.19450	-0.57874	-0.77163	-0.42848
1263.895	0.18288	-0.61929	-0.71243	-0.40960
1267.898	0.20249	-0.67025	-0.69392	-0.40632
1271.893	0.19184	-0.60108	-0.67722	-0.36980
1275.894	0.09890	-0.61581	-0.65568	-0.33300
1279.867	0.06428	-0.61909	-0.68399	-0.31899
1283.765	0.07924	-0.66349	-0.72228	-0.37360
1287.894	0.07862	-0.68228	-0.75570	-0.38207
1291.892	0.10307	-0.63226	-0.83612	-0.46924
1295.893	0.13960	-0.64304	-0.82640	-0.48825
1299.797	0.17313	-0.62992	-0.80699	-0.44162
1303.893	0.13990	-0.64555	-0.82771	-0.46144
1307.896	0.12553	-0.50345	-0.90150	-0.47331
1311.892	0.11019	-0.56418	-1.00320	-0.39022
1315.796	0.18065	-0.40734	-1.11837	-0.41055
1319.896	0.25319	-0.51108	-1.39924	-0.42615
1323.893	0.27850	-0.47147	-1.22015	-0.34562
1327.895	0.44524	-0.43976	-1.30868	-0.40672
1331.897	0.45063	-0.44836	-1.24186	-0.40429
1335.893	0.31548	-0.51729	-1.17518	-0.38801
1339.894	0.34231	-0.42776	-1.26488	-0.32862
1343.897	0.40080	-0.42629	-1.20370	-0.32535
1347.899	0.37653	-0.37677	-1.25577	-0.29640
1351.896	0.42065	-0.42157	-1.12948	-0.31279
1355.892	0.43924	-0.42274	-1.00375	-0.31687
1359.896	0.46217	-0.47767	-0.93242	-0.29795
1363.867	0.50800	-0.45588	-0.92956	-0.30602
1367.897	0.50763	-0.52244	-0.92219	-0.28953
1371.895	0.69838	-0.55366	-0.87676	-0.20063
1375.894	0.60272	-0.55349	-0.87106	-0.14684
1379.770	0.74342	-0.58627	-0.77149	-0.11253
1383.897	0.74481	-0.59489	-0.75655	-0.10133
1387.898	0.65781	-0.62747	-0.68811	-0.09191
1391.894	0.67655	-0.61016	-0.70094	-0.10158
1395.896	0.75292	-0.52659	-0.57131	-0.02773
1399.897	0.68610	-0.38220	-0.55858	-0.04617
1403.877	0.80846	-0.37019	-0.42601	-0.02308
1407.770	0.79315	-0.38929	-0.47321	0.02256
1411.770	0.85280	-0.26041	-0.51212	0.00967
1415.771	0.82352	-0.27336	-0.51952	-0.05939
1419.772	0.72431	-0.28634	-0.47525	-0.11003
1423.773	0.82898	-0.19805	-0.48167	-0.12049
1427.799	1.01747	-0.15874	-0.41941	-0.03787
1431.786	1.01970	-0.14929	-0.43291	-0.00567
1435.768	0.77320	-0.11959	-0.41931	-0.10740
1439.769	0.85007	-0.07581	-0.44827	-0.18395
1443.769	1.84580	0.18940	-0.17998	-0.18234
1447.771	3.24427	0.15208	1.57121	-0.02422
1451.741	4.97704	0.24711	2.59086	0.30243
1455.770	6.22699	0.22163	3.41978	0.46922
1459.793	7.07236	0.34294	5.62766	0.84944
1463.770	7.33696	0.27376	5.54538	0.81467
1467.733	7.43356	0.33175	5.57977	1.08454
1471.774	7.39830	0.42083	5.52640	0.98455
1475.795	7.33943	0.42720	5.43455	1.10073
1479.769	7.37597	0.50163	5.37178	1.08576
1483.769	7.20028	0.50338	5.40164	1.00432
1487.739	7.36313	0.50312	5.38255	1.02866
1491.770	7.39444	0.53019	5.42513	1.11630
1495.768	7.29404	0.48371	5.44126	1.12619
1499.773	7.32658	0.49792	5.44581	1.13565
1503.773	7.26329	0.49468	5.40311	1.14342
1507.766	7.27777	0.47266	5.45961	1.18649
1511.771	7.24048	0.48887	5.43056	1.18076
1515.773	7.24649	0.44486	5.42658	1.19212
1519.735	7.23066	0.40997	5.44815	1.23972
1523.773	7.26053	0.38190	5.50225	1.24838
1527.776	7.25550	0.24036	5.53923	1.24195
1531.771	7.27128	0.23468	5.58786	1.23950
1535.770	7.27768	0.25805	5.56389	1.22825
1539.775	7.33820	0.21412	5.58171	1.18357
1543.771	7.46658	0.25050	5.61426	1.19394
1547.774	7.37668	0.35400	5.66850	1.17724
1551.771	7.35163	0.33172	5.66954	1.12348
1555.772	7.43498	0.37007	5.73428	1.13956
1559.773	7.47997	0.36143	5.82240	1.10232
1563.775	7.61338	0.47855	5.97688	1.07970
1567.773	7.40040	0.52920	5.95027	1.08230
1571.774	7.40067	0.60945	5.88044	1.06779
1575.752	7.45172	0.62236	5.86860	1.03707
1579.770	7.48941	0.57036	5.82437	1.00319
1583.777	7.40960	0.62701	5.79381	0.98558
1587.767	7.49829	0.43089	6.02327	0.85020
1591.774	7.49222	0.48593	6.08421	0.87572
1595.773	7.63786	0.43646	6.13630	0.78306
1599.773	7.67923	0.41800	6.20276	0.75609
1603.765	7.63243	0.38958	6.34295	0.79739
1607.773	7.58539	0.27981	6.33995	0.78416
1611.776	7.60356	0.27424	6.25782	0.80004
1615.762	7.67211	0.20923	6.39543	0.81393
1619.767	7.67506	0.22078	6.33995	0.78922
1623.773	7.65627	0.21258	6.30762	0.81271
1627.770	7.68135	0.26722	6.30065	0.85408
1631.775	7.68527	0.32437	6.26262	0.85925
1635.765	7.65588	0.37505	6.20442	0.85658
1639.772	7.65420	0.34102	6.23013	0.90959
1643.774	7.64264	0.38740	6.30862	0.85609
1647.749	7.90516	0.34972	6.29406	0.82666
1651.801	8.01341	0.67724	7.79108	0.96995
1655.783	9.01377	0.55101	8.41332	1.14214
1659.742	9.54945	0.69669	8.95569	1.16282
1663.775	9.91522	0.97066	8.93982	1.68393
1667.766	10.09874	0.78784	9.10642	1.59038
1671.774	10.10208	1.04444	9.02355	1.31115
1675.773	9.90614	1.06401	9.04333	1.74673
1679.772	9.98593	1.09945	9.05139	1.56807
1683.799	10.08548	1.03941	9.12345	1.36160
1687.775	10.16192	1.09464	9.27670	1.68092
1691.775	10.25718	1.05836	9.41692	1.56330
1695.775	10.11969	0.95994	9.37363	1.55698
1699.767	10.25781	0.93435	9.19563	1.65738
1703.776	10.35152	0.96753	9.11012	1.65271
1707.775	10.39712	0.92973	9.13594	1.69657
1711.774	10.36502	0.79146	9.15016	1.66015
1715.768	10.36341	0.85931	9.17689	1.68392
1719.775	10.31655	0.75477	9.24878	1.60163
1723.774	10.35472	0.69086	9.36911	1.65198
1727.775	10.34215	0.79240	9.29152	1.59175
1731.799	10.39138	0.83301	9.32050	1.59589
1735.776	10.41021	0.87784	9.29483	1.66591
1739.774	10.45925	0.89864	9.18264	1.65222
1743.774	10.47772	0.87338	9.12827	1.66005
1747.775	10.53473	0.96727	9.20226	1.65564
1751.777	10.43755	0.98439	9.19181	1.61130
1755.777	10.47832	0.95365	9.32115	1.61816
1759.774	10.46736	0.68490	9.32533	1.57200
1763.745	10.48461	0.88264	9.18985	1.41751
1767.775	10.43868	0.96858	9.15763	1.33830
1771.739	10.42408	0.92868	9.16770	1.37457
1775.776	10.37520	0.85280	9.14259	1.34985
1779.770	10.31580	0.88195	9.18968	1.31667
1783.779	10.28587	0.94118	9.37837	1.22282
1787.775	10.21226	0.96981	9.37023	1.36868
1791.777	10.19697	0.99734	9.28763	1.31596
1795.778	10.17959	1.00043	9.33628	1.25272
1799.738	10.12106	1.01088	9.37431	1.27307
1803.776	10.07584	1.18300	9.49624	1.18784
1807.778	10.07252	1.29321	9.67567	1.34885
1811.771	10.04571	1.30102	9.71085	1.36753
1815.777	9.94724	1.44950	9.63498	1.41576
1819.776	9.96862	1.34306	9.60171	1.45963
1823.765	9.94407	1.36823	9.61865	1.50815
1827.799	9.89583	1.31366	9.51602	1.45044
1831.777	9.92444	1.32316	9.50788	1.44198
1835.780	9.99924	1.25662	9.41735	1.46093
1839.778	10.00858	1.28481	9.46918	1.52520
1843.802	9.95851	1.30646	9.27298	1.45185
1847.777	9.97515	1.32288	9.31624	1.42915
1851.780	9.97705	1.22243	9.28330	1.36520
1855.779	10.18363	1.18001	9.25144	1.33684
1859.801	10.24192	1.11749	9.41211	1.23324
1863.779	10.28493	1.20376	9.35665	1.25233
1867.746	10.41484	0.88421	9.56023	1.15511
1871.777	10.51177	-0.32326	9.93872	-0.73256
1875.806	11.16884	-2.40789	10.49128	-2.62752
1879.774	10.98657	-3.07784	10.27876	-2.81620
1883.778	11.20746	-4.99685	10.36631	-4.56656
1887.776	10.63739	-6.53200	10.63974	-5.24580
1891.778	10.99061	-6.46323	10.83132	-5.69900
1895.741	11.24468	-8.84267	10.76808	-6.26811
1899.779	11.11203	-8.94709	10.83764	-8.07098
1903.779	10.80493	-10.19582	10.62543	-7.30751
1907.779	10.57136	-10.59140	10.97970	-7.64943
1911.774	10.88621	-10.26661	11.06311	-7.43333
1915.779	11.08827	-9.62287	10.95071	-7.48218
1919.778	10.75862	-9.86764	10.92899	-7.44646
1923.777	10.82864	-9.89239	11.04487	-7.46292
1927.778	10.90616	-9.91566	10.95892	-7.62314
1931.778	10.97975	-10.00081	11.05840	-7.60569
1935.777	11.07879	-10.08575	11.05964	-7.60435
1939.745	11.09998	-9.97421	11.10806	-7.66035
1943.781	11.00902	-10.12067	11.15093	-7.60281
1947.779	11.09592	-10.09945	11.38273	-7.67642
1951.774	11.03078	-10.07947	11.11346	-7.72379
1955.772	11.11693	-10.02290	11.15484	-7.81629
1959.783	11.07998	-10.04828	11.18969	-7.87289
1963.748	11.07140	-10.16732	11.23996	-7.79122
1967.781	11.17156	-10.13562	11.31032	-7.84740
1971.783	10.97530	-10.26062	11.43255	-7.88320
1975.777	10.97286	-10.25867	11.38247	-7.84606
1979.781	10.91600	-10.28091	11.43312	-7.92698
1983.782	10.73936	-10.35738	11.40086	-7.92092
1987.770	10.69393	-10.44028	11.31798	-7.96908
1991.778	10.73059	-10.40369	11.25665	-7.98778
1995.779	10.73447	-10.57300	11.31240	-7.96314
1999.779	10.72484	-10.67486	11.25698	-7.89416
2003.770	10.77560	-10.65392	11.36584	-7.88978
2007.779	10.76264	-10.58241	11.34199	-7.85486
2011.777	10.74288	-10.65870	11.26732	-7.81771
2015.739	10.93146	-10.66345	11.22222	-7.77094
2019.781	10.91801	-10.62561	11.28682	-7.66003
2023.779	11.08103	-10.63327	11.24227	-7.58133
2027.780	11.18855	-10.63718	11.22823	-7.45969
2031.758	11.41585	-10.56356	11.24719	-7.43119
2035.772	11.35215	-10.73483	11.34743	-7.37366
2039.779	11.19719	-10.73502	11.31832	-7.33912
2043.779	11.26280	-10.75299	11.34943	-7.43298
2047.779	11.50437	-10.71326	11.35747	-7.41473
2051.779	11.59053	-10.80268	11.30729	-7.51495
2055.781	11.53201	-10.85501	11.27421	-7.47799
2059.781	11.56460	-10.84295	11.26362	-7.57043
2063.744	11.65104	-10.77364	11.21436	-7.63718
2067.783	11.61154	-10.95339	11.27822	-7.63766
2071.793	11.69624	-10.93901	11.21095	-7.67584
2075.747	11.70711	-10.84727	11.23423	-7.75256
2079.780	11.62178	-10.83790	11.20598	-7.77465
2083.753	11.69409	-10.71007	11.20577	-7.81058
2087.744	11.76526	-10.65828	11.19351	-7.74919
2091.780	11.73098	-10.73895	11.20113	-7.79213
2095.779	11.70968	-10.66294	11.21649	-7.75150
2099.678	11.67401	-10.65594	11.24559	-7.80166
2103.780	11.68503	-10.68767	11.25333	-7.81072
2107.781	11.63030	-10.69920	11.29536	-7.77942
2111.783	11.65494	-10.67691	11.26751	-7.78790
2115.765	11.64247	-10.62999	11.28954	-7.80606
2119.781	11.57955	-10.64146	11.29622	-7.84008
2123.779	11.49383	-10.66966	11.29500	-7.87075
2127.777	11.54909	-10.65599	11.29529	-7.84106
2131.781	11.58225	-10.66327	11.29612	-7.84931
2135.783	11.57553	-10.67180	11.27877	-7.84907
2139.782	11.59780	-10.66600	11.27223	-7.85240
2143.778	11.59713	-10.71262	11.24447	-7.85807
2147.783	11.55209	-10.75585	11.26992	-7.80030
2151.783	11.68531	-10.75668	11.28753	-7.82917
2155.778	11.69198	-10.86074	11.30961	-7.82159
2159.777	11.63423	-11.01043	11.37257	-7.81214
2163.687	11.76302	-10.95031	11.37961	-7.80064
2167.746	11.77941	-11.05047	11.45446	-7.74785
2171.780	11.85659	-11.16491	11.45176	-7.78604
2175.784	11.79810	-11.24412	11.48966	-7.78759
2179.783	11.94168	-11.27472	11.54563	-7.80343
2183.781	11.66682	-11.16715	11.12039	-7.85070
2187.779	11.98049	-11.13182	10.64391	-7.83964
2191.782	10.71370	-10.86126	10.39779	-7.88364
2195.779	9.79580	-8.76740	9.37769	-7.52608
2199.762	9.10908	-8.32131	6.87912	-6.22540
2203.782	8.32531	-7.08871	6.30512	-5.54906
2207.786	7.95862	-6.00691	5.86389	-5.10089
2211.786	7.81488	-4.84315	5.97099	-4.24762
2215.785	7.57683	-4.86124	5.83075	-3.73522
2219.782	7.40775	-4.58763	5.67826	-3.25606
2223.782	7.11281	-4.71688	5.75357	-3.61080
2227.786	7.07121	-4.74608	5.71192	-4.00596
2231.782	6.94191	-4.70584	5.73094	-3.87476
2235.782	6.88357	-4.59476	5.65540	-3.65966
2239.774	6.88996	-4.58438	5.57274	-3.42376
2243.787	6.87768	-4.53640	5.49746	-3.30255
2247.783	6.79540	-4.53674	5.42183	-3.09840
2251.783	6.90776	-4.52570	5.43238	-3.11514
2255.783	6.74905	-4.45641	5.49246	-3.04378
2259.683	6.71711	-4.46936	5.45511	-2.94934
2263.746	6.71255	-4.34006	5.64756	-2.97267
2267.784	6.77002	-4.34198	5.56718	-2.92271
2271.747	6.77068	-4.16622	5.59209	-2.89471
2275.788	6.82361	-4.14024	5.52743	-2.83147
2279.791	6.72964	-4.14315	5.46352	-2.78200
2283.752	6.67010	-3.95051	5.46541	-2.72113
2287.786	6.72154	-3.77673	5.57291	-2.73128
2291.680	6.70639	-3.95815	5.67516	-2.74550
2295.784	6.65270	-3.65070	5.66774	-2.77270
2299.783	6.62412	-3.60900	5.60701	-2.84779
2303.786	6.57377	-3.57865	5.64479	-2.86357
2307.785	6.56748	-3.68890	5.52950	-2.80000
2311.783	6.55302	-3.75656	5.54439	-2.84462
2315.785	6.58479	-3.78554	5.42808	-2.74221
2319.783	6.51452	-3.82058	5.44480	-2.72925
2323.771	6.56118	-3.84011	5.46841	-2.78304
2327.782	6.69109	-3.75716	5.51796	-2.81131
2331.784	6.78407	-3.69137	5.48523	-2.85358
2335.783	6.76072	-3.71391	5.46091	-2.88074
2339.787	6.71899	-3.77385	5.41027	-2.88335
2343.786	6.69836	-3.76715	5.35037	-2.86207
2347.786	6.74621	-3.78278	5.30402	-2.82872
2351.787	6.71840	-3.82284	5.23302	-2.84141
2355.789	6.72159	-3.85149	5.20071	-2.83597
2359.787	6.68215	-3.92164	5.46905	-2.87276
2363.750	6.74704	-3.93984	5.47786	-2.86968
2367.787	6.79403	-3.99802	5.34641	-2.83143
2371.788	6.67588	-3.72550	5.34444	-2.82429
2375.781	6.61423	-3.83997	5.17459	-2.83525
2379.785	6.05734	-3.44817	2.67266	-2.54636
2383.786	3.25894	-2.57500	0.54225	-1.95096
2387.792	1.54004	-1.67963	-1.59750	-1.63194
2391.785	-0.45564	-1.38706	-1.77077	-1.10197
2395.766	-0.98507	-0.87412	-3.40442	-0.81410
2399.786	-2.43620	-0.75526	-4.50182	-0.96274
2403.683	-2.95119	-0.59678	-5.05676	-0.88067
2407.771	-3.98939	0.00548	-6.48982	-0.70827
2411.785	-4.71513	0.01746	-6.42339	-0.47862
2415.785	-5.29575	0.66991	-7.40570	0.20758
2419.787	-5.20654	0.92010	-7.13277	0.24228
2423.785	-5.64041	1.32219	-7.24578	0.63697
2427.784	-5.79764	2.00814	-7.26371	0.78827
2431.785	-5.77539	2.46756	-7.23242	0.83646
2435.687	-5.98130	2.20771	-7.27585	1.24099
2439.785	-5.88076	2.29992	-7.34121	1.41084
2443.662	-6.12951	2.56710	-7.36789	1.75634
2447.663	-6.13667	2.60521	-7.29294	1.66387
2451.693	-6.03594	2.44327	-7.30402	1.70289
2455.663	-6.16243	2.51008	-7.32097	1.72467
2459.663	-6.19675	2.46061	-7.26593	1.80509
2463.629	-6.18492	2.55823	-7.25509	1.81806
2467.661	-6.19155	2.60295	-7.19749	1.84484
2471.662	-6.30418	2.62097	-7.22536	1.82916
2475.663	-6.30313	2.62928	-7.19732	1.85587
2479.665	-6.25608	2.61828	-7.22866	1.82720
2483.656	-6.23273	2.57439	-7.25160	1.91223
2487.668	-6.21090	2.55327	-7.18667	1.93411
2491.665	-6.24212	2.60856	-7.23980	1.80029
2495.661	-6.28474	2.60724	-7.26925	1.81034
2499.685	-6.10625	2.60395	-7.28901	1.75409
2503.625	-6.29837	2.63024	-7.25731	1.69181
2507.661	-6.32608	2.58502	-7.31096	1.61645
2511.665	-6.42258	2.51543	-7.37973	1.72424
2515.687	-6.36359	2.42812	-7.44440	1.84566
2519.664	-6.28383	2.27278	-7.49490	1.83477
2523.662	-6.16589	2.25666	-7.46433	1.86751
2527.663	-6.04639	2.18193	-7.44057	1.85174
2531.655	-6.25200	2.40379	-7.41580	1.78530
2535.662	-6.15146	2.36856	-7.40103	1.86778
2539.656	-6.00170	2.31355	-7.39435	1.86126
2543.664	-6.03074	2.18547	-7.35075	1.87786
2547.657	-6.04075	2.23456	-7.36091	1.91113
2551.661	-5.95029	2.33418	-7.29919	1.92968
2555.662	-5.89203	2.38311	-7.22414	1.95872
2559.664	-5.81666	2.37795	-7.16422	1.97035
2563.666	-5.80327	2.47674	-7.16244	1.93313
2567.663	-5.82513	2.53692	-7.25699	1.97692
2571.664	-5.84974	2.63892	-7.05875	1.93726
2575.629	-5.80533	2.65884	-7.09587	1.93407
2579.690	-5.81098	2.69357	-7.04269	1.92951
2583.634	-5.79526	2.74717	-7.07422	1.95357
2587.627	-5.80784	2.81703	-7.03081	1.94661
2591.628	-5.80781	2.81306	-7.08779	2.02661
2595.667	-5.84974	2.80969	-7.00416	2.02649
2599.662	-5.88476	2.76222	-7.08774	2.05058
2603.665	-5.86160	2.84189	-7.07789	2.02355
2607.663	-5.86980	2.83553	-7.11115	2.07064
2611.655	-5.85770	2.83678	-7.05230	2.04529
2615.667	-5.80857	2.85244	-7.08754	2.05715
2619.648	-5.79000	2.81672	-7.10269	2.09023
2623.659	-5.81960	2.77016	-7.10809	2.09962
2627.662	-5.83601	2.72472	-7.13031	2.09353
2631.662	-5.82967	2.62476	-7.21161	2.08823
2635.663	-5.89527	2.50338	-7.23020	2.08588
2639.663	-5.84714	2.52676	-7.31882	2.08540
2643.663	-5.86204	2.55792	-7.24573	2.08007
2647.663	-5.88783	2.56587	-7.27162	2.09052
2651.664	-5.97632	2.47195	-7.29912	2.11060
2655.669	-5.98474	2.41209	-7.56242	2.13192
2659.668	-6.35307	2.40766	-7.84620	2.12267
2663.632	-8.16304	2.09408	-9.00138	2.07596
2667.666	-8.92859	2.06806	-10.68930	1.63551
2671.666	-9.49921	2.06583	-11.36806	1.02247
2675.688	-9.96559	1.82489	-11.08870	0.62453
2679.663	-10.09554	1.95322	-10.91473	0.66264
2683.665	-10.06376	1.95331	-10.77236	0.61570
2687.673	-9.96990	1.78880	-10.65273	0.98824
2691.665	-9.85833	1.84341	-10.66258	0.68419
2695.666	-9.81450	1.83343	-10.53535	0.72972
2699.667	-9.88940	1.80697	-10.82392	0.76526
2703.626	-9.93463	1.81433	-11.00046	0.67974
2707.691	-9.96010	1.83962	-10.94275	0.65706
2711.664	-9.95960	1.86871	-11.00938	0.64643
2715.663	-9.92897	1.89994	-10.91102	0.65518
2719.628	-9.91168	1.93217	-10.99061	0.72088
2723.659	-9.92081	1.92925	-10.97583	0.72646
2727.664	-9.89176	1.89187	-10.94268	0.72451
2731.666	-9.94618	1.89828	-11.02110	0.69596
2735.666	-9.92533	1.90351	-10.99183	0.68798
2739.693	-9.98360	1.92287	-10.94746	0.65832
2743.661	-9.95656	1.98273	-10.90935	0.63594
2747.668	-10.04129	1.89366	-10.73540	0.62139
2751.665	-9.91544	1.98982	-10.76887	0.56987
2755.689	-9.78794	1.95156	-10.70279	0.55881
2759.665	-9.85394	1.90578	-10.67818	0.54050
2763.666	-9.78942	1.91562	-10.65019	0.52274
2767.703	-9.70372	1.86448	-10.57064	0.51252
2771.670	-9.77893	1.82001	-10.49416	0.59572
2775.667	-9.74195	1.73205	-10.52365	0.63707
2779.668	-9.67102	1.80691	-10.48418	0.69928
2783.667	-9.74285	1.77548	-10.52096	0.72938
2787.663	-9.81734	1.64750	-10.57738	0.72473
2791.667	-9.76059	1.60599	-10.71880	0.72725
2795.666	-9.73147	1.52238	-10.79935	0.81926
2799.667	-9.73082	1.54390	-10.71609	0.91178
2803.658	-9.77011	1.53031	-10.66213	0.93103
2807.670	-9.80636	1.51700	-10.71224	0.82782
2811.666	-9.79040	1.44175	-10.76077	0.87506
2815.679	-9.79655	1.49101	-10.69515	0.83634
2819.661	-9.77746	1.52200	-10.71497	0.81668
2823.670	-9.79173	1.49301	-10.68981	0.77241
2827.653	-9.81891	1.48910	-10.66879	0.75423
2831.660	-9.79395	1.55090	-10.63566	0.85467
2835.660	-9.84987	1.61392	-10.62571	0.90775
2839.668	-9.86729	1.65787	-10.64463	0.80908
2843.664	-9.94580	1.63766	-10.59145	0.82771
2847.668	-9.86960	1.68951	-10.64369	0.86741
2851.690	-9.80040	1.67822	-10.64190	0.85170
2855.667	-9.79910	1.69014	-10.67504	0.81696
2859.668	-9.90233	1.93741	-10.70989	0.79411
2863.666	-9.96229	1.94769	-10.70696	0.76214
2867.675	-10.03919	1.91677	-10.73698	0.69538
2871.634	-9.96607	1.95182	-10.75718	0.65078
2875.667	-9.99197	1.96824	-10.77169	0.54672
2879.668	-9.91192	1.96417	-10.76659	0.51149
2883.692	-9.94659	1.91605	-10.77773	0.44971
2887.668	-9.85153	1.82990	-10.79775	0.47626
2891.667	-9.90978	1.71875	-10.81111	0.45435
2895.669	-9.94438	1.79982	-10.81590	0.44377
2899.691	-9.90233	1.86185	-10.82224	0.44982
2903.672	-9.88032	1.76555	-10.77646	0.47190
2907.671	-9.81028	1.73617	-10.76496	0.49291
2911.649	-9.81530	1.74214	-10.71698	0.52639
2915.692	-9.77580	1.85094	-10.70174	0.54824
2919.670	-9.71611	1.88073	-10.70581	0.55456
2923.637	-9.75531	1.85593	-10.66023	0.57054
2927.670	-9.66692	1.94062	-10.64180	0.62070
2931.672	-9.64432	1.99071	-10.60843	0.68012
2935.668	-9.64699	1.94416	-10.56112	0.67658
2939.667	-9.62249	1.99126	-10.52787	0.68752
2943.668	-9.61467	1.92606	-10.49104	0.66572
2947.672	-9.61966	1.96120	-10.48689	0.63936
2951.667	-9.63185	1.84011	-10.44943	0.60064
2955.668	-9.60104	1.84116	-10.43467	0.53093
2959.669	-9.58282	1.81323	-10.43517	0.47499
2963.672	-9.58673	1.79047	-10.42055	0.34581
2967.668	-9.55326	1.68161	-10.41971	0.24381
2971.671	-9.52055	1.68752	-10.41909	0.49755
2975.671	-9.22056	1.68182	-10.16860	0.43318
2979.672	-6.10522	1.73865	-7.86379	0.69481
2983.632	-3.69679	1.70608	-6.13164	0.36741
2987.671	-0.84560	1.65811	-3.61535	0.59688
2991.673	1.07694	1.19014	-1.37977	0.94187
2995.644	2.59359	0.82255	0.45041	0.46711
2999.670	4.37219	0.64415	2.95280	0.95866
3003.671	6.89287	1.10422	4.57628	0.94892
3007.669	7.97425	0.84958	6.55883	1.41208
3011.672	9.06831	0.45214	7.58471	1.59363
3015.670	9.73687	0.59294	7.85509	1.53375
3019.688	10.00066	0.68439	7.76367	1.63262
3023.670	9.55765	0.64267	7.22805	1.67493
3027.684	9.43716	0.51505	7.65741	1.59513
3031.674	9.57054	0.42941	7.79807	1.58334
3035.656	9.84257	0.41903	8.08630	1.55894
3039.661	9.89362	0.45007	8.14665	1.56377
3043.671	9.73593	0.44945	8.09584	1.61004
3047.669	9.77483	0.38351	8.01348	1.60203
3051.669	9.59464	0.30149	8.06051	1.59742
3055.670	9.64892	0.33071	8.08496	1.53523
3059.675	9.58350	0.29773	8.05392	1.55998
3063.636	9.54710	0.28739	8.20685	1.53139
3067.672	9.44165	0.21211	8.12870	1.49383
3071.674	9.51090	0.22331	8.13784	1.48085
3075.673	9.60996	0.20357	8.05708	1.41424
3079.639	9.64970	0.21783	8.00243	1.35885
3083.673	9.54047	0.23050	7.97383	1.19429
3087.672	9.27361	0.23313	8.01053	1.20924
3091.675	9.25424	0.22995	8.09085	1.07419
3095.672	9.20956	0.29241	8.02810	1.29871
3099.669	9.24714	0.29784	8.00917	1.22262
3103.673	9.21382	0.31298	7.94730	1.24778
3107.671	9.14235	0.36027	7.88587	1.18057
3111.671	9.24242	0.45040	7.92461	1.16290
3115.674	9.08256	0.56783	7.95867	1.14595
3119.634	9.09979	0.72072	8.02664	1.07901
3123.673	9.06743	0.65709	8.02100	1.06227
3127.671	9.05011	0.63212	7.92997	1.13225
3131.671	9.09681	0.64340	7.89929	1.13874
3135.671	9.13141	0.66333	7.90508	1.19206
3139.672	9.18356	0.52710	7.95139	1.20462
3143.669	9.21222	0.45267	7.94394	1.17704
3147.673	9.21256	0.42046	7.97675	1.24589
3151.671	9.20569	0.35913	8.02419	1.25455
3155.673	9.23166	0.65411	7.95217	1.25514
3159.669	9.27844	0.54346	8.00569	1.37111
3163.663	9.32654	0.49124	8.00014	1.38576
3167.674	9.27702	0.54283	8.01669	1.42943
3171.675	9.22366	0.54443	8.05793	1.46292
3175.672	9.19539	0.63338	8.12661	1.45707
3179.671	9.13291	0.70807	8.12921	1.45711
3183.673	9.12556	0.79605	8.12415	1.43726
3187.676	9.06894	0.78310	8.13361	1.43858
3191.676	9.03757	0.83216	8.14091	1.36514
3195.671	9.13098	0.85618	8.13038	1.38104
3199.675	9.06748	0.88698	8.13760	1.40115
3203.676	9.10494	0.87300	8.14288	1.38227
3207.671	9.08041	0.87308	8.15336	1.39138
3211.674	9.12965	0.87659	8.14424	1.37878
3215.677	9.14525	0.79130	8.16892	1.37323
3219.573	9.14680	0.72769	8.17014	1.41979
3223.673	9.24319	0.55813	8.19110	1.45518
3227.676	9.24970	0.52830	8.19071	1.47930
3231.674	9.24452	0.41282	8.24932	1.47913
3235.689	9.24436	0.35004	8.29630	1.52832
3239.675	9.27627	0.21417	8.23505	1.58429
3243.659	9.27114	0.26805	8.05969	1.56303
3247.673	9.33877	0.34004	8.20391	1.57591
3251.677	9.72320	0.41881	8.89036	1.58824
3255.674	9.91223	0.39909	9.64473	1.62427
3259.672	9.76372	0.49626	9.92711	1.63137
3263.638	9.89378	0.38964	9.96860	1.60987
3267.574	9.89752	0.44884	9.58707	1.62670
3271.637	9.90585	0.43657	9.23853	1.68120
3275.672	9.98189	0.48260	9.15986	1.70978
3279.675	10.10579	0.44151	9.42757	1.72717
3283.677	10.23305	0.51777	9.42663	1.69766
3287.641	10.40531	0.52177	9.40839	1.70933
3291.681	10.42727	0.45233	9.36561	1.77108
3295.673	10.47456	0.45754	9.28567	1.76842
3299.681	10.58167	0.41446	9.20980	1.72829
3303.673	10.41011	0.40787	9.35930	1.73267
3307.673	10.56620	0.55826	9.21640	1.75855
3311.676	10.56661	0.49800	9.09309	1.80576
3315.680	10.54946	0.79964	9.04720	1.76304
3319.677	10.64935	0.76006	8.98102	1.78587
3323.678	10.58694	0.91900	8.99535	1.84366
3327.653	10.62924	0.84775	8.94866	1.87823
3331.642	10.60047	0.96487	8.84380	1.84821
3335.676	10.68614	0.86810	8.78309	1.88518
3339.673	10.76405	0.94529	8.83772	1.87961
3343.668	10.84386	0.97434	8.90303	1.83999
3347.678	10.80395	0.97745	8.83335	1.86464
3351.676	10.73133	0.89216	8.86846	1.80386
3355.676	10.80319	0.95073	8.88363	1.75966
3359.674	10.89822	0.91384	8.85230	1.67479
3363.681	10.85641	0.90113	9.12611	1.61113
3367.666	10.83491	0.87843	9.19863	1.57409
3371.660	10.79143	0.79585	9.44740	1.58656
3375.673	10.72213	0.82916	9.38474	1.64463
3379.676	10.64762	0.84523	9.42361	1.55051
3383.672	10.65278	0.82766	9.46363	1.60510
3387.676	10.62758	0.79882	9.49436	1.60505
3391.680	10.60037	0.81606	9.54093	1.57278
3395.677	10.57440	0.79183	9.42407	1.67070
3399.655	10.54800	0.75274	9.40446	1.62054
3403.680	10.52907	0.74488	9.47831	1.75799
3407.673	10.54238	0.75606	9.44846	1.78904
3411.680	10.57718	0.70075	9.36556	1.84223
3415.674	10.55757	0.86312	9.20758	1.82574
3419.677	10.57124	0.96359	9.15688	1.89663
3423.676	10.57845	0.91532	9.13086	1.90840
3427.678	10.56289	0.96638	9.07791	1.93474
3431.675	10.48804	0.93779	9.05824	1.95237
3435.680	10.41105	0.93800	9.02559	1.98557
3439.676	10.45860	0.96282	9.06894	1.96249
3443.681	10.44732	1.00554	9.10085	1.97248
3447.680	10.43404	1.05598	9.10819	1.90840
3451.670	10.39969	1.04473	9.24112	1.93959
3455.675	10.41498	1.05651	9.26940	1.83585
3459.678	10.36735	1.07482	9.31441	1.84943
3463.676	10.35404	1.01275	9.36489	1.76067
3467.676	10.34681	1.09545	9.39479	1.69796
3471.675	10.32729	1.13520	9.43206	1.63931
3475.545	10.39388	1.20517	9.41359	1.52822
3479.552	10.42989	1.17159	9.41132	1.44444
3483.552	10.38742	1.38329	9.42380	1.38731
3487.551	10.45944	1.38602	9.41711	1.38822
3491.578	10.42675	1.37464	9.46734	1.40369
3495.553	10.40296	1.49045	9.45047	1.38166
3499.526	10.38836	1.62849	9.40301	1.33074
3503.555	10.37431	1.57664	9.38641	1.28011
3507.553	10.41813	1.54447	9.48343	1.33171
3511.555	10.35584	1.51388	9.47884	1.36359
3515.552	10.33279	1.43862	9.46635	1.40588
3519.549	10.24298	1.40428	9.55297	1.52490
3523.545	10.22399	1.47817	9.68276	1.50268
3527.557	10.31984	1.43902	9.79392	1.49469
3531.557	10.29447	1.34487	9.87755	1.52934
3535.554	10.31972	1.54899	9.74465	1.60364
3539.568	10.46911	1.36129	9.86322	1.59326
3543.543	10.47904	1.38169	9.78419	1.67294
3547.555	10.76458	1.34843	9.78399	1.67446
3551.555	10.77799	1.36096	9.59689	1.66927
3555.575	10.84449	1.41269	9.76493	1.60741
3559.551	10.92346	1.45628	9.97830	1.48950
3563.518	10.84650	1.50572	9.92056	1.40126
3567.552	10.89547	1.54956	9.89400	1.39714
3571.580	10.77150	1.48127	9.93708	1.33262
3575.551	10.76777	1.56418	9.89482	1.26279
3579.555	10.77493	1.52096	9.90373	1.28544
3583.527	10.74345	1.52451	9.85958	1.24396
3587.580	10.60915	1.41025	9.97702	1.19980
3591.554	10.54550	1.39814	9.99638	1.14039
3595.554	10.56726	1.36098	10.04858	1.09559
3599.555	10.48701	1.20963	10.06383	1.14587
3603.577	10.43013	1.14032	9.98759	1.19764
3607.549	10.35666	1.07872	9.98321	1.24388
3611.554	10.34436	0.98485	10.00634	1.37377
3615.554	10.37373	0.97608	9.99371	1.39180
3619.566	10.42653	0.99652	10.04583	1.45026
3623.538	10.40000	0.95228	9.97418	1.42243
3627.517	10.43937	0.82154	9.99226	1.43959
3631.554	10.40344	0.78887	9.95396	1.43313
3635.548	10.40982	0.77485	9.84069	1.45827
3639.553	10.48084	0.63784	9.65985	1.48807
3643.555	10.48715	0.66704	9.53709	1.43566
3647.521	10.49056	0.58043	9.66209	1.43376
3651.582	10.55589	0.58719	9.55447	1.44631
3655.557	10.62651	0.51370	9.55133	1.42370
3659.554	10.57013	0.41309	9.56740	1.31316
3663.518	10.29421	0.43084	9.36165	1.35783
3667.547	8.65860	0.43331	7.37226	1.42998
3671.553	8.12498	0.49848	5.64375	1.47338
3675.556	5.65828	0.76296	1.69879	1.50135
3679.553	3.37660	0.85713	0.95800	1.31714
3683.546	1.10698	0.76631	-1.15163	0.96741
3687.552	0.51580	0.77502	-3.26324	0.66170
3691.555	-1.79874	0.86567	-4.78149	0.19362
3695.559	-2.36636	0.71476	-5.97251	0.33092
3699.557	-4.07034	0.78962	-6.92122	0.21787
3703.558	-4.87007	0.94387	-7.49851	-0.10569
3707.535	-6.31831	0.98731	-8.14120	0.08883
3711.554	-6.71752	1.08674	-8.23051	0.48234
3715.548	-6.59966	1.15505	-7.99481	0.25452
3719.555	-6.66800	1.12761	-7.84842	0.14925
3723.556	-6.62390	1.11562	-7.93199	0.18444
3727.556	-6.69814	1.21728	-8.07985	0.22199
3731.523	-6.82846	1.07559	-8.24397	0.34586
3735.556	-6.84749	1.02972	-8.34366	0.40483
3739.556	-6.97370	0.97604	-8.36292	0.34654
3743.555	-6.89157	1.17687	-8.39382	0.46630
3747.579	-6.95164	1.12075	-8.29234	0.42989
3751.557	-7.00084	1.17933	-8.16260	0.46350
3755.555	-6.96132	1.23863	-8.12478	0.44992
3759.555	-6.93411	1.25759	-8.09766	0.47125
3763.587	-6.92056	1.27631	-8.05073	0.53181
3767.516	-6.98697	1.31375	-8.10245	0.38451
3771.555	-6.93971	1.33985	-8.05830	0.36037
3775.558	-6.83134	1.34550	-7.98564	0.28100
3779.580	-6.79733	1.27857	-7.96536	0.17394
3783.559	-6.87646	1.25074	-7.91621	0.31058
3787.558	-6.89793	1.13908	-7.89973	0.29622
3791.523	-6.86356	1.19911	-7.90265	0.32474
3795.578	-6.76178	1.08183	-7.92683	0.37345
3799.521	-6.75664	1.10885	-7.95555	0.47336
3803.556	-6.74944	0.93031	-7.99019	0.54023
3807.557	-6.75490	0.79799	-8.02720	0.63529
3811.579	-6.73730	0.83093	-8.06392	0.60389
3815.558	-6.72350	0.78447	-8.07577	0.63463
3819.558	-6.76628	0.78282	-8.07032	0.60489
3823.556	-6.74371	0.76041	-8.12130	0.61876
3827.582	-6.66090	0.71908	-8.12002	0.70471
3831.520	-6.53482	0.80674	-8.09457	0.76580
3835.536	-6.34003	0.83300	-8.08907	0.79459
3839.555	-6.23682	0.96122	-8.01321	0.83888
3843.586	-6.21374	0.95936	-8.07657	0.87839
3847.556	-6.16891	1.02447	-8.06054	0.93980
3851.555	-6.13137	1.05514	-8.07689	0.83446
3855.556	-6.12327	1.17601	-8.04606	0.82333
3859.581	-6.09665	1.22729	-8.10082	0.88343
3863.558	-6.11434	1.28629	-8.16255	0.97062
3867.521	-6.15907	1.34537	-8.24059	0.97154
3871.558	-6.32944	1.31591	-8.19557	0.99353
3875.578	-6.31904	1.24158	-8.22701	0.99628
3879.557	-6.39001	1.18419	-8.27713	1.01552
3883.560	-6.45030	1.11016	-8.29873	1.00942
3887.555	-6.50974	1.13288	-8.26925	1.00679
3891.580	-6.47767	1.06587	-8.29443	0.96477
3895.563	-6.54222	1.05016	-8.15586	1.00701
3899.557	-6.14121	1.15601	-7.66875	1.08880
3903.556	-3.19222	1.34055	-5.82316	1.10197
3907.563	-1.17339	1.30500	-3.31682	1.09710
3911.558	1.09849	1.10232	-1.77204	1.16662
3915.531	3.00106	1.12328	0.36722	1.19810
3919.559	4.88212	1.04570	1.16019	1.19031
3923.551	5.60401	1.03105	3.97101	1.33291
3927.561	6.81101	0.85308	4.32034	1.28715
3931.558	6.43194	1.04342	4.63013	1.45278
3935.524	6.49947	1.00189	4.21007	1.50380
3939.580	6.36873	0.77150	4.04315	1.57632
3943.560	6.23312	0.89585	4.07532	1.48194
3947.562	6.44510	0.74075	4.07955	1.48632
3951.563	6.94178	0.64600	4.59618	1.43844
3955.561	7.20692	0.68692	4.75837	1.34377
3959.559	7.30947	0.77957	5.00051	1.20549
3963.559	7.03323	0.75304	4.93452	1.21455
3967.518	6.97991	0.77971	4.99726	1.06000
3971.564	6.79782	0.84122	5.04132	0.97072
3975.562	6.74538	0.88527	5.11888	0.89469
3979.559	6.71392	0.93026	5.05442	0.81708
3983.560	6.73302	0.95055	5.06917	0.71529
3987.564	6.74087	0.95258	5.11317	0.67800
3991.558	6.63470	0.95745	5.13269	0.63982
3995.565	6.68898	0.98441	5.17311	0.60789
3999.562	6.57289	1.03371	5.20501	0.58420
4003.556	6.58246	1.00886	5.19724	0.56162
4007.559	6.46885	1.02703	5.23817	0.51533
4011.559	6.43278	0.99240	5.26177	0.46279
4015.561	6.43736	0.97889	5.28296	0.43253
4019.561	6.39302	0.92577	5.27939	0.41737
4023.563	6.41190	0.92263	5.32429	0.45391
4027.560	6.42961	0.86633	5.40703	0.57115
4031.560	6.40584	0.83978	5.43802	0.62207
4035.568	6.43653	0.84309	5.45484	0.65552
4039.543	6.41116	0.87283	5.44097	0.71361
4043.556	6.43042	0.82123	5.44503	0.71415
4047.561	6.39847	0.80227	5.49856	0.73028
4051.566	6.48950	0.76169	5.50255	0.80244
4055.560	6.51733	0.81188	5.44279	0.71266
4059.561	6.49918	0.83531	5.48214	0.81958
4063.526	6.59848	0.86027	5.47577	0.75190
4067.563	6.53649	0.85053	5.48162	0.72667
4071.561	6.48009	0.89602	5.48049	0.70015
4075.561	6.50158	0.96235	5.44874	0.64793
4079.559	6.49813	0.98119	5.44104	0.61695
4083.563	6.50883	1.01096	5.48740	0.55002
4087.563	6.54585	1.03793	5.44532	0.58959
4091.565	6.47764	1.08324	5.44744	0.59636
4095.569	6.46375	1.12501	5.36432	0.54815
4099.559	6.44572	1.15395	5.32395	0.81824
4103.558	6.44939	1.09266	5.29856	0.99135
4107.557	6.39991	1.07951	5.26123	0.99760
4111.558	6.39057	1.07696	5.20046	0.93881
4115.565	6.38981	1.01208	5.15798	1.18170
4119.563	6.43736	0.95568	5.18126	1.33514
4123.535	6.46373	0.84280	5.10711	1.14619
4127.562	6.27927	0.92926	5.05865	1.17288
4131.563	6.27989	0.95682	5.09928	1.14289
4135.561	6.31039	0.90918	5.08919	1.17220
4139.562	6.31605	0.90193	5.09460	1.06172
4143.562	6.34841	0.87780	5.09534	0.94441
4147.586	6.30200	0.89991	5.11093	0.86320
4151.562	6.27905	0.81270	5.16610	0.95269
4155.564	6.24904	0.86928	5.16826	0.90491
4159.567	6.33321	0.83985	5.24932	0.85054
4163.553	6.29759	0.82769	5.19837	0.73997
4167.564	6.28148	0.78156	5.28746	0.92837
4171.560	6.28447	0.68129	5.25862	1.01083
4175.563	6.31890	0.59814	5.17260	1.09106
4179.566	6.33184	0.59163	5.09992	1.11649
4183.561	6.28474	0.54145	5.06565	1.12981
4187.564	6.25742	0.51977	5.10527	1.18709
4191.563	6.33213	0.44346	5.07429	1.22770
4195.567	6.46132	0.44443	5.46930	1.17927
4199.562	8.76794	0.57038	6.33042	1.34995
4203.568	9.39685	0.71261	8.72866	1.42574
4207.526	10.97782	0.61847	9.13240	1.53434
4211.566	11.26194	0.61507	9.41772	1.49229
4215.564	11.43665	0.64689	9.92680	1.43717
4219.563	11.36875	0.78206	9.73991	1.44985
4223.564	11.27483	0.93011	9.48362	1.48617
4227.567	11.17598	1.04709	9.32047	1.54247
4231.564	11.20734	1.00024	9.41238	1.54983
4235.563	11.31591	1.03355	9.75644	1.57148
4239.565	11.29873	1.10993	9.82359	1.59492
4243.567	11.34981	1.04178	9.91002	1.57645
4247.546	11.32996	1.00631	10.00203	1.53338
4251.561	11.25275	0.88293	10.05919	1.49497
4255.565	11.17066	0.85910	10.06992	1.48945
4259.461	11.06910	1.00234	9.87755	1.51562
4263.528	11.09370	0.86594	9.94734	1.51581
4267.568	11.04981	0.84405	9.98061	1.52226
4271.528	10.97145	0.83254	9.96155	1.47414
4275.566	10.93835	0.82873	10.00447	1.45632
4279.564	10.87082	0.79935	9.86204	1.47178
4283.564	10.77256	0.75014	9.82120	1.48522
4287.566	10.65582	0.69210	9.78334	1.42805
4291.566	10.69139	0.67842	9.74791	1.47228
4295.563	10.71533	0.72199	9.67268	1.48074
4299.567	10.70893	0.68602	9.65136	1.52718
4303.565	10.77181	0.68717	9.62080	1.49213
4307.569	10.78654	0.66336	9.57891	1.53977
4311.566	10.82543	0.64944	9.57645	1.57519
4315.563	10.88625	0.59400	9.58989	1.58494
4319.564	10.90671	0.42202	9.54800	1.64946
4323.462	10.88484	0.36478	9.62229	1.59255
4327.572	10.92791	0.49618	9.64268	1.50367
4331.539	10.97908	0.55312	9.66950	1.56614
4335.565	11.04049	0.64656	9.70982	1.55386
4339.464	11.05567	0.69754	9.74485	1.54917
4343.566	11.09021	0.79351	9.70873	1.53164
4347.567	11.07788	0.67505	9.78541	1.54962
4351.566	11.09126	0.81538	9.86341	1.54323
4355.565	11.08359	0.87984	10.02540	1.57401
4359.563	11.05725	0.87546	10.13725	1.59023
4363.568	11.05569	0.90184	10.12984	1.58714
4367.566	11.06949	0.88407	10.17646	1.62024
4371.467	11.06389	0.87275	10.35212	1.65403
4375.564	11.06332	0.80110	10.32143	1.63988
4379.562	11.03315	0.77814	10.39326	1.66307
4383.566	10.85547	0.72033	10.30190	1.67523
4387.568	10.77229	0.77211	10.35822	1.67185
4391.569	10.62862	0.77396	10.35217	1.64778
4395.567	10.65582	0.76503	10.21685	1.60523
4399.568	10.60764	0.77370	10.19892	1.55332
4403.569	10.52274	0.81165	9.97857	1.41637
4407.564	10.63600	0.82556	10.04824	1.45282
4411.567	10.61838	0.93966	9.87102	1.33834
4415.533	10.51168	0.92006	10.03941	1.28131
4419.567	10.47249	1.00670	9.93118	1.38120
4423.567	10.46817	0.97210	10.03452	1.33870
4427.565	10.52921	0.94043	10.04153	1.39477
4431.568	10.52734	0.91747	10.09054	1.36967
4435.466	10.53228	0.82430	10.15329	1.36280
4439.568	10.52715	0.81745	10.25675	1.36189
4443.568	10.51784	0.77453	10.21591	1.40861
4447.568	10.52019	0.69624	10.26847	1.44182
4451.464	10.45382	0.75994	10.26374	1.42626
4455.530	10.46537	0.79140	10.24495	1.33584
4459.563	10.46261	0.86546	10.13419	1.27303
4463.567	10.47885	0.88840	10.09234	1.08806
4467.534	10.55402	1.07406	9.95035	1.27366
4471.567	10.46405	0.88605	9.86004	1.32740
4475.569	10.09833	1.07454	7.54032	1.33117
4479.532	6.97607	1.16475	5.06321	1.27205
4483.465	6.55192	1.24279	3.26386	1.44892
4487.569	4.12562	1.16492	0.99288	1.16211
4491.566	2.29357	1.06423	-0.27443	0.78361
4495.568	0.31816	1.10345	-1.12447	0.75269
4499.572	-0.10577	0.76153	-1.40733	0.78800
4503.568	0.03514	0.78414	-1.10102	0.69601
4507.568	0.22472	0.68888	-1.02283	0.84636
4511.445	0.41882	0.54066	-0.78002	0.65501
4515.466	0.90227	0.40670	-0.98670	0.44234
4519.531	0.37340	0.35670	-1.05838	0.46422
4523.446	0.20440	0.19091	-1.16791	0.42092
4527.442	0.14968	0.34276	-1.41268	0.41765
4531.403	0.20886	0.25125	-1.45130	0.41310
4535.442	0.23641	0.22235	-1.45314	0.37050
4539.445	0.26441	0.17374	-1.34740	0.31587
4543.431	0.19651	0.19419	-1.31769	0.28822
4547.569	0.30558	0.16532	-1.33297	0.24609
4551.443	0.29103	0.19238	-1.37568	0.19570
4555.443	0.20142	0.24971	-1.42064	0.19312
4559.442	0.11188	0.34527	-1.39306	0.12721
4563.437	0.13588	0.43684	-1.46375	0.12296
4567.442	-0.00040	0.43721	-1.42184	0.12152
4571.447	0.00094	0.47674	-1.37545	0.13976
4575.443	0.07229	0.44325	-1.33582	0.13306
4579.468	-0.01707	0.46576	-1.23439	0.12725
4583.444	0.03110	0.48591	-1.15134	0.14646
4587.443	-0.00010	0.57710	-1.14432	0.16467
4591.448	0.00812	0.57459	-1.16781	0.17088
4595.468	0.04601	0.65837	-1.09450	0.22017
4599.448	0.08855	0.65634	-1.07686	0.26527
4603.449	0.16898	0.64346	-1.02486	0.39439
4607.446	0.20968	0.63417	-0.86639	0.43209
4611.468	0.25391	0.66957	-0.74821	0.46441
4615.448	0.29746	0.67966	-0.68915	0.44332
4619.448	0.33628	0.73824	-0.70414	0.44978
4623.461	0.37968	0.78032	-0.80761	0.50028
4627.467	0.25066	0.80540	-0.75387	0.43230
4631.444	0.27220	0.73760	-0.67372	0.37069
4635.443	0.30937	0.70130	-0.61719	0.33711
4639.442	0.26860	0.63111	-0.64297	0.33693
4643.468	0.23460	0.56388	-0.64565	0.37984
4647.447	0.19564	0.50837	-0.71340	0.46416
4651.448	0.18655	0.41629	-0.78062	0.48778
4655.446	0.15712	0.36433	-0.93316	0.36833
4659.435	0.13426	0.37904	-1.05175	0.42268
4663.447	0.10751	0.27764	-1.10095	0.40516
4667.445	0.07150	0.23756	-1.09976	0.37229
4671.439	0.09247	0.28691	-1.08398	0.39696
4675.470	0.13585	0.23967	-1.05406	0.43401
4679.446	0.13320	0.31889	-1.11817	0.51809
4683.409	0.17400	0.29595	-1.25629	0.45239
4687.444	0.14762	0.30191	-1.20137	0.45610
4691.469	0.16888	0.39278	-1.14248	0.46788
4695.444	0.16653	0.41102	-1.16007	0.41956
4699.449	0.17382	0.44158	-1.13283	0.41599
4703.408	0.18082	0.40719	-1.14570	0.42816
4707.446	0.15739	0.42431	-1.13806	0.44366
4711.419	0.17323	0.49709	-1.14771	0.40287
4715.446	0.15690	0.41455	-1.19299	0.46504
4719.409	0.13913	0.37763	-1.13273	0.46597
4723.445	0.17392	0.25850	-1.08215	0.46998
4727.445	0.17236	0.24146	-1.01744	0.48258
4731.446	0.11992	0.31889	-0.98291	0.43064
4735.446	0.15970	0.35608	-1.01764	0.35561
4739.470	0.15536	0.34306	-1.07808	0.34400
4743.446	0.15826	0.28459	-1.15196	0.30414
4747.446	0.15970	0.28370	-1.07800	0.30323
4751.408	0.18147	0.27505	-1.10497	0.33450
4755.471	0.19663	0.23057	-1.05932	0.46104
4759.445	0.16117	0.20458	-1.03171	0.40788
4763.445	0.19894	0.40257	-1.03248	0.38601
4767.447	0.17598	0.38737	-1.00534	0.29235
4771.441	0.18839	0.40160	-1.04230	0.25878
4775.410	0.22423	0.45336	-1.01697	0.21275
4779.445	0.21934	0.38073	-1.10571	0.49313
4783.448	0.18497	0.39909	-1.03947	0.48824
4787.471	0.24433	0.35305	-1.00179	0.40144
4791.448	0.18045	0.27065	-0.94959	0.40041
4795.413	0.11979	0.36893	-0.91314	0.54041
4799.456	1.23017	0.36932	-0.22944	0.59230
4803.470	3.90575	1.06373	2.37181	0.59716
4807.448	6.72467	0.63482	3.50670	0.75626
4811.449	8.03888	0.63011	5.74183	0.93895
4815.448	9.86572	0.38622	7.11877	1.00603
4819.451	9.97050	0.51834	8.75235	1.04368
4823.445	10.26857	0.66025	8.93561	1.08728
4827.448	10.49277	1.10219	8.68126	1.14153
4831.411	10.56040	1.27783	8.83013	1.26669
4835.439	10.41047	1.24566	8.24157	1.28541
4839.447	10.54094	1.29214	8.35823	1.26716
4843.448	10.66455	1.10972	8.43069	1.27751
4847.449	10.87445	1.10236	8.49357	1.28598
4851.441	11.08175	1.05115	8.66903	1.27181
4855.450	11.17391	1.11535	8.78418	1.22330
4859.446	11.07628	1.19792	8.93573	1.08367
4863.449	11.00561	1.10878	8.73242	1.07752
4867.442	10.99838	1.15538	9.36590	0.98685
4871.447	10.89748	1.12440	9.25108	0.92879
4875.445	11.05923	1.02734	9.29352	0.94724
4879.452	10.94126	0.95068	9.35384	0.87689
4883.442	11.06016	0.89876	9.29278	0.89718
4887.411	11.03119	0.90653	9.44025	0.78083
4891.447	10.87527	0.89878	9.46396	0.71987
4895.447	10.79837	0.92442	9.48999	0.70056
4899.441	10.76721	0.99141	9.56981	0.67555
4903.455	10.68542	0.98284	9.51297	0.74459
4907.453	10.66371	1.04018	9.55398	0.79007
4911.449	10.60239	1.04473	9.50298	0.77524
4915.451	10.62372	1.04620	9.41912	0.79989
4919.424	10.50973	1.12523	9.39878	0.80837
4923.450	10.50474	1.14010	9.32787	0.79814
4927.453	10.41827	1.20940	9.29962	0.81392
4931.441	10.40356	1.25629	9.23732	0.78878
4935.452	10.25939	1.29597	9.19372	0.81341
4939.452	10.24690	1.28419	9.17541	0.76032
4943.450	10.25598	1.19358	9.14375	0.76706
4947.441	10.22721	1.13001	9.15899	0.76522
4951.448	10.11764	0.94983	9.06293	0.79069
4955.451	10.12941	0.90389	9.04459	0.77108
4959.429	10.09859	0.89228	9.00622	0.85336
4963.447	10.14737	0.90217	8.98629	0.79869
4967.453	10.09518	0.85509	9.00222	0.77242
4971.449	10.06590	0.90994	9.00978	0.58569
4975.452	10.05960	0.99933	9.04125	0.63432
4979.474	10.09316	1.07949	9.06860	0.55789
4983.448	10.16062	0.93356	9.06383	0.61514
4987.452	10.16966	1.07733	8.97072	0.69617
4991.450	10.13289	1.12237	8.84734	0.64180
4995.453	10.12751	1.24079	8.91701	0.71465
4999.453	10.10446	1.10122	8.84501	0.80464
5003.420	10.16430	1.14055	8.96842	0.81470
5007.450	10.11050	1.19728	9.06305	0.65128
5011.453	10.19397	1.25373	9.03798	0.69098
5015.450	10.22401	1.19815	9.08868	0.73826
5019.452	10.23291	1.26638	9.17411	0.89873
5023.452	10.26112	1.23391	9.20871	0.87103
5027.451	10.18601	1.26567	9.17686	0.83694
5031.451	10.20238	1.24001	9.13187	0.83935
5035.453	10.19289	1.23596	9.16963	0.86134
5039.452	10.15170	1.20739	9.05928	0.90741
5043.443	10.15261	1.31178	9.04904	0.85665
5047.452	9.96959	1.28215	9.03270	0.84938
5051.450	9.98735	1.30813	9.09466	0.86154
5055.451	9.96077	1.32834	9.06925	0.91945
5059.454	9.97669	1.30318	9.12495	0.96731
5063.447	9.96063	1.17814	9.04507	0.94373
5067.453	9.93660	1.09034	9.05952	0.93302
5071.451	10.01797	1.03784	9.10613	0.89892
5075.452	9.90994	1.17695	9.05959	0.85446
5079.448	9.97873	1.08492	9.01644	0.95511
5083.447	9.93383	0.97909	8.96528	1.08731
5087.414	10.05450	0.87536	9.02058	1.09318
5091.434	10.14545	0.92201	9.05824	1.01793
5095.452	10.21159	0.85639	9.10797	0.97943
5099.450	10.18716	0.89737	9.12657	1.16803
5103.453	10.18832	0.85259	9.03517	1.05347
5107.451	10.18897	0.81261	9.08123	1.03641
5111.455	10.24754	0.82327	9.13932	0.89045
5115.452	10.24459	0.90014	9.07351	0.97604
5119.451	10.27789	0.85081	9.13528	1.19397
5123.458	10.28676	0.81825	8.98184	1.17078
5127.427	10.24440	0.87083	8.67459	1.13892
5131.452	10.22450	0.90445	8.50039	1.08439
5135.454	10.15509	0.76403	8.90914	1.11185
5139.455	10.15463	0.89692	8.89991	1.11274
5143.450	10.00591	0.93403	9.00603	1.15736
5147.457	9.93297	1.04450	9.05376	1.15953
5151.463	9.86500	1.04401	9.09698	1.06015
5155.446	9.85705	1.07183	9.09490	1.06433
5159.458	9.73120	1.04969	9.09272	0.97409
5163.416	9.75232	1.06845	9.12921	0.99325
5167.441	9.67992	1.06011	9.18905	0.98580
5171.455	9.68192	1.06371	9.10269	0.90892
5175.454	9.71797	1.10414	9.12236	0.87737
5179.451	9.74885	1.13351	9.22458	0.82773
5183.452	9.63192	1.13954	9.23853	0.88405
5187.445	9.70446	1.20349	9.19706	0.85362
5191.452	9.76997	1.15973	9.14005	0.79935
5195.455	9.79373	1.15742	9.03979	0.82794
5199.457	9.89451	1.04286	8.93217	0.83101
5203.355	9.95329	1.04852	8.87200	0.85888
5207.454	9.95858	1.02416	8.86800	0.94335
5211.421	9.98557	0.90167	8.82955	1.04925
5215.457	10.02081	0.82977	8.78166	1.04364
5219.353	10.08190	0.86613	8.72146	1.11271
5223.455	10.09742	0.82556	8.73104	1.11523
5227.455	10.12426	0.80439	8.61904	1.12421
5231.457	10.09484	0.79213	8.87646	1.07867
5235.452	10.15042	0.84709	8.74479	1.13132
5239.455	10.06951	0.74650	8.71938	1.10444
5243.453	10.10088	0.83869	8.72154	1.07583
5247.456	9.45629	0.85735	6.12725	1.12287
5251.384	8.15312	1.26981	5.08899	1.19605
5255.454	6.02354	1.18092	2.61657	1.18514
5259.456	4.61553	1.18233	0.72111	1.20148
5263.417	2.95280	1.32209	-0.22430	0.94328
5267.458	1.29581	1.27038	-2.31188	0.84951
5271.421	-0.41946	1.31435	-2.71483	0.68084
5275.456	-0.76166	1.41015	-3.58213	0.43819
5279.456	-1.27976	1.50298	-3.71706	0.45296
5283.354	-1.89689	1.59549	-3.67907	0.53227
5287.456	-1.93960	1.65848	-4.41756	0.64525
5291.449	-2.83095	1.62463	-5.01741	0.91597
5295.448	-3.93206	1.60376	-5.94948	0.55123
5299.450	-4.83420	1.65730	-6.26674	0.65605
5303.460	-5.25333	1.59029	-6.87044	0.70900
5307.451	-5.22761	1.65506	-6.97690	0.76041
5311.453	-4.95186	1.65587	-6.60566	0.97404
5315.422	-5.13651	1.67510	-6.45606	0.99087
5319.458	-5.28554	1.84187	-5.80911	1.05697
5323.455	-4.80566	1.99262	-6.17371	1.01201
5327.455	-4.80071	1.91549	-5.86504	0.99227
5331.459	-4.85480	2.12025	-6.18370	1.06324
5335.418	-4.73877	2.12263	-6.28060	1.09225
5339.458	-4.86857	2.00470	-6.20109	1.12766
5343.457	-4.86487	2.09974	-6.12909	1.28357
5347.461	-4.70902	2.04717	-6.04887	1.32915
5351.459	-4.73414	2.13363	-5.87248	1.44596
5355.461	-4.67678	2.16212	-5.86433	1.31596
5359.453	-4.58789	2.17244	-5.72478	1.40120
5363.458	-4.57216	2.10238	-5.81599	1.25542
5367.455	-4.61672	2.09763	-5.79256	1.33009
5371.459	-4.63787	2.03958	-5.80872	1.41596
5375.440	-4.65604	2.02664	-5.83832	1.21208
5379.459	-4.69263	1.99517	-5.82832	1.20100
5383.454	-4.67120	2.02702	-5.82253	1.26239
5387.455	-4.41822	1.97342	-5.80440	1.15094
5391.456	-4.50895	1.86573	-5.76534	1.12596
5395.458	-4.63543	1.86404	-5.76514	1.13197
5399.458	-4.63494	1.87602	-5.76047	1.18387
5403.463	-4.59993	1.89192	-5.77841	1.16750
5407.458	-4.62786	1.87960	-5.76074	1.20023
5411.355	-4.62779	1.84739	-5.71868	1.09071
5415.457	-4.62865	1.78790	-5.73296	1.08729
5419.425	-4.64396	1.75844	-5.71067	1.10639
5423.457	-4.60168	1.72474	-5.63191	1.20300
5427.459	-4.54437	1.68192	-5.61991	1.08550
5431.458	-4.60996	1.70916	-5.54270	1.10281
5435.460	-4.62927	1.74420	-5.51575	1.07450
5439.456	-4.59300	1.79757	-5.51755	1.02442
5443.461	-4.57675	1.83094	-5.40971	1.04917
5447.458	-4.59736	1.83715	-5.38654	1.02576
5451.458	-4.61356	1.82171	-5.35618	0.95376
5455.458	-4.65745	1.86453	-5.42882	1.03452
5459.361	-4.67374	1.85768	-5.46991	1.01098
5463.458	-4.73064	1.90067	-5.51211	1.05779
5467.459	-4.75785	1.90072	-5.64063	1.00569
5471.458	-4.82215	1.85372	-5.63687	1.02300
5475.354	-4.95093	1.78857	-5.88144	1.01547
5479.458	-5.01566	1.73178	-5.83758	1.04990
5483.456	-4.94605	1.73803	-5.87184	1.00889
5487.457	-4.99913	1.69060	-5.86592	0.94987
5491.357	-5.01265	1.56756	-5.92125	1.06944
5495.425	-5.02654	1.78188	-5.98781	1.06595
5499.421	-5.05240	1.74808	-6.00121	1.05547
5503.457	-5.11120	1.77819	-6.00057	1.07244
5507.355	-5.10822	1.94266	-5.96625	1.11066
5511.460	-5.04723	1.91785	-5.86153	1.10751
5515.457	-4.31768	2.61112	-5.69406	1.21834
5519.425	-1.67809	3.49550	-2.81744	3.58750
5523.328	2.34864	4.03931	-1.44287	1.58248
5527.458	-1.04245	3.79036	8.63073	3.51127
5531.458	11.75548	7.35109	1.00993	4.34959
5535.458	14.42288	12.06260	6.38597	13.68326
5539.358	NaN	NaN	NaN	NaN
5543.430	NaN	NaN	NaN	NaN
5547.459	NaN	NaN	NaN	NaN
5551.333	NaN	NaN	NaN	NaN
5555.333	NaN	NaN	NaN	NaN
5559.333	NaN	NaN	NaN	NaN
5563.336	NaN	NaN	NaN	NaN
5567.332	NaN	NaN	NaN	NaN
5571.331	NaN	NaN	NaN	NaN
5575.332	NaN	NaN	NaN	NaN
5579.329	NaN	NaN	NaN	NaN
5583.334	NaN	NaN	NaN	NaN
5587.328	NaN	NaN	NaN	NaN
5591.299	NaN	NaN	NaN	NaN
5595.349	NaN	NaN	NaN	NaN
5599.331	NaN	NaN	NaN	NaN
5603.297	NaN	NaN	NaN	NaN
5607.332	NaN	NaN	NaN	NaN
5611.335	NaN	NaN	NaN	NaN
5615.330	NaN	NaN	NaN	NaN
5619.297	NaN	NaN	15.79342	8.57067
5623.363	15.87095	6.81015	13.58592	6.97943
5627.336	15.80059	5.95537	21.91661	9.62279
5631.314	16.15602	6.53318	20.90690	8.73349
5635.299	17.02939	6.33159	19.06125	8.10713
5639.328	17.31579	6.29592	19.11950	6.01834
5643.299	15.96048	5.42089	4.21656	3.03428
5647.334	15.76991	4.78938	8.16773	2.71047
5651.337	13.24400	3.60381	13.29626	2.69005
5655.362	12.28242	2.45029	11.06339	2.27848
5659.335	11.53255	2.35984	10.04189	2.14650
5663.338	11.42825	2.56274	9.56359	2.33947
5667.335	10.57498	2.31172	9.96812	2.31425
5671.313	10.90375	2.25009	9.85850	2.34345
5675.328	10.85124	2.07814	9.69762	2.16525
5679.337	10.83201	2.12536	9.78158	1.98469
5683.337	10.70217	2.14473	9.79479	2.00970
5687.331	10.66066	2.20087	9.91512	1.89562
5691.335	10.56836	2.15565	9.75676	1.90242
5695.336	10.55394	2.15124	9.68247	1.75086
5699.336	10.40637	2.13191	9.63156	1.64766
5703.302	10.29659	2.04182	9.59486	1.68622
5707.341	10.34545	1.93811	9.51952	1.70219
5711.302	10.31669	1.96602	9.49328	1.69767
5715.311	10.33317	1.94202	9.54370	1.58540
5719.359	10.31506	1.89165	9.55555	1.52599
5723.336	10.27900	1.75596	9.64533	1.49900
5727.337	10.26444	1.69878	9.57739	1.45589
5731.334	10.27972	1.55004	9.55451	1.42440
5735.331	10.29022	1.44512	9.53407	1.39230
5739.340	10.28001	1.52595	9.60164	1.38257
5743.334	10.31684	1.45692	9.67422	1.37723
5747.335	10.34950	1.39296	9.71259	1.34425
5751.338	10.36483	1.38183	9.73798	1.34623
5755.321	10.42847	1.26201	9.81363	1.32813
5759.336	10.47919	1.21649	9.82797	1.32347
5763.339	10.55548	1.15446	9.86380	1.39795
5767.308	10.56913	1.27811	9.83467	1.42049
5771.301	10.59196	1.48673	9.82337	1.42485
5775.300	10.62130	1.60942	9.80397	1.46425
5779.336	10.69764	1.80733	9.80339	1.46778
5783.331	10.69053	1.96933	9.79014	1.49488
5787.337	10.70795	2.06659	9.75398	1.54435
5791.341	10.70471	2.19104	9.66243	1.64110
5795.333	10.52888	2.17991	9.65722	1.70236
5799.363	10.26898	1.94918	9.61363	1.75650
5803.340	10.48972	2.07280	9.61814	1.82450
5807.339	10.46126	2.09781	9.56506	1.84701
5811.338	10.50083	2.19901	9.50757	1.94894
5815.341	10.44309	2.21016	9.44636	1.95953
5819.336	10.40757	2.11508	9.40675	2.00497
5823.340	10.35575	1.87063	9.36863	2.05343
5827.337	10.31799	1.92768	9.34000	2.09506
5831.359	10.13638	2.02169	9.30300	2.13645
5835.339	10.27186	1.69293	9.35184	2.09061
5839.301	10.29231	1.52518	9.36977	1.99823
5843.337	10.31432	1.24995	9.24419	1.91899
5847.298	10.27710	1.28204	9.34457	1.96767
5851.338	10.37688	1.00063	9.34790	1.98430
5855.340	10.40267	0.96263	9.25898	1.87136
5859.337	10.49001	0.89721	9.22547	1.82530
5863.362	10.47302	0.86162	9.23459	1.78906
5867.341	10.50964	0.84537	9.14281	1.75264
5871.339	10.51513	0.78013	9.15887	1.83476
5875.340	10.54552	0.74293	9.30271	1.73281
5879.361	10.42087	0.80507	9.19108	1.73723
5883.330	10.53689	0.74806	9.55473	1.76303
5887.340	10.49435	0.74804	9.52970	1.81959
5891.301	10.62473	0.74237	9.51104	1.84319
5895.362	10.60373	0.78926	9.47485	1.80536
5899.341	10.60299	0.91073	9.52866	1.77611
5903.340	10.59992	0.88080	9.51334	1.82866
5907.304	10.58277	0.90087	9.63474	1.80598
5911.362	10.59651	0.91329	9.50286	1.81239
5915.340	10.63729	0.92483	9.49422	1.60865
5919.340	10.62241	0.93091	9.50136	1.59204
5923.307	10.64168	0.94377	9.43303	1.53031
5927.342	10.66510	0.98315	9.43742	1.51393
5931.340	10.66452	0.98422	9.36595	1.47401
5935.339	10.66431	1.05560	9.33434	1.43780
5939.340	10.64336	1.13470	9.34522	1.46885
5943.364	10.65865	1.06226	9.35252	1.45816
5947.341	10.70790	1.07127	9.37008	1.48031
5951.339	10.75102	1.10440	9.33773	1.55215
5955.338	10.73655	1.16234	9.36037	1.54531
5959.333	10.74019	1.23513	9.36551	1.51003
5963.304	10.76216	1.24458	9.38602	1.51398
5967.336	10.85018	1.27736	9.42424	1.52721
5971.342	10.84583	1.26243	9.43153	1.51763
5975.306	10.91093	1.32134	9.44856	1.50849
5979.340	10.91401	1.34574	9.50119	1.49807
5983.338	10.97337	1.33069	9.49559	1.42043
5987.341	10.97033	1.36101	9.52809	1.41508
5991.366	10.98949	1.40352	9.50501	1.37493
5995.341	11.02285	1.35845	9.33217	1.39458
5999.340	10.99362	1.35956	9.36764	1.33286
6003.341	10.97619	1.32105	9.26681	1.35313
6007.367	11.05235	1.31396	9.29587	1.35106
6011.342	10.85169	1.31580	9.24856	1.33592
6015.342	10.88948	1.35204	9.20980	1.29461
6019.342	10.82995	1.35917	9.03701	1.31630
6023.334	10.78884	1.35723	9.00859	1.30495
6027.344	10.73986	1.39085	8.99145	1.29501
6031.342	10.71041	1.37413	8.95402	1.31030
6035.353	10.67241	1.37284	8.91372	1.31224
6039.334	10.59392	1.42789	8.95850	1.24152
6043.306	10.56790	1.43478	8.99959	1.25754
6047.322	10.52914	1.48171	9.03602	1.23536
6051.337	10.52019	1.53608	9.01014	1.22704
6055.335	10.50865	1.57669	8.99598	1.26754
6059.341	10.45401	1.57543	9.04074	1.34226
6063.305	10.42814	1.57844	9.09575	1.43850
6067.345	10.42442	1.60505	9.09466	1.38034
6071.343	10.41880	1.65338	9.09979	1.40261
6075.341	10.40080	1.68188	9.02120	1.39394
6079.342	10.36266	1.66897	9.07745	1.39179
6083.345	10.30735	1.66472	9.06032	1.40390
6087.333	10.29620	1.68386	9.10269	1.52824
6091.334	10.35022	1.66168	9.03583	1.58819
6095.341	10.42442	1.62337	9.07225	1.64288
6099.341	10.42221	1.60186	9.03638	1.68868
6103.344	10.50654	1.53959	9.04894	1.67128
6107.351	10.58709	1.49347	9.03846	1.65976
6111.341	10.61250	1.51602	9.13035	1.62783
6115.343	10.63837	1.44563	9.18915	1.58300
6119.345	10.62519	1.34976	9.19858	1.53707
6123.343	10.69187	1.23064	9.26217	1.50555
6127.343	10.72136	1.17297	9.35525	1.34629
6131.313	10.75543	1.10929	9.37230	1.25110
6135.346	10.77605	1.05373	9.42571	1.19171
6139.343	10.78333	0.93027	9.51517	1.14943
6143.342	10.84511	0.91190	9.54532	1.21314
6147.343	10.85095	0.94138	9.58403	1.18197
6151.343	10.84370	0.91059	9.64145	1.21216
6155.343	10.90322	0.84435	9.61911	1.17000
6159.343	10.85210	0.76365	9.73901	1.21053
6163.345	10.73567	0.71781	9.72204	1.22930
6167.344	10.77996	0.73409	9.75066	1.24442
6171.341	10.78142	0.72405	9.72964	1.41526
6175.342	10.82464	0.73376	9.69639	1.42005
6179.343	10.80474	0.81558	9.70721	1.48607
6183.347	10.79449	0.87159	9.62282	1.58423
6187.343	10.79440	0.92030	9.61592	1.62470
6191.345	10.82050	0.95602	9.60533	1.61968
6195.345	10.85193	1.04531	9.49233	1.66863
6199.349	10.84147	1.12217	9.45650	1.66562
6203.346	10.80371	1.23855	9.13477	1.74361
6207.350	10.88049	1.34699	9.12188	1.75938
6211.341	10.91121	1.48704	9.09151	1.83861
6215.346	10.92011	1.54566	9.02689	1.79981
6219.343	10.91667	1.62925	9.08994	1.84117
6223.346	10.95861	1.67246	8.96065	1.90220
6227.344	10.98599	1.66731	8.94634	1.82479
6231.347	10.97600	1.77053	8.88867	1.85808
6235.347	10.99274	1.80823	8.93881	1.81163
6239.356	10.97322	1.92020	9.06918	1.75575
6243.344	11.01017	1.86702	9.02079	1.78756
6247.310	11.04788	1.92486	9.23263	1.71282
6251.347	11.04353	1.93692	9.29246	1.72921
6255.316	11.05725	1.92850	9.32282	1.48742
6259.342	11.09762	1.94309	9.36158	1.42549
6263.311	11.14252	1.90163	9.37380	1.41395
6267.344	11.14378	1.89208	9.35549	1.42399
6271.308	11.15121	1.89758	9.25175	1.38069
6275.343	11.17348	1.90102	9.34911	1.38942
6279.337	11.13745	1.86589	9.17740	1.43653
6283.348	11.12431	1.83553	9.22052	1.46609
6287.345	11.02619	1.83880	9.46430	1.39432
6291.347	11.03702	1.79848	9.42103	1.38399
6295.327	11.07883	1.74402	9.37436	1.36281
6299.308	11.08445	1.71324	9.49482	1.48495
6303.343	11.00061	1.66934	9.37670	1.56959
6307.344	10.91507	1.54590	9.18990	1.54988
6311.350	10.46016	1.48724	7.88149	1.59224
6315.309	7.72819	1.43446	6.00781	1.35899
6319.346	7.26676	1.26176	3.37893	1.00620
6323.344	5.14367	1.00127	1.92773	0.22468
6327.350	3.69471	0.57655	0.09235	-0.48790
6331.309	1.83221	0.20093	-1.37600	-0.93174
6335.348	0.01511	-0.04938	-2.07157	-1.17292
6339.313	-0.25954	0.07775	-2.50650	-1.47951
6343.350	-0.84625	-0.54949	-3.28617	-1.44664
6347.345	-1.41246	-0.50606	-3.39329	-1.50491
6351.345	-1.29705	-0.25094	-3.13749	-1.56100
6355.345	-0.99596	-0.46562	-2.86188	-1.56328
6359.350	-0.87461	-0.45637	-2.83727	-1.63704
6363.348	-0.95638	-0.62909	-3.08582	-1.72583
6367.345	-1.11854	-0.71240	-3.22200	-1.76712
6371.348	-1.42675	-0.82088	-3.38360	-1.85342
6375.350	-1.35588	-0.89060	-3.31083	-1.79417
6379.333	-1.31255	-1.00776	-3.30106	-1.79238
6383.310	-1.24129	-1.09081	-3.28630	-1.74420
6387.346	-1.28656	-1.10316	-3.32291	-1.74491
6391.245	-1.30943	-1.11145	-3.30698	-1.71395
6395.346	-1.39683	-1.14453	-3.30510	-1.69854
6399.347	-1.43523	-1.17491	-3.31504	-1.70933
6403.346	-1.50289	-1.21120	-3.36881	-1.69340
6407.347	-1.53808	-1.25463	-3.34873	-1.69750
6411.353	-1.55333	-1.26318	-3.29973	-1.68281
6415.349	-1.52149	-1.26221	-3.24234	-1.65564
6419.348	-1.49703	-1.26078	-3.16203	-1.62823
6423.350	-1.45232	-1.20320	-3.17742	-1.66202
6427.347	-1.39463	-1.17299	-3.20068	-1.70385
6431.347	-1.44111	-1.15188	-3.19768	-1.76751
6435.350	-1.52327	-1.06960	-3.12727	-1.75506
6439.349	-1.52580	-1.06580	-3.24266	-1.74245
6443.348	-1.54187	-1.09008	-3.26240	-1.78388
6447.347	-1.51405	-1.08446	-3.26159	-1.75404
6451.313	-1.40948	-1.08483	-3.22596	-1.75566
6455.351	-1.44411	-1.02859	-3.26240	-1.74194
6459.310	-1.47933	-1.08882	-3.16903	-1.71166
6463.326	-1.44083	-1.12266	-3.18334	-1.73672
6467.346	-1.45631	-1.22297	-3.18131	-1.73115
6471.250	-1.45284	-1.16228	-3.14009	-1.73335
6475.349	-1.45418	-1.16154	-3.18190	-1.69570
6479.348	-1.40313	-1.20916	-3.23883	-1.63911
6483.348	-1.33582	-1.27038	-3.26248	-1.65454
6487.353	-1.32441	-1.30726	-3.26173	-1.61129
6491.346	-1.29573	-1.29839	-3.19717	-1.61977
6495.348	-1.33341	-1.33755	-3.29367	-1.62117
6499.347	-1.37667	-1.42914	-3.32857	-1.60610
6503.339	-1.36191	-1.44243	-3.37383	-1.63676
6507.340	-1.36908	-1.37134	-3.38941	-1.61504
6511.352	-1.36037	-1.29406	-3.45074	-1.52551
6515.348	-1.38704	-1.20165	-3.44152	-1.42970
6519.317	-1.37535	-1.08219	-3.39134	-1.40439
6523.312	-1.06768	-1.25787	-2.17366	-1.38795
6527.348	1.84865	-0.70732	-0.34600	-1.12115
6531.348	3.57211	1.03746	1.72773	0.29942
6535.248	7.08639	1.07985	3.19289	0.82348
6539.351	8.01781	0.68788	5.30709	0.93086
6543.346	8.61826	0.68042	6.74873	1.11684
6547.316	9.76194	1.00861	8.43122	1.17309
6551.349	10.86364	1.03795	9.26150	1.22904
6555.347	11.66753	1.30278	9.90585	1.27777
6559.348	11.69890	1.41550	9.43532	1.31602
6563.351	11.42735	1.44297	9.34548	1.27999
6567.246	11.09064	1.38212	9.01837	1.32250
6571.351	11.14354	1.47351	9.21140	1.36219
6575.350	11.29011	1.55057	9.46599	1.37915
6579.312	11.51173	1.69071	9.98788	1.42345
6583.316	11.69302	1.82352	10.16937	1.44513
6587.350	11.60242	1.84558	9.97510	1.43417
6591.220	11.58732	1.83805	10.10074	1.45070
6595.218	11.46194	1.92506	9.99590	1.42263
6599.223	11.29240	1.86416	9.84778	1.39134
6603.224	11.25882	1.83604	10.02374	1.47506
6607.225	11.24223	1.78514	9.97972	1.49001
6611.228	11.07138	1.80935	10.05406	1.60776
6615.220	11.10070	1.76781	10.14809	1.58927
6619.225	10.94014	1.71000	10.13191	1.63433
6623.226	11.01672	1.75715	10.08731	1.58711
6627.225	11.07489	1.75125	10.04259	1.63180
6631.228	10.99190	1.67527	10.02028	1.65861
6635.199	11.00513	1.71733	9.96559	1.68620
6639.225	10.99826	1.61262	9.89354	1.68097
6643.225	11.04152	1.56561	9.84089	1.76695
6647.220	11.02328	1.47014	9.82797	1.74359
6651.227	11.02045	1.44057	9.67772	1.77081
6655.199	11.09480	1.46679	9.54117	1.74219
6659.227	11.15487	1.42736	9.46546	1.74495
6663.225	11.11258	1.40198	9.51575	1.71029
6667.224	11.12417	1.35577	9.60205	1.71843
6671.223	11.17023	1.31226	9.53209	1.70179
6675.211	11.18814	1.28452	9.66262	1.73484
6679.247	11.14347	1.30543	9.59423	1.66796
6683.225	11.13843	1.28820	9.58241	1.67818
6687.223	11.09172	1.34629	9.53837	1.63362
6691.225	11.05529	1.32384	9.57076	1.56422
6695.227	11.02887	1.27564	9.60702	1.50750
6699.225	10.98996	1.24597	9.63566	1.47346
6703.228	10.99319	1.26604	9.76261	1.48531
6707.189	10.92787	1.28925	9.75247	1.50290
6711.252	10.90179	1.25131	9.78474	1.45851
6715.228	10.85851	1.25764	9.87502	1.46824
6719.190	10.86198	1.26424	9.79609	1.43691
6723.227	10.88726	1.27184	9.81686	1.38349
6727.251	10.86866	1.32821	9.88121	1.27828
6731.228	10.96444	1.43128	9.97495	1.18063
6735.226	11.00132	1.57979	10.03486	1.11300
6739.227	10.97779	1.55840	10.02694	1.14618
6743.222	11.18578	1.47717	10.07194	1.16194
6747.228	10.97643	1.52779	10.10509	1.11628
6751.226	10.95983	1.47241	10.05512	1.19003
6755.230	11.08058	1.53361	9.98752	1.17290
6759.220	11.15329	1.48949	9.84845	1.40453
6763.194	11.13666	1.53526	9.89347	1.39893
6767.224	11.08282	1.42052	9.94378	1.52087
6771.226	11.05032	1.35479	10.00911	1.37329
6775.194	10.98552	1.35521	9.82975	1.22190
6779.227	10.96600	1.33277	9.69889	1.60220
6783.230	10.79514	1.26020	9.56769	1.48201
6787.226	10.58018	1.19732	9.47700	1.52482
6791.218	10.61346	1.15652	9.43165	1.65475
6795.231	10.56817	1.07186	9.36747	1.70113
6799.229	10.51156	0.93728	9.24416	1.73572
6803.219	10.53701	0.91493	9.18460	1.72197
6807.249	10.43632	0.86033	9.11511	1.73191
6811.233	10.45149	0.81445	9.04420	1.74003
6815.228	10.43301	0.77404	9.01070	1.72619
6819.228	10.37659	0.72813	8.97092	1.81990
6823.253	10.37955	0.72014	8.91173	1.81132
6827.229	10.40644	0.72924	8.92212	1.80122
6831.228	10.43167	0.72622	8.94946	1.76658
6835.229	10.44261	0.78129	8.99900	1.73512
6839.254	10.47489	0.91416	8.97470	1.68705
6843.208	10.52811	0.98950	9.02208	1.62911
6847.229	10.56301	0.87607	8.99576	1.55955
6851.231	10.54792	1.00787	9.08261	1.46068
6855.250	10.46743	0.99946	9.15621	1.42845
6859.193	10.54550	0.98316	9.20867	1.42861
6863.229	10.55881	1.02200	9.23507	1.41863
6867.230	10.56287	1.08225	9.26681	1.41107
6871.251	10.45697	1.08302	9.41832	1.38917
6875.226	10.48910	1.10953	9.54928	1.44722
6879.230	10.54416	1.21248	9.45520	1.47363
6883.230	10.50681	1.15526	9.38617	1.47926
6887.252	10.54284	1.19202	9.33903	1.44871
6891.230	10.51408	1.21848	9.30633	1.48323
6895.193	10.58251	1.27395	9.24017	1.49976
6899.232	10.50568	1.20034	9.27233	1.49494
6903.221	10.52490	1.23104	9.15693	1.49004
6907.230	10.45029	1.25373	9.15135	1.45552
6911.231	10.42833	1.24725	9.16956	1.50359
6915.233	10.45020	1.23800	9.13831	1.47935
6919.229	10.45778	1.32243	9.11148	1.46137
6923.234	10.40579	1.28377	9.10439	1.43626
6927.231	10.36939	1.22606	9.07559	1.39741
6931.232	10.39141	1.38137	9.10395	1.39352
6935.222	10.33334	1.32914	9.09374	1.35783
6939.231	10.30881	1.37435	9.21338	1.38395
6943.230	10.35121	1.42400	9.11794	1.46034
6947.230	10.34352	1.50356	9.32702	1.40549
6951.230	10.40180	1.50902	9.27518	1.42712
6955.234	10.40267	1.53558	9.25753	1.40817
6959.233	10.38075	1.52766	9.33140	1.43211
6963.235	10.35015	1.56547	9.43139	1.39715
6967.191	10.36495	1.60475	9.61945	1.44082
6971.231	10.32335	1.61568	9.66841	1.46054
6975.229	10.34994	1.63369	9.75611	1.49892
6979.243	10.35558	1.68972	9.88511	1.51820
6983.222	10.34184	1.71590	9.79971	1.49914
6987.229	10.30694	1.74159	9.78816	1.43723
6991.232	10.26638	1.70979	9.76466	1.44367
6995.231	10.23476	1.73170	9.74600	1.45247
6999.224	10.22394	1.77193	9.74114	1.51145
7003.229	10.23435	1.79481	9.73795	1.49947
7007.225	10.23959	1.74480	9.70924	1.48927
7011.233	10.22969	1.70468	9.61957	1.50582
7015.234	10.25014	1.77386	9.55714	1.50243
7019.230	10.26665	1.68592	9.47188	1.43988
7023.231	10.22834	1.67735	9.42931	1.45284
7027.228	10.24959	1.61733	9.43419	1.43844
7031.235	10.26698	1.57168	9.44916	1.48394
7035.232	10.29063	1.53914	9.41615	1.52688
7039.230	10.32496	1.53719	9.44849	1.53166
7043.228	10.31967	1.48356	9.47413	1.51453
7047.258	10.26254	1.52112	9.55227	1.50845
7051.203	10.16336	1.55667	9.49801	1.45042
7055.232	10.24747	1.61153	9.54826	1.40632
7059.234	10.19921	1.53851	9.56422	1.30715
7063.198	10.14833	1.53491	9.51310	1.26352
7067.232	10.17495	1.51963	9.53781	1.27898
7071.231	10.10817	1.49240	9.50020	1.26134
7075.234	10.00170	1.31025	9.47403	1.18642
7079.232	10.02288	1.30517	9.52104	1.21538
7083.201	9.98006	1.31476	9.51206	1.21093
7087.234	9.99238	1.32523	9.44259	1.23551
7091.217	9.99308	1.24607	9.39206	1.20481
7095.233	10.03012	1.24395	9.37257	1.28023
7099.233	10.02391	1.11686	9.31508	1.37902
7103.235	10.04632	1.09697	9.32656	1.33751
7107.232	10.05608	1.07121	9.37820	1.28943
7111.233	10.07622	0.97754	9.37177	1.28673
7115.235	10.10593	0.92575	9.38112	1.31071
7119.235	10.13236	0.99040	9.38291	1.30176
7123.234	10.16074	1.02144	9.32606	1.29143
7127.224	10.16858	1.01564	9.25238	1.29016
7131.236	10.16007	0.97337	9.25850	1.22329
7135.201	10.18014	0.95954	9.28156	1.13864
7139.231	10.17228	0.94047	9.30302	1.07758
7143.257	10.18065	0.99583	9.35752	1.06376
7147.198	10.17651	1.03855	9.40665	1.11289
7151.197	10.19450	1.12661	9.34121	1.13626
7155.235	10.22476	1.20189	9.44380	1.23308
7159.233	10.20957	1.28461	9.38508	1.24647
7163.236	10.24394	1.31664	9.51602	1.13059
7167.234	10.16100	1.46822	9.58605	1.15828
7171.237	10.21541	1.50644	9.64907	1.13039
7175.228	10.27323	1.47183	9.64342	1.19185
7179.234	10.28188	1.47084	9.64125	1.21189
7183.236	10.28892	1.53709	9.62738	1.23268
7187.238	10.31030	1.50975	9.51710	1.30277
7191.233	10.30663	1.49284	9.45703	1.29097
7195.235	10.31756	1.51736	9.39421	1.26187
7199.196	10.35412	1.52774	9.25954	1.21811
7203.234	10.36036	1.58315	9.21856	1.21830
7207.202	10.36567	1.60836	9.18719	1.32877
7211.235	10.46028	1.57862	9.12331	1.36937
7215.231	10.50719	1.57872	9.18199	1.39766
7219.229	10.63605	1.65156	9.10189	1.35650
7223.235	10.61998	1.65824	9.11714	1.34855
7227.232	10.61541	1.67105	9.17928	1.34241
7231.234	10.70258	1.74229	9.10923	1.25946
7235.237	10.67401	1.76222	9.21249	1.20379
7239.232	10.65963	1.78021	9.17135	1.24554
7243.233	10.62339	1.82202	9.19401	1.23550
7247.237	10.67715	1.80267	9.23502	1.20033
7251.238	10.69946	1.78244	9.27141	1.17353
7255.238	10.73648	1.80134	9.29548	1.11092
7259.214	10.68338	1.84759	9.28763	1.11393
7263.236	10.63068	1.84223	9.28859	1.23233
7267.235	10.65429	1.92890	9.27607	1.44787
7271.135	10.59327	1.89540	9.28088	1.33062
7275.236	10.53960	1.78339	9.29761	1.51635
7279.237	10.54269	1.79119	9.28594	1.58563
7283.236	10.60800	1.71277	9.33002	1.70624
7287.240	10.60001	1.61703	9.40438	1.68993
7291.234	10.56901	1.44217	9.41653	1.74018
7295.234	10.55673	1.44689	9.52553	1.83567
7299.220	10.51626	1.47682	9.33952	1.81327
7303.238	10.42766	1.43980	9.42371	1.82319
7307.236	10.40370	1.53585	9.49255	1.73783
7311.234	10.32902	1.41714	9.46493	1.67158
7315.240	10.29745	1.34672	9.46305	1.68303
7319.136	10.24351	1.38070	9.31578	1.64606
7323.234	10.26187	1.37260	9.28224	1.60268
7327.237	10.22608	1.37305	9.30791	1.59844
7331.234	10.20390	1.37398	9.22550	1.57034
7335.201	10.18132	1.46891	9.15040	1.52551
7339.236	10.22678	1.52505	9.04706	1.48255
7343.199	10.20000	1.56326	9.14477	1.45294
7347.235	10.25379	1.67504	9.12636	1.45631
7351.140	10.27652	1.70204	9.10639	1.47242
7355.238	10.32719	1.78845	9.13734	1.51616
7359.238	10.37734	1.82586	9.10245	1.58375
7363.239	10.39390	1.73676	9.12585	1.52761
7367.135	10.42528	1.75143	9.08539	1.55053
7371.237	10.49937	1.64771	9.19556	1.48860
7375.234	10.51384	1.67851	9.24010	1.48532
7379.237	10.55030	1.67912	9.25337	1.47689
7383.219	10.59109	1.60192	9.36387	1.50531
7387.234	10.54749	1.63344	9.46602	1.51706
7391.239	10.52669	1.47845	9.44257	1.54391
7395.233	10.46753	1.40457	9.52046	1.51317
7399.141	10.49944	1.37173	9.46969	1.54154
7403.200	10.42367	1.37986	9.52811	1.48115
7407.239	10.48739	1.36324	9.56955	1.50360
7411.237	10.47194	1.31082	9.56909	1.42419
7415.246	10.45831	1.33120	9.51225	1.49217
7419.238	10.45603	1.33460	9.46749	1.52445
7423.232	10.39191	1.32545	9.51107	1.54495
7427.230	10.34938	1.41375	9.47543	1.50639
7431.238	10.35018	1.42369	9.43467	1.57420
7435.238	10.38826	1.50178	9.37523	1.53150
7439.236	10.43198	1.53068	9.33857	1.55660
7443.240	10.43292	1.57216	9.29635	1.58933
7447.239	10.45634	1.57234	9.32509	1.63345
7451.236	10.45293	1.63064	9.28074	1.65725
7455.239	10.42070	1.63472	9.30742	1.68327
7459.238	10.37842	1.73565	9.32059	1.69012
7463.137	10.30057	1.75704	9.33618	1.72079
7467.214	10.29378	1.75981	9.31948	1.71492
7471.202	10.27287	1.73599	9.26133	1.72370
7475.237	10.27246	1.73768	9.23125	1.74399
7479.136	10.25365	1.75092	9.27366	1.74944
7483.240	10.24745	1.75003	9.32226	1.73599
7487.239	10.20296	1.73393	9.26215	1.68368
7491.241	10.22690	1.70333	9.31487	1.61649
7495.137	10.22563	1.68714	9.29331	1.53918
7499.238	10.17170	1.72235	9.26232	1.45709
7503.240	10.11096	1.75723	9.15790	1.49256
7507.228	10.12770	1.80030	9.21836	1.50922
7511.139	10.12710	1.85528	9.07438	1.48820
7515.240	10.19190	1.93174	9.03471	1.49432
7519.202	10.29519	1.98306	9.06506	1.42803
7523.202	10.26151	1.95853	9.00479	1.36837
7527.136	10.27037	1.85709	9.00620	1.35063
7531.234	10.37208	1.83007	9.05763	1.35957
7535.236	10.36667	1.81364	8.94469	1.33882
7539.206	10.41366	1.74229	9.01041	1.37476
7543.141	10.36012	1.84442	9.06998	1.37188
7547.236	10.39086	1.68342	9.13722	1.34740
7551.206	10.44103	1.61520	9.06809	1.32698
7555.238	10.47324	1.57723	9.09928	1.27978
7559.141	10.47319	1.52930	9.12403	1.21093
7563.203	10.37563	1.46342	9.12742	1.20645
7567.238	10.33673	1.41689	9.20093	1.16374
7571.242	10.30516	1.41586	9.16412	1.14598
7575.138	10.19423	1.41154	9.14346	1.11002
7579.240	10.17101	1.36519	9.18221	1.07373
7583.208	10.17072	1.40428	9.15553	1.03671
7587.243	10.22798	1.37355	9.16126	0.95745
7591.148	10.21142	1.34757	9.17457	0.96575
7595.240	10.19132	1.29987	9.30394	0.95228
7599.243	10.17925	1.34717	9.26880	0.92744
7603.239	10.15297	1.36784	9.28562	0.94978
7607.114	10.18070	1.41429	9.32719	0.92714
7611.243	10.17142	1.27763	9.26338	1.01918
7615.240	10.22897	1.29495	9.28383	1.00603
7619.119	10.29178	1.29222	9.30921	1.02991
7623.106	10.31667	1.35997	9.33004	1.07894
7627.117	10.35534	1.30313	9.32388	1.10695
7631.114	10.32080	1.25100	9.35447	1.14431
7635.114	10.36509	1.34362	9.27022	1.19619
7639.083	10.35560	1.40131	9.26437	1.23146
7643.078	10.38576	1.26985	9.26225	1.19991
7647.081	10.44686	1.42965	9.28504	1.21126
7651.114	10.32111	1.24506	8.73642	1.17750
7655.107	9.80506	1.38560	5.90887	1.16125
7659.118	6.86794	1.38271	4.16677	1.11048
7663.082	5.52947	1.43583	2.07115	1.01196
7667.115	4.01507	1.25316	0.80089	0.88005
7671.116	1.53242	1.11690	-0.22512	0.39775
7675.118	1.28956	0.94963	-1.10375	-0.08365
7679.099	0.55915	0.49769	-1.84014	-0.30519
7683.115	-0.66625	0.57803	-2.27436	-0.32025
7687.138	-0.42941	0.24722	-2.41108	-0.25929
7691.120	0.29404	0.38383	-1.94441	-0.20727
7695.115	-0.08644	0.37241	-1.00633	-0.32562
7699.116	0.40144	0.35794	-1.29333	-0.46684
7703.083	0.29103	0.28919	-1.19619	-0.52131
7707.090	-0.02340	0.18480	-1.48550	-0.55021
7711.116	-0.00065	0.08730	-1.36866	-0.58971
7715.119	-0.10059	0.04100	-1.56094	-0.65868
7719.075	-0.13002	0.01275	-1.53344	-0.68511
7723.109	-0.11180	0.02217	-1.36461	-0.70397
7727.115	-0.12136	-0.00706	-1.31863	-0.79814
7731.118	-0.08009	0.02361	-1.22826	-0.89529
7735.109	-0.13965	-0.01610	-1.21516	-0.98517
7739.116	-0.11927	-0.03295	-1.20078	-1.10603
7743.118	-0.15444	-0.05623	-1.21693	-1.13898
7747.118	-0.16069	-0.12256	-1.26989	-1.15564
7751.140	-0.17648	-0.16651	-1.19274	-1.13891
7755.120	-0.19209	-0.15528	-1.21311	-1.14501
7759.116	-0.15509	-0.16542	-1.28551	-0.61690
7763.083	-0.21033	-0.20354	-1.31555	-0.98851
7767.143	-0.12960	-0.16892	-1.43379	-0.76452
7771.115	-0.13320	-0.21574	-1.29963	-1.02619
7775.118	-0.15816	-0.21062	-1.35742	-1.06136
7779.116	-0.18482	-0.20369	-1.39172	-1.00033
7783.146	-0.24822	-0.15088	-1.47873	-0.76838
7787.120	-0.23681	-0.10285	-1.57389	-0.76656
7791.118	-0.25153	-0.09845	-1.57602	-0.90804
7795.117	-0.26379	-0.10896	-1.63497	-0.83066
7799.147	-0.21705	-0.15168	-1.69463	-0.76639
7803.108	-0.19549	-0.10625	-1.29464	-0.92738
7807.107	-0.24899	0.01009	-1.24575	-0.89106
7811.118	-0.17668	-0.13180	-1.02017	-0.96164
7815.117	-0.14203	-0.06304	-1.13826	-0.95607
7819.125	-0.16558	-0.02356	-1.12261	-0.86454
7823.117	-0.19422	0.09428	-1.35196	-0.85943
7827.117	-0.13503	-0.01580	-1.68250	-0.78663
7831.115	-0.16330	-0.01759	-1.69455	-0.74404
7835.120	-0.10260	0.03069	-1.76626	-0.54618
7839.122	-0.12441	0.00917	-1.35385	-0.63936
7843.128	-0.14268	0.05350	-1.34400	-0.67640
7847.119	-0.18502	-0.01742	-1.34983	-0.53166
7851.119	-0.20353	-0.02890	-0.93321	-0.50312
7855.119	-0.26160	0.02721	-1.02630	-0.47093
7859.118	-0.27696	0.06026	-1.04781	-0.50335
7863.148	-0.30111	0.07691	-1.14404	-0.60297
7867.121	-0.33307	-0.02433	-1.24228	-0.49859
7871.118	-0.28999	-0.03307	-1.30394	-0.51547
7875.118	-0.31960	-0.05437	-1.65726	-0.57746
7879.143	-0.33719	-0.08227	-1.78867	-0.53952
7883.123	-0.40752	-0.14459	-1.67556	-0.58053
7887.103	-0.58024	-0.11887	-2.33105	-0.51252
7891.120	-2.99804	-0.00653	-5.10989	-0.28621
7895.142	-3.79055	0.16000	-7.92731	-0.38312
7899.122	-6.17200	0.33295	-8.65421	-0.38866
7903.123	-7.01653	0.41766	-9.44708	-0.44082
7907.119	-7.98552	0.55989	-10.13520	-0.38609
7911.081	-8.62275	0.25706	-10.36564	-0.34243
7915.123	-8.80900	0.60710	-10.28772	-0.26391
7919.124	-8.55549	0.86806	-9.96292	-0.11625
7923.124	-8.36538	0.95682	-9.66253	-0.05960
7927.116	-8.33000	0.78873	-9.92170	-0.04837
7931.087	-8.56035	0.87476	-10.00206	0.01219
7935.123	-8.61717	1.02823	-10.15658	-0.01756
7939.119	-8.86023	1.06684	-10.20178	-0.06300
7943.114	-8.76050	1.12631	-10.37698	-0.09552
7947.085	-8.64449	1.15802	-10.29760	0.03741
7951.123	-8.73591	1.17745	-10.21899	0.13930
7955.124	-8.71623	1.19689	-10.16254	0.14284
7959.119	-8.65712	1.30264	-10.19418	0.21847
7963.120	-8.64053	1.17508	-10.20089	0.15537
7967.120	-8.70577	1.18113	-10.19089	0.15247
7971.123	-8.75621	1.25359	-10.21601	0.13558
7975.092	-8.72643	1.20002	-10.26451	0.10062
7979.123	-8.75504	1.26265	-10.19478	0.07667
7983.121	-8.71625	1.19048	-10.12135	-0.01005
7987.123	-8.67425	1.05342	-10.09689	-0.01316
7991.114	-8.69380	1.03488	-10.06350	0.00276
7995.121	-8.72762	1.04880	-10.14028	0.11462
7999.120	-8.74738	1.22337	-10.06759	0.11020
8003.121	-8.74874	1.04194	-10.04930	0.19002
8007.123	-8.76821	0.94604	-9.91466	0.11201
8011.111	-8.82926	1.02583	-9.92078	0.17531
8015.086	-8.83209	0.92921	-9.86926	0.11428
8019.129	-8.79727	0.96440	-9.87230	-0.01503
8023.116	-8.77727	0.98483	-9.93099	0.15636
8027.122	-8.78760	0.94484	-9.90862	0.09385
8031.124	-8.88549	0.92169	-9.88222	0.08502
8035.124	-8.87411	0.99959	-9.89624	0.16509
8039.115	-8.88789	0.88634	-9.85522	0.09626
8043.119	-8.92970	0.69111	-9.88918	0.06845
8047.121	-8.96278	0.66150	-9.82836	-0.07267
8051.123	-9.02135	0.63166	-9.86011	-0.08821
8055.115	-9.08575	0.59503	-9.88824	-0.12534
8059.122	-9.02089	0.69330	-9.93988	-0.13051
8063.120	-9.09258	0.63992	-9.96747	-0.13583
8067.124	-9.06661	0.58793	-9.96256	-0.16956
8071.149	-9.01932	0.59164	-9.96455	-0.16190
8075.121	-8.95048	0.56475	-10.00584	-0.18992
8079.121	-8.97566	0.47587	-10.03354	-0.20958
8083.086	-9.05303	0.59833	-10.05074	-0.22104
8087.127	-8.97695	0.69927	-10.04769	-0.27937
8091.086	-9.03045	0.68741	-9.99708	-0.24907
8095.106	-8.96300	0.70700	-9.94900	-0.23017
8099.119	-8.89138	0.77185	-10.00211	-0.18845
8103.127	-8.86943	0.78328	-9.98569	-0.16037
8107.125	-8.96949	0.86125	-10.00509	-0.01708
8111.123	-9.02939	0.98388	-10.03335	-0.04441
8115.126	-9.03624	1.01134	-10.08690	0.06268
8119.128	-9.03089	1.06911	-10.03188	0.05405
8123.123	-9.04664	1.05613	-10.04795	0.09464
8127.125	-9.03723	1.10648	-10.02822	0.13204
8131.126	-9.01319	1.17860	-10.00533	0.12825
8135.116	-8.98457	1.19457	-10.04040	0.18285
8139.116	-9.01622	1.20344	-10.06167	0.14367
8143.118	-9.05187	1.25633	-10.06407	0.10572
8147.085	-9.05819	1.26455	-10.04920	0.06594
8151.091	-9.05451	1.21138	-10.03472	-0.00690
8155.083	-9.03873	1.20182	-9.99652	-0.08798
8159.128	-9.04093	1.19117	-9.96431	-0.11429
8163.126	-9.01462	1.17340	-9.99431	-0.13646
8167.125	-9.01539	1.15995	-10.03161	-0.04967
8171.123	-9.03023	1.11656	-10.08289	-0.08017
8175.124	-9.00360	1.06907	-10.18072	-0.11155
8179.125	-8.96479	1.16423	-10.11772	-0.09350
8183.128	-8.95392	1.28084	-10.15819	-0.10388
8187.128	-8.89913	1.19681	-9.94291	-0.03231
8191.125	-8.65768	1.41076	-9.77939	0.07138
8195.126	-5.54958	1.50130	-7.55310	0.09674
8199.130	-3.56452	1.48803	-5.92771	0.11278
8203.125	-0.53758	1.29248	-3.46488	0.16658
8207.126	0.29893	1.07290	-1.16900	0.25664
8211.122	2.74640	0.81719	0.45639	0.20062
8215.118	3.88372	0.68599	2.34770	0.36080
8219.094	6.38376	0.67316	3.99963	0.40563
8223.125	7.69805	0.76147	6.23165	0.45849
8227.124	9.23468	0.73764	6.75287	0.54788
8231.130	9.53436	0.84429	7.84908	0.74844
8235.126	9.51855	0.72008	7.85266	0.85613
8239.132	9.26524	0.73510	7.59088	1.02308
8243.126	8.98777	0.55809	7.16231	0.84586
8247.126	8.89419	0.53285	7.35456	0.67188
8251.123	9.13693	0.48355	7.45804	0.69592
8255.125	9.27733	0.57056	7.54337	0.74428
8259.125	9.15635	0.51662	7.55066	0.67919
8263.130	9.06601	0.57681	7.48127	0.71450
8267.126	9.08844	0.51556	7.53142	0.57094
8271.086	9.10073	0.49209	7.61007	0.52885
8275.123	8.96317	0.47807	7.57576	0.47059
8279.131	8.96455	0.47414	7.56547	0.38013
8283.126	8.93394	0.41873	7.67621	0.46710
8287.090	8.89928	0.44935	7.74927	0.62075
8291.127	8.93513	0.42626	7.76104	0.60894
8295.129	8.95980	0.40935	7.84464	0.62420
8299.130	8.78319	0.34616	7.87168	0.64572
8303.107	8.76673	0.36462	7.89946	0.67484
8307.127	8.76850	0.29824	7.96164	0.70432
8311.025	8.66491	0.27410	7.94815	0.79039
8315.126	8.72032	0.29612	7.98488	0.78269
8319.129	8.74791	0.30859	8.02071	0.82299
8323.130	8.72420	0.27725	8.03523	0.83184
8327.128	8.74222	0.32746	7.99070	0.84586
8331.125	8.72575	0.29825	7.89668	0.82103
8335.126	8.74105	0.23821	7.86815	0.83526
8339.129	8.66426	0.25789	7.75388	0.82707
8343.129	8.64167	0.28048	7.64544	0.90164
8347.122	8.67308	0.29350	7.66916	0.90349
8351.126	8.74612	0.34416	7.60843	0.89152
8355.091	8.75781	0.33170	7.58166	0.91197
8359.127	8.74665	0.34978	7.59646	0.93124
8363.128	8.68616	0.31985	7.52088	0.94867
8367.129	8.69156	0.31726	7.48556	0.94156
8371.125	8.65824	0.27266	7.47946	0.93344
8375.129	8.70682	0.30497	7.50656	0.89686
8379.128	8.63622	0.30468	7.55410	0.79793
8383.127	8.63199	0.33473	7.57856	0.78017
8387.101	8.64793	0.34752	7.60102	0.71403
8391.092	8.68017	0.35360	7.61338	0.73859
8395.128	8.62370	0.37719	7.66392	0.74478
8399.127	8.59454	0.38417	7.64934	0.71499
8403.127	8.53498	0.38546	7.75531	0.64883
8407.094	8.51125	0.40097	7.81464	0.65425
8411.130	8.53156	0.44842	7.84693	0.65588
8415.127	8.52710	0.47897	7.85071	0.60027
8419.129	8.47350	0.46552	7.85478	0.59901
8423.091	8.47104	0.51726	7.95818	0.58988
8427.116	8.48131	0.53415	8.00338	0.60711
8431.117	8.48896	0.55599	8.00233	0.65083
8435.131	8.46597	0.54933	8.03010	0.65554
8439.130	8.43098	0.55944	7.98844	0.65841
8443.128	8.43428	0.49386	7.98608	0.71099
8447.128	8.41854	0.49474	7.81327	0.76148
8451.129	8.60070	0.40321	7.83395	0.69592
8455.131	8.62081	0.38267	7.83120	0.75389
8459.127	8.69212	0.22400	7.68839	0.79445
8463.090	8.78457	0.14130	7.82289	0.77027
8467.126	8.78311	0.10992	7.65446	0.78459
8471.130	8.75296	0.07582	7.59298	0.78835
8475.129	8.87973	0.05696	7.55218	0.81150
8479.128	8.89436	0.04137	7.60939	0.81723
8483.127	8.88298	0.03793	7.69505	0.75051
8487.131	8.95595	0.15670	7.68847	0.73937
8491.093	8.98283	0.32759	7.74352	0.71414
8495.127	8.96060	0.33610	7.82404	0.70546
8499.128	8.89206	0.43868	7.80501	0.64391
8503.130	8.87578	0.60996	7.78280	0.58831
8507.129	8.83924	0.60251	7.75987	0.51256
8511.129	8.79051	0.57781	7.73355	0.54004
8515.124	8.73957	0.61998	7.78820	0.52629
8519.133	8.59104	0.70383	7.81261	0.48657
8523.132	8.58352	0.67166	7.76545	0.40787
8527.127	8.65363	0.69667	7.73087	0.44099
8531.126	8.61145	0.62673	7.92554	0.41985
8535.028	8.59019	0.59031	7.79288	0.46057
8539.128	8.57178	0.48729	7.77863	0.50013
8543.132	8.58357	0.65292	7.81035	0.53615
8547.128	8.51879	0.62703	7.80097	0.52615
8551.131	8.53020	0.60831	7.81922	0.55239
8555.128	8.53515	0.57034	7.85402	0.57410
8559.092	8.50639	0.63659	7.85370	0.55744
8563.131	8.60507	0.62065	7.85516	0.62854
8567.133	8.59643	0.74622	7.84944	0.66535
8571.129	8.61249	0.69195	7.86252	0.67441
8575.131	8.34563	0.80116	7.57793	0.71085
8579.132	7.06696	0.83605	5.25330	0.64467
8583.131	5.33081	0.83923	2.88908	0.63563
8587.131	4.18494	0.66398	1.54537	0.46127
8591.130	3.70277	0.56953	1.26088	0.26711
8595.106	3.16582	0.33321	1.46134	-0.03224
8599.133	3.61893	0.36633	1.77476	0.25880
8603.130	3.93105	0.11389	2.03261	0.20868
8607.132	4.01759	0.04925	1.91710	0.11094
8611.132	4.02487	0.11990	2.04386	0.28625
8615.134	3.94428	0.08161	1.80050	0.07300
8619.129	3.85219	0.11224	1.55179	-0.01610
8623.133	3.70000	0.06859	1.72418	-0.17347
8627.095	3.69699	-0.01024	1.68446	-0.23671
8631.135	3.62056	0.01069	1.82457	-0.30660
8635.121	3.70682	0.03628	1.90368	-0.21304
8639.121	3.61290	0.06656	2.05355	-0.26323
8643.131	3.68458	0.04102	2.12206	-0.19890
8647.004	3.65267	-0.05357	2.20842	-0.31053
8651.130	3.61666	-0.04114	2.28953	-0.35091
8655.130	3.61117	-0.14104	2.24183	-0.37071
8659.006	3.51315	-0.01850	2.31990	-0.40026
8663.029	3.51164	-0.10271	2.22812	-0.44080
8667.008	3.51753	-0.04765	2.30796	-0.44004
8671.005	3.49258	-0.15651	2.30652	-0.40446
8675.007	3.54821	-0.16858	2.34649	-0.42183
8679.008	3.53008	-0.21833	2.33908	-0.41068
8682.985	3.53866	-0.31597	2.23417	-0.22486
8687.006	3.56633	-0.30326	2.22646	-0.12778
8691.005	3.55936	-0.20543	2.18436	-0.21792
8695.030	3.46973	-0.08927	2.14617	-0.09712
8699.007	3.37848	-0.10595	2.12273	-0.04502
8703.007	3.19199	-0.10879	2.09651	-0.07648
8707.041	3.17096	-0.15303	2.10223	0.02498
8710.999	3.17359	-0.15068	2.15470	0.06801
8715.007	3.14417	-0.13694	2.21967	0.06538
8718.962	3.14558	-0.11160	2.12815	0.13499
8723.013	3.14001	-0.13748	2.08999	0.09682
8727.035	3.12653	-0.15736	2.12870	0.03948
8731.010	3.07553	-0.18543	2.19702	-0.00435
8735.012	3.05316	-0.37017	2.23890	0.02351
8739.007	3.02554	-0.36971	2.23757	0.01813
8743.032	3.00628	-0.31028	2.20114	0.06389
8747.008	3.11868	-0.34094	2.31482	0.01380
8751.005	3.16861	-0.34462	2.35016	-0.10711
8755.009	3.27079	-0.40862	2.22166	-0.11807
8759.031	3.22656	-0.30550	2.24146	-0.18727
8762.973	3.27732	-0.48683	2.19591	-0.28136
8766.969	3.30252	-0.63868	2.24609	-0.32959
8770.970	3.29401	-0.71359	2.34260	-0.37240
8775.030	3.31628	-0.42266	2.44673	-0.41298
8779.010	3.41070	-0.38070	2.42701	-0.39390
8783.010	3.27880	-0.38100	2.36519	-0.46263
8787.008	3.31929	-0.21935	2.42500	-0.43292
8791.029	3.22730	-0.23703	2.35776	-0.39687
8795.010	3.33104	-0.20540	2.40880	-0.33755
8799.010	3.26277	-0.05689	2.47053	-0.20049
8803.008	3.32234	-0.03533	2.31765	-0.30199
8807.031	3.35771	-0.18186	2.26400	-0.27757
8810.998	3.29617	-0.49642	2.36329	-0.22124
8815.010	3.28956	-0.36490	2.31616	-0.20017
8819.006	3.29891	-0.29784	2.28009	-0.23883
8823.034	3.30695	-0.21233	2.21452	-0.07760
8827.007	3.49841	-0.01178	2.40038	-0.12471
8830.974	4.97642	0.17529	3.69800	0.00801
8835.013	8.38270	0.10505	5.65909	0.23684
8839.002	9.35191	0.18286	7.56578	0.53912
8843.009	10.57018	0.21440	9.79023	0.36958
8847.007	11.59184	0.42708	10.31580	0.51695
8851.011	11.76421	0.29900	10.80812	0.93995
8855.008	11.86693	0.31620	10.85514	1.12507
8859.011	11.94491	0.45497	10.76230	1.23233
8863.009	11.91761	0.48142	10.59757	1.10044
8867.010	11.86429	0.51498	10.49515	1.29705
8871.000	11.94251	0.52526	10.79466	1.20623
8875.008	12.08910	0.48556	11.01527	1.18747
8879.008	12.34410	0.48553	10.93430	1.30383
8883.009	12.28912	0.42489	10.83350	1.20747
8887.033	12.09890	0.36433	10.83357	1.16265
8891.011	11.95173	0.22032	10.71444	1.30317
8895.003	11.98600	0.13615	10.60680	1.28244
8899.012	11.94410	0.15438	10.53516	1.25691
8903.034	11.79494	0.14332	10.54574	1.23335
8907.011	11.75251	0.13327	10.65247	1.23055
8911.012	11.90823	0.19512	10.72084	1.20548
8915.010	11.83110	0.22008	10.61274	1.12793
8919.034	11.76763	0.34293	10.54178	1.07925
8923.012	11.74209	0.48506	10.49210	1.04606
8927.011	11.69600	0.57933	10.45817	1.04236
8931.012	11.63999	0.55849	10.45860	1.08357
8935.033	11.64661	0.70140	10.49039	1.00535
8939.010	11.58622	0.70518	10.57932	1.04848
8943.012	11.58448	0.71954	10.64137	1.04323
8947.010	11.60597	0.78308	10.72721	0.98302
8951.037	11.52588	0.82512	10.79964	0.91104
8955.009	11.43250	0.85201	10.70188	0.87440
8959.013	11.32407	0.92320	10.72774	0.92488
8963.013	11.26068	0.93220	10.64506	0.98956
8967.042	11.37772	0.87383	10.71724	1.10863
8971.012	11.35265	0.79520	10.72623	1.07901
8974.987	11.46399	0.69272	10.65791	0.96256
8979.017	11.48082	0.70797	10.67919	0.94707
8983.010	11.53451	0.68130	10.61212	0.86934
8987.012	11.65515	0.66836	10.63252	0.84379
8991.007	11.56886	0.60075	10.61047	0.85501
8995.011	11.58236	0.52636	10.60375	0.91651
8999.035	11.68774	0.47416	10.64858	0.86220
9003.008	11.73052	0.43156	10.64182	0.80511
9007.015	11.75950	0.37398	10.70090	0.78366
9011.016	11.79101	0.32366	10.69961	0.81728
9015.035	11.77120	0.32108	10.76147	0.83374
9019.004	11.78737	0.31457	10.73550	0.84247
9023.011	11.74518	0.31559	10.73794	0.84745
9027.014	11.73324	0.28782	10.77332	0.86787
9031.039	11.65604	0.27074	10.73981	0.87749
9035.012	11.61968	0.27587	10.71319	0.87737
9039.012	11.45105	0.25942	10.57814	0.93161
9043.015	11.46294	0.29312	10.65005	0.95097
9047.036	11.35170	0.28746	10.61493	0.99703
9051.014	11.29553	0.33761	10.57956	0.98618
9055.013	11.23461	0.35928	10.60661	0.99945
9058.980	11.16492	0.36534	10.57308	0.92627
9063.040	11.24115	0.40309	10.59649	0.89097
9067.012	11.23425	0.39720	10.64444	0.90709
9071.012	11.32464	0.44239	10.69407	0.96816
9075.013	11.25610	0.42685	10.71621	0.91300
9079.039	11.30059	0.43334	10.80445	0.91554
9083.015	11.40398	0.39463	10.87252	0.88005
9087.010	11.37221	0.30727	10.88838	0.88911
9091.013	11.40126	0.24826	10.87290	0.86136
9095.015	11.48535	0.21042	10.95858	0.83024
9098.993	11.48473	0.13045	10.99262	0.80146
9103.008	11.41070	0.08603	11.05973	0.76982
9107.012	11.45867	0.00940	11.05514	0.77183
9111.038	11.41678	0.01281	11.07322	0.72856
9115.013	11.44683	-0.02401	11.05887	0.70028
9119.012	11.50742	-0.03618	11.06224	0.69276
9123.015	11.51466	-0.06735	11.04989	0.75002
9127.035	11.50003	-0.07585	11.01094	0.77554
9131.012	11.53208	-0.07139	11.01589	0.80581
9135.015	11.68167	-0.04037	11.02519	0.87311
9139.011	11.60577	-0.08191	11.00869	0.85794
9143.019	11.67779	-0.05502	10.99594	0.93414
9147.013	11.71699	-0.04093	10.97272	0.98819
9151.015	11.74841	-0.01939	10.97607	1.08321
9155.015	11.78428	0.01751	10.96992	1.13698
9159.015	11.79881	0.01148	10.97284	1.15484
9163.018	11.80588	0.01686	11.01510	1.16448
9167.015	11.75431	-0.00944	11.03652	1.13229
9170.978	11.78031	0.00474	11.15506	1.09897
9175.017	11.78562	0.09810	11.22389	1.02191
9179.020	11.80283	0.28410	11.18291	0.91997
9182.988	11.69923	0.36170	11.02454	0.96204
9187.012	11.73055	0.39599	10.97435	1.00106
9191.018	11.73426	0.44975	10.86220	0.90177
9195.015	11.58913	0.67998	11.12292	0.95231
9199.014	11.62949	0.57234	11.10804	0.94195
9203.013	11.62175	0.42725	11.18969	0.91953
9207.019	11.67067	0.49346	11.11889	0.92061
9211.014	11.75493	0.46154	11.13411	1.01982
9215.016	11.78875	0.45088	11.03918	1.02205
9219.016	11.95669	0.42790	11.05412	0.96485
9223.006	11.65387	0.49330	11.05498	0.97709
9227.021	11.65401	0.48675	11.08273	1.03833
9231.013	11.58579	0.55064	11.13012	0.94568
9235.014	11.58365	0.50883	11.17952	0.99295
9238.994	11.74520	0.34325	11.19975	1.00046
9243.015	11.77506	0.34572	11.19905	0.98187
9247.018	11.91068	0.42722	11.06817	0.98555
9251.014	11.75224	0.36558	10.96409	1.07055
9255.016	11.72757	0.42517	10.96853	0.86931
9259.014	11.66827	0.52554	11.04680	0.86320
9263.021	11.63171	0.71377	10.90973	0.87536
9266.983	11.48806	0.74280	10.98578	0.87589
9271.019	11.45293	0.81689	10.97435	0.90897
9275.018	11.51161	0.74863	10.99862	0.95857
9279.018	11.57062	0.63431	10.93351	1.01695
9283.019	11.54216	0.69801	10.94576	0.85737
9287.025	11.55330	0.73201	10.94059	0.81470
9291.017	11.46726	0.85205	10.95457	0.77012
9295.015	11.41171	0.87567	10.97985	0.70835
9299.018	11.32493	0.82715	11.03439	0.91598
9303.020	11.34910	0.96976	11.03870	0.83223
9306.979	11.32135	0.82309	11.00467	0.95060
9311.016	11.21479	0.60664	10.24081	0.78664
9315.017	9.62702	0.41481	7.16378	0.77691
9319.019	7.89048	0.29012	6.71767	0.29831
9323.016	7.76935	0.28725	6.19398	0.08226
9327.017	7.41524	-0.30693	4.99834	-0.62152
9331.016	6.19054	-0.77196	5.12836	-1.00854
9335.018	5.76563	-1.09126	4.61408	-0.95799
9339.018	5.48142	-1.21436	4.36678	-1.23581
9343.019	5.32178	-1.60027	4.33246	-1.27403
9347.015	5.37665	-1.24850	4.41309	-1.38919
9351.021	5.34494	-1.41678	4.39461	-1.48036
9355.016	5.27018	-1.37130	4.42279	-1.57416
9359.018	5.13949	-1.51541	4.38588	-1.62688
9363.018	5.02236	-1.60642	4.28881	-1.72077
9367.022	4.93538	-1.68900	4.28703	-1.81963
9371.019	4.91974	-1.72889	4.25480	-1.90429
9374.982	4.94846	-1.76594	4.13626	-1.93953
9379.020	4.96950	-1.81627	4.16433	-1.96202
9383.022	4.93139	-1.83910	4.22054	-1.98913
9387.019	5.02684	-1.81034	4.19793	-1.94807
9391.021	5.03457	-1.82066	4.16393	-1.91488
9395.016	4.89013	-1.87488	4.16144	-1.96195
9398.984	4.88429	-1.89510	4.18509	-1.91401
9403.019	4.93575	-1.90979	4.15640	-1.88024
9407.019	4.92366	-1.89615	4.17573	-1.78797
9411.017	4.93309	-1.90278	4.25290	-1.76777
9414.915	4.97664	-1.90552	4.25591	-1.72391
9419.019	5.03721	-1.92112	4.30050	-1.68854
9423.020	4.90538	-1.92341	4.32476	-1.73564
9427.026	4.87330	-1.94185	4.30941	-1.66044
9430.926	4.85842	-2.08384	4.27605	-1.75353
9435.013	4.85332	-2.01268	4.24290	-1.68720
9439.017	4.86211	-2.03205	4.16285	-1.69928
9443.017	4.89274	-2.10942	4.09614	-1.76993
9447.020	4.88259	-2.14367	4.12987	-1.71619
9451.018	4.85628	-2.20240	4.13643	-1.82827
9455.054	4.89523	-2.24005	4.17480	-1.80828
9459.020	4.85154	-2.23495	4.09999	-1.70970
9462.895	4.79435	-2.17120	4.08226	-1.75480
9467.025	4.80300	-2.21007	4.09258	-1.72893
9471.022	4.85810	-2.28561	4.10947	-1.77200
9474.986	4.87559	-2.25927	4.13386	-1.76348
9479.025	4.84691	-2.30350	4.09681	-1.69153
9483.017	4.87604	-2.30814	4.17354	-1.76171
9487.018	4.81451	-2.26734	4.20936	-1.65617
9491.022	4.76872	-2.29545	4.17006	-1.65445
9494.918	4.82124	-2.25911	4.12359	-1.61099
9499.021	4.81429	-2.44700	4.01769	-1.54923
9503.019	4.75181	-2.55729	4.06130	-1.49566
9507.021	4.69822	-2.45335	4.05777	-1.55831
9511.020	4.77185	-2.71734	4.07811	-1.75759
9514.998	4.76470	-2.64418	4.03021	-1.74719
9518.976	4.75627	-2.50433	3.96795	-1.69581
9522.982	4.78799	-2.34819	3.95268	-1.59879
9526.984	4.80044	-2.19227	3.91304	-1.56404
9530.984	4.79750	-2.10171	3.78531	-1.53741
9535.018	4.84368	-1.80748	3.77345	-1.52353
9539.018	4.85517	-1.74633	3.75200	-1.38285
9542.917	4.87559	-1.58745	3.76544	-1.32451
9547.018	4.85290	-1.51375	3.70475	-1.18164
9551.021	4.76909	-1.17093	3.50425	-1.06468
9555.016	3.76220	-0.52711	3.30856	-0.58309
9559.023	4.99007	1.52667	1.01737	1.38334
9562.978	-2.46796	4.21456	1.89285	2.31491
9567.021	NaN	NaN	NaN	NaN
9571.020	4.81919	9.43452	8.58638	13.49276
9575.021	NaN	NaN	NaN	NaN
9579.022	NaN	NaN	NaN	NaN
9583.022	NaN	NaN	NaN	NaN
9587.019	NaN	NaN	NaN	NaN
9591.022	NaN	NaN	NaN	NaN
9595.026	NaN	NaN	NaN	NaN
9598.993	NaN	NaN	NaN	NaN
9603.017	NaN	NaN	NaN	NaN
9606.984	NaN	NaN	NaN	NaN
9611.020	NaN	NaN	NaN	NaN
9615.019	NaN	NaN	NaN	NaN
9619.021	NaN	NaN	NaN	NaN
9622.984	NaN	NaN	NaN	NaN
9626.935	NaN	NaN	NaN	NaN
9631.023	NaN	NaN	NaN	NaN
9635.020	NaN	NaN	NaN	NaN
9638.982	NaN	NaN	NaN	NaN
9643.012	NaN	NaN	NaN	NaN
9646.983	NaN	NaN	NaN	NaN
9651.021	NaN	NaN	NaN	NaN
9655.018	NaN	NaN	NaN	NaN
9659.014	NaN	NaN	NaN	NaN
9663.023	NaN	NaN	NaN	NaN
9667.022	NaN	NaN	NaN	NaN
9671.021	NaN	NaN	NaN	NaN
9675.026	NaN	NaN	9.23478	6.73067
9678.923	NaN	NaN	NaN	NaN
9682.988	NaN	NaN	NaN	NaN
9687.020	7.26085	-0.02460	-1.08681	0.86051
9691.023	7.11980	2.13010	-1.88521	-0.13632
9694.898	-2.18451	1.67088	-2.31824	-0.41461
9698.898	-0.67062	0.03116	-2.58772	-0.60635
9702.921	-0.42805	-0.20085	-1.59648	-0.56622
9706.896	-0.60086	-0.19153	-1.07617	-0.65704
9710.898	-0.03378	-0.29814	-1.13082	-0.61564
9714.898	0.39484	-0.34740	-0.60471	-0.60524
9718.857	-0.36834	-0.51694	-0.38678	-0.68715
9722.899	-0.06822	-0.76692	-0.15025	-0.62428
9726.888	-0.00266	-0.83999	-0.52138	-0.55188
9730.891	0.05686	-0.81696	-0.12967	-0.66518
9734.890	0.02817	-0.68799	0.10962	-0.64784
9738.900	0.03638	-0.70280	-0.05857	-0.68866
9742.900	0.08440	-0.65032	0.09865	-0.72066
9746.899	0.26838	-0.67790	0.04663	-0.68695
9750.928	0.30560	-0.70035	-0.00300	-0.85604
9754.898	0.34821	-0.85883	0.00576	-0.91291
9758.901	0.29697	-0.89627	-0.10078	-0.91564
9762.889	0.34097	-0.90457	-0.26575	-0.92566
9766.924	0.37134	-0.82676	-0.17012	-1.05788
9770.870	0.38881	-0.99439	-0.09160	-1.14137
9774.898	0.36759	-1.05637	-0.24674	-1.22062
9778.900	0.35548	-0.88196	-0.25234	-1.33107
9782.920	0.33739	-1.01000	-0.37658	-1.29211
9786.898	0.41437	-1.09720	-0.39003	-1.38196
9790.900	0.42333	-1.13153	-0.48756	-1.49212
9794.900	0.37176	-1.29022	-0.51962	-1.50302
9798.890	0.34648	-1.14249	-0.54034	-1.54738
9802.900	0.35077	-1.25555	-0.60625	-1.49711
9806.904	0.29019	-1.40385	-0.54133	-1.48724
9810.884	0.28885	-1.48831	-0.59863	-1.50555
9814.866	0.27781	-1.55069	-0.55170	-1.51038
9818.901	0.30635	-1.61777	-0.59191	-1.46436
9822.901	0.28292	-1.77565	-0.59161	-1.47325
9826.898	0.30188	-1.93806	-0.53749	-1.50902
9830.924	0.25579	-1.98153	-0.52744	-1.56656
9834.901	0.23941	-1.98446	-0.39544	-1.52549
9838.902	0.24460	-1.94381	-0.35345	-1.47236
9842.899	0.22413	-2.06681	-0.34886	-1.47161
9846.899	0.21961	-2.09488	-0.36211	-1.47628
9850.899	0.28920	-2.13417	-0.31062	-1.58763
9854.867	0.24190	-2.12743	-0.36601	-1.54382
9858.897	0.29987	-2.14296	-0.40437	-1.53582
9862.899	0.27932	-2.13844	-0.42996	-1.37465
9866.898	0.33856	-2.02703	-0.43696	-1.34537
9870.902	0.36504	-1.89814	-0.33633	-1.38244
9874.900	0.34248	-1.55947	-0.32662	-1.36126
9878.896	0.35883	-1.42905	-0.38591	-1.40712
9882.901	0.33223	-1.33426	-0.38318	-1.41156
9886.902	0.34213	-1.07634	-0.35665	-1.37084
9890.900	0.36010	-1.13524	-0.31861	-1.36690
9894.861	0.30486	-0.95766	-0.30305	-1.37499
9898.901	0.30312	-0.89789	-0.27076	-1.40433
9902.900	0.26500	-0.92596	-0.26339	-1.42655
9906.900	0.27679	-0.86535	-0.26148	-1.48600
9910.923	0.25217	-0.82259	-0.26572	-1.51948
9914.903	0.22467	-0.78945	-0.20981	-1.50744
9918.865	0.25354	-0.76947	-0.15159	-1.52391
9922.900	0.30540	-0.74589	-0.05919	-1.46806
9926.900	0.34846	-0.75416	-0.03455	-1.42975
9930.904	0.38427	-0.76460	0.08187	-1.43543
9934.892	0.39206	-0.77548	-0.05882	-1.33386
9938.892	0.43951	-0.82451	-0.13531	-1.32800
9942.893	0.46624	-0.86572	-0.19996	-1.30482
9946.898	0.50436	-0.74468	-0.18462	-1.25306
9950.903	0.50853	-0.79504	-0.10356	-1.23888
9954.902	0.50776	-0.79544	-0.01524	-1.18630
9958.868	0.53508	-0.75529	-0.04981	-1.26524
9962.898	0.52056	-0.73601	-0.23259	-1.34257
9966.902	0.36750	-0.87180	-0.23817	-1.36561
9970.903	0.41604	-0.83326	-0.43018	-1.43450
9974.926	0.42045	-1.01717	-0.50701	-1.42497
9978.901	0.40772	-1.17246	-0.43512	-1.47858
9982.900	0.36142	-1.06747	-0.43907	-1.47219
9986.903	0.35437	-1.01449	-0.42564	-1.51523
9990.894	0.29265	-1.00059	-0.36479	-1.50409
9994.901	0.30337	-1.10973	-0.36432	-1.48840
9998.904	0.15898	-1.06282	-0.44127	-1.49099
10002.902	0.13863	-1.07204	-0.41130	-1.46897
10006.894	0.17715	-1.02650	-0.38678	-1.42686
10010.904	0.27947	-0.88415	-0.34449	-1.38472
10014.901	0.23572	-0.85867	-0.23326	-1.32965
10018.886	0.38847	-1.01091	-0.16491	-1.28841
10022.932	0.39802	-0.89055	-0.23366	-1.21896
10026.902	0.41264	-0.89810	-0.18060	-1.19012
10030.904	0.55210	-0.90553	-0.19973	-1.17400
10034.903	0.19864	-1.05107	-0.22735	-1.24536
10038.898	0.26341	-0.99838	-0.26503	-1.28932
10042.903	0.73923	-0.86469	-0.29019	-1.38028
10046.903	0.82260	-0.86020	-0.30982	-1.35110
10050.903	0.87074	-0.84056	-0.22874	-1.33949
10054.902	0.83096	-0.80266	-0.36397	-1.43836
10058.903	0.48475	-0.82871	-0.40000	-1.58461
10062.868	0.46314	-0.81375	-0.38829	-1.48373
10066.903	0.50051	-0.75815	-0.36581	-1.40516
10070.897	0.33886	-0.67377	-0.35546	-1.42053
10074.901	0.21792	-0.68451	-0.36261	-1.36200
10078.901	0.59751	-0.62766	-0.37864	-1.33736
10082.905	0.60754	-0.56887	-0.30257	-1.27150
10086.903	0.60426	-0.58293	-0.19730	-1.14092
10090.902	0.39459	-0.55505	-0.13774	-1.09961
10094.905	0.27984	-0.54564	-0.02033	-1.08933
10098.905	0.36655	-0.50181	0.01578	-1.05147
10102.902	0.30585	-0.50740	-0.04879	-1.08496
10106.903	0.36529	-0.48563	-0.04033	-1.15039
10110.903	0.33551	-0.45475	-0.15074	-1.30244
10114.906	0.35995	-0.44344	-0.22351	-1.19347
10118.895	0.49043	-0.49226	-0.33218	-1.25342
10122.906	0.46376	-0.75510	-0.35064	-1.25272
10126.902	0.42862	-0.97657	-0.42276	-1.25028
10130.910	0.41343	-0.84717	-0.45686	-1.33317
10134.895	0.45281	-0.73450	-0.52932	-1.29700
10138.908	0.47957	-1.09242	-0.57444	-1.33057
10142.868	0.42614	-1.10018	-0.61990	-1.31575
10146.868	0.45914	-1.17069	-0.56590	-1.29451
10150.906	0.38588	-1.20816	-0.57709	-1.20460
10154.863	0.43663	-1.21910	-0.55950	-1.19487
10158.906	0.43594	-1.24292	-0.55230	-1.17890
10162.870	0.41368	-1.27782	-0.54347	-1.14584
10166.907	0.39110	-1.24127	-0.51408	-1.17784
10170.903	0.38422	-1.21094	-0.47880	-1.18077
10174.903	0.40251	-1.20724	-0.45582	-1.17499
10178.907	0.40214	-1.23791	-0.41589	-1.17775
10182.906	0.39405	-1.21322	-0.36675	-1.20637
10186.871	0.44773	-1.18393	-0.34171	-1.25071
10190.904	0.47733	-1.15715	-0.39385	-1.28384
10194.904	0.48202	-1.13671	-0.41271	-1.31572
10198.899	0.48195	-1.04212	-0.42673	-1.30139
10202.903	0.46306	-0.89844	-0.41370	-1.23729
10206.906	0.38993	-0.70954	-0.37062	-1.29650
10210.902	0.41971	-0.65349	-0.32086	-1.36617
10214.905	0.45616	-0.67897	-0.37621	-1.42346
10218.905	0.48823	-0.60327	-0.44088	-1.46651
10222.907	0.43760	-0.88486	-0.46862	-1.55480
10226.891	0.42991	-1.01312	-0.52510	-1.66222
10230.909	0.43879	-0.73478	-0.56389	-1.59282
10234.907	0.35685	-0.89845	-0.57734	-1.62777
10238.884	0.35345	-0.84758	-0.55746	-1.59458
10242.906	0.37658	-0.73282	-0.57270	-1.59162
10246.898	0.24810	-1.06219	-0.53639	-1.62935
10250.906	0.23639	-1.06100	-0.42666	-1.62009
10254.909	0.09550	-1.03470	-0.52565	-1.64683
10258.909	0.08503	-1.04432	-0.49714	-1.66687
10262.876	0.04447	-1.12227	-0.45532	-1.67676
10266.910	0.07289	-1.09961	-0.42130	-1.60906
10270.869	0.24165	-1.02876	-0.44716	-1.55535
10274.909	0.19313	-0.95665	-0.44549	-1.53698
10278.902	0.27634	-0.86907	-0.40192	-1.54409
10282.907	0.42442	-0.79525	-0.43227	-1.59498
10286.905	0.48336	-0.80173	-0.42951	-1.62001
10290.906	0.25344	-0.56954	-0.41043	-1.62868
10294.900	0.23601	-0.39892	-0.46961	-1.60342
10298.908	0.25949	-0.39107	-0.48068	-1.58415
10302.905	0.39559	-0.26871	-0.42261	-1.59096
10306.908	0.45654	-0.26908	-0.36223	-1.54926
10310.901	0.45803	-0.30809	-0.30386	-1.63565
10314.908	0.42634	-0.27065	-0.18023	-1.61116
10318.906	0.38129	-0.29505	-0.31588	-1.63058
10322.905	0.41681	-0.26170	-0.38760	-1.60413
10326.906	0.40725	-0.27447	-0.43239	-1.56467
10330.908	0.34809	-0.30367	-0.45269	-1.54159
10334.910	0.45254	-0.35272	-0.53634	-1.50368
10338.907	0.43773	-0.42609	-0.54508	-1.50299
10342.902	0.52912	-0.43836	-0.53235	-1.51091
10346.907	0.57076	-0.47399	-0.61141	-1.52052
10350.896	0.57942	-0.51006	-0.63613	-1.50567
10354.908	0.63781	-0.57799	-0.64245	-1.47575
10358.901	0.66821	-0.65639	-0.69310	-1.46739
10362.907	0.60766	-0.53570	-0.71263	-1.47744
10366.908	0.59560	-0.64398	-0.65650	-1.48950
10370.909	0.60223	-0.66177	-0.59985	-1.47963
10374.806	0.64972	-0.69846	-0.54116	-1.39176
10378.919	0.59327	-0.75590	-0.47483	-1.42262
10382.910	0.64086	-0.83256	-0.46143	-1.48195
10386.906	0.71352	-0.93492	-0.49577	-1.43153
10390.807	0.70600	-1.01317	-0.42274	-1.48759
10394.878	0.68841	-0.76520	-0.36156	-1.50725
10398.907	0.67134	-0.81526	-0.33352	-1.55773
10402.907	0.68000	-0.84495	-0.27900	-1.64924
10406.803	0.56238	-0.77017	-0.16357	-1.60038
10410.906	0.65858	-0.69314	-0.14491	-1.58618
10414.907	0.50384	-0.65713	-0.14697	-1.60277
10418.907	0.45852	-0.61209	-0.20323	-1.68145
10422.900	0.51662	-0.57069	-0.17457	-1.71782
10426.909	0.49272	-0.52085	-0.18807	-1.72281
10430.910	0.43507	-0.52200	-0.16672	-1.72465
10434.897	0.39085	-0.54978	-0.16347	-1.70951
10438.803	0.35310	-0.49440	-0.17427	-1.70839
10442.911	0.22596	-0.47083	-0.17313	-1.76852
10446.908	0.18534	-0.38133	-0.16772	-1.79399
10450.911	0.20842	-0.31531	-0.18412	-1.81640
10454.810	0.12243	-0.33394	-0.12012	-1.87082
10458.913	0.05264	-0.40322	-0.12357	-1.91160
10462.910	0.10153	-0.40744	-0.17127	-1.96213
10466.873	0.04197	-0.51918	-0.28749	-1.88743
10470.815	0.06502	-0.60913	-0.29314	-1.81006
10474.909	0.12374	-0.67572	-0.45008	-1.84992
10478.905	0.12111	-0.73326	-0.17159	-1.83922
10482.911	0.19417	-0.77430	-0.12277	-1.88673
10486.931	0.26478	-0.93756	-0.14863	-1.83535
10490.909	0.29235	-0.99614	-0.14037	-1.83304
10494.910	0.43929	-0.89527	-0.46788	-1.77581
10498.908	0.43614	-0.93573	-0.43899	-1.77545
10502.809	0.49890	-0.94360	-0.49753	-1.71647
10506.909	0.46088	-0.94602	-0.45428	-1.70357
10510.909	0.43393	-0.95620	-0.37822	-1.77037
10514.909	0.44797	-0.95600	-0.43996	-1.81311
10518.811	0.51858	-0.88753	-0.40169	-1.86440
10522.907	0.54709	-0.79086	-0.42023	-1.83009
10526.911	0.60709	-0.81995	-0.44060	-1.83284
10530.905	0.63419	-0.80660	-0.46723	-1.79071
10534.808	0.51245	-0.83424	-0.51840	-1.81209
10538.908	0.55716	-0.93048	-0.47537	-1.82633
10542.911	0.57977	-0.91825	-0.43130	-1.80060
10546.908	0.66962	-0.95229	-0.36735	-1.78644
10550.807	0.78950	-0.87809	-0.35675	-1.73622
10554.910	0.88781	-0.93530	-0.33672	-1.69307
10558.899	0.83215	-0.96751	-0.32764	-1.61708
10562.904	0.81116	-0.94468	-0.29250	-1.48223
10566.810	0.79670	-0.87563	-0.29165	-1.44262
10570.910	0.74732	-0.83577	-0.29195	-1.36650
10574.913	0.75285	-0.81508	-0.26500	-1.50830
10578.911	0.71154	-0.80569	-0.26433	-1.42678
10582.814	0.76645	-0.78571	-0.25319	-1.37276
10586.912	0.71136	-0.98525	-0.24023	-1.30844
10590.909	0.66769	-1.08243	-0.26825	-1.25812
10594.925	0.55972	-1.06958	-0.26664	-1.24933
10598.782	0.58250	-1.21066	-0.28992	-1.21495
10602.885	0.51381	-1.34729	-0.29627	-1.24458
10606.910	0.53639	-1.29451	-0.32074	-1.28685
10610.911	0.41656	-1.40704	-0.34439	-1.27679
10614.815	0.45324	-1.38888	-0.37298	-1.33766
10618.912	0.42251	-1.16523	-0.32362	-1.34191
10622.910	0.37849	-1.20548	-0.29014	-1.35083
10626.912	0.39891	-1.25296	-0.19447	-1.32976
10630.809	0.40507	-1.20090	-0.17397	-1.25627
10634.916	0.42058	-1.09260	-0.15000	-1.31173
10638.918	0.44232	-1.03184	-0.11012	-1.35656
10642.874	0.41636	-1.01190	-0.07639	-1.48473
10646.917	0.34310	-1.03951	-0.08267	-1.59302
10650.913	0.36047	-1.01449	-0.11491	-1.78128
10654.876	0.37161	-0.96719	-0.14970	-1.65101
