time (ms)	lx (deg)	ly (deg)	rx (deg)	ry (deg)
0.000	-0.59707	-0.67188	0.05564	-1.20101
3.975	-0.67387	-0.53579	0.23204	-1.14921
7.975	-0.76903	-0.82774	0.03564	-1.15712
11.936	-0.91996	-0.56247	-0.01206	-1.10918
15.969	-1.21737	-0.45339	-0.25296	-0.99217
19.978	-1.29467	-0.29933	-0.38179	-0.85873
23.977	-1.29387	0.03394	-0.67905	-0.68235
27.933	-1.29410	0.27613	-0.28242	-0.53329
31.974	-1.35003	-0.09867	-0.49406	-0.65127
35.977	-1.38848	-0.28029	-0.51448	-0.61065
39.976	-1.47231	-0.05969	-0.54833	-0.49369
43.978	-1.49436	0.16507	-0.65667	-0.36883
47.996	-1.52441	-0.01965	-0.69119	-0.36615
51.976	-1.58713	-0.24340	-0.70101	-0.32073
55.974	-1.62683	-0.09436	-0.82890	-0.21368
59.978	-1.54140	0.11662	-0.75029	-0.21406
63.997	-1.41129	0.24089	-0.65337	-0.17279
67.956	-1.55025	0.18096	-0.67369	-0.20489
71.977	-1.53347	0.06019	-0.71791	-0.24335
75.950	-1.56831	0.01567	-0.74104	-0.34756
79.997	-1.41878	-0.08503	-0.77789	-0.28695
83.979	-1.38111	0.18927	-0.76431	-0.49168
87.977	-1.40802	0.28339	-0.75506	-0.35210
91.979	-1.56804	0.05199	-0.87706	-0.42581
95.969	-1.54574	0.03341	-0.82359	-0.44795
99.978	-1.62244	0.14747	-0.65670	-0.14339
103.981	-1.50668	0.08863	-0.77618	0.35071
107.976	-1.53282	-0.00892	-0.79426	-0.42716
111.998	-1.55321	0.27453	-0.82491	-0.56822
115.980	-1.57433	0.13046	-0.79067	-0.61426
119.977	-1.82728	-0.06751	-0.85662	-0.62034
123.982	-1.73611	0.03589	-0.89996	-0.68070
127.968	-1.66705	0.01955	-0.84994	-0.40986
131.979	-1.53458	-0.05624	-0.78196	-0.61456
135.978	-1.48084	0.15240	-0.71136	-0.02833
139.953	-1.45621	-0.00094	-0.75111	-0.21319
143.968	-1.34609	-0.11542	-0.86359	-0.45165
147.977	-1.61052	-0.09441	-0.76178	-0.40060
151.954	-1.44205	-0.04586	-0.80059	-0.49392
155.979	-1.65046	-0.08415	-0.84649	-0.51083
159.962	-1.60727	-0.14352	-0.84116	-0.42382
163.977	-1.52610	0.01553	-0.79359	-0.13474
167.978	-1.44808	-0.07641	-0.77320	-0.50768
171.976	-1.30456	-0.08558	-0.70734	-0.48106
175.937	-0.88433	-0.04997	-0.58977	-0.15848
179.978	-0.08843	-0.11035	-0.39983	-0.36604
183.978	-0.14436	-0.16574	-0.18886	-0.55896
187.978	-1.16262	-0.13128	-0.23284	-0.07986
191.964	-0.74789	-0.25292	-0.11915	-0.34587
195.969	-0.65121	-0.28319	0.07438	-0.44494
199.979	-0.44976	-0.26719	0.19556	-0.43520
203.981	-0.22227	-0.16972	0.15923	-0.20287
207.938	-0.43765	-0.26217	0.16548	-0.21542
211.979	-0.30032	-0.30107	0.24832	-0.30561
215.982	-0.26078	-0.24230	0.27386	-0.23159
219.979	-0.25954	-0.30981	0.36035	-0.33212
223.965	-0.31064	-0.20560	0.31054	-0.34912
227.950	-0.37648	-0.30812	0.34017	-0.28352
231.980	-0.33960	-0.32114	0.43639	-0.34290
235.942	-0.41177	-0.30104	0.55183	-0.32324
239.937	-0.37018	-0.27927	0.62893	-0.30431
243.977	-0.39973	-0.24227	0.57255	-0.32933
247.977	-0.32985	-0.31200	0.61397	-0.37465
251.979	-0.35685	-0.36984	0.64104	-0.35025
255.938	-0.34298	-0.30223	0.61536	-0.34031
259.977	-0.41576	-0.43601	0.61268	-0.42380
263.957	-0.49240	-0.44361	0.63833	-0.42481
267.980	-0.51126	-0.38735	0.70583	-0.40851
271.968	-0.27855	-0.38374	0.76493	-0.39193
275.960	-0.26264	-0.38712	0.81379	-0.23515
279.979	-0.23135	-0.33121	0.74553	-0.36150
283.980	-0.32278	-0.33667	0.57999	-0.30210
287.963	-0.49240	-0.33125	0.59114	-0.29688
291.979	-0.35246	-0.23944	0.47892	-0.20793
295.979	-0.28662	-0.28974	0.35084	-0.27197
299.977	-0.13811	-0.22232	0.50078	-0.24933
303.967	-0.26361	-0.22662	0.52260	-0.21021
307.979	-0.13737	-0.13948	0.31615	-0.24777
311.980	-0.03442	-0.11274	0.37189	-0.26078
315.981	-0.20877	-0.09418	0.31734	-0.16460
319.966	-0.32310	0.00403	0.26245	-0.27003
323.981	-0.33836	0.13364	0.29627	-0.25679
327.977	-0.26453	0.03635	0.36385	-0.24555
331.937	-0.28210	0.14770	0.40777	-0.18405
335.941	-0.40288	0.04689	0.39847	-0.16892
339.980	-0.37685	0.08150	0.39184	-0.22659
343.980	-0.39566	-0.03670	0.37340	-0.23059
347.980	-0.34901	0.07345	0.38660	-0.18602
351.970	-0.32369	-0.05976	0.39638	-0.13624
355.993	-0.32032	0.08011	0.42643	-0.11448
359.952	-0.35067	0.01270	0.51637	-0.08180
363.979	-0.27597	-0.06913	0.61285	-0.04525
367.939	-0.30158	-0.15836	0.59863	-0.10839
371.980	-0.33826	-0.17821	0.45202	-0.09954
375.980	-0.35695	-0.13369	0.40762	-0.12352
379.978	-0.32392	-0.16355	0.49902	-0.17274
383.967	-0.28806	-0.09363	0.38906	-0.09795
387.982	-0.20740	-0.02102	0.51240	-0.09701
391.982	-0.17831	-0.04942	0.56136	-0.09373
395.983	-0.19196	-0.08787	0.49026	0.00174
399.971	-0.21750	-0.10842	0.58178	-0.11557
403.971	-0.24396	-0.04639	0.60295	-0.14054
407.982	-0.24748	-0.03804	0.51590	-0.18964
411.981	-0.22127	0.01444	0.46155	-0.12988
415.939	-0.24095	0.09954	0.46219	-0.15456
419.982	-0.19938	0.08113	0.54776	-0.04112
423.981	-0.16516	0.10188	0.64278	-0.05104
427.982	-0.11572	0.05029	0.57436	-0.04473
431.940	-0.19038	0.14400	0.52850	-0.07328
435.981	-0.28843	0.16907	0.57240	-0.08245
439.983	-0.22408	0.26357	0.55265	-0.14071
443.979	-0.25051	0.20811	0.51935	-0.07770
447.967	-0.25165	0.18229	0.49200	-0.05223
451.982	-0.38052	0.24593	0.47073	-0.07365
455.980	-0.35774	0.24598	0.47430	-0.09902
459.981	-0.39206	0.24734	0.48369	-0.04393
463.979	-0.36464	0.28335	0.45214	-0.04855
467.980	-0.26932	0.32440	0.50096	0.01804
471.980	-0.29123	0.21725	0.54935	-0.00162
475.980	-0.39323	0.10759	0.52954	-0.04460
479.968	-0.23934	0.16395	0.54706	-0.02875
483.963	-0.31766	0.13036	0.50974	-0.01635
487.977	-0.29697	0.11515	0.56173	0.01444
491.981	-0.29751	0.07957	0.64248	-0.00890
495.940	-0.36978	0.04808	0.68506	-0.03623
499.981	-0.37050	-0.01031	0.64814	-0.11452
503.982	-0.40926	-0.00457	0.61548	-0.19585
507.981	-0.37358	0.01548	0.60451	-0.13542
511.939	-0.51217	-0.11353	0.41442	-0.26486
515.982	-0.46371	-0.03432	0.46942	-0.44599
519.985	-0.37377	0.01342	0.51617	-0.28498
523.979	-0.39524	-0.00962	0.52610	-0.20023
527.941	-0.39028	-0.03049	0.25927	-0.36232
531.983	-0.33615	0.05211	0.29987	-0.28382
535.984	-0.44793	0.03469	0.23470	-0.46335
539.982	-0.39718	0.00701	0.09431	-0.40106
543.942	-0.39023	0.07631	0.13620	-0.29332
547.983	-0.52277	0.15214	0.21202	-0.12487
551.982	-0.48897	0.15803	0.07991	-0.28797
555.984	-0.41137	0.08799	0.08999	-0.26718
559.942	-0.42844	0.07276	0.06852	-0.25744
563.983	-0.37415	0.14797	0.02767	-0.27093
567.960	-0.52503	0.08769	-0.05430	-0.30460
571.987	-0.50969	0.16472	0.04457	-0.32458
575.940	-0.61565	0.08558	0.06080	-0.21450
579.982	-0.63756	0.19431	0.11235	-0.28633
583.939	-0.56870	0.27829	0.11644	-0.24722
587.981	-0.59610	0.25074	0.01660	-0.51700
591.942	-0.55932	0.19207	0.04936	-0.38252
595.984	-0.59662	0.08212	0.10433	-0.39221
599.984	-0.52136	0.14499	0.08989	-0.39554
603.984	-0.53136	0.21739	0.08244	-0.39172
607.942	-0.56009	0.20015	0.06783	-0.38135
611.971	-0.48254	0.24147	0.11200	-0.35206
615.980	-0.49106	0.24577	0.11706	-0.39552
619.980	-0.46612	0.19108	0.09076	-0.35993
623.943	-0.40130	0.15374	0.08416	-0.32172
627.960	-0.36901	0.11910	0.05112	-0.34080
631.983	-0.34955	0.10581	0.07599	-0.26770
635.983	-0.33848	0.09602	0.06914	-0.24051
639.988	-0.31650	0.13379	0.06795	-0.22913
643.983	-0.37042	0.18028	0.12255	-0.21286
647.985	-0.35744	0.18361	0.18439	-0.16045
651.948	-0.31828	0.24165	0.25153	-0.19720
655.882	-0.36707	0.27271	0.16181	-0.29491
659.986	-0.40345	0.28685	0.26043	-0.25644
663.985	-0.45599	0.30655	0.18397	-0.46785
667.984	-0.49498	0.34285	0.18879	-0.34602
671.990	-0.59967	0.38163	0.23274	-0.26777
675.986	-0.55099	0.36874	0.24113	-0.24409
679.984	-0.60416	0.38245	0.22904	-0.39872
683.985	-0.52974	0.35314	0.21179	-0.33180
687.986	-0.49088	0.29057	0.18598	-0.47061
691.986	-0.49314	0.24386	0.14923	-0.31839
695.981	-0.46470	0.20612	0.09870	-0.37932
699.986	-0.46986	0.15741	0.11793	-0.26519
703.987	-0.39571	0.13237	0.11582	-0.19504
707.986	-0.36581	0.18477	0.10406	-0.20814
711.985	-0.37663	0.16124	0.07403	-0.21860
715.984	-0.36159	0.24111	0.07170	-0.23979
719.991	-0.36792	0.18773	0.04656	-0.32766
723.988	-0.32811	0.17523	0.05259	-0.35159
727.946	-0.34047	0.18557	0.10994	-0.39644
731.981	-0.35454	0.24580	0.12893	-0.39005
735.989	-0.37429	0.28101	0.25815	-0.33983
739.987	-0.36479	0.27646	0.14305	-0.32077
743.985	-0.33407	0.27448	0.12007	-0.35248
747.985	-0.40688	0.32350	0.06108	-0.39922
751.989	-0.45582	0.35846	0.09912	-0.40804
755.988	-0.49039	0.32735	0.15446	-0.44745
759.985	-0.45013	0.30434	0.27443	-0.32437
763.957	-0.35571	0.35794	0.11473	-0.43443
767.990	-0.36759	0.40167	0.20807	-0.37340
771.955	-0.45812	0.41941	0.03792	-0.22382
775.957	-0.41951	0.42187	0.17365	-0.06180
779.984	-0.44629	0.41881	0.05651	-0.23626
783.988	-0.46147	0.40475	0.06433	-0.15772
787.987	-0.37429	0.42649	-0.03383	-0.16627
791.984	-0.25175	0.41591	0.19574	-0.20105
795.986	-0.35692	0.36937	0.41212	0.00253
799.990	-0.30272	0.36140	0.14628	-0.19588
803.988	-0.33129	0.34756	0.00412	-0.11970
807.985	-0.30297	0.31078	0.04224	-0.21137
811.987	-0.37013	0.29490	0.11260	-0.04627
815.975	-0.33692	0.26156	0.24075	-0.15046
819.990	-0.36556	0.27328	0.16184	-0.20304
823.985	-0.39028	0.45703	-0.02033	-0.10817
827.987	-0.60203	0.47461	-0.24361	-0.00075
831.945	-0.81364	0.32308	-0.91098	0.24257
835.944	-1.07765	0.89523	-1.25666	0.34703
839.986	-0.99283	0.59773	-1.11546	0.44704
843.986	-1.06823	1.17624	-1.03471	0.54777
847.988	-1.22886	1.16611	-0.70231	0.98035
851.989	-1.29365	1.30405	-0.93381	0.74163
855.986	-1.39594	1.13179	-1.05366	0.78537
859.951	-1.34698	1.02829	-1.03017	0.99085
863.864	-1.42811	1.00622	-0.96854	0.83719
867.989	-1.51926	1.09317	-1.06019	0.96213
871.950	-1.61684	1.06138	-1.15967	0.98368
875.986	-1.62158	1.18322	-1.01608	0.88767
879.882	-1.53783	1.27402	-1.04458	0.96161
883.864	-1.72205	1.25806	-1.01697	0.89515
887.863	-1.79874	1.12730	-0.99355	0.89198
891.864	-1.74114	1.20589	-0.89024	0.81748
895.819	-1.71893	1.06570	-1.00065	0.74765
899.863	-1.66626	1.31376	-1.02561	0.75021
903.863	-1.72986	1.12615	-0.88570	0.78141
907.861	-1.81086	1.14361	-0.93219	0.78123
911.858	-1.54929	1.43623	-1.00548	0.82672
915.865	-1.67291	0.97301	-0.96800	0.72270
919.863	-1.74541	1.22413	-0.92798	0.73326
923.863	-1.64821	1.32224	-0.89428	0.75930
927.880	-1.63841	1.15997	-1.10998	0.71009
931.864	-1.63993	1.33900	-0.91195	0.75319
935.859	-1.69068	1.24587	-0.87736	0.85283
939.862	-1.75590	1.26018	-0.87595	0.82337
943.854	-1.66522	1.21887	-0.78213	0.94074
947.863	-1.68887	1.09221	-0.76622	0.86861
951.866	-1.66073	1.37377	-0.85404	0.89524
955.863	-1.70472	0.99882	-0.74757	0.91814
959.884	-1.71122	1.14540	-0.72575	0.86414
963.856	-1.77965	1.16038	-0.81766	0.94741
967.864	-1.74352	1.01603	-0.77456	0.96350
971.864	-1.76294	1.03402	-0.79692	0.96312
975.884	-1.79983	0.97731	-0.83992	0.93690
979.864	-1.72828	1.00345	-0.77278	0.93625
983.861	-1.66715	0.97832	-0.90766	0.94444
987.845	-1.67613	1.02791	-0.88622	0.83276
991.859	-1.76507	1.01877	-1.02491	0.87533
995.868	-1.77615	0.92414	-1.00501	0.84135
999.861	-1.62882	0.89476	-0.93765	0.85250
1003.862	-1.33922	1.06162	-0.56818	0.84961
1007.885	0.15407	1.52900	0.18899	1.24857
1011.862	0.43562	1.91148	0.65104	1.99502
1015.862	0.06793	2.07008	0.98869	1.84051
1019.864	0.48287	1.57605	1.31967	2.12607
1023.882	0.64925	2.13900	1.22605	1.91591
1027.821	0.53240	1.92163	1.21025	1.74723
1031.863	0.62558	1.87590	1.31937	2.08719
1035.864	0.36057	2.02172	1.30665	2.22382
1039.882	0.56627	2.12611	1.29402	2.25930
1043.864	0.61349	2.01799	1.31925	2.33855
1047.864	0.71764	2.10319	1.35100	2.22753
1051.863	0.63178	2.01141	1.42432	2.41654
1055.883	0.77670	1.94213	1.47811	2.20148
1059.866	0.73992	1.88787	1.51854	2.32607
1063.864	0.61255	1.94272	1.54517	2.30590
1067.862	0.81908	1.91129	1.63343	2.39832
1071.856	0.87409	1.92655	1.59960	2.38210
1075.866	0.89525	1.99285	1.56806	2.32376
1079.865	0.90850	1.88672	1.62911	2.36406
1083.867	0.79466	1.99029	1.68307	2.39008
1087.862	1.00710	2.09469	1.73078	2.41829
1091.820	0.95738	1.96241	1.75200	2.28732
1095.862	0.98075	2.06337	1.76455	2.34255
1099.874	0.94646	2.22377	1.79557	2.37891
1103.889	0.91525	2.11415	1.77707	2.32760
1107.864	0.93661	1.99764	1.72676	2.42514
1111.851	0.88999	2.20805	1.69376	2.42282
1115.853	0.94142	2.24313	1.78964	2.47476
1119.854	0.88009	2.19350	1.77169	2.46596
1123.869	0.89123	2.10476	1.71806	2.46058
1127.821	0.91319	1.92199	1.71392	2.50838
1131.867	0.87126	2.14532	1.66254	2.45837
1135.865	0.88912	2.19905	1.77432	2.53244
1139.866	0.81483	2.22360	1.72813	2.55861
1143.866	0.83781	2.23917	1.56804	2.48652
1147.864	0.87473	2.27566	1.75766	2.52709
1151.823	0.91259	2.29256	1.64694	2.44353
1155.835	0.90845	2.24024	1.70040	2.50760
1159.868	0.80285	2.02923	1.79852	2.44979
1163.865	0.93083	2.13657	1.71355	2.41516
1167.887	0.86495	2.25163	1.62914	2.43277
1171.866	0.92403	2.19295	1.75944	2.44193
1175.866	1.03568	2.20394	1.83310	2.43038
1179.866	0.92545	2.07090	1.81887	2.42521
1183.890	0.86850	2.12902	1.76596	2.45432
1187.867	0.54463	2.16343	1.52424	2.38509
1191.868	0.45773	2.12716	1.57977	2.41706
1195.850	0.71858	2.10637	1.54537	2.43661
1199.862	0.84148	2.07102	1.56608	2.43399
1203.869	0.86845	2.12252	1.47541	2.45896
1207.866	0.82694	2.10386	1.57925	2.51782
1211.866	0.77178	2.07949	1.55670	2.55251
1215.864	0.67441	2.08673	1.56432	2.51997
1219.864	0.50728	2.13027	1.64231	2.55453
1223.870	0.40224	2.21901	1.70613	2.58933
1227.823	0.36161	2.22517	1.65537	2.63475
1231.829	0.40040	2.28595	1.57047	2.60591
1235.868	0.31004	2.30678	1.59107	2.63761
1239.868	0.35154	2.33739	1.50177	2.68130
1243.866	0.28637	2.37446	1.52027	2.72468
1247.865	0.31161	2.38567	1.50472	2.82918
1251.866	0.29813	2.39349	1.42769	2.80368
1255.869	0.28314	2.37302	1.40165	2.70008
1259.866	0.33799	2.40268	1.51124	2.72595
1263.862	0.40154	2.38773	1.52853	2.64587
1267.866	0.42973	2.37328	1.52479	2.74641
1271.867	0.48679	2.38004	1.48409	2.65311
1275.868	0.44939	2.29144	1.41536	2.58810
1279.863	0.47999	2.26394	1.45009	2.64366
1283.865	0.47855	2.23147	1.56858	2.64733
1287.869	0.51582	2.31037	1.47910	2.85285
1291.867	0.50791	2.32779	1.56293	2.72988
1295.863	0.48604	2.42412	1.53689	2.60273
1299.868	0.42502	2.36292	1.59026	2.61600
1303.868	0.45763	2.29005	1.53064	2.61664
1307.867	0.42899	2.14985	1.51866	2.63109
1311.876	0.49264	2.16387	1.39428	2.69214
1315.864	0.54776	2.28910	1.41124	2.75019
1319.867	0.47907	2.29969	1.52937	2.65165
1323.855	0.51091	2.18657	1.44527	2.78760
1327.868	0.59307	2.11438	1.34946	2.63106
1331.823	0.41609	2.20585	1.33674	2.60075
1335.867	0.42889	2.08632	1.40432	2.63338
1339.867	0.48706	2.13172	1.37426	2.77836
1343.864	0.45316	2.08843	1.33639	2.77149
1347.866	0.44323	1.98802	1.52950	2.71904
1351.866	0.40400	2.17688	1.50740	2.77634
1355.868	0.43266	1.98946	1.44760	2.83530
1359.868	0.28498	2.14241	1.44636	2.66640
1363.866	0.42289	1.94593	1.45170	2.75021
1367.870	0.35752	2.17011	1.57309	2.83714
1371.867	0.34913	2.09342	1.55060	2.85528
1375.858	0.43309	2.15042	1.64556	2.84908
1379.868	0.50438	2.19501	1.68015	2.82963
1383.871	0.45358	2.14619	1.66333	2.71626
1387.868	0.44470	2.33272	1.72227	2.74368
1391.863	0.47828	2.24370	1.67494	2.86740
1395.866	0.41112	2.28696	1.63623	2.83465
1399.870	0.48840	2.14879	1.70760	2.60100
1403.868	0.50925	2.22220	1.76946	2.88150
1407.859	0.48463	2.20070	1.78466	2.84189
1411.870	0.41306	2.30959	1.75076	2.82063
1415.871	0.41204	2.31378	1.72443	2.84914
1419.870	0.43912	2.19369	1.68116	2.68513
1423.863	0.37353	2.16686	1.57667	2.71640
1427.868	0.35687	2.22505	1.59869	2.64234
1431.868	0.38263	2.12080	1.67142	2.82087
1435.865	0.44634	1.98623	1.66433	2.90312
1439.865	0.41015	2.21878	1.72746	2.81415
1443.870	0.37417	2.21207	1.70011	2.68674
1447.863	0.29644	2.14722	1.72671	2.72061
1451.868	0.29960	2.17653	1.70038	2.68592
1455.864	0.37958	2.11996	1.68533	2.61682
1459.868	0.42549	2.04471	1.69044	2.65959
1463.858	0.59605	2.03512	1.72319	2.73853
1467.869	0.87547	2.07547	1.72624	2.96756
1471.866	0.85190	2.05357	1.74762	3.07881
1475.868	0.81196	2.06726	1.74915	3.06714
1479.866	0.91790	2.13311	1.73075	3.08423
1483.870	0.90825	2.08401	1.73261	3.22610
1487.867	0.95490	2.08706	1.74382	3.37335
1491.870	1.07947	2.08155	1.73361	3.19331
1495.870	1.14838	2.06981	1.76304	3.24694
1499.867	1.16796	2.07535	1.74838	3.28418
1503.864	1.23020	2.07062	1.77509	3.29482
1507.869	1.15960	2.07298	1.82224	3.26426
1511.871	1.06962	2.05674	1.90487	3.20794
1515.869	0.94877	2.04632	1.88388	3.03167
1519.867	0.87153	2.03381	1.99168	3.00196
1523.872	0.82563	1.99105	2.00733	2.92153
1527.836	0.83712	2.00174	2.03967	2.89661
1531.856	0.77933	1.97112	2.03305	2.85315
1535.862	0.76895	1.95316	2.01739	2.82912
1539.869	0.68943	1.93003	2.00998	2.79727
1543.872	0.65665	1.92493	2.00180	2.79045
1547.868	0.58669	1.91535	1.95235	2.77869
1551.866	0.56419	1.97696	1.89788	2.78081
1555.869	0.61722	2.03412	1.92679	2.81788
1559.871	0.63756	2.09439	1.88078	2.84139
1563.868	0.67173	2.08616	1.81471	2.83220
1567.768	0.66928	2.09924	1.77023	2.83921
1571.870	0.65084	2.08387	1.72451	2.78457
1575.826	0.66928	2.10192	1.65595	2.81914
1579.868	0.65310	2.05084	1.60652	2.75386
1583.828	0.62982	2.03980	1.51940	2.66353
1587.871	0.63310	2.05806	1.53359	2.57913
1591.872	0.66372	2.02271	1.69440	2.39567
1595.871	0.67873	1.92282	1.80112	2.47368
1599.767	0.55572	1.97607	1.80080	2.44817
1603.869	0.47430	1.97910	1.62636	2.40230
1607.874	0.39554	2.15772	1.46338	2.46817
1611.852	0.36400	2.11056	1.66033	2.53916
1615.872	0.28083	2.15988	1.62929	2.52602
1619.871	0.25187	2.22487	1.59353	2.51885
1623.874	0.25614	2.21487	1.65790	2.52204
1627.828	0.23934	2.25700	1.71065	2.56272
1631.778	0.25763	2.22941	1.74303	2.54059
1635.869	0.26495	2.16775	1.70298	2.56107
1639.871	0.30478	2.16968	1.63601	2.59371
1643.871	0.36437	2.08232	1.59894	2.61448
1647.769	0.47684	1.98588	1.57786	2.59467
1651.873	0.51679	2.00177	1.64127	2.56403
1655.827	0.54019	1.91132	1.60556	2.53140
1659.874	0.58332	1.91426	1.55425	2.49524
1663.767	0.63665	1.81568	1.57637	2.50139
1667.871	0.67027	1.77997	1.57213	2.47992
1671.873	0.70156	1.77003	1.53704	2.47890
1675.875	0.71943	1.75903	1.55611	2.46375
1679.768	0.73747	1.78069	1.55765	2.48800
1683.870	0.61645	1.78724	1.55006	2.50211
1687.873	0.43820	1.88941	1.57838	2.49900
1691.872	0.52644	1.92101	1.58001	2.48800
1695.771	0.62220	1.88662	1.50150	2.53475
1699.872	0.72692	1.88398	1.58076	2.45844
1703.873	0.63449	1.92564	1.64494	2.44517
1707.872	0.55496	2.02740	1.62539	2.45097
1711.769	0.62047	2.11028	1.60251	2.45710
1715.871	0.63868	2.13256	1.65979	2.45951
1719.873	0.86818	2.14971	1.64057	2.47934
1723.874	0.60062	2.22656	1.60729	2.42248
1727.741	0.63062	2.39630	1.63348	2.46609
1731.871	0.74712	2.28191	1.55777	2.47421
1735.859	0.82920	2.15700	1.64670	2.41961
1739.867	0.83300	2.24198	1.65674	2.41112
1743.732	0.73551	2.42452	1.57875	2.44535
1747.871	0.68578	2.35331	1.55941	2.50009
1751.869	0.82260	2.35502	1.57153	2.49941
1755.872	0.86014	2.23749	1.73874	2.53363
1759.768	0.70228	2.31133	1.67777	2.62270
1763.871	0.74538	2.25403	1.69500	2.73726
1767.872	0.80099	2.25390	1.76237	2.84073
1771.873	0.78620	2.31928	1.76289	2.73874
1775.769	0.80640	2.32909	1.74819	2.88533
1779.842	0.80650	2.45236	1.75976	2.94509
1783.870	0.75057	2.49889	1.79110	3.03463
1787.876	0.71466	2.56223	1.84101	3.09926
1791.767	0.77548	2.58327	1.82356	3.14789
1795.871	0.81007	2.46570	1.82110	3.18504
1799.871	0.68486	2.56304	1.72872	3.14630
1803.872	0.71471	2.57849	1.68416	3.24851
1807.767	0.67752	2.48554	1.69168	3.14458
1811.871	0.63967	2.58357	1.67038	3.20273
1815.874	0.60332	2.53357	1.62274	3.33855
1819.830	0.61575	2.38200	1.72359	3.22027
1823.786	0.51113	2.44586	1.71352	3.30894
1827.829	0.48249	2.33566	1.78431	3.32748
1831.874	0.67908	2.36173	1.77995	3.25139
1835.875	0.61337	2.41020	1.70512	3.11759
1839.769	0.60811	2.47159	1.79490	3.03460
1843.872	0.67856	2.42180	1.78890	2.95517
1847.871	0.63265	2.43266	1.68647	2.89924
1851.874	0.49679	2.49031	1.74429	3.06289
1855.770	0.60531	2.46179	1.80645	3.13049
1859.875	0.61908	2.40360	1.87304	3.18183
1863.872	0.51041	2.45920	1.85306	3.12001
1867.875	0.60823	2.46521	1.79562	2.94505
1871.768	0.68166	2.54709	1.73755	3.00712
1875.871	0.70958	2.51057	1.67675	3.00912
1879.872	0.64367	2.53136	1.74598	2.94694
1883.876	0.62878	2.48896	1.71575	3.00300
1887.770	0.63322	2.51061	1.66071	3.00741
1891.875	0.65034	2.45976	1.68017	3.07042
1895.873	0.63776	2.43571	1.76405	3.06845
1899.876	0.48311	2.49989	1.78156	3.17407
1903.772	0.63362	2.53591	1.75914	3.20352
1907.874	0.78523	2.56982	1.70122	3.10830
1911.872	0.78441	2.57992	1.72798	3.13721
1915.876	0.72709	2.64742	1.79934	3.10123
1919.769	0.76734	2.57626	1.78141	3.11308
1923.749	0.75121	2.52474	1.78565	3.03630
1927.751	0.67032	2.47897	1.77055	3.13439
1931.751	0.49361	2.56364	1.77119	3.11235
1935.707	0.69489	2.58359	1.77233	3.05437
1939.749	0.71290	2.52751	1.75585	3.04984
1943.748	0.68769	2.47264	1.66728	3.12711
1947.753	0.66506	2.58075	1.66495	2.96686
1951.750	0.60344	2.52826	1.69143	3.01785
1955.747	0.64479	2.49392	1.70784	3.19747
1959.748	0.64583	2.53255	1.68101	3.11876
1963.750	0.64354	2.48687	1.71714	3.14931
1967.744	0.65935	2.56947	1.57813	3.13185
1971.750	0.71506	2.52128	1.82805	3.24289
1975.749	0.69079	2.55946	1.85338	3.18241
1979.751	0.77692	2.58280	1.79252	3.33106
1983.748	0.75511	2.63314	1.55794	3.21984
1987.748	0.84104	2.63200	1.71337	3.22076
1991.731	0.78831	2.65522	1.83417	3.22988
1995.751	0.82280	2.75934	1.65317	3.20300
1999.747	0.81089	2.70950	1.56079	3.22531
2003.750	0.93909	2.65491	1.70522	3.14596
2007.749	0.93274	2.64559	1.63593	3.10526
2011.752	0.87503	2.66557	1.56523	3.13254
2015.749	0.89845	2.72084	1.49929	3.09635
2019.751	0.92311	2.72228	1.54234	3.07392
2023.750	0.88944	2.70691	1.48783	3.06570
2027.714	0.99018	2.66318	1.56724	3.04996
2031.747	0.92453	2.65371	1.62902	3.00372
2035.751	0.86121	2.68427	1.60139	3.03351
2039.749	0.80803	2.66455	1.57081	3.00249
2043.752	0.82473	2.71558	1.57619	2.99939
2047.747	0.61751	2.79667	1.57882	3.05168
2051.750	0.74824	2.69659	1.63162	3.12610
2055.750	0.73218	2.66118	1.65585	3.25891
2059.750	0.73888	2.62215	1.71055	3.34289
2063.748	0.68082	2.54689	1.69986	3.37288
2067.753	0.63712	2.51185	1.68367	3.52897
2071.751	0.51622	2.49018	1.57339	3.55262
2075.730	0.49016	2.59219	1.55035	3.61331
2079.767	0.58327	2.59158	1.50366	3.53829
2083.752	0.57473	2.59476	1.51997	3.51562
2087.750	0.63141	2.58751	1.53850	3.47399
2091.751	0.69307	2.53660	1.57124	3.60253
2095.744	0.65990	2.60267	1.57171	3.55228
2099.750	0.52744	2.62865	1.58363	3.37199
2103.750	0.47299	2.65208	1.58098	3.36907
2107.754	0.45443	2.66394	1.55618	3.40513
2111.744	0.54173	2.72834	1.57605	3.36643
2115.743	0.62144	2.71070	1.60628	3.33118
2119.740	0.85528	2.74767	1.62093	3.25027
2123.754	0.96666	2.70903	1.56146	3.23643
2127.715	0.96383	2.64336	1.70953	3.34076
2131.753	0.89723	2.62826	1.70670	3.39361
2135.752	0.70565	2.64498	1.64970	3.38970
2139.709	0.64548	2.65731	1.63665	3.37479
2143.746	0.58215	2.62674	1.57562	3.37254
2147.753	0.55424	2.57024	1.54487	3.36554
2151.751	0.61481	2.54534	1.60352	3.32494
2155.751	0.85456	2.55723	1.57252	3.23344
2159.709	0.79873	2.51814	1.56982	3.19957
2163.750	0.83496	2.42385	1.56610	3.05165
2167.751	0.78454	2.33156	1.59219	2.85996
2171.750	0.71039	2.24663	1.58904	2.81390
2175.709	0.63072	2.22367	1.52079	2.75201
2179.752	0.57905	2.20878	1.50137	2.67488
2183.757	0.56528	2.04501	1.54678	2.63217
2187.751	0.65891	1.96291	1.60494	2.56497
2191.737	0.62982	1.88655	1.60278	2.51043
2195.753	0.77089	1.91528	1.62334	2.54925
2199.731	0.68573	1.82055	1.54559	2.46979
2203.753	0.63987	1.81099	1.50728	2.44422
2207.711	0.58347	1.81302	1.57600	2.35787
2211.751	0.52193	1.79735	1.54725	2.33906
2215.753	0.46229	1.82318	1.54678	2.34955
2219.753	0.44872	1.81576	1.63135	2.35664
2223.710	0.44217	1.81698	1.58887	2.33552
2227.711	0.44733	1.83418	1.63658	2.26461
2231.753	0.41705	1.84839	1.62944	2.20371
2235.753	0.41499	1.89145	1.69522	2.19959
2239.712	0.42023	1.91287	1.72443	2.15615
2243.748	0.44284	2.00815	1.78409	2.13466
2247.753	0.49180	2.04156	1.83504	2.09238
2251.750	0.53798	2.05239	1.86786	2.10839
2255.739	0.60990	2.10227	1.93921	2.10510
2259.753	0.65228	2.09836	1.92265	2.14198
2263.753	0.71729	2.07269	1.94270	2.15465
2267.721	0.77754	2.01018	1.87795	2.21247
2271.712	0.80253	2.04814	1.83511	2.20158
2275.755	0.84069	2.02420	1.74251	2.19750
2279.751	0.84553	2.06015	1.79123	2.18440
2283.749	0.84128	2.06971	1.76016	2.18922
2287.711	0.82699	2.10567	1.69326	2.17023
2291.751	0.82595	2.06969	1.68099	2.22168
2295.752	0.83573	2.08271	1.54931	2.29467
2299.751	0.80620	2.07178	1.52317	2.33167
2303.712	0.77744	2.11835	1.52503	2.38883
2307.753	0.69580	2.12960	1.49056	2.43843
2311.753	0.65208	2.09920	1.52893	2.49847
2315.754	0.65121	2.10436	1.57669	2.54058
2319.740	0.63479	2.06300	1.68220	2.57498
2323.754	0.66446	1.96457	1.79103	2.60195
2327.748	0.61171	2.01760	1.84820	2.67795
2331.710	0.58042	1.96328	1.81575	2.67760
2335.712	0.64141	1.89913	1.64107	2.73599
2339.753	0.55039	1.94001	1.63179	2.73484
2343.754	0.50130	1.95892	1.65242	2.73504
2347.752	0.50282	1.88205	1.73549	2.76022
2351.712	0.55280	1.82772	1.81748	2.72682
2355.752	0.61421	1.78220	1.66467	2.68315
2359.754	0.57218	1.86743	1.60878	2.59436
2363.754	0.56910	1.83005	1.49505	2.61984
2367.743	0.61670	1.84200	1.46861	2.60445
2371.764	0.62471	1.84497	1.46551	2.53290
2375.750	0.55143	1.89107	1.44011	2.54560
2379.753	0.54543	1.93587	1.47598	2.49474
2383.712	0.50882	2.01081	1.56900	2.49542
2387.756	0.53657	2.05155	1.53332	2.53709
2391.710	0.53284	2.12394	1.52687	2.57542
2395.755	0.54969	2.26531	1.54321	2.57022
2399.713	0.59761	2.14711	1.60404	2.59536
2403.756	0.66116	2.10272	1.59038	2.69264
2407.735	0.63139	2.14286	1.60551	2.71780
2411.756	0.62434	2.20261	1.63437	2.71521
2415.713	0.71005	2.18192	1.64203	2.68288
2419.755	0.77806	2.13063	1.64828	2.66118
2423.755	0.82754	1.95618	1.65161	2.72081
2427.753	0.84669	1.98789	1.61029	2.76508
2431.714	0.85223	1.98716	1.61934	2.81594
2435.755	0.83503	1.99489	1.61897	2.67855
2439.752	0.81501	2.00850	1.62101	2.67954
2443.755	0.85153	2.01143	1.62753	2.70535
2447.714	0.81593	2.01324	1.69403	2.69339
2451.749	0.83002	2.11125	1.71479	2.64987
2455.757	0.81662	2.17172	1.71253	2.67624
2459.754	0.77325	2.17554	1.68602	2.66579
2463.713	0.77206	2.11959	1.73217	2.73443
2467.755	0.74764	2.19880	1.74018	2.74069
2471.756	0.76250	2.18644	1.72282	2.75015
2475.755	0.80677	2.20810	1.71412	2.72984
2479.718	0.87510	2.20563	1.67660	2.76053
2483.756	0.93530	2.19696	1.68605	2.81555
2487.753	0.86798	2.22379	1.59234	2.84871
2491.731	0.82597	2.30402	1.62569	2.83330
2495.714	0.83597	2.32277	1.59636	2.83309
2499.755	0.80995	2.35756	1.55623	2.83853
2503.754	0.83977	2.19789	1.54123	2.87628
2507.754	0.87743	2.23724	1.51576	2.81425
2511.713	0.78751	2.23317	1.51546	2.69524
2515.754	0.83074	2.21092	1.52114	2.76039
2519.756	0.80555	2.16429	1.54983	2.70843
2523.756	0.75020	2.21336	1.47838	2.71828
2527.717	0.67176	2.27027	1.47501	2.71403
2531.744	0.67015	2.22330	1.53428	2.63560
2535.743	0.69345	2.17501	1.57858	2.65235
2539.756	0.62039	2.13688	1.59822	2.65419
2543.714	0.64464	2.13565	1.66601	2.70431
2547.757	0.57853	2.13521	1.68099	2.73373
2551.756	0.59851	2.09959	1.69473	2.77946
2555.755	0.63498	2.10032	1.62919	2.84380
2559.714	0.60449	2.09981	1.70306	2.73558
2563.756	0.53845	2.09411	1.73693	2.75355
2567.757	0.53711	2.12617	1.69054	2.72314
2571.754	0.54798	2.15197	1.80665	2.65883
2575.714	0.57243	2.21067	1.78927	2.66381
2579.758	0.59660	2.14498	1.79180	2.72215
2583.758	0.62876	2.16745	1.73182	2.71683
2587.756	0.59885	2.13302	1.61042	2.64502
2591.715	0.61880	2.16333	1.43962	2.59994
2595.756	0.54245	2.20887	1.66304	2.62867
2599.757	0.52490	2.19741	1.65327	2.61693
2603.756	0.70719	2.19875	1.72046	2.65368
2607.716	0.73930	2.18831	1.77263	2.66401
2611.757	0.81171	2.19463	1.61004	2.70473
2615.738	0.83439	2.17677	1.70641	2.73523
2619.757	0.75352	2.16009	1.71243	2.78253
2623.716	0.68533	2.16191	1.56593	2.78695
2627.758	0.55875	2.17921	1.48458	2.81297
2631.759	0.72369	2.14654	1.66767	2.85562
2635.756	0.69655	2.09216	1.67303	2.85323
2639.715	0.56942	2.09065	1.58490	2.85085
2643.713	0.65992	2.08217	1.65979	2.82000
2647.712	0.51336	2.06530	1.63239	2.82943
2651.758	0.50456	1.96487	1.58492	2.71783
2655.717	0.46525	1.90296	1.59988	2.69545
2659.748	0.46115	1.94677	1.59561	2.66966
2663.759	0.49592	1.87763	1.61952	2.59559
2667.756	0.47857	1.92065	1.60823	2.54322
2671.716	0.49158	1.86634	1.62792	2.54751
2675.756	0.44395	1.91314	1.65731	2.48002
2679.758	0.40906	1.97971	1.69225	2.47368
2683.761	0.38606	1.95741	1.73596	2.46898
2687.626	0.34181	1.96002	1.71679	2.47498
2691.758	0.40033	1.93566	1.74142	2.49444
2695.759	0.36814	1.98784	1.74486	2.56283
2699.756	0.42502	2.00026	1.72284	2.62133
2703.626	0.40336	1.98654	1.74685	2.64665
2707.733	0.38003	2.02529	1.69969	2.69772
2711.758	0.41028	1.99513	1.70145	2.73437
2715.757	0.39445	2.03866	1.68773	2.81579
2719.657	0.44051	2.01850	1.66071	2.88915
2723.761	0.47165	1.96533	1.62200	2.98669
2727.714	0.49763	1.95368	1.59492	3.05780
2731.760	0.54431	1.90978	1.58832	3.06704
2735.653	0.55831	1.88806	1.56861	3.12396
2739.746	0.61024	1.85518	1.57007	3.17963
2743.746	0.55855	1.80103	1.59539	3.22724
2747.760	0.56364	1.78316	1.59259	3.23628
2751.653	0.55257	1.76303	1.58790	3.29076
2755.760	0.54175	1.76135	1.53262	3.29193
2759.758	0.57625	1.74738	1.51266	3.28634
2763.759	0.62153	1.74849	1.46380	3.24591
2767.657	0.65536	1.80011	1.32250	3.19786
2771.758	0.66335	1.86099	1.37947	3.24231
2775.761	0.68007	1.90777	1.34700	3.22700
2779.715	0.68360	1.96684	1.42553	3.15743
2783.655	0.69248	1.97093	1.43198	3.03206
2787.760	0.72528	2.02611	1.50056	2.98344
2791.715	0.69762	2.04905	1.43109	2.93193
2795.760	0.66781	2.01020	1.47216	2.88604
2799.654	0.72709	1.99102	1.43798	2.87838
2803.761	0.66029	2.01465	1.49495	2.84728
2807.757	0.55669	2.00841	1.54358	2.82033
2811.760	0.40554	1.99193	1.61066	2.76044
2815.652	0.43601	1.94471	1.61652	2.72740
2819.759	0.41408	1.93265	1.64521	2.67824
2823.740	0.44462	1.89216	1.62455	2.71153
2827.714	0.45157	1.85314	1.64565	2.75415
2831.651	0.52490	1.79665	1.63621	2.79280
2835.760	0.46408	1.79778	1.60042	2.85613
2839.762	0.53287	1.79933	1.57714	2.94092
2843.759	0.48460	1.82518	1.61128	2.98606
2847.662	0.56404	1.86408	1.62254	3.06593
2851.759	0.57520	1.94355	1.56652	3.22951
2855.761	0.64340	2.00180	1.60439	3.35859
2859.760	0.67325	1.99117	1.72215	3.31965
2863.657	0.65168	2.06429	1.75728	3.38632
2867.753	0.57429	2.07782	1.73807	3.39702
2871.762	0.54567	2.16485	1.71506	3.34874
2875.760	0.42331	2.19556	1.60828	3.31459
2879.664	0.44460	2.25758	1.51611	3.30456
2883.759	0.38474	2.26779	1.54656	3.25928
2887.716	0.47448	2.28476	1.51988	3.25659
2891.758	0.52438	2.26921	1.50457	3.16247
2895.658	0.60109	2.24621	1.58217	3.07292
2899.761	0.67863	2.24761	1.60913	2.96429
2903.762	0.57848	2.27973	1.45738	2.99202
2907.742	0.61009	2.30966	1.46613	2.89197
2911.640	0.52413	2.29129	1.49941	2.90362
2915.759	0.40613	2.23047	1.41194	3.01834
2919.715	0.66253	2.19133	1.37885	3.03087
2923.761	0.49200	2.27915	1.43399	3.01071
2927.658	0.49860	2.27780	1.45415	3.04524
2931.766	0.39755	2.29302	1.45916	3.00939
2935.764	0.35355	2.33791	1.49284	3.05420
2939.762	0.37678	2.37042	1.53480	3.04981
2943.655	0.35854	2.37980	1.56903	3.07339
2947.746	0.30280	2.28684	1.64910	3.05922
2951.718	0.31955	2.22101	1.66363	3.10160
2955.758	0.37871	2.17706	1.63306	3.09655
2959.657	0.42720	2.17761	1.67940	3.05796
2963.637	0.43227	2.11372	1.71127	3.00845
2967.636	0.48083	2.04266	1.71255	3.00317
2971.637	0.55555	1.98091	1.71870	3.00381
2975.595	0.58401	1.97328	1.71799	2.97748
2979.636	0.66563	1.89324	1.72205	2.94656
2983.638	0.67131	1.87998	1.70189	2.89082
2987.636	0.69565	1.85850	1.66911	2.88386
2991.627	0.72695	1.86355	1.65731	2.87032
2995.614	0.74357	1.89747	1.63073	2.89311
2999.636	0.72799	1.93252	1.62795	2.89970
3003.639	0.73903	1.96359	1.52699	2.83314
3007.646	0.72223	2.00815	1.51524	2.79264
3011.637	0.72786	2.06276	1.44636	2.80621
3015.635	0.71898	2.12570	1.38528	2.77609
3019.637	0.70307	2.14220	1.37535	2.77405
3023.635	0.68310	2.14785	1.33552	2.75179
3027.636	0.69739	2.14037	1.35702	2.79149
3031.637	0.64764	2.16788	1.38230	2.79042
3035.626	0.64987	2.29298	1.42610	2.85755
3039.595	0.69779	2.34366	1.36062	2.82782
3043.634	0.60501	2.34370	1.35690	2.85181
3047.637	0.61846	2.18524	1.30980	2.91719
3051.635	0.65707	2.40517	1.38426	2.90354
3055.596	0.59387	2.30858	1.40767	2.93275
3059.639	0.60436	2.30984	1.39989	2.95038
3063.636	0.67543	2.32107	1.57669	2.99154
3067.634	0.71628	2.44668	1.53213	3.03624
3071.628	0.73283	2.48588	1.47422	3.00372
3075.639	0.68387	2.50563	1.56843	3.05350
3079.627	0.66072	2.52791	1.55539	3.04445
3083.638	0.69997	2.42546	1.59311	3.11912
3087.595	0.72173	2.37210	1.56575	3.02519
3091.636	0.61764	2.42004	1.51767	3.11547
3095.637	0.45331	2.43149	0.41264	3.03524
3099.635	-1.74132	2.25809	-1.48848	2.65623
3103.597	-2.92265	2.08555	-3.70280	1.76402
3107.644	-3.40195	1.23574	-3.70104	1.55008
3111.636	-4.01796	1.60260	-4.09360	1.39070
3115.636	-4.53051	1.10296	-4.42878	1.50768
3119.596	-4.78597	0.72615	-4.49023	1.20284
3123.637	-5.20703	0.74839	-4.89385	1.00735
3127.637	-4.94159	0.60897	-5.21806	0.79378
3131.638	-5.39834	0.74747	-5.52241	0.64454
3135.595	-5.44308	0.59726	-5.29597	0.51652
3139.638	-5.36909	0.60416	-4.92321	0.51717
3143.640	-5.22126	0.42614	-5.01172	0.72140
3147.637	-5.38262	0.45978	-5.17038	0.34496
3151.597	-5.39035	0.45173	-5.03031	0.52018
3155.641	-5.54725	0.32699	-5.54149	0.16086
3159.642	-5.60912	0.37802	-5.15982	0.53267
3163.603	-5.63540	0.30876	-5.17019	0.51828
3167.598	-5.79440	0.32017	-5.11612	0.48819
3171.640	-5.70291	0.23596	-5.02531	0.53684
3175.638	-5.70332	0.23428	-4.93100	0.49587
3179.639	-5.62630	0.17793	-4.90772	0.55615
3183.598	-5.65022	0.20020	-4.86352	0.47327
3187.639	-5.66971	0.21842	-4.88104	0.42753
3191.637	-5.72038	0.18054	-4.80103	0.41582
3195.640	-5.71490	0.09433	-5.02701	0.28231
3199.598	-5.71969	0.14200	-5.21823	0.22863
3203.616	-5.73323	0.13275	-4.90198	0.18428
3207.639	-5.63294	0.10658	-4.85896	0.31120
3211.638	-5.57200	0.11100	-4.71639	0.39492
3215.603	-5.58439	0.04815	-4.89848	0.09218
3219.639	-5.62370	0.03559	-4.99586	0.32359
3223.639	-5.63621	0.01222	-4.89094	0.29623
3227.639	-5.64024	0.00507	-4.88668	0.30847
3231.625	-5.70050	0.02740	-5.02492	0.02079
3235.640	-5.68777	-0.07569	-5.44097	0.03857
3239.639	-5.66789	0.05677	-4.93351	0.21279
3243.632	-5.63314	0.06439	-4.89323	0.33307
3247.598	-5.62923	-0.02750	-4.89599	0.29601
3251.640	-5.64139	-0.08034	-4.55726	0.26688
3255.638	-5.66319	-0.05037	-5.06501	0.31138
3259.639	-5.62827	-0.01039	-4.87062	0.33044
3263.598	-5.63397	0.10072	-4.87441	0.26326
3267.638	-5.68799	0.08761	-4.94223	0.27108
3271.643	-5.62503	0.04300	-5.21009	0.22247
3275.640	-5.54199	0.04751	-4.80290	0.36201
3279.599	-5.60649	0.08337	-4.86337	0.29303
3283.640	-5.56465	0.07437	-4.99379	0.11573
3287.610	-5.70669	0.05863	-4.82466	0.49296
3291.638	-5.61460	0.08762	-4.78523	0.30960
3295.626	-5.59526	0.14336	-4.72144	0.27028
3299.639	-5.70571	0.13911	-4.71467	0.35676
3303.640	-5.61620	0.17736	-4.98733	0.09830
3307.639	-5.69487	0.12136	-4.62675	0.37097
3311.598	-5.61379	0.20496	-5.04794	0.17616
3315.640	-5.70571	0.16141	-4.72021	0.28447
3319.641	-5.72269	0.19889	-4.77067	0.31555
3323.642	-5.60212	0.33423	-4.83057	0.14250
3327.630	-5.67192	0.12836	-4.76169	0.37845
3331.635	-5.63540	0.16934	-4.69546	0.43547
3335.644	-5.66388	0.20321	-4.95073	0.09229
3339.639	-5.69585	0.13995	-5.18380	0.51775
3343.598	-6.33243	0.13193	-5.49335	0.37829
3347.641	-7.49095	-0.34110	-8.20143	0.03217
3351.641	-8.17106	-0.60681	-8.88707	-1.08566
3355.639	-8.83985	-0.65370	-9.51032	-1.67239
3359.639	-10.00437	-1.05648	-9.95411	-1.46175
3363.641	-10.14444	-1.30991	-10.31547	-1.65681
3367.643	-10.49951	-1.07051	-10.44614	-1.55359
3371.605	-11.30233	-1.09576	-10.59579	-1.59940
3375.664	-11.85991	-1.23860	-10.75133	-1.72208
3379.641	-12.12504	-1.26694	-10.90411	-1.84967
3383.642	-12.21641	-1.39093	-10.85492	-1.82750
3387.641	-11.99118	-1.41916	-10.86155	-1.82453
3391.665	-12.01696	-1.45784	-10.95787	-1.88831
3395.642	-11.95541	-1.48227	-11.20314	-1.94385
3399.641	-12.01350	-1.56235	-11.09800	-2.03021
3403.644	-11.93508	-1.60220	-11.19987	-2.08042
3407.640	-12.00258	-1.56343	-11.19120	-2.13540
3411.619	-12.05556	-1.55268	-11.24867	-2.17930
3415.643	-12.12656	-1.60432	-11.32004	-2.16049
3419.643	-12.03223	-1.64643	-11.33538	-2.25182
3423.642	-12.02663	-1.62864	-11.39253	-2.25823
3427.643	-12.00072	-1.64281	-11.32569	-2.22076
3431.649	-11.99740	-1.53276	-11.31703	-2.21099
3435.641	-11.91921	-1.61605	-11.24924	-2.26116
3439.640	-12.01787	-1.62772	-11.25438	-2.27815
3443.641	-12.03902	-1.58685	-11.22222	-2.31610
3447.645	-11.86754	-1.58151	-11.25717	-2.29679
3451.642	-11.97534	-1.61124	-11.15322	-2.28085
3455.640	-12.01886	-1.64527	-11.21128	-2.17437
3459.642	-12.00220	-1.61431	-11.10811	-2.20723
3463.645	-12.01540	-1.58196	-11.13150	-2.24650
3467.642	-11.99220	-1.56332	-11.06722	-2.16325
3471.634	-11.96921	-1.54157	-11.09360	-2.17138
3475.642	-11.92574	-1.57546	-11.04238	-2.13623
3479.642	-11.94216	-1.56798	-11.08263	-2.12768
3483.600	-11.92341	-1.51629	-11.07061	-2.08403
3487.642	-11.95380	-1.54180	-11.02416	-2.04039
3491.643	-11.93757	-1.52012	-11.03870	-2.06343
3495.614	-11.98809	-1.55305	-10.99996	-2.01456
3499.642	-11.98156	-1.51806	-11.06877	-1.99989
3503.639	-12.00139	-1.51998	-10.90985	-1.93711
3507.642	-11.99631	-1.54600	-11.03095	-1.92550
3511.598	-12.01787	-1.52050	-10.88901	-1.83048
3515.642	-12.04030	-1.50405	-10.97026	-1.84368
3519.640	-12.05048	-1.51762	-10.91373	-1.95152
3523.643	-11.99289	-1.46725	-10.84908	-1.76490
3527.599	-12.04628	-1.52617	-10.92911	-1.98724
3531.644	-12.02423	-1.52612	-10.76377	-1.72192
3535.625	-12.04547	-1.47595	-10.77708	-1.62474
3539.643	-11.96246	-1.47271	-10.79947	-1.81465
3543.642	-11.99020	-1.49935	-10.77265	-1.83083
3547.644	-11.96315	-1.48252	-10.88128	-1.65410
3551.639	-11.96624	-1.39420	-10.80419	-1.61106
3555.643	-11.97059	-1.46902	-10.85033	-1.68816
3559.644	-12.05499	-1.49744	-11.21577	-1.95491
3563.646	-12.29256	-1.70270	-11.46475	-2.13927
3567.640	-12.83085	-1.61652	-11.84969	-2.06098
3571.643	-13.12107	-1.72845	-11.94881	-2.12646
3575.644	-13.09200	-1.80129	-12.05898	-2.22374
3579.598	-13.23459	-1.85258	-11.92757	-2.12691
3583.636	-13.29890	-1.87681	-12.10877	-2.22357
3587.642	-13.25230	-1.86683	-12.11579	-2.25634
3591.642	-13.28033	-1.92273	-12.19401	-2.39091
3595.643	-13.31239	-1.88975	-12.22710	-2.42729
3599.602	-13.38616	-1.95994	-12.25721	-2.47571
3603.644	-13.42747	-1.97112	-12.28322	-2.46679
3607.643	-13.48775	-2.00837	-12.31156	-2.37729
3611.645	-13.47425	-2.00576	-12.31462	-2.32283
3615.603	-13.45355	-2.00253	-12.25818	-2.36609
3619.670	-13.50129	-1.95649	-12.24678	-2.31783
3623.644	-13.47988	-1.90864	-12.31478	-2.28443
3627.644	-13.47139	-1.89922	-12.34245	-2.35287
3631.602	-13.55008	-1.85115	-12.36622	-2.42114
3635.650	-13.53880	-1.91169	-12.33518	-2.32381
3639.643	-13.55968	-1.95683	-12.31019	-2.35367
3643.654	-13.56458	-1.92521	-12.30213	-2.29106
3647.602	-13.52114	-1.94026	-12.26543	-2.22408
3651.642	-13.51750	-1.82130	-12.25230	-2.36243
3655.644	-13.48521	-1.84381	-12.28081	-2.36399
3659.637	-13.49054	-1.88731	-12.25299	-2.36429
3663.495	-13.49221	-1.91769	-12.31935	-2.33078
3667.642	-13.54108	-1.89437	-12.22011	-2.38932
3671.644	-13.47730	-1.94646	-12.28045	-2.39085
3675.643	-13.43160	-1.98712	-12.33863	-2.34040
3679.603	-13.43249	-2.01789	-12.25664	-2.25441
3683.647	-13.41368	-1.99241	-12.27375	-2.29274
3687.643	-13.40847	-1.94392	-12.32326	-2.27117
3691.646	-13.36114	-2.05594	-12.38926	-2.28000
3695.603	-13.35851	-1.99451	-12.36222	-2.25831
3699.645	-13.40765	-2.04371	-12.37529	-2.25885
3703.616	-13.40838	-1.91070	-12.51870	-2.28553
3707.645	-13.37902	-1.93337	-12.47108	-2.28125
3711.606	-13.36114	-1.94638	-12.48431	-2.26720
3715.645	-13.38195	-1.92634	-12.44363	-2.28333
3719.644	-13.39741	-1.98687	-12.47498	-2.36347
3723.644	-13.38365	-1.91933	-12.50035	-2.32592
3727.603	-13.43280	-1.94918	-12.50557	-2.40700
3731.646	-13.41620	-1.89987	-12.53753	-2.47445
3735.644	-13.41840	-1.94341	-12.53320	-2.41336
3739.647	-13.40690	-1.95883	-12.53838	-2.47265
3743.546	-13.39048	-1.98297	-12.60850	-2.55613
3747.646	-13.36149	-2.00424	-12.53360	-2.47694
3751.644	-13.37587	-2.05246	-12.48251	-2.50062
3755.642	-13.39198	-2.11135	-12.54084	-2.61616
3759.542	-13.40131	-2.05601	-12.61285	-2.59789
3763.602	-13.45594	-1.98417	-12.55228	-2.61309
3767.647	-13.51968	-2.02172	-12.59061	-2.58252
3771.646	-13.50875	-2.10457	-12.56344	-2.42852
3775.542	-13.55426	-2.11674	-12.55252	-2.51227
3779.648	-13.53831	-2.09377	-12.46940	-2.47181
3783.647	-13.55703	-2.08743	-12.48107	-2.55110
3787.610	-13.53763	-2.10512	-12.43935	-2.47849
3791.521	-13.51985	-2.09931	-12.50113	-2.50555
3795.647	-13.51919	-2.03058	-12.54046	-2.47353
3799.646	-13.48533	-2.03398	-12.51257	-2.42660
3803.646	-13.51124	-2.06599	-12.45776	-2.39064
3807.542	-13.52299	-2.13183	-12.47737	-2.39080
3811.603	-13.56155	-2.19370	-12.46630	-2.41204
3815.646	-13.54929	-2.14750	-12.47785	-2.48483
3819.644	-13.49352	-2.18841	-12.49850	-2.55972
3823.540	-13.49284	-2.22343	-12.54228	-2.54449
3827.646	-13.49270	-2.33014	-12.60909	-2.61356
3831.647	-13.56301	-2.38904	-12.62022	-2.57579
3835.648	-13.61286	-2.15136	-12.66046	-2.55697
3839.543	-13.65376	-2.18368	-12.68956	-2.52627
3843.647	-13.77062	-2.24921	-12.71713	-2.52824
3847.646	-13.67316	-2.18266	-12.75486	-2.57750
3851.646	-13.70439	-2.16612	-12.69412	-2.56982
3855.551	-13.71620	-2.15314	-12.73163	-2.54537
3859.647	-13.70059	-2.15774	-12.76935	-2.49853
3863.647	-13.67740	-2.21271	-12.80070	-2.51123
3867.641	-13.70013	-2.22505	-12.78019	-2.50817
3871.545	-13.74519	-2.25104	-12.76026	-2.49465
3875.644	-13.67171	-2.23516	-12.72813	-2.54722
3879.646	-13.65491	-2.39744	-12.73880	-2.58739
3883.603	-13.56078	-2.28478	-12.65569	-2.61673
3887.549	-13.67042	-2.32692	-12.57373	-2.58589
3891.603	-13.70437	-2.33172	-12.56212	-2.57039
3895.647	-13.64469	-2.35357	-12.51560	-2.60739
3899.647	-13.69504	-2.27418	-12.54542	-2.70509
3903.510	-13.61776	-2.29995	-12.50224	-2.71045
3907.646	-13.64272	-2.28033	-12.51745	-2.74517
3911.616	-13.62638	-2.37495	-12.46793	-2.65344
3915.647	-13.75144	-2.14817	-12.42404	-2.63332
3919.607	-13.60411	-2.05207	-12.41485	-2.48124
3923.648	-13.71540	-2.13157	-12.43641	-2.49780
3927.648	-13.70132	-2.16029	-12.46349	-2.46133
3931.648	-13.73097	-2.14970	-12.48802	-2.48263
3935.507	-13.66538	-2.00094	-12.50896	-2.63392
3939.652	-13.66927	-2.12726	-12.53776	-2.66138
3943.648	-13.61307	-2.29551	-12.58016	-2.53834
3947.651	-13.64853	-1.99660	-12.54256	-2.42465
3951.507	-13.65795	-2.17967	-12.56451	-2.53430
3955.642	-13.58688	-2.15815	-12.49091	-2.53677
3959.648	-13.47728	-2.17976	-12.38268	-2.43322
3963.657	-12.80903	-2.11393	-12.09916	-2.36765
3967.508	-9.95733	-1.84342	-9.29314	-2.07330
3971.646	-8.29963	-1.41193	-9.03953	-1.16498
3975.647	-7.00218	-0.71225	-6.38256	1.49453
3979.644	-5.83468	0.39080	-5.17282	1.58272
3983.511	-4.12478	0.96753	-4.69539	1.67606
3987.648	-3.28019	1.36237	-3.45433	1.71644
3991.525	-1.92877	1.60993	-1.38999	2.88327
3995.523	-1.01940	2.07213	-1.20388	2.96448
3999.510	-0.57111	1.90662	-0.29429	3.24823
4003.522	0.76173	2.14066	0.84525	3.24951
4007.524	0.73451	2.27572	1.50373	3.33414
4011.524	0.76590	2.41898	1.85249	3.55052
4015.522	0.26808	2.44243	1.75205	3.48703
4019.523	0.38092	2.46711	1.68825	3.44567
4023.524	0.55920	2.49190	1.73383	3.50000
4027.523	0.71943	2.62659	1.81431	3.57846
4031.519	0.66124	2.57716	1.86303	3.65240
4035.526	0.54433	2.58034	1.87669	3.65378
4039.514	0.62077	2.59273	1.86144	3.63194
4043.480	0.65151	2.57498	1.85492	3.67750
4047.520	0.61526	2.60880	1.89099	3.72530
4051.524	0.58468	2.62905	1.88016	3.76860
4055.521	0.52610	2.59832	1.91412	3.76769
4059.522	0.54468	2.62438	1.84037	3.69885
4063.522	0.46902	2.54612	1.76914	3.72454
4067.527	0.45108	2.56612	1.74417	3.75372
4071.524	0.48195	2.48290	1.81005	3.73549
4075.526	0.61099	2.54413	1.84880	3.69396
4079.483	0.64657	2.57421	1.85398	3.70522
4083.481	0.60225	2.52010	1.86806	3.72953
4087.524	0.61372	2.49334	1.99074	3.72607
4091.525	0.68263	2.50774	1.90366	3.65422
4095.521	0.76838	2.46637	2.00671	3.41929
4099.527	0.68506	2.41815	2.06870	3.39402
4103.523	0.70610	2.41082	2.03281	3.35296
4107.522	0.76096	2.53269	2.03635	3.43459
4111.522	0.77402	2.47557	2.13232	3.50309
4115.527	0.75288	2.44232	2.13152	3.20210
4119.527	0.74444	2.44858	2.12079	3.19016
4123.506	0.73891	2.41053	2.12263	3.19823
4127.517	0.72513	2.38122	2.07313	3.26878
4131.527	0.77503	2.41637	2.09618	3.27128
4135.524	0.76253	2.42798	2.14741	3.22187
4139.528	0.73253	2.43663	2.11720	3.18076
4143.523	0.77528	2.47051	2.08260	3.19056
4147.528	0.82476	2.43310	1.97141	3.06643
4151.527	0.85677	2.37663	2.11398	3.05447
4155.522	0.82855	2.31082	2.05514	3.02108
4159.517	0.88150	2.27745	2.05506	3.14016
4163.528	0.87860	2.26368	2.05950	3.11138
4167.520	0.92892	2.25494	2.02061	3.04455
4171.537	0.97184	2.25285	1.98031	3.07640
4175.521	1.03082	2.30210	1.98960	3.03037
4179.526	1.02015	2.29422	1.91841	3.08275
4183.482	1.03880	2.34032	1.93341	3.11593
4187.523	0.99318	2.30749	1.89340	3.15545
4191.522	0.88332	2.26492	1.87113	3.14677
4195.527	0.65707	2.29243	1.79646	3.13695
4199.527	0.69650	2.30449	1.76621	3.16612
4203.528	0.64518	2.29285	1.73688	3.14970
4207.518	0.69337	2.25358	1.73566	3.15121
4211.526	0.58076	2.18344	1.71702	3.16051
4215.526	0.50947	2.10595	1.70445	3.13995
4219.525	0.48550	2.00270	1.73098	3.14223
4223.523	0.44780	1.97682	1.73710	3.09170
4227.482	0.44477	1.79213	1.71977	3.05575
4231.526	0.44874	1.94774	1.74883	3.02110
4235.525	0.43740	1.94042	1.73341	3.00047
4239.524	0.43733	1.92349	1.75614	2.96503
4243.526	0.45353	1.83646	1.77248	2.91759
4247.515	0.45892	1.83055	1.73812	2.84803
4251.525	0.37444	1.82417	1.72850	2.73889
4255.522	0.32622	1.83073	1.71578	2.69435
4259.526	0.41757	1.86713	1.69892	2.68027
4263.481	0.50825	1.90461	1.71496	2.62337
4267.525	0.56920	1.96406	1.77442	2.63422
4271.486	0.59394	1.96608	1.83124	2.64782
4275.529	0.44730	1.90510	1.77878	2.66638
4279.527	0.43889	1.78111	1.80085	2.71438
4283.525	0.59081	1.77871	1.80657	2.69791
4287.526	0.61573	1.77627	1.77397	2.70064
4291.491	0.58927	1.83233	1.71132	2.65986
4295.526	0.61086	1.88715	1.79462	2.67818
4299.528	0.53801	1.85111	1.77407	2.73717
4303.526	0.58007	1.84283	1.81404	2.77148
4307.525	0.50709	1.90314	1.71298	2.73215
4311.528	0.47867	1.97079	1.68711	2.67920
4315.527	0.52396	2.00088	1.65785	2.68169
4319.517	0.55816	1.88054	1.56947	2.61102
4323.526	0.53617	1.84145	1.64677	2.74441
4327.483	0.53979	1.92373	1.61260	2.71576
4331.482	0.56300	1.95170	1.61406	2.67947
4335.519	0.57081	1.93822	1.64672	2.71313
4339.531	0.57210	1.95169	1.57530	2.68815
4343.528	0.59796	2.06557	1.52694	2.62267
4347.529	0.58419	2.14456	1.46643	2.61511
4351.524	0.62496	2.09636	1.52124	2.58396
4355.526	0.63513	2.16077	1.45348	2.58763
4359.525	0.59374	2.17183	1.48133	2.61720
4363.530	0.66630	2.07604	1.52426	2.62077
4367.520	0.66925	2.13877	1.51482	2.66346
4371.526	0.60890	2.23410	1.51100	2.71118
4375.519	0.54989	2.18601	1.55824	2.87524
4379.529	0.54550	2.23355	1.61069	2.72312
4383.538	0.52840	2.12453	1.64258	2.83613
4387.528	0.53193	2.16982	1.70792	2.85645
4391.528	0.48706	2.19100	1.63365	2.79183
4395.530	0.46597	2.10294	1.68401	2.78998
4399.521	0.50046	2.09849	1.64226	2.89854
4403.529	0.50046	2.07233	1.60035	2.74266
4407.529	0.50607	2.07322	1.55189	2.77274
4411.531	0.43974	2.05607	1.61979	2.79064
4415.531	0.46602	1.99479	1.58373	2.81076
4419.526	0.43286	2.05617	1.64000	2.74625
4423.528	0.45393	2.04726	1.55390	2.75009
4427.483	0.48795	2.04670	1.49602	2.71251
4431.527	0.47078	2.02497	1.46077	2.77209
4435.530	0.50977	1.95956	1.53843	2.76966
4439.517	0.52178	1.96310	1.55529	2.74466
4443.527	0.54855	1.88804	1.59794	2.60464
4447.486	0.47560	1.91737	1.65289	2.53878
4451.529	0.43609	1.90624	1.71251	2.67081
4455.516	0.48835	1.89555	1.78615	2.67904
4459.517	0.49900	1.80924	1.81575	2.57760
4463.487	0.51853	1.75924	1.83409	2.72179
4467.485	0.49383	1.75952	1.74042	2.53693
4471.530	0.46294	1.73480	1.77541	2.56437
4475.528	0.36099	1.75786	1.78324	2.43181
4479.512	0.44269	1.71418	1.77643	2.47979
4483.528	0.44691	1.67788	1.70616	2.55145
4487.529	0.43100	1.70418	1.67077	2.60509
4491.530	0.47828	1.70116	1.68263	2.50864
4495.517	0.53019	1.66651	1.62535	2.53435
4499.526	0.61828	1.64372	1.57853	2.50612
4503.529	0.72523	1.67601	1.54396	2.47217
4507.528	0.75489	1.67230	1.53751	2.44552
4511.487	0.77476	1.65772	1.54202	2.56705
4515.529	0.82156	1.62674	1.54782	2.48558
4519.530	0.88835	1.60186	1.57312	2.44013
4523.529	0.88267	1.59956	1.57114	2.38640
4527.488	0.92095	1.58377	1.57525	2.37017
4531.530	0.91889	1.56215	1.61870	2.33380
4535.529	0.92157	1.51706	1.64022	2.38064
4539.512	0.90125	1.47757	1.71994	2.36053
4543.532	0.85659	1.44724	1.76492	2.33687
4547.533	0.84364	1.43349	1.73742	2.32984
4551.530	0.82091	1.40765	1.77457	2.35583
4555.530	0.77697	1.40779	1.74754	2.33758
4559.530	0.72893	1.40751	1.72629	2.35390
4563.531	0.70198	1.40106	1.73750	2.41768
4567.530	0.66888	1.41430	1.77571	2.50649
4571.529	0.59774	1.46722	1.83789	2.59236
4575.527	0.53724	1.46850	1.86618	2.58370
4579.521	0.47304	1.53163	1.81213	2.64053
4583.524	0.52091	1.52671	1.71208	2.63366
4587.530	0.48493	1.56550	1.72867	2.67414
4591.528	0.49567	1.60160	1.76133	2.68661
4595.529	0.45001	1.67001	1.78748	2.64208
4599.540	0.45599	1.72500	1.80053	2.61609
4603.527	0.51133	1.80693	1.78825	2.51812
4607.489	0.71226	1.79348	1.78761	2.39164
4611.531	0.68833	1.74243	1.76705	2.30017
4615.532	0.68084	1.75777	1.73420	2.40450
4619.532	0.70541	1.74235	1.72180	2.39841
4623.530	0.65297	1.75620	1.70073	2.46043
4627.530	0.64642	1.74247	1.76767	2.53984
4631.532	0.66853	1.70453	1.78518	2.77365
4635.530	0.64345	1.72696	1.85948	2.47519
4639.521	0.60471	1.71870	1.86846	2.57093
4643.535	0.57970	1.70960	1.84793	2.68308
4647.533	0.64503	1.73934	1.88457	2.65763
4651.530	0.65982	1.65689	1.87855	2.61226
4655.528	0.62069	1.71448	1.82802	2.55411
4659.531	0.57575	1.80676	1.79014	2.50094
4663.524	0.57267	1.81051	1.71977	2.66280
4667.520	0.64734	1.81999	1.73745	2.60502
4671.534	0.54230	1.84190	1.76294	2.56662
4675.531	0.54064	1.77860	1.71826	2.58708
4679.534	0.46956	1.78311	1.70432	2.59738
4683.530	0.48800	1.69522	1.65575	2.56074
4687.431	0.49671	1.71498	1.61885	2.54408
4691.532	0.45951	1.69024	1.60595	2.53648
4695.535	0.45172	1.62341	1.61119	2.54515
4699.531	0.44951	1.58564	1.63750	2.55070
4703.490	0.49612	1.60239	1.66636	2.60928
4707.496	0.46083	1.49228	1.67539	2.59775
4711.531	0.40760	1.47280	1.68213	2.60716
4715.531	0.42063	1.44985	1.68094	2.59595
4719.429	0.40303	1.43860	1.68878	2.57031
4723.533	0.42996	1.43137	1.68171	2.56417
4727.486	0.42090	1.45144	1.68677	2.56992
4731.533	0.42006	1.43691	1.72017	2.56308
4735.528	0.44889	1.46425	1.72111	2.56987
4739.533	0.44177	1.49787	1.69594	2.55875
4743.537	0.41455	1.49643	1.69175	2.54207
4747.489	0.38090	1.51136	1.68600	2.52336
4751.428	0.38397	1.55487	1.69897	2.48703
4755.532	0.38784	1.57689	1.67965	2.47210
4759.532	0.37464	1.62082	1.63710	2.47982
4763.489	0.38144	1.64760	1.60112	2.47929
4767.535	0.36442	1.64113	1.59653	2.46911
4771.534	0.37774	1.66618	1.57491	2.44456
4775.532	0.38511	1.68502	1.55824	2.45532
4779.533	0.36246	1.68870	1.56610	2.45823
4783.427	0.36757	1.69714	1.55065	2.47796
4787.529	0.35055	1.73299	1.53480	2.48354
4791.523	0.36102	1.75245	1.51926	2.49315
4795.534	0.35960	1.78557	1.49376	2.50719
4799.429	0.35923	1.80396	1.53091	2.50590
4803.534	0.40038	1.83347	1.54899	2.47256
4807.534	0.40400	1.85094	1.56005	2.48899
4811.538	0.41338	1.88008	1.57543	2.45827
4815.430	0.43723	1.93930	1.60615	2.49518
4819.532	0.45453	1.96613	1.58969	2.47712
4823.534	0.43301	1.98782	1.57456	2.49482
4827.532	0.42435	1.97172	1.62490	2.44443
4831.424	0.43718	2.02098	1.63809	2.42423
4835.533	0.43482	2.02694	1.68092	2.39549
4839.530	0.40894	2.03057	1.72044	2.37035
4843.536	0.39100	2.04377	1.71079	2.34891
4847.429	0.35238	2.04696	1.72079	2.37484
4851.534	0.30972	2.05622	1.73576	2.36227
4855.533	0.27505	2.09244	1.73961	2.37744
4859.533	0.25053	2.10217	1.75845	2.39958
4863.427	0.20058	2.14803	1.80005	2.46838
4867.536	0.28049	1.99989	1.87579	2.49383
4871.534	0.33159	2.01746	1.93695	2.61197
4875.523	0.40939	1.99639	1.90460	2.55120
4879.537	0.42385	1.98850	1.91955	2.55177
4883.535	0.45974	1.89032	1.86387	2.55973
4887.489	0.54190	1.92264	1.84952	2.61225
4891.533	0.50121	1.87852	1.81399	2.62018
4895.431	0.52940	1.89405	1.78404	2.63522
4899.535	0.57987	1.84037	1.76951	2.62067
4903.534	0.64719	1.68756	1.72530	2.51298
4907.533	0.69620	1.68123	1.67058	2.47050
4911.431	0.67496	1.64792	1.64521	2.48140
4915.498	0.60940	1.68881	1.63420	2.42361
4919.532	0.56994	1.71472	1.66415	2.42618
4923.534	0.53019	1.72980	1.66400	2.43213
4927.430	0.47902	1.87245	1.60134	2.50810
4931.535	0.46224	1.75672	1.59653	2.63974
4935.534	0.45624	1.86940	1.59435	2.83139
4939.535	0.44175	2.11324	1.60265	2.77750
4943.432	0.48066	2.22807	1.71558	2.80178
4947.536	0.52170	2.11081	1.74833	2.95424
4951.536	0.44341	2.21986	1.83888	3.07766
4955.511	0.51952	2.30806	1.65947	2.88640
4959.537	0.81476	2.27131	1.65974	2.93607
4963.536	0.91952	2.31639	1.49391	2.92617
4967.533	0.88719	2.30944	1.53203	3.00446
4971.535	0.84570	2.27501	1.55393	3.00549
4975.429	0.79754	2.22046	1.55965	2.98296
4979.534	0.83364	2.15062	1.61515	2.96540
4983.533	0.85615	2.11992	1.68751	2.97735
4987.535	0.89508	2.06134	1.72671	3.00493
4991.430	0.91693	2.05984	1.78644	3.05732
4995.533	0.92609	2.02209	1.57818	3.03439
4999.527	0.88875	2.00588	1.43292	2.95693
5003.536	0.81952	2.01083	1.47645	2.92981
5007.428	0.76799	2.02227	1.60501	2.93221
5011.534	0.73476	2.03266	1.57607	2.95079
5015.535	0.73067	2.11634	1.68015	2.96963
5019.537	0.71826	2.20016	1.79195	2.91481
5023.427	0.73548	2.27009	1.90648	2.96434
5027.536	0.75990	2.34452	1.81706	2.92580
5031.492	0.75766	2.45095	1.88006	2.87253
5035.410	0.77618	2.50815	1.68382	2.80809
5039.400	0.75161	2.51519	1.71498	2.80532
5043.398	0.77722	2.55569	1.73068	2.80882
5047.411	0.77010	2.58235	1.76581	2.83954
5051.411	0.77952	2.60127	1.76058	2.85808
5055.368	0.79853	2.64046	1.70799	2.87805
5059.412	0.77456	2.63861	1.61629	2.84233
5063.409	0.77436	2.62515	1.62708	2.89046
5067.411	0.71293	2.59364	1.56965	2.86936
5071.404	0.61074	2.55102	1.53089	2.87947
5075.409	0.52379	2.50409	1.53850	2.92084
5079.411	0.47463	2.48548	1.59727	2.96815
5083.402	0.48140	2.48357	1.62378	3.00113
5087.409	0.40348	2.44967	1.67340	3.04108
5091.410	0.38241	2.44052	1.63107	3.01140
5095.413	0.36434	2.41875	1.63492	2.89882
5099.411	0.35772	2.39900	1.70410	2.88081
5103.407	0.38246	2.40751	1.75193	2.90995
5107.408	0.47865	2.42189	1.75193	2.79932
5111.412	0.47924	2.46018	1.79534	2.80597
5115.412	0.53553	2.49595	1.75347	2.84293
5119.401	0.62585	2.48966	1.73983	2.83547
5123.412	0.63176	2.51699	1.80226	2.85063
5127.366	0.50922	2.53232	1.84780	3.04263
5131.411	0.52054	2.53913	1.79058	3.14312
5135.371	0.56543	2.56845	1.81039	2.95102
5139.367	0.41698	2.62510	1.70725	3.05792
5143.411	0.35806	2.69719	1.71441	3.15590
5147.419	0.41810	2.81449	1.72324	3.20489
5151.412	0.33166	2.78558	1.63028	3.20145
5155.413	0.40742	2.88127	1.67080	3.28074
5159.413	0.30178	2.76593	1.78448	3.29607
5163.415	0.19400	2.79437	1.89320	3.31522
5167.411	0.14019	2.81924	1.89550	3.30443
5171.401	0.12764	2.76569	1.75205	3.27711
5175.413	0.16025	2.76953	1.59715	3.21461
5179.414	0.21507	2.77411	1.56858	3.22059
5183.411	0.27456	2.75320	1.90244	3.21554
5187.412	0.39899	2.73467	1.66452	3.14254
5191.412	0.47847	2.64303	1.67896	3.15019
5195.416	0.57322	2.64338	1.72126	3.14958
5199.402	0.45165	2.48646	1.60447	3.12849
5203.377	0.56376	2.43170	1.59147	3.11375
5207.415	0.44361	2.41786	1.65282	3.11958
5211.414	0.53684	2.40773	1.68399	3.12448
5215.381	0.57813	2.49320	1.70502	3.20931
5219.412	0.61273	2.47459	1.78280	3.22594
5223.413	0.66642	2.46749	1.79162	3.32358
5227.368	0.70873	2.56213	1.70889	3.26332
5231.412	0.66345	2.72349	1.80653	3.25370
5235.412	0.60181	2.71616	1.73509	3.33257
5239.412	0.63940	2.69837	1.74457	3.27515
5243.412	0.66191	2.54614	1.65929	3.06122
5247.371	0.68900	2.34795	1.71732	2.83986
5251.395	0.68886	2.17221	1.68640	2.79052
5255.406	0.72129	2.07433	1.67281	2.47420
5259.413	0.71722	1.87418	1.61416	2.70344
5263.411	0.70558	1.77110	1.60910	2.70625
5267.413	0.70159	1.84529	1.60447	2.67911
5271.412	0.75560	1.74658	1.62140	2.61011
5275.413	0.77967	1.79872	1.61362	2.58675
5279.411	0.77546	1.96819	1.59055	2.51741
5283.416	0.76111	1.93149	1.56888	2.54116
5287.413	0.77992	2.09398	1.61305	2.57725
5291.417	0.79697	2.11382	1.65488	2.59138
5295.372	0.83746	2.20158	1.72508	2.63647
5299.416	0.86577	2.30149	1.77271	2.63640
5303.413	0.87344	2.36234	1.72880	2.59425
5307.413	0.90785	2.45711	1.74233	2.59929
5311.372	0.91666	2.46236	1.69716	2.61373
5315.413	0.90138	2.49483	1.65597	2.59418
5319.412	0.88399	2.56879	1.64600	2.60177
5323.413	0.87535	2.62476	1.65748	2.56872
5327.404	0.84476	2.65367	1.69002	2.51265
5331.371	0.78878	2.66156	1.65471	2.48904
5335.370	0.76362	2.67060	1.64057	2.49427
5339.413	0.69990	2.69137	1.60605	2.47688
5343.410	0.64953	2.67773	1.57339	2.46839
5347.416	0.59848	2.63663	1.59040	2.50789
5351.415	0.56396	2.56238	1.60124	2.49729
5355.414	0.52902	2.51892	1.61880	2.49372
5359.411	0.49890	2.38167	1.59281	2.48706
5363.415	0.43614	2.34024	1.66926	2.49981
5367.416	0.41698	2.35091	1.71816	2.52997
5371.415	0.40507	2.31256	1.75746	2.56370
5375.413	0.40164	2.24015	1.76770	2.57608
5379.405	0.36692	2.20036	1.76817	2.56723
5383.415	0.32863	2.11181	1.76743	2.60416
5387.415	0.32595	2.08344	1.75463	2.69655
5391.406	0.34360	2.09203	1.77794	2.69773
5395.416	0.36960	2.14302	1.78922	2.71080
5399.417	0.39348	2.18135	1.86903	2.73174
5403.414	0.45500	2.24549	1.92446	2.78201
5407.414	0.47721	2.28352	1.88588	2.80679
5411.416	0.48254	2.31306	1.87835	2.84684
5415.411	0.45664	2.33793	1.87356	2.84928
5419.388	0.52225	2.51465	1.80675	2.87047
5423.382	0.54962	2.59529	1.83251	2.91073
5427.415	0.60804	2.67200	1.82938	2.88800
5431.417	0.62307	2.74050	1.86915	2.88719
5435.371	0.62965	2.66175	1.90034	2.84128
5439.433	0.64630	2.58584	1.89221	2.86671
5443.414	0.68794	2.59185	1.89265	2.86186
5447.420	0.70494	2.56431	1.88464	2.86507
5451.415	0.72717	2.49191	1.88851	2.86107
5455.408	0.79183	2.50209	1.88494	2.83541
5459.395	0.82543	2.46252	1.87617	2.82921
5463.416	0.86848	2.45267	1.90517	2.83454
5467.415	0.91495	2.41834	1.89114	2.84273
5471.414	0.94060	2.38099	1.85705	2.82909
5475.414	0.97445	2.36926	1.84131	2.80119
5479.415	0.99826	2.35796	1.80000	2.75936
5483.416	1.03662	2.34179	1.78654	2.75511
5487.411	1.06542	2.29970	1.78253	2.68586
5491.416	1.08738	2.29896	1.79286	2.66316
5495.416	1.11574	2.30298	1.78223	2.65946
5499.417	1.09939	2.22959	1.83313	2.60697
5503.414	1.07173	2.11279	1.83526	2.58853
5507.415	1.01037	2.11218	1.83608	2.59621
5511.373	0.98273	2.05424	1.86538	2.61686
5515.416	0.94936	2.00709	1.90599	2.62793
5519.413	0.91872	2.00040	1.92917	2.69654
5523.415	0.92768	1.94407	1.94704	2.72899
5527.373	0.87664	1.91957	1.95205	2.73910
5531.417	0.81017	1.93946	1.94650	2.80689
5535.415	0.75518	1.92028	1.91895	2.79155
5539.414	0.68672	1.90474	1.90475	2.81058
5543.395	0.61374	1.92875	1.87165	2.85290
5547.421	0.64019	1.94395	1.89054	2.87355
5551.414	0.65295	1.94397	1.87463	2.90967
5555.414	0.65317	1.92804	1.86310	2.96169
5559.417	0.62568	1.93713	1.84508	2.92805
5563.416	0.61005	1.92391	1.82936	2.95070
5567.412	0.60878	1.93786	1.82170	2.90382
5571.418	0.58776	1.94593	1.79919	2.87772
5575.416	0.61310	1.91525	1.77705	2.84131
5579.417	0.63471	1.91392	1.75800	2.79200
5583.421	0.66476	1.90939	1.74149	2.74324
5587.404	0.68087	1.85436	1.74910	2.73857
5591.374	0.70955	1.81632	1.70539	2.61845
5595.417	0.70960	1.77698	1.66691	2.57386
5599.414	0.69623	1.74913	1.65478	2.54289
5603.416	0.71680	1.70968	1.61587	2.52516
5607.417	0.73285	1.67067	1.60439	2.52488
5611.419	0.73541	1.64368	1.56789	2.53685
5615.416	0.76657	1.66728	1.59410	2.58749
5619.473	0.78843	1.66109	1.63993	2.57518
5623.418	0.81225	1.65656	1.63725	2.61582
5627.373	0.83788	1.65154	1.68225	2.66322
5631.410	0.88954	1.69451	1.67747	2.65138
5635.417	0.94145	1.73093	1.63859	2.66767
5639.417	0.96834	1.75504	1.64640	2.68297
5643.373	1.01352	1.78106	1.68493	2.70359
5647.424	1.09510	1.81836	1.71570	2.64141
5651.416	1.12102	1.86379	1.77020	2.54497
5655.415	1.16833	1.87170	1.80623	2.59615
5659.418	1.06019	1.93156	1.87076	2.65740
5663.375	1.03074	1.95738	1.89436	2.65392
5667.400	0.94582	1.97098	1.88336	2.65304
5671.411	0.84917	2.00707	1.87936	2.60512
5675.418	0.76975	2.00249	1.87674	2.53639
5679.377	0.76697	1.94988	1.87136	2.50725
5683.419	0.80647	1.97808	1.84190	2.42295
5687.418	0.67632	2.00157	1.77439	2.37430
5691.419	0.68680	2.03248	1.84490	2.22062
5695.377	0.69727	2.04923	1.83367	2.10858
5699.419	0.66382	2.08537	1.76765	2.02802
5703.422	0.68704	2.17603	1.73941	2.29363
5707.420	0.71883	2.17584	1.69207	2.24282
5711.377	0.68637	2.27363	1.73904	2.37764
5715.418	0.69203	2.32089	1.74268	2.42293
5719.419	0.67265	2.36763	1.80462	2.69234
5723.419	0.60290	2.36054	1.81396	2.76912
5727.402	0.56483	2.36413	1.84947	2.74848
5731.374	0.50111	2.32757	1.88073	2.61458
5735.420	0.50143	2.31526	1.88303	2.69175
5739.419	0.46118	2.30317	1.88779	2.75654
5743.313	0.41542	2.23739	1.86357	2.75755
5747.420	0.36849	2.13488	1.83427	2.69795
5751.396	0.33168	2.07161	1.84934	2.67765
5755.419	0.36509	2.05621	1.75518	2.54253
5759.420	0.38717	2.00163	1.66244	2.47369
5763.375	0.48180	2.00627	1.68044	2.42705
5767.418	0.61302	1.97491	1.65168	2.36160
5771.418	0.72491	1.94928	1.62929	2.29220
5775.416	0.97045	2.00067	1.74957	2.42221
5779.418	1.06726	1.98741	1.81327	2.46581
5783.418	1.20532	2.01421	1.87820	2.44031
5787.420	1.30119	2.01836	1.94977	2.45907
5791.316	1.33443	2.05937	1.93539	2.47932
5795.409	1.26798	2.10433	2.01389	2.46044
5799.419	1.16927	2.15755	2.08409	2.55211
5803.418	1.20261	2.24070	2.12820	2.68976
5807.423	1.10795	2.24814	2.12776	2.75497
5811.422	1.03833	2.25244	2.18149	2.78406
5815.420	1.04377	2.30274	2.20756	2.79102
5819.420	1.02258	2.34753	2.19182	2.77973
5823.316	0.96663	2.36230	2.14540	2.84578
5827.377	0.90458	2.39558	2.12389	2.89170
5831.421	0.87716	2.43949	2.07499	2.89518
5835.376	0.84781	2.47461	2.07026	2.91268
5839.380	0.84642	2.49519	2.04812	2.94249
5843.421	0.88699	2.47436	2.04760	2.95913
5847.421	0.88580	2.49524	2.03095	2.93613
5851.421	0.93909	2.51303	2.03702	2.87880
5855.315	0.93361	2.59065	2.01295	2.86752
5859.419	0.92172	2.63159	1.99758	2.86572
5863.419	0.88664	2.66556	1.95837	2.90874
5867.420	0.86401	2.66208	1.96670	2.87147
5871.329	0.80315	2.66287	1.93660	2.85903
5875.419	0.75106	2.66426	1.94491	2.84433
5879.419	0.68268	2.62937	1.93886	2.82541
5883.419	0.58454	2.57866	1.91353	2.83569
5887.309	0.56106	2.59392	1.84485	2.80453
5891.378	0.50515	2.45911	1.83169	2.78926
5895.419	0.46118	2.43603	1.75014	2.79955
5899.419	0.43058	2.39015	1.67821	2.77435
5903.316	0.39167	2.32864	1.65163	2.75035
5907.421	0.35663	2.28375	1.59107	2.71157
5911.422	0.32332	2.24404	1.53391	2.64267
5915.422	0.28803	2.17628	1.54460	2.62952
5919.424	0.32362	2.14496	1.47218	2.59386
5923.420	0.78928	2.09117	1.66815	2.52567
5927.376	1.28504	2.08993	2.46672	2.26014
5931.419	4.34726	1.83255	3.95550	2.19645
5935.316	4.41956	1.41240	4.55172	1.03917
5939.423	5.02019	0.71555	5.02154	1.45862
5943.421	4.93282	0.44230	5.85244	1.11289
5947.424	4.90262	0.29227	6.35971	1.53078
5951.317	5.17051	0.18581	6.31534	0.92586
5955.425	5.35020	0.11247	6.36555	0.77928
5959.423	5.51162	0.05971	6.47804	0.77422
5963.422	5.41504	0.01714	6.52363	0.78287
5967.323	5.48204	0.05397	6.55687	0.74818
5971.421	5.50933	0.04591	6.62823	0.61698
5975.421	5.63933	0.03254	6.69512	0.62867
5979.421	5.70846	-0.02675	6.74166	0.63746
5983.315	5.69902	-0.03899	6.71645	0.53413
5987.419	5.77718	-0.04742	6.75196	0.52422
5991.420	5.85841	-0.04098	6.76572	0.48791
5995.424	5.94467	-0.01038	6.79185	0.47747
5999.315	5.92830	-0.03846	6.81534	0.48448
6003.419	5.89989	-0.06212	6.85456	0.47484
6007.421	5.86863	-0.05569	6.82946	0.48984
6011.423	5.82719	-0.09995	6.81884	0.48265
6015.320	5.84645	-0.11361	6.84646	0.48460
6019.424	5.74102	-0.14456	6.82635	0.47911
6023.422	5.74546	-0.15005	6.86559	0.48726
6027.378	5.82066	-0.14108	6.91875	0.47887
6031.426	5.73188	-0.16215	6.96279	0.49237
6035.419	5.69745	-0.23218	7.04917	0.51437
6039.423	5.62918	-0.20827	7.09898	0.55909
6043.422	5.51000	-0.20228	7.18748	0.59295
6047.423	5.47043	-0.17971	7.18264	0.65166
6051.423	5.45983	-0.15935	7.22461	0.66621
6055.422	5.45779	-0.15178	7.26364	0.69341
6059.425	5.46923	-0.14164	7.22500	0.66195
6063.321	5.50451	-0.10599	7.28698	0.66341
6067.421	5.56487	-0.10805	7.27799	0.65689
6071.423	5.54171	-0.14058	7.25836	0.64322
6075.297	5.51027	-0.11793	7.17543	0.53898
6079.255	5.54860	-0.09700	7.13326	0.53491
6083.254	5.63599	-0.09815	7.01279	0.51103
6087.297	5.71382	-0.08765	6.95042	0.46387
6091.292	5.80771	-0.06873	6.94558	0.42557
6095.414	5.86605	-0.06071	6.90199	0.37847
6099.297	5.88974	-0.07401	6.85691	0.36338
6103.297	5.86705	-0.09640	6.85082	0.37826
6107.295	5.85033	-0.12923	6.75642	0.36370
6111.257	5.79364	-0.12784	6.70705	0.33965
6115.298	5.71858	-0.14220	6.63100	0.36834
6119.299	5.65774	-0.17755	6.60095	0.40092
6123.300	5.65164	-0.17760	6.59978	0.40823
6127.283	5.62505	-0.17469	6.61609	0.43721
6131.277	5.60288	-0.17606	6.66342	0.46600
6135.297	5.58336	-0.15890	6.67478	0.46648
6139.296	5.56662	-0.20389	6.74007	0.50116
6143.318	5.53660	-0.16984	6.78987	0.50676
6147.300	5.53832	-0.18434	6.77005	0.46688
6151.297	5.53294	-0.19124	6.78882	0.45623
6155.301	5.58420	-0.19429	6.84509	0.43711
6159.297	5.59499	-0.19399	6.90361	0.35538
6163.300	5.62677	-0.18463	6.90395	0.29191
6167.298	5.63759	-0.17916	6.94917	0.27145
6171.286	5.63709	-0.18260	6.97648	0.16792
6175.297	5.62453	-0.16665	6.98279	0.07264
6179.302	5.57095	-0.18306	6.97717	0.09484
6183.300	5.56242	-0.16912	6.92743	0.02931
6187.311	5.56645	-0.16039	6.91581	-0.01902
6191.294	5.56163	-0.15040	6.89221	-0.04554
6195.297	5.60005	-0.12635	6.87858	-0.05800
6199.298	5.60762	-0.12083	6.88321	-0.07638
6203.294	5.64914	-0.08781	6.88592	-0.05647
6207.294	5.73357	-0.06179	6.89160	-0.03207
6211.302	5.72809	-0.04631	6.87222	0.06520
6215.264	5.81592	-0.04433	6.84184	0.11813
6219.298	5.88803	-0.04046	6.81681	0.16886
6223.297	5.90919	-0.04654	6.80475	0.22925
6227.256	6.00393	-0.00904	6.80130	0.33120
6231.298	6.06144	-0.01782	6.77964	0.38846
6235.299	6.10723	-0.00652	6.83594	0.41037
6239.296	6.07575	-0.00825	6.81598	0.46753
6243.299	6.12467	0.00551	6.80054	0.54573
6247.301	6.14025	-0.00405	6.79237	0.58786
6251.302	6.16353	-0.01097	6.77807	0.62515
6255.290	6.18335	-0.01364	6.76973	0.64929
6259.300	6.18088	0.00163	6.76491	0.68777
6263.256	6.16336	-0.00257	6.76689	0.71845
6267.298	6.16670	0.01801	6.76792	0.75087
6271.296	6.16949	0.00264	6.76711	0.76851
6275.296	6.15978	0.00195	6.78972	0.73512
6279.302	6.17320	0.00030	6.78197	0.72221
6283.301	6.19231	0.02226	6.80866	0.74888
6287.297	6.18142	0.01707	6.83198	0.73474
6291.307	6.20305	0.01660	6.80436	0.68611
6295.297	6.16797	-0.00810	6.75984	0.59485
6299.259	6.15968	-0.00131	6.70749	0.57061
6303.295	6.17538	-0.00736	6.70477	0.58396
6307.296	6.18026	-0.01549	6.73578	0.55511
6311.302	6.18826	-0.03459	6.75837	0.57319
6315.300	6.13925	-0.04880	6.74780	0.56333
6319.297	6.06198	-0.09931	6.76241	0.58841
6323.301	5.95852	-0.09649	6.76625	0.64212
6327.255	5.90453	-0.12910	6.79085	0.67135
6331.289	5.83500	-0.13534	6.81588	0.68350
6335.258	5.79386	-0.18074	6.92589	0.70860
6339.278	5.77335	-0.18258	6.89840	0.74490
6343.303	5.77101	-0.19190	7.00766	0.75999
6347.303	5.70391	-0.18666	6.97480	0.65811
6351.261	5.70738	-0.19860	6.97890	0.66874
6355.301	5.67391	-0.19636	6.88027	0.43340
6359.301	5.67295	-0.23617	6.87523	0.49811
6363.302	5.66912	-0.26347	6.90884	0.45017
6367.259	5.59054	-0.29318	6.85437	0.48353
6371.301	5.65066	-0.31716	6.83110	0.49189
6375.301	5.67954	-0.27548	6.87046	0.50423
6379.304	5.71871	-0.22824	6.80328	0.44608
6383.291	5.79374	-0.17390	6.71434	0.47824
6387.300	5.82009	-0.16892	6.65926	0.50727
6391.305	5.88093	-0.17963	6.61082	0.48374
6395.304	5.81344	-0.11921	6.54580	0.51118
6399.303	5.74337	-0.21545	6.54269	0.63330
6403.299	5.75330	-0.20785	6.57377	0.69324
6407.300	5.75301	-0.19571	6.58604	0.71262
6411.302	5.80678	-0.14479	6.63460	0.71478
6415.293	5.75288	-0.06161	6.70643	0.71457
6419.301	5.66737	-0.03850	6.62730	0.75015
6423.266	5.57562	0.01813	6.63529	0.78706
6427.256	5.60072	0.05208	6.62297	0.75147
6431.294	5.51996	0.10853	6.65794	0.73744
6435.302	5.46741	0.06434	6.72597	0.73288
6439.302	5.45840	0.07641	6.76589	0.77515
6443.302	5.44987	0.08502	6.79396	0.72626
6447.260	5.44156	0.13318	6.84597	0.68198
6451.300	5.46160	0.19564	6.87291	0.66378
6455.303	5.46760	0.22557	6.83626	0.69575
6459.301	5.54307	0.19371	6.75903	0.65553
6463.261	5.57616	0.17290	6.77264	0.62945
6467.299	5.61805	0.10384	6.77007	0.60772
6471.302	5.58250	0.05006	6.77115	0.63039
6475.302	5.60123	-0.00900	6.72714	0.72071
6479.260	5.58088	-0.02579	6.73106	0.69536
6483.303	5.66216	-0.17510	6.74344	0.70966
6487.302	5.76409	-0.16629	6.77127	0.74527
6491.303	5.85701	-0.12402	6.71728	0.73210
6495.261	5.84723	-0.20653	6.67637	0.71758
6499.303	5.74129	-0.21495	6.61445	0.69610
6503.300	5.71998	-0.22164	6.62733	0.74356
6507.297	5.63033	-0.23804	6.64305	0.81459
6511.261	5.59130	-0.24412	6.65811	0.86199
6515.301	5.57473	-0.24625	6.70061	0.92039
6519.303	5.57424	-0.22234	6.74841	0.92462
6523.301	5.57500	-0.19595	6.83981	0.96201
6527.262	5.53365	-0.14241	6.76077	0.97356
6531.304	5.50943	-0.11363	6.72837	1.00604
6535.302	5.44842	-0.11438	6.74222	1.04832
6539.303	5.40833	-0.10751	6.77090	1.05524
6543.262	5.40343	-0.12171	6.80416	1.06790
6547.280	5.40097	-0.14490	6.81980	1.06189
6551.303	5.43920	-0.10028	6.88110	1.09909
6555.302	5.46568	-0.08611	6.90070	1.19051
6559.261	5.47050	-0.10493	6.90248	1.14733
6563.302	5.45142	-0.10065	6.90158	1.08610
6567.304	5.49992	-0.14124	6.81375	1.02096
6571.303	5.51809	-0.09048	6.79197	1.03351
6575.262	5.54754	-0.06673	6.84690	1.01583
6579.305	5.62982	-0.09011	6.89781	0.88711
6583.305	5.59779	-0.06039	6.77617	0.94309
6587.289	5.57989	-0.05565	6.73483	0.88238
6591.262	5.52145	-0.02711	6.67676	1.00931
6595.304	5.50183	-0.03591	6.63470	0.94196
6599.303	5.46900	-0.05828	6.56140	0.91280
6603.305	5.37987	0.01286	6.61369	0.92026
6607.261	5.43145	0.03795	6.70139	0.93504
6611.304	5.42041	0.07953	6.78571	1.01064
6615.309	5.44156	0.09333	6.85013	1.07413
6619.301	5.41337	0.12369	6.85767	1.18845
6623.264	5.45368	0.16413	6.93907	1.26934
6627.280	5.51550	0.19241	6.96727	1.30488
6631.268	5.57918	0.22765	7.00956	1.35274
6635.271	5.69303	0.24054	7.01597	1.29928
6639.263	5.72306	0.27648	6.97411	1.33031
6643.305	5.73170	0.32518	6.90471	1.23920
6647.302	5.71559	0.31426	7.00617	1.33105
6651.304	5.70743	0.25643	6.94154	1.25010
6655.309	5.83923	0.24260	7.07102	1.24803
6659.305	3.13167	0.22589	6.17577	1.38686
6663.306	1.45418	0.35614	5.75057	1.37366
6667.305	1.26185	2.76000	11.98194	3.43497
6671.289	1.16816	2.74311	11.25595	3.74514
6675.305	12.48530	7.96576	NaN	NaN
6679.306	NaN	NaN	NaN	NaN
6683.307	NaN	NaN	NaN	NaN
6687.299	NaN	NaN	NaN	NaN
6691.308	NaN	NaN	NaN	NaN
6695.304	NaN	NaN	NaN	NaN
6699.304	NaN	NaN	NaN	NaN
6703.304	NaN	NaN	NaN	NaN
6707.258	NaN	NaN	NaN	NaN
6711.302	NaN	NaN	NaN	NaN
6715.264	NaN	NaN	NaN	NaN
6719.302	NaN	NaN	NaN	NaN
6723.262	NaN	NaN	NaN	NaN
6727.305	NaN	NaN	NaN	NaN
6731.304	NaN	NaN	NaN	NaN
6735.303	NaN	NaN	NaN	NaN
6739.263	NaN	NaN	NaN	NaN
6743.304	NaN	NaN	NaN	NaN
6747.311	NaN	NaN	NaN	NaN
6751.303	NaN	NaN	NaN	NaN
6755.262	NaN	NaN	NaN	NaN
6759.308	NaN	NaN	NaN	NaN
6763.305	NaN	NaN	NaN	NaN
6767.306	NaN	NaN	NaN	NaN
6771.261	NaN	NaN	NaN	NaN
6775.306	NaN	NaN	NaN	NaN
6779.306	NaN	NaN	NaN	NaN
6783.306	-2.76123	12.72533	NaN	NaN
6787.306	0.23403	7.40029	NaN	NaN
6791.265	0.37849	8.63059	-2.28809	9.07310
6795.295	0.38281	7.58973	-2.15916	9.02356
6799.301	0.42465	7.43240	NaN	NaN
6803.307	0.24944	4.96423	-1.99639	6.05507
6807.266	0.47674	5.59966	-2.86819	5.93415
6811.307	0.02698	4.87597	-2.51784	5.94412
6815.306	0.12821	4.79923	-2.68784	5.89743
6819.262	0.65186	5.09462	-2.80320	5.95884
6823.266	0.21437	5.05105	-2.46082	5.96776
6827.308	-0.14037	5.18948	-1.29777	5.95438
6831.309	-0.26857	5.37492	-0.91726	5.89786
6835.263	-0.09696	5.02282	-1.35013	6.35970
6839.266	-0.20519	5.08618	-0.53113	6.10299
6843.307	-0.32245	5.03167	-0.69047	6.20543
6847.308	-0.20234	5.29508	-0.17903	6.24570
6851.308	-0.61531	5.31420	-0.08701	6.37104
6855.269	-0.53314	6.14995	0.41068	6.54104
6859.307	-1.63653	5.85864	0.49746	6.59991
6863.308	-2.57055	5.89412	0.11093	6.23044
6867.317	-2.46285	6.05172	-0.35092	6.40880
6871.265	-2.51817	6.02117	-0.05780	6.23404
6875.307	-2.27929	6.15427	-0.06708	6.46059
6879.284	-2.03967	5.81405	0.14136	6.15953
6883.306	-2.13732	5.75173	0.04507	6.35522
6887.266	-1.91826	5.41772	0.28473	6.22417
6891.307	-1.43272	5.54895	0.28622	6.18887
6895.307	-1.28370	5.72439	0.07929	6.00748
6899.308	-1.47094	5.75561	0.15402	6.08657
6903.269	-1.88561	5.56141	-0.01171	6.31786
6907.309	-1.81233	5.61571	-0.22440	6.41513
6911.307	-1.93710	5.63280	-0.14933	6.47556
6915.308	-1.77878	5.59259	-0.26148	6.55605
6919.267	-1.75505	5.61493	-0.21810	6.42576
6923.308	-1.60236	5.50737	-0.16069	6.52295
6927.305	-1.40331	5.43515	-0.15744	6.65817
6931.309	-1.14982	5.53329	-0.11287	6.68539
6935.171	-1.28254	5.57911	-0.06587	6.69895
6939.310	-1.53852	5.60835	-0.06113	6.80651
6943.309	-1.88115	5.73676	0.08584	6.77639
6947.308	-1.68768	5.83327	0.26679	6.67423
6951.267	-1.52999	6.01718	0.31109	6.56548
6955.314	-1.34936	5.72515	0.03581	6.54385
6959.309	-1.41097	5.83056	0.14605	6.46948
6963.283	-1.50643	6.06655	0.07758	6.61587
6967.171	-1.59333	5.86612	0.07056	6.63725
6971.315	-2.06932	5.94744	0.07731	6.74346
6975.309	-1.66817	5.90139	0.10036	6.72593
6979.305	-1.78813	5.75801	0.01643	6.90297
6983.268	-1.79153	5.76877	0.03206	6.70638
6987.305	-1.85670	5.67881	0.02995	6.67339
6991.307	-1.74112	5.68367	-0.03574	6.79651
6995.265	-1.63507	5.32902	-0.05487	6.83493
6999.169	-1.86496	5.54612	-0.07133	6.69640
7003.294	-2.00795	5.64351	-0.10399	6.79800
7007.297	-1.86310	5.72138	0.18045	6.72819
7011.308	-1.81124	5.75631	0.23927	6.69280
7015.170	-1.77692	5.90973	0.33580	6.65467
7019.300	-1.61610	5.26216	0.20120	6.53618
7023.307	-1.72039	5.14177	0.11977	6.45773
7027.308	-1.94625	5.20455	0.31496	6.35142
7031.312	-1.62812	5.29464	0.39586	6.38204
7035.311	-1.72527	5.36906	0.40661	6.45447
7039.310	-1.78131	5.24048	0.52334	6.44801
7043.310	-1.78287	5.20614	0.44641	6.58238
7047.312	-1.74556	5.17998	0.55081	6.38843
7051.313	-1.72991	5.12307	0.46346	6.40878
7055.311	-1.82606	5.07588	0.47172	6.40510
7059.310	-1.72458	5.08622	0.38415	6.40784
7063.310	-1.74533	5.08177	0.25473	6.55446
7067.309	-1.75478	5.13147	0.24281	6.49599
7071.308	-1.71652	5.60943	0.21251	6.61451
7075.309	-1.69344	5.42001	0.32255	6.61908
7079.268	-1.78850	5.61788	0.38097	6.74030
7083.307	-1.78947	5.32995	0.23941	6.79173
7087.287	-1.70586	5.32947	0.58826	6.77259
7091.309	-1.76539	5.25915	0.28471	6.92745
7095.313	-1.73224	5.92801	0.24743	6.80321
7099.310	-1.78186	5.80378	-0.00697	6.64282
7103.308	-1.57166	5.46184	-0.09292	5.92432
7107.309	-0.80114	5.84889	0.88215	7.06289
7111.208	-1.56575	5.73963	NaN	NaN
7115.311	-1.64977	5.62111	2.36116	13.75215
7119.186	-1.70321	10.33056	NaN	NaN
7123.185	-1.84146	13.47518	NaN	NaN
7127.143	NaN	NaN	NaN	NaN
7131.186	NaN	NaN	NaN	NaN
7135.153	NaN	NaN	NaN	NaN
7139.183	NaN	NaN	NaN	NaN
7143.182	NaN	NaN	NaN	NaN
7147.184	NaN	NaN	NaN	NaN
7151.181	NaN	NaN	NaN	NaN
7155.183	NaN	NaN	NaN	NaN
7159.182	NaN	NaN	NaN	NaN
7163.139	NaN	NaN	NaN	NaN
7167.184	NaN	NaN	NaN	NaN
7171.179	NaN	NaN	NaN	NaN
7175.165	NaN	NaN	NaN	NaN
7179.139	NaN	NaN	NaN	NaN
7183.188	NaN	NaN	NaN	NaN
7187.185	NaN	NaN	NaN	NaN
7191.184	NaN	NaN	NaN	NaN
7195.141	NaN	NaN	NaN	NaN
7199.183	NaN	NaN	NaN	NaN
7203.187	NaN	NaN	NaN	NaN
7207.141	NaN	NaN	NaN	NaN
7211.139	NaN	NaN	NaN	NaN
7215.186	NaN	NaN	NaN	NaN
7219.152	5.31160	6.41681	NaN	NaN
7223.192	NaN	NaN	NaN	NaN
7227.141	-0.98574	3.10193	NaN	NaN
7231.183	1.58631	1.63860	5.81054	4.73448
7235.185	1.47357	4.39390	1.16843	11.12093
7239.186	0.24162	0.05710	1.20033	10.13509
7243.186	0.84979	-0.28255	1.12310	1.99757
7247.172	0.38124	-0.26111	1.01958	-0.28142
7251.184	0.72722	-0.42888	0.84515	-0.42370
7255.183	2.47720	-0.02604	0.69479	-0.39750
7259.189	2.22753	0.17788	0.74759	0.44381
7263.172	2.89185	0.39625	0.96375	1.38351
7267.187	1.78116	0.12247	3.62516	1.63785
7271.189	1.70053	0.54235	3.70680	0.56062
7275.187	2.32275	0.44522	4.21911	1.00849
7279.172	2.30209	0.07223	4.37786	0.99010
7283.187	2.41549	0.41408	4.32538	0.94387
7287.186	2.31968	0.67904	4.15919	0.81974
7291.186	2.21070	0.47716	4.07831	1.02064
7295.146	2.55777	0.55600	4.00030	0.84649
7299.175	2.24859	0.57914	4.12068	0.95081
7303.186	2.00695	0.60518	3.96839	0.89233
7307.186	2.26616	0.51982	4.09510	0.81450
7311.146	2.42470	0.45988	4.03283	0.82777
7315.187	2.08446	0.36983	4.16040	0.80153
7319.187	2.06079	0.55408	4.02833	0.81127
7323.187	2.29941	0.71683	4.02655	0.69008
7327.185	2.21566	0.45059	3.98225	0.78262
7331.186	2.03013	0.45248	3.95891	0.73468
7335.142	1.81880	1.19765	3.93164	0.78780
7339.187	2.09180	0.96168	3.93660	0.79538
7343.186	2.12062	0.37819	3.93520	0.77183
7347.189	2.06456	0.48962	3.92398	0.76664
7351.187	1.76581	0.94093	3.86375	0.84264
7355.187	1.98298	0.47154	3.81209	0.77705
7359.188	2.11286	0.57629	3.75007	0.84156
7363.187	2.28311	0.53119	3.79539	0.83505
7367.189	2.25590	0.54115	3.76396	0.81341
7371.188	2.22726	0.52294	3.75731	0.81114
7375.184	2.22151	0.59298	3.79937	0.87188
7379.190	2.11321	0.55109	3.76883	0.69325
7383.172	2.08686	0.47020	3.75153	0.75043
7387.144	2.12781	0.48660	3.73020	0.71150
7391.146	2.00167	0.49967	3.68251	0.72912
7395.187	2.03070	0.46731	3.67808	0.64827
7399.190	1.96908	0.47122	3.66607	0.71135
7403.188	1.93152	0.46229	3.64227	0.65613
7407.188	1.96020	0.44272	3.64101	0.65293
7411.187	1.92267	0.43605	3.66404	0.61103
7415.190	1.93326	0.45005	3.70260	0.64307
7419.188	1.95086	0.40455	3.69002	0.55885
7423.216	1.97651	0.41661	3.81311	0.70962
7427.152	2.20166	0.45430	3.77738	0.69797
7431.188	2.23690	0.41766	3.76050	0.67501
7435.191	2.18362	0.23286	3.45109	0.55182
7439.187	2.23345	0.26044	3.79396	0.67404
7443.189	2.27949	0.13624	3.83749	0.73424
7447.191	2.18808	0.38798	3.72222	0.73077
7451.187	2.02007	0.37536	3.84441	0.66017
7455.182	1.97136	0.37425	3.79077	0.68239
7459.191	1.92592	0.30937	3.76290	0.56837
7463.187	1.95515	0.26836	3.84653	0.59836
7467.166	1.97540	0.19939	3.77340	0.53812
7471.185	1.93906	0.03484	3.69877	0.51295
7475.145	1.88427	-0.05663	3.72422	0.48469
7479.191	1.94099	0.00713	3.71575	0.46540
7483.188	1.93182	0.15363	3.64118	0.44498
7487.213	1.87971	0.16180	3.64494	0.39383
7491.188	1.83390	0.28095	3.68641	0.40814
7495.190	1.87862	0.22379	3.63404	0.46016
7499.188	1.93953	0.22279	3.49139	0.47613
7503.188	2.03791	0.20105	3.62998	0.54753
7507.181	2.16699	0.22291	3.68419	0.58295
7511.146	2.21705	0.16127	3.61602	0.59525
7515.190	2.23444	0.27780	3.76040	0.61067
7519.210	2.30992	0.31592	3.70774	0.65558
7523.189	2.34488	0.29089	3.74508	0.65179
7527.146	2.29191	0.29810	3.75484	0.69041
7531.190	2.21682	0.49168	3.64548	0.68571
7535.209	2.24465	0.44954	3.72395	0.68974
7539.190	2.18892	0.43036	3.64588	0.64316
7543.195	2.15135	0.37009	3.34094	0.61980
7547.200	2.08505	0.38428	3.40640	0.62998
7551.191	2.07938	0.35257	3.53881	0.65251
7555.190	2.09080	0.35078	3.69303	0.72616
7559.147	2.18619	0.37301	3.66765	0.88396
7563.190	2.13006	0.38568	3.65248	0.79244
7567.180	2.09566	0.46744	3.78311	0.77465
7571.190	2.12384	0.51073	3.67867	0.68151
7575.191	2.01662	0.41906	3.74024	0.79437
7579.190	2.08961	0.36556	3.68574	0.76395
7583.188	2.15229	0.30396	3.89626	0.84705
7587.190	2.23367	0.36592	3.91538	0.82492
7591.170	2.20498	0.44441	3.89253	0.79002
7595.192	2.21065	0.37722	3.79920	0.72642
7599.189	2.17611	0.57035	3.69842	0.66650
7603.191	2.16320	0.35665	3.84713	0.75273
7607.191	2.25392	0.43531	3.75504	0.67553
7611.193	2.20513	0.23299	3.70816	0.53290
7615.194	2.17185	0.41482	3.62457	0.47448
7619.188	2.17651	0.44747	3.52351	0.55411
7623.191	2.15898	0.31839	3.65374	0.73036
7627.147	2.19085	0.35145	3.64588	0.69141
7631.182	2.16491	0.18884	3.61523	0.67065
7635.157	2.30179	0.19240	3.58984	0.70593
7639.146	2.48591	0.12535	3.58709	0.54470
7643.192	2.29788	0.06716	3.58037	0.52120
7647.151	2.29996	0.02989	3.51666	0.42007
7651.190	2.24475	0.08879	3.52808	0.40117
7655.191	2.32117	0.21176	3.53097	0.35615
7659.196	2.30858	-0.02173	3.58793	0.45193
7663.149	2.33450	0.08139	3.60984	0.41256
7667.190	2.30003	-0.10187	3.58969	0.36932
7671.191	2.35362	-0.08494	3.59646	0.36746
7675.192	2.39720	-0.07016	3.57938	0.35110
7679.150	2.37520	0.12821	3.56662	0.31219
7683.191	2.35670	0.19530	3.56057	0.42608
7687.192	2.34433	-0.02331	3.58465	0.51990
7691.190	2.34718	-0.02398	3.60027	0.55841
7695.150	2.32478	-0.14013	3.61466	0.63988
7699.188	2.33343	-0.08737	3.63861	0.67401
7703.194	2.26019	0.07342	3.77122	0.64589
7707.196	2.20614	0.05371	3.56183	0.82066
7711.152	1.51298	0.05693	2.51710	0.94121
7715.185	0.53744	0.13080	1.56251	1.09568
7719.176	-0.57806	0.28868	-0.61210	1.06629
7723.194	-1.43434	0.13109	0.00692	1.04882
7727.176	-1.85653	0.15294	-0.45847	1.17685
7731.193	-1.62882	0.35224	-0.32935	1.30071
7735.192	-1.80008	0.47763	-0.07718	1.23710
7739.193	-1.70100	0.47907	0.07810	1.43434
7743.195	-1.69664	0.48928	0.31364	1.29535
7747.192	-1.73063	0.47094	0.14193	1.26466
7751.191	-1.78257	0.48908	0.13039	1.29665
7755.193	-1.82239	0.54949	0.00804	1.33220
7759.199	-1.79480	0.59271	0.03755	1.15098
7763.193	-1.88393	0.57182	0.03519	1.15543
7767.192	-1.88447	0.62119	0.08820	1.22038
7771.192	-1.89040	0.59849	0.06649	1.32964
7775.190	-1.90587	0.56740	0.03460	1.33359
7779.191	-1.94188	0.50366	0.00660	1.33225
7783.193	-1.93356	0.47200	-0.21696	1.31542
7787.191	-2.05474	0.38801	-0.18005	1.30261
7791.090	-2.10221	0.51675	-0.10875	1.36138
7795.193	-2.12198	0.58470	-0.05688	1.45324
7799.176	-2.24195	0.53776	-0.01281	1.49041
