time (ms)	lx (deg)	ly (deg)	rx (deg)	ry (deg)
0.000	0.00618	0.26705	1.05627	0.85567
4.005	-0.14082	0.26034	1.06141	0.90870
8.004	-0.20482	0.29535	1.05639	0.88088
11.988	-0.27967	0.31284	0.98678	0.85440
15.960	-0.31253	0.27674	0.99675	0.77163
19.895	-0.26463	0.26551	0.96430	0.77255
23.957	-0.32533	0.25885	1.05528	0.79124
28.001	-0.25418	0.24436	1.07371	0.91995
32.000	-0.20790	0.20013	1.13767	0.95756
36.006	-0.24376	0.19047	1.04530	1.13562
40.001	-0.25081	0.20120	1.09879	1.22977
44.004	-0.26996	0.23502	1.21464	1.11606
48.003	-0.27709	0.31260	1.37962	1.18199
52.007	-0.21408	0.31250	1.49064	1.22727
56.007	-0.18650	0.22357	1.30327	1.20802
59.959	-0.13568	0.23736	1.29767	1.24478
64.005	-0.14536	0.12715	1.13521	1.26338
68.005	-0.14047	0.14815	1.21955	1.15671
72.003	-0.21395	0.08936	1.10894	1.25035
76.002	-0.30441	-0.00529	1.11539	1.14406
80.004	-0.27984	-0.00171	1.04637	1.10534
84.006	-0.33300	0.00040	1.01265	1.04421
88.000	-0.26885	0.07581	1.03895	1.03866
92.003	-0.19015	-0.02723	0.93490	0.97039
95.983	-0.30007	-0.08267	0.87252	0.83371
99.888	-0.27855	-0.08767	0.81798	0.73095
104.001	-0.27406	-0.05429	0.82712	0.71172
108.005	-0.28803	-0.05034	0.85654	0.72702
112.006	-0.24954	-0.02107	0.82607	0.64027
116.005	-0.20333	0.05996	0.84518	0.54000
120.001	-0.15585	0.00606	0.83716	0.58062
124.002	-0.12674	0.07084	0.83587	0.49925
128.004	-0.08078	0.02236	0.83287	0.50596
132.005	-0.04621	-0.05082	0.81416	0.53456
135.994	-0.02651	0.02308	0.76317	0.49775
139.993	0.03757	0.00813	0.77072	0.57551
143.960	0.08723	0.04018	0.77856	0.64254
147.898	0.09937	0.07253	0.74295	0.75876
152.001	0.14109	0.11142	0.76268	0.70457
156.004	0.16484	0.08148	0.77655	0.70529
160.006	0.16270	0.06950	0.75491	0.76482
164.007	0.14523	0.05044	0.75950	0.77510
168.004	0.12831	0.00432	0.80801	0.86348
172.002	0.09098	0.01707	0.78010	0.87789
176.006	0.04599	0.02582	0.86548	0.90264
180.007	-0.01057	0.00616	0.93964	0.95993
184.011	-0.11977	-0.01411	0.96321	0.87152
188.004	-0.21083	-0.04908	0.99179	0.91600
192.003	-0.20184	-0.10827	0.99921	0.85993
195.876	-0.20383	-0.21022	0.99487	0.86572
199.880	-0.26431	-0.23246	0.99489	0.72798
203.877	-0.28644	-0.26640	0.93899	0.69284
207.881	-0.30084	-0.30556	0.92678	0.62512
211.877	-0.28240	-0.31702	0.91378	0.66959
215.879	-0.29855	-0.33891	0.92847	0.51772
219.879	-0.34146	-0.35906	0.86510	0.54062
223.834	-0.30496	-0.33364	0.84736	0.55182
227.870	-0.23135	-0.33280	0.84262	0.51533
231.879	-0.19184	-0.34778	0.77374	0.46853
235.878	-0.18052	-0.32038	0.74913	0.51434
239.880	-0.18933	-0.29399	0.76970	0.43909
243.865	-0.19479	-0.25801	0.76871	0.46912
247.880	-0.11873	-0.24061	0.79761	0.47737
251.878	-0.09907	-0.21743	0.83702	0.48092
255.879	-0.03524	-0.18624	0.86910	0.49758
259.839	0.00655	-0.17760	0.94899	0.50691
263.881	0.01345	-0.14827	1.05225	0.53110
267.860	0.00901	-0.13898	1.12750	0.50967
271.878	-0.05311	-0.16776	1.15024	0.50097
275.869	-0.11049	-0.15570	1.03459	0.54131
279.881	-0.16179	-0.11249	1.04468	0.52484
283.878	-0.22229	-0.02748	1.08098	0.54070
287.882	-0.19976	0.05360	1.14131	0.53570
291.864	-0.29103	0.15019	1.14910	0.53806
295.880	-0.32493	0.19780	1.07976	0.58917
299.881	-0.29292	0.17255	1.10055	0.58959
303.879	-0.33216	0.20783	1.06026	0.63603
307.865	-0.30411	0.24031	0.98420	0.72287
311.871	-0.28816	0.20868	0.95700	0.69885
315.880	-0.27374	0.23005	0.92817	0.77773
319.881	-0.33538	0.20682	0.96636	0.84166
323.838	-0.36345	0.21959	1.00447	0.94404
327.834	-0.36201	0.02604	1.03352	0.97013
331.840	-0.38807	0.00286	1.02742	0.98606
335.879	-0.35117	-0.07243	1.04386	1.00828
339.902	-0.33980	-0.03725	1.10487	0.96092
343.836	-0.28863	-0.04741	1.12405	1.01690
347.880	-0.34303	-0.10123	1.07852	0.99232
351.878	-0.34744	-0.14561	1.11162	0.98906
355.849	-0.40507	-0.21598	1.08187	0.89203
359.882	-0.42554	-0.25340	1.09820	0.78745
363.881	-0.41695	-0.26521	1.00556	0.64876
367.883	-0.42651	-0.22170	1.08696	0.71256
371.903	-0.45348	-0.10769	1.00888	0.68098
375.884	-0.46286	-0.07904	0.97725	0.65910
379.881	-0.48413	-0.05728	0.98454	0.57118
383.881	-0.52935	-0.08968	0.89537	0.60401
387.903	-0.60057	-0.02445	0.79086	0.54805
391.862	-0.66355	0.03881	0.85198	0.51162
395.878	-0.73665	0.00748	0.83540	0.49943
399.879	-0.73687	0.06403	0.86729	0.53674
403.900	-0.75476	0.09730	0.89455	0.56178
407.882	-0.75603	0.13857	0.97229	0.54987
411.882	-0.69007	0.13810	0.91629	0.51253
415.881	-0.62555	0.11785	0.92108	0.45370
419.900	-0.61287	0.13795	0.94219	0.41661
423.881	-0.61300	0.13977	0.92842	0.37566
427.883	-0.55384	0.13947	1.02146	0.40060
431.879	-0.55061	0.12320	1.07428	0.37890
435.880	-0.52823	0.10364	1.12943	0.35959
439.881	-0.51354	0.10978	1.18661	0.34898
443.881	-0.55528	0.11348	1.29926	0.37460
447.883	-0.62816	0.09154	1.24218	0.36422
451.868	-0.59612	0.08806	1.27877	0.40908
455.880	-0.65878	0.09802	1.31297	0.41745
459.882	-0.66047	0.11271	1.30260	0.50569
463.881	-0.66898	0.13572	1.37312	0.58012
467.904	-0.65632	0.07824	1.39344	0.56511
471.883	-0.64213	0.09305	1.39815	0.61876
475.884	-0.62168	0.11040	1.39837	0.66965
479.881	-0.54724	0.10886	1.38843	0.70694
483.841	-0.45118	0.05549	1.37079	0.73471
487.884	-0.41929	-0.00755	1.31734	0.80897
491.885	-0.34449	-0.02788	1.28881	0.80021
495.881	-0.30168	-0.01866	1.22496	0.76913
499.880	-0.28525	-0.10914	1.18922	0.78000
503.884	-0.25227	-0.18182	1.11876	0.76015
507.885	-0.24482	-0.18706	1.05716	0.76096
511.883	-0.21197	-0.20950	0.96080	0.83940
515.872	-0.20609	-0.21636	0.90438	0.84739
519.870	-0.17695	-0.21974	0.82049	0.87590
523.838	-0.15710	-0.19755	0.76734	0.89407
527.883	-0.13697	-0.18913	0.65407	0.88997
531.874	-0.11970	-0.14666	0.60565	0.91703
535.883	-0.07850	-0.19039	0.56640	0.88144
539.890	-0.09093	-0.21688	0.48900	0.91901
543.884	-0.03872	-0.20145	0.39919	0.95253
547.903	-0.02981	-0.16070	0.32838	0.98329
551.882	-0.01360	-0.14768	0.27940	0.97383
555.885	-0.04058	-0.13371	0.24872	0.97172
559.882	-0.05353	-0.10198	0.24785	0.90453
563.904	-0.05152	-0.17573	0.28627	0.87888
567.883	-0.10143	-0.18008	0.29339	0.85359
571.882	-0.11026	-0.18791	0.32742	0.85935
575.840	-0.12148	-0.17618	0.32126	0.82644
579.882	-0.14628	-0.16408	0.32858	0.81620
583.886	-0.12295	-0.18841	0.34581	0.79414
587.882	-0.11731	-0.17409	0.37035	0.79235
591.880	-0.11146	-0.17479	0.40427	0.75963
595.888	-0.14560	-0.23057	0.44234	0.76616
599.867	-0.24304	-0.22128	0.48359	0.75778
603.877	-0.26503	-0.25276	0.52878	0.77278
607.882	-0.24567	-0.24936	0.48115	0.76329
611.876	-0.28947	-0.23102	0.51195	0.77156
615.885	-0.27649	-0.22322	0.53049	0.75815
619.841	-0.31531	-0.26444	0.52121	0.74078
623.840	-0.33089	-0.24195	0.48455	0.76891
627.884	-0.34988	-0.20627	0.48150	0.73276
631.886	-0.45530	-0.22453	0.38447	0.73468
635.885	-0.44048	-0.28973	0.45329	0.73741
639.840	-0.45192	-0.24155	0.33906	0.73650
643.843	-0.45041	-0.20077	0.37429	0.73324
647.884	-0.43557	-0.14854	0.39132	0.72442
651.884	-0.44524	-0.15389	0.39593	0.75014
655.882	-0.46592	-0.10854	0.47026	0.73361
659.842	-0.45887	-0.12481	0.45971	0.75207
663.884	-0.41884	-0.08183	0.48979	0.74091
667.885	-0.45924	-0.12794	0.47984	0.66859
671.885	-0.48989	-0.08968	0.51009	0.69711
675.870	-0.45611	-0.11979	0.55421	0.65265
679.884	-0.49113	-0.10707	0.57166	0.61397
683.862	-0.54004	-0.07032	0.57344	0.57392
687.891	-0.51580	-0.13500	0.53200	0.52967
691.844	-0.52203	-0.15324	0.56153	0.58642
695.885	-0.46378	-0.29753	0.54004	0.49677
699.884	-0.39224	-0.39079	0.51927	0.50701
703.886	-0.37080	-0.40194	0.45254	0.42125
707.844	-0.38762	-0.47261	0.41457	0.45407
711.885	-0.31612	-0.50787	0.43294	0.38231
715.884	-0.23639	-0.52258	0.41723	0.35493
719.886	-0.21688	-0.51799	0.38365	0.43566
723.843	-0.19316	-0.53183	0.35161	0.39814
727.874	-0.14096	-0.59427	0.42735	0.46707
731.886	-0.15186	-0.57146	0.43237	0.51636
735.885	-0.14397	-0.60784	0.42256	0.54491
739.882	-0.18355	-0.58274	0.40537	0.59242
743.888	-0.17246	-0.59044	0.43996	0.54374
747.885	-0.19643	-0.60175	0.64121	0.65088
751.884	-0.20142	-0.62823	0.71320	0.63427
755.888	-0.19435	-0.60386	0.83749	0.69711
759.888	-0.18683	-0.60714	0.80769	0.71801
763.886	-0.17789	-0.61837	0.94512	0.73289
767.855	-0.17467	-0.62207	0.96331	0.75350
771.878	-0.16660	-0.60836	0.97566	0.74915
775.889	-0.15059	-0.62724	0.98896	0.72639
779.883	-0.15409	-0.61258	1.03846	0.71359
783.886	-0.10644	-0.60843	1.06401	0.71179
787.890	-0.11307	-0.58545	1.05880	0.70052
791.888	-0.08984	-0.56766	1.03364	0.70154
795.885	-0.11054	-0.54480	1.01456	0.68855
799.885	-0.12570	-0.55263	0.99861	0.71365
803.890	-0.15196	-0.53710	0.99670	0.70525
807.889	-0.19345	-0.50760	0.98866	0.68486
811.886	-0.18648	-0.48285	1.02690	0.67007
815.886	-0.21147	-0.45604	1.03476	0.71642
819.891	-0.24937	-0.41388	1.05756	0.68184
823.841	-0.25426	-0.38436	1.01523	0.66428
827.841	-0.27667	-0.32393	0.96231	0.60728
831.843	-0.25172	-0.30581	0.95713	0.54676
835.884	-0.27123	-0.24560	0.90592	0.51924
839.884	-0.32208	-0.22143	0.79258	0.43329
843.885	-0.39795	-0.24021	0.77801	0.42122
847.885	-0.42127	-0.17513	0.74819	0.40806
851.883	-0.51349	-0.18032	0.75508	0.36967
855.881	-0.47458	-0.14976	0.67600	0.39010
859.888	-0.46765	-0.14305	0.64685	0.32687
863.890	-0.50815	-0.14767	0.63970	0.27496
867.888	-0.44299	-0.18418	0.62918	0.22631
871.886	-0.54044	-0.20241	0.66811	0.18678
875.888	-0.54888	-0.24219	0.65218	0.26646
879.887	-0.58662	-0.25332	0.67764	0.26147
883.785	-0.50039	-0.29815	0.69087	0.29275
887.887	-0.45961	-0.26046	0.66171	0.31914
891.843	-0.40963	-0.31895	0.69935	0.26924
895.843	-0.34824	-0.34852	0.62667	0.34975
899.891	-0.34660	-0.40053	0.66295	0.32321
903.884	-0.34089	-0.43022	0.70578	0.33993
907.886	-0.30379	-0.42193	0.77650	0.40366
911.889	-0.29041	-0.42824	0.70285	0.49927
915.892	-0.22544	-0.40235	0.65436	0.52196
919.889	-0.17432	-0.37974	0.61476	0.59143
923.886	-0.07460	-0.37571	0.57173	0.63409
927.893	-0.03998	-0.36177	0.45276	0.61706
931.890	-0.03303	-0.38854	0.51711	0.58627
935.886	-0.04815	-0.35765	0.47890	0.58444
939.888	-0.01680	-0.35750	0.48748	0.58699
943.889	-0.00248	-0.34793	0.46860	0.62563
947.792	-0.00161	-0.30353	0.46976	0.58153
951.846	-0.03000	-0.27659	0.44132	0.59482
955.889	-0.08748	-0.28104	0.46336	0.68034
959.890	-0.09187	-0.30336	0.46810	0.56173
963.784	-0.12530	-0.33466	0.52818	0.55295
967.886	-0.20395	-0.38878	0.58632	0.46460
971.886	-0.24979	-0.36157	0.60496	0.44566
975.886	-0.27806	-0.37837	0.57248	0.42989
979.889	-0.29667	-0.39161	0.58868	0.48651
983.888	-0.37090	-0.39807	0.59104	0.49598
987.888	-0.41609	-0.36805	0.60253	0.56286
991.892	-0.42569	-0.46938	0.62622	0.48278
995.891	-0.38953	-0.51271	0.59950	0.46440
999.889	-0.36648	-0.52866	0.60521	0.44941
1003.888	-0.32987	-0.53980	0.65685	0.44511
1007.889	-0.39983	-0.56715	0.55632	0.49404
1011.787	-0.37025	-0.45917	0.57625	0.42442
1015.872	-0.41968	-0.42068	0.62481	0.35343
1019.884	-0.43778	-0.50394	0.65918	0.44084
1023.844	-0.46770	-0.56690	0.68900	0.42779
1027.785	-0.40298	-0.59249	0.63709	0.37750
1031.886	-0.39003	-0.58278	0.65943	0.37512
1035.888	-0.38447	-0.56956	0.65260	0.39574
1039.889	-0.38653	-0.52638	0.66563	0.45711
1043.751	-0.39658	-0.32166	0.58913	0.41090
1047.888	-0.38427	-0.34171	0.62933	0.43880
1051.889	-0.38603	-0.24073	0.65300	0.50491
1055.904	-0.40507	-0.25626	0.66980	0.52720
1059.850	-0.32543	-0.30268	0.61362	0.58137
1063.888	-0.29354	-0.36209	0.58081	0.59812
1067.890	-0.28257	-0.27724	0.58064	0.60622
1071.888	-0.34687	-0.18778	0.59337	0.69280
1075.892	-0.39675	-0.18023	0.56927	0.74840
1079.889	-0.40767	-0.18813	0.60833	0.80986
1083.889	-0.35360	-0.13895	0.69677	0.77601
1087.886	-0.33114	-0.16487	0.81369	0.81241
1091.895	-0.30987	-0.19958	0.84592	0.83118
1095.890	-0.26681	-0.21949	0.70288	0.77822
1099.868	-0.22837	-0.27801	0.70536	0.73631
1103.888	-0.17613	-0.27279	0.62608	0.75470
1107.893	-0.13856	-0.28628	0.63456	0.78988
1111.891	-0.15816	-0.31014	0.67216	0.76794
1115.890	-0.12776	-0.29212	0.63747	0.79786
1119.890	-0.13908	-0.32631	0.56853	0.70870
1123.893	-0.12203	-0.33258	0.51198	0.68655
1127.892	-0.26294	-0.34686	0.56540	0.67481
1131.890	-0.18541	-0.32962	0.48932	0.65845
1135.888	-0.24609	-0.31811	0.50870	0.63855
1139.892	-0.20844	-0.27001	0.51796	0.72322
1143.847	-0.26525	-0.24754	0.46880	0.76653
1147.891	-0.32349	-0.24809	0.47756	0.66347
1151.891	-0.33982	-0.20180	0.48051	0.63711
1155.896	-0.38889	-0.16432	0.41279	0.68608
1159.893	-0.39383	-0.15259	0.45316	0.71413
1163.892	-0.34278	-0.10359	0.55443	0.78038
1167.892	-0.38732	-0.06150	0.65729	0.70499
1171.896	-0.35739	-0.03312	0.60536	0.68234
1175.900	-0.35978	0.00624	0.65536	0.64559
1179.888	-0.34923	0.01804	0.62613	0.58427
1183.860	-0.37941	-0.03864	0.47207	0.49690
1187.771	-0.37047	-0.07291	0.36035	0.50757
1191.892	-0.39246	-0.14064	0.50423	0.48122
1195.890	-0.38504	-0.28971	0.56034	0.58659
1199.889	-0.35814	-0.13217	0.47036	0.57795
1203.892	-0.33029	-0.16857	0.59702	0.52539
1207.888	-0.27068	-0.17996	0.57101	0.59911
1211.890	-0.27659	-0.17026	0.49900	0.51772
1215.891	-0.28982	-0.15001	0.51324	0.51529
1219.788	-0.32828	-0.13505	0.43909	0.44557
1223.846	-0.35876	-0.15692	0.60466	0.53056
1227.892	-0.16273	-0.11030	0.56230	0.49893
1231.759	-0.08277	-0.08352	0.64886	0.68174
1235.725	0.09724	0.13227	0.70970	0.95822
1239.767	0.04306	0.14803	0.97782	1.32716
1243.767	0.33662	0.26374	1.20090	1.43281
1247.765	0.57771	0.39018	1.14218	1.43510
1251.787	0.50140	0.56888	1.18832	1.24391
1255.766	0.54545	0.68225	1.30655	1.12528
1259.769	0.51260	0.76307	1.37960	1.17022
1263.767	0.55868	0.88342	1.50256	1.26619
1267.753	0.64957	0.86463	1.54123	1.27672
1271.768	0.62146	0.84585	1.66529	1.45630
1275.768	0.70131	0.87816	1.76351	1.47961
1279.767	0.72908	0.83277	1.83330	1.51442
1283.787	0.81421	0.85918	1.87778	1.54421
1287.765	0.83587	0.85684	1.85683	1.46382
1291.770	0.83506	0.85103	1.85395	1.32790
1295.767	0.85106	0.88076	1.92379	1.29647
1299.762	0.94281	0.90046	1.95274	1.30092
1303.766	0.86612	0.80852	2.03330	1.32195
1307.768	0.82806	0.70287	2.01724	1.35972
1311.755	0.85719	0.71628	2.01233	1.40298
1315.764	0.94428	0.76160	1.98658	1.45333
1319.768	0.91391	0.78181	1.94412	1.40800
1323.722	0.90733	0.80978	1.92788	1.35507
1327.723	0.85955	0.83252	1.90748	1.34598
1331.724	0.85156	0.87743	1.85190	1.26128
1335.767	0.89232	0.88227	1.84235	1.23643
1339.767	0.90180	0.86915	1.90472	1.24967
1343.769	0.85987	0.84603	2.00747	1.27491
1347.765	0.80950	0.89567	1.89000	1.34329
1351.766	0.86133	0.92579	1.84515	1.41056
1355.766	0.92656	0.95804	1.85388	1.39986
1359.769	0.85741	0.98690	1.77491	1.32059
1363.759	0.84721	1.02421	1.75691	1.29724
1367.768	0.78769	0.98880	1.72416	1.33244
1371.767	0.76960	0.97425	1.74333	1.30090
1375.770	0.81605	0.93159	1.73566	1.36624
1379.767	0.77466	0.91208	1.76814	1.38354
1383.770	0.75258	0.89000	1.75900	1.37238
1387.769	0.77905	0.86036	1.74863	1.39229
1391.730	0.78136	0.82374	1.74137	1.35199
1395.773	0.77754	0.79502	1.73762	1.31632
1399.767	0.77766	0.72060	1.73571	1.27372
1403.770	0.85947	0.71226	1.80831	1.30981
1407.767	0.85039	0.66608	1.76933	1.33218
1411.726	0.38839	0.70646	1.03617	1.33893
1415.768	-1.05989	0.74409	-1.17217	1.44633
1419.768	-2.26980	0.84271	-3.25377	1.44986
1423.769	-3.27314	0.86052	-4.43892	1.45792
1427.727	-4.82897	0.89788	-6.06929	1.47320
1431.767	-5.59742	0.97536	-6.43111	1.54120
1435.763	-7.08319	1.01163	-7.67145	1.54468
1439.760	-7.91896	1.01313	-8.53935	1.61578
1443.727	-8.65911	1.15216	-8.66166	1.69032
1447.770	-9.07760	1.22455	-8.86071	1.70605
1451.766	-9.41506	1.23955	-8.79014	1.74786
1455.766	-9.42426	1.23685	-8.62656	1.79337
1459.727	-9.46602	1.27212	-8.49685	1.79393
1463.769	-9.49192	1.29236	-8.40635	1.81376
1467.769	-9.54201	1.29851	-8.47575	1.86632
1471.767	-9.55538	1.31316	-8.51222	1.92439
1475.728	-9.50679	1.30401	-8.47692	1.95786
1479.739	-9.52615	1.33480	-8.44722	2.00711
1483.769	-9.52384	1.36511	-8.39836	2.03587
1487.768	-9.57066	1.35355	-8.33289	2.02707
1491.730	-9.59822	1.33687	-8.30682	2.01744
1495.769	-9.55451	1.38551	-8.28347	2.01846
1499.768	-9.54554	1.42771	-8.29999	2.01531
1503.780	-9.51078	1.41706	-8.35634	1.98199
1507.726	-9.51242	1.39481	-8.45643	1.95406
1511.770	-9.50165	1.41732	-8.57920	1.94955
1515.726	-9.49733	1.44425	-8.44300	1.87178
1519.761	-9.50848	1.40362	-8.44732	1.88069
1523.727	-9.51592	1.41716	-8.54634	1.79873
1527.769	-9.51981	1.40940	-8.49037	1.73717
1531.767	-9.51609	1.45128	-8.57250	1.66600
1535.766	-9.52830	1.46506	-8.64597	1.58329
1539.766	-9.55565	1.42297	-8.51207	1.66766
1543.770	-9.58926	1.39998	-8.54739	1.71914
1547.770	-9.62606	1.42574	-8.51117	1.72608
1551.768	-9.66002	1.45441	-8.51673	1.68878
1555.767	-9.65245	1.51535	-8.50804	1.67396
1559.771	-9.66086	1.53514	-8.52807	1.67714
1563.733	-9.67087	1.58209	-8.55202	1.61047
1567.770	-9.68973	1.59688	-8.55015	1.60228
1571.789	-9.66904	1.63688	-8.62547	1.60560
1575.727	-9.63884	1.62187	-8.59910	1.61342
1579.770	-9.65032	1.59827	-8.61055	1.58737
1583.772	-9.65015	1.63369	-8.72435	1.56959
1587.762	-10.27069	1.67691	-9.06947	1.56970
1591.773	-10.50302	1.71714	-9.56195	1.52680
1595.770	-10.72666	1.67107	-9.43272	1.45773
1599.771	-10.33680	1.52746	-9.31402	1.35861
1603.766	-10.41278	1.38144	-9.50841	1.35094
1607.774	-10.47072	1.38514	-9.57088	1.30526
1611.770	-10.42972	1.29168	-9.62410	1.21751
1615.770	-10.47619	1.34678	-9.68001	1.19008
1619.760	-10.56498	1.28953	-9.73607	1.14805
1623.726	-10.57742	1.21244	-9.79089	1.10460
1627.771	-10.64765	1.21463	-9.86201	1.08768
1631.772	-10.62284	1.17894	-9.90024	1.04906
1635.792	-10.63506	1.17411	-9.87413	0.99601
1639.729	-10.66093	1.17401	-9.88914	0.96227
1643.769	-10.71259	1.16917	-9.93952	0.92676
1647.762	-10.75771	1.23235	-9.94262	0.95203
1651.768	-10.74611	1.23532	-9.96735	0.92458
1655.772	-10.83364	1.25601	-9.94886	0.95113
1659.775	-10.85638	1.26202	-9.97734	0.97417
1663.773	-10.92301	1.27251	-10.00786	1.01121
1667.769	-11.06172	1.30365	-10.02538	1.04895
1671.772	-11.07819	1.30733	-10.04538	1.11153
1675.773	-11.04721	1.30425	-10.05652	1.05756
1679.771	-11.05424	1.28401	-10.09107	1.10824
1683.770	-11.04924	1.27248	-10.07254	1.07954
1687.741	-11.01998	1.31283	-10.06742	1.10736
1691.773	-10.95763	1.32720	-10.08758	1.10690
1695.772	-10.85717	1.33887	-10.09583	1.13182
1699.793	-10.86890	1.32167	-10.10413	1.11976
1703.771	-10.88733	1.32652	-10.06412	1.10946
1707.774	-10.86469	1.32413	-10.01874	1.09080
1711.782	-10.81458	1.34643	-9.98752	1.10282
1715.770	-10.75708	1.37838	-9.93378	1.11993
1719.772	-10.73330	1.41363	-9.89747	1.13650
1723.726	-10.67814	1.48360	-9.82433	1.15085
1727.757	-10.67315	1.49317	-9.85011	1.17915
1731.774	-10.70145	1.45492	-9.82272	1.21241
1735.772	-10.78863	1.44647	-9.78329	1.20604
1739.771	-10.80704	1.42738	-9.76724	1.19423
1743.772	-10.84942	1.45108	-9.75726	1.19346
1747.770	-10.83582	1.42602	-9.77471	1.17907
1751.771	-10.84616	1.41295	-9.79795	1.18401
1755.772	-10.82871	1.38330	-9.81337	1.19465
1759.775	-10.86356	1.31679	-9.83862	1.14669
1763.766	-10.83563	1.31997	-9.85447	1.11054
1767.775	-10.80050	1.31180	-9.89908	1.05731
1771.738	-10.76513	1.34680	-9.90836	1.05941
1775.775	-10.77215	1.42406	-9.93058	1.04311
1779.776	-10.73061	1.52277	-9.93899	1.04803
1783.769	-10.80505	1.55569	-9.96212	1.04756
1787.773	-10.76932	1.58946	-9.98210	1.05753
1791.774	-10.76690	1.63709	-10.00422	1.05636
1795.777	-10.80520	1.72161	-10.04441	1.07193
1799.773	-10.81753	1.74302	-10.02215	1.05806
1803.772	-10.82579	1.76289	-10.01508	1.07039
1807.775	-10.94414	1.72144	-10.00466	1.05261
1811.753	-10.98379	1.67095	-9.99614	1.07674
1815.779	-11.00833	1.53091	-9.94888	1.09191
1819.771	-11.02332	1.52143	-9.94469	1.08315
1823.726	-11.04441	1.46051	-9.92902	1.11447
1827.731	-11.05137	1.45818	-9.87372	1.14830
1831.728	-11.03855	1.46673	-9.84040	1.17172
1835.773	-11.05048	1.30909	-9.80134	1.19371
1839.773	-11.06138	1.28959	-9.74304	1.20482
1843.732	-11.07360	1.21529	-9.71196	1.22422
1847.774	-11.08799	1.19546	-9.66318	1.27209
1851.767	-11.07142	1.18675	-9.64092	1.32299
1855.762	-11.08775	1.21004	-9.60975	1.39072
1859.748	-11.06346	1.22257	-9.63324	1.38822
1863.774	-11.04757	1.20952	-9.59894	1.33539
1867.771	-11.04348	1.21520	-9.62610	1.30833
1871.773	-11.04037	1.21131	-9.63218	1.27508
1875.732	-11.02820	1.19315	-9.66578	1.27796
1879.773	-11.04575	1.23691	-9.69091	1.27020
1883.774	-11.04255	1.24443	-9.69593	1.22847
1887.732	-11.04898	1.26181	-9.73716	1.19715
1891.733	-11.05933	1.23373	-9.74878	1.21579
1895.749	-11.06662	1.23840	-9.73451	1.20825
1899.772	-11.05785	1.19890	-9.72783	1.23449
1903.774	-11.03437	1.19436	-9.66783	1.27746
1907.673	-11.02808	1.18793	-9.67034	1.34020
1911.776	-11.04164	1.19687	-9.60372	1.40330
1915.775	-11.00515	1.15172	-9.59698	1.45010
1919.778	-10.96763	1.14321	-9.53617	1.49689
1923.780	-11.01723	1.09452	-9.51920	1.53255
1927.775	-11.01713	1.07509	-9.47763	1.54767
1931.774	-11.05211	1.06625	-9.43409	1.56746
1935.756	-11.04692	1.08378	-9.40798	1.60007
1939.777	-11.05500	1.08134	-9.41972	1.61858
1943.775	-11.05624	1.09194	-9.45614	1.59602
1947.775	-11.10094	1.08046	-9.53641	1.55884
1951.730	-11.13767	1.09460	-9.56634	1.52384
1955.775	-11.14966	1.10090	-9.67008	1.50251
1959.777	-11.16349	1.12275	-9.67613	1.46516
1963.774	-11.18277	1.16651	-9.72023	1.45684
1967.774	-11.16452	1.21472	-9.75909	1.43890
1971.778	-11.16184	1.24333	-9.77703	1.42984
1975.777	-11.13750	1.27887	-9.82132	1.45684
1979.737	-11.11040	1.29593	-9.84211	1.43130
1983.775	-11.09712	1.27064	-9.83898	1.44430
1987.775	-11.08796	1.27129	-9.82807	1.44276
1991.776	-11.07028	1.29971	-9.79168	1.44923
1995.776	-11.06327	1.28334	-9.79995	1.51050
1999.775	-11.05428	1.27716	-9.77339	1.52038
2003.778	-11.05644	1.28488	-9.74772	1.51832
2007.777	-11.05711	1.27574	-9.72686	1.49688
2011.776	-11.05311	1.17213	-9.71640	1.48077
2015.779	-11.30913	1.26586	-9.73545	1.48015
2019.675	-11.44668	1.29203	-9.88333	1.52939
2023.777	-11.72784	1.54918	-9.94303	1.64949
2027.732	-11.88147	1.91800	-10.13698	2.00850
2031.776	-11.93204	1.90040	-10.06463	2.39996
2035.669	-11.99310	2.03476	-10.25439	2.43366
2039.775	-12.05706	2.21908	-10.45949	2.42022
2043.774	-12.10898	2.27643	-10.47933	2.63959
2047.773	-12.14852	2.33668	-10.46472	2.64667
2051.778	-12.20788	2.33727	-10.50160	2.78582
2055.810	-12.23763	2.33051	-10.51141	2.69598
2059.777	-12.28758	2.38514	-10.41268	2.77099
2063.767	-12.30005	2.41772	-10.42461	2.80411
2067.672	-12.32156	2.42819	-10.41071	2.81877
2071.777	-12.32942	2.45123	-10.38793	2.85591
2075.774	-12.34936	2.51007	-10.47902	2.85593
2079.774	-12.32755	2.53865	-10.41842	2.85963
2083.675	-12.34600	2.58307	-10.41808	2.87431
2087.777	-12.34294	2.61881	-10.41061	2.86568
2091.778	-12.33456	2.62197	-10.42843	2.93759
2095.779	-12.34545	2.67038	-10.41431	3.04541
2099.677	-12.40046	2.71793	-10.36704	3.16890
2103.778	-12.44827	2.72017	-10.41813	3.21362
2107.776	-12.36175	2.74786	-10.36780	3.20983
2111.778	-12.35012	2.77648	-10.31811	3.28868
2115.671	-12.20252	2.79963	-10.31727	3.27914
2119.778	-12.22255	2.80264	-10.27282	3.31834
2123.734	-12.25218	2.84869	-10.25559	3.28962
2127.776	-12.18889	2.82281	-10.26441	3.23425
2131.674	-12.18718	2.81399	-10.28239	3.21608
2135.777	-12.12855	2.83996	-10.31866	3.11515
2139.789	-12.14371	2.81047	-10.39066	3.03723
2143.732	-12.03016	2.84522	-10.56071	2.93400
2147.675	-12.00343	2.87889	-10.39388	2.66868
2151.780	-12.00362	2.91394	-10.47998	2.64785
2155.777	-11.97736	2.89209	-10.53850	2.55673
2159.778	-11.98277	2.89227	-10.49927	2.46849
2163.674	-11.99163	2.91780	-10.52127	2.39915
2167.734	-11.98049	2.83563	-10.56143	2.32553
2171.778	-11.98538	2.80066	-10.57090	2.36404
2175.779	-12.00882	2.80374	-10.59917	2.39342
2179.674	-12.04054	2.83097	-10.59687	2.37903
2183.781	-12.03897	2.82255	-10.64770	2.39980
2187.743	-12.07066	2.83359	-10.64494	2.47785
2191.777	-12.07932	2.79362	-10.65172	2.54368
2195.679	-12.07977	2.79166	-10.64058	2.57229
2199.732	-12.10366	2.80607	-10.68386	2.60553
2203.778	-12.18225	2.77285	-10.69745	2.59274
2207.778	-12.18867	2.75419	-10.70747	2.63853
2211.675	-12.22300	2.79432	-10.70989	2.59098
2215.781	-12.25794	2.79521	-10.72958	2.59432
2219.776	-12.25415	2.80133	-10.72623	2.50899
2223.778	-12.24135	2.81366	-10.72235	2.44481
2227.675	-12.24099	2.83810	-10.69798	2.38414
2231.780	-12.25976	2.84648	-10.62169	2.44964
2235.777	-12.26251	2.87479	-10.58423	2.41758
2239.778	-12.26458	2.87619	-10.49867	2.42925
2243.673	-12.24673	2.86614	-10.44048	2.46359
2247.779	-12.20702	2.87720	-10.44069	2.48596
2251.777	-12.19050	2.87651	-10.31434	2.52637
2255.778	-12.15559	2.83376	-10.28525	2.59194
2259.674	-12.09531	2.84492	-10.24759	2.63693
2263.633	-12.04488	2.84201	-10.20048	2.64335
2267.653	-12.00666	2.79969	-10.14790	2.63649
2271.654	-12.00466	2.79367	-10.12662	2.66620
2275.612	-11.96185	2.80503	-10.11945	2.61797
2279.655	-11.95665	2.78100	-10.12089	2.59416
2283.653	-11.90160	2.79820	-10.15490	2.58205
2287.651	-11.92726	2.82818	-10.19031	2.49826
2291.651	-11.92327	2.83902	-10.19231	2.41131
2295.655	-11.88394	2.85245	-10.24776	2.35777
2299.658	-11.88627	2.85454	-10.31018	2.31206
2303.655	-11.86869	2.87032	-10.35265	2.24241
2307.617	-11.85849	2.89527	-10.41148	2.20101
2311.657	-11.87731	2.91622	-10.50424	2.16578
2315.639	-11.90089	2.92329	-10.58030	2.14483
2319.650	-11.86966	2.89476	-10.64504	2.10570
2323.651	-11.90084	2.87600	-10.64770	2.10922
2327.612	-11.95185	2.84037	-10.62142	2.17330
2331.610	-11.99206	2.80694	-10.61135	2.25010
2335.653	-11.99873	2.77722	-10.65726	2.20019
2339.651	-12.09890	2.73468	-10.64705	2.26505
2343.655	-12.06876	2.70866	-10.60387	2.25656
2347.654	-12.08350	2.67585	-10.61214	2.32544
2351.659	-12.08074	2.60047	-10.59735	2.40897
2355.644	-12.08705	2.54925	-10.56889	2.46342
2359.617	-12.07820	2.51923	-10.51592	2.43051
2363.654	-12.09168	2.46881	-10.51995	2.51778
2367.655	-11.98650	2.49933	-10.54277	2.55380
2371.645	-11.54785	2.67628	-10.42915	2.62905
2375.653	-10.83987	2.79249	-9.98372	2.67160
2379.657	-9.90775	2.98254	-9.05078	3.06335
2383.656	-9.37443	3.34120	-7.69151	3.96581
2387.645	-8.56241	3.34979	-7.79814	3.76777
2391.659	-8.37201	3.66345	-6.72066	4.43494
2395.656	-7.62899	3.91085	-5.87155	4.78751
2399.633	-7.20341	4.11779	-6.07145	5.17476
2403.678	-7.25746	4.12846	-6.13964	5.08208
2407.655	-7.43576	4.12357	-6.20271	4.94779
2411.656	-7.55359	4.11420	-6.07420	4.94150
2415.655	-7.43012	4.18284	-6.06019	4.90324
2419.652	-7.32031	4.26163	-6.01787	5.08481
2423.656	-7.31289	4.32087	-6.01959	5.02965
2427.658	-7.33037	4.36738	-5.99757	5.03415
2431.655	-7.24893	4.37516	-5.97138	5.08081
2435.653	-7.32207	4.36065	-5.93353	5.07113
2439.641	-7.33413	4.34794	-5.97637	5.04633
2443.657	-7.30842	4.28574	-5.98147	5.00732
2447.654	-7.35256	4.26321	-5.97745	4.97073
2451.650	-7.34121	4.26045	-5.94423	4.97224
2455.611	-7.29233	4.26913	-5.90843	4.97670
2459.654	-7.24481	4.27554	-5.87837	4.98347
2463.655	-7.22808	4.26331	-5.82567	4.98036
2467.652	-7.21413	4.16095	-5.81105	5.03892
2471.656	-7.21467	4.12465	-5.78396	5.09708
2475.657	-7.13935	4.08871	-5.73967	5.12576
2479.657	-7.12733	4.07599	-5.73205	5.18334
2483.651	-7.12114	4.08510	-5.71163	5.24078
2487.655	-7.08928	4.14040	-5.63712	5.29486
2491.658	-7.05432	4.17006	-5.61994	5.34388
2495.656	-7.04650	4.19063	-5.58503	5.41112
2499.656	-7.04376	4.21776	-5.58434	5.44808
2503.657	-7.01208	4.22524	-5.59961	5.51705
2507.658	-7.12043	4.21044	-5.62822	5.53375
2511.655	-7.12471	4.22519	-5.63577	5.52393
2515.615	-7.11305	4.29698	-5.64909	5.53726
2519.657	-7.15838	4.34396	-5.65194	5.54225
2523.611	-7.14372	4.35795	-5.64874	5.54228
2527.650	-7.13590	4.31091	-5.63316	5.54733
2531.652	-7.14858	4.27328	-5.63604	5.55176
2535.654	-7.22644	4.29530	-5.62045	5.55556
2539.656	-7.26713	4.28932	-5.62026	5.53216
2543.657	-7.27318	4.27904	-5.60605	5.53492
2547.654	-7.31731	4.28629	-5.58267	5.49687
2551.655	-7.29826	4.28569	-5.56212	5.46282
2555.656	-7.28776	4.29212	-5.54258	5.46901
2559.658	-7.30576	4.27356	-5.50080	5.45010
2563.646	-7.35022	4.28120	-5.48078	5.44344
2567.621	-7.36218	4.27292	-5.47503	5.41270
2571.656	-7.36794	4.26606	-5.47161	5.40972
2575.658	-7.37807	4.28733	-5.49628	5.39474
2579.657	-7.35573	4.26916	-5.50523	5.36480
2583.658	-7.32365	4.25682	-5.50596	5.36803
2587.656	-7.33029	4.21421	-5.50626	5.34282
2591.658	-7.32946	4.22890	-5.50717	5.37782
2595.646	-7.33396	4.20797	-5.50665	5.38886
2599.662	-7.32661	4.20395	-5.49087	5.35598
2603.657	-7.34209	4.19262	-5.50921	5.36885
2607.636	-7.32998	4.17376	-5.53763	5.39939
2611.616	-7.31674	4.16697	-5.57992	5.40177
2615.657	-7.33332	4.17113	-5.59482	5.39107
2619.654	-7.35209	4.16059	-5.62299	5.42028
2623.660	-7.38895	4.15678	-5.63569	5.41178
2627.617	-7.43127	4.14467	-5.71099	5.42690
2631.658	-7.43193	4.17089	-5.68720	5.37419
2635.657	-7.37924	4.13746	-5.71554	5.26707
2639.617	-7.34602	4.10722	-5.75487	5.23778
2643.654	-7.34834	4.09411	-5.81921	5.22432
2647.659	-7.28954	4.08562	-5.82471	5.17771
2651.658	-7.26210	4.06990	-5.85883	5.12637
2655.659	-7.27846	4.02960	-5.87707	5.09432
2659.621	-7.29728	4.02173	-5.87909	5.10235
2663.659	-7.19759	4.02417	-5.87948	5.11122
2667.659	-7.18806	4.01674	-5.89083	5.13858
2671.656	-7.12342	3.99027	-5.92483	5.15987
2675.616	-7.10738	3.98916	-5.97099	5.17652
2679.658	-7.10966	3.98058	-5.99819	5.19742
2683.657	-7.12227	3.99227	-6.00666	5.26716
2687.659	-7.13558	4.00278	-5.95302	5.30032
2691.617	-7.09258	3.99324	-5.97732	5.36584
2695.656	-7.08048	4.06813	-5.83992	5.37268
2699.660	-6.33262	4.12830	-5.48558	5.45438
2703.659	-4.96514	4.36164	-3.28043	5.56299
2707.617	-3.41790	5.72464	-2.55787	7.14493
2711.655	-2.21051	6.57853	-1.16195	8.29543
2715.658	-0.79739	7.02068	0.02266	8.92273
2719.658	0.33990	7.72157	0.87858	8.62320
2723.617	0.85565	7.73598	2.57181	9.13740
2727.663	1.57210	9.00876	3.27183	10.63081
2731.643	3.00178	9.58485	3.91588	11.52234
2735.652	3.90437	9.74206	5.48686	12.24988
2739.659	4.76697	10.18873	6.50232	12.14782
2743.661	5.73224	10.41926	7.47512	12.31760
2747.658	6.08571	10.59583	7.83152	12.47361
2751.659	6.17668	10.66663	7.97512	12.40450
2755.657	5.86047	10.55129	8.00671	12.39209
2759.616	5.76303	10.65368	7.79909	12.49215
2763.657	5.71534	10.66229	7.85495	12.55825
2767.661	5.78752	10.78486	7.94309	12.84507
2771.660	5.85752	10.94836	8.04394	12.39838
2775.650	5.95349	10.84353	8.06151	12.48835
2779.658	6.01473	10.91003	7.95976	12.33803
2783.659	6.12173	10.94612	8.05304	12.31850
2787.657	6.07521	10.80207	8.11316	12.29956
2791.658	6.01274	10.89008	8.15776	12.39290
2795.661	5.94691	10.90106	8.20381	12.63332
2799.663	5.99649	11.01034	8.23671	12.40417
2803.651	6.04698	10.86860	8.23838	12.38525
2807.664	6.09854	10.82519	8.23702	12.16812
2811.660	6.13100	10.76583	8.27141	12.17872
2815.635	6.10622	10.79016	8.26335	12.18893
2819.628	6.05216	10.78755	8.22309	12.10274
2823.614	6.04070	10.72745	8.25131	12.19382
2827.615	6.06748	10.68029	8.25294	12.15366
2831.616	6.10838	10.74855	8.24796	12.34012
2835.657	6.08932	10.92102	8.29445	12.10151
2839.660	6.14761	10.85038	8.23765	11.88046
2843.661	6.13542	10.92079	8.15290	11.90897
2847.660	6.14943	10.86648	8.15321	12.00604
2851.652	6.11643	10.91043	8.18638	12.17491
2855.647	6.02200	11.05521	8.17276	12.12377
2859.662	6.10313	10.82524	8.10649	12.11941
2863.660	6.14256	10.67279	8.24750	12.01048
2867.666	6.08922	10.82313	8.17580	12.16134
2871.659	5.95329	10.98194	8.20199	12.14613
2875.664	5.99998	10.94968	8.22730	12.28542
2879.660	5.98923	10.75258	8.13135	12.14344
2883.664	5.96711	10.86318	8.08535	12.06444
2887.661	5.88562	11.10159	8.11160	12.16584
2891.659	6.00035	10.92899	8.08599	12.14091
2895.662	6.03952	10.94111	8.11007	11.87753
2899.661	5.99910	11.06764	8.12371	12.17030
2903.659	6.00113	10.86745	8.07837	12.02436
2907.663	6.06826	10.93394	8.02939	11.90309
2911.663	6.35471	10.80702	8.14565	11.77388
2915.665	7.07950	8.21526	8.30993	9.69690
2919.660	8.25477	6.74477	8.49017	7.83709
2923.616	8.49874	5.09305	8.33010	5.69180
2927.660	8.98680	4.06462	9.10509	4.88533
2931.655	8.83830	3.44060	9.70675	4.40888
2935.663	9.49562	2.46584	10.37213	3.81921
2939.643	9.66540	2.12700	10.47976	3.32558
2943.663	10.11132	2.08826	11.15993	3.37426
2947.655	10.40456	2.09616	11.74872	3.10425
2951.616	10.46719	1.99585	11.38006	2.93651
2955.660	10.68046	1.93091	11.70007	2.35057
2959.663	10.64609	1.82679	11.93253	2.29722
2963.557	10.53778	1.71992	11.74499	2.10052
2967.663	10.27388	1.72045	11.91151	2.46449
2971.661	10.54958	1.70968	11.93196	2.53511
2975.664	10.72120	1.69362	12.04809	2.29774
2979.561	10.76257	1.60914	12.00925	2.24080
2983.655	10.89851	1.61060	12.12120	2.34305
2987.659	10.72625	1.63860	12.14316	2.36464
2991.663	10.61917	1.60494	12.06230	2.28052
2995.659	10.77481	1.56316	11.96204	2.02215
2999.661	10.66970	1.57008	12.09807	2.24038
3003.662	10.72611	1.61433	12.01264	2.11028
3007.661	10.73363	1.59273	12.06560	2.38180
3011.621	10.67763	1.62398	12.07797	2.28378
3015.628	10.72232	1.58556	12.16366	2.32192
3019.662	10.65005	1.59575	12.09961	2.37422
3023.618	10.62018	1.54668	12.08739	2.37103
3027.547	10.59893	1.56883	11.99336	2.34053
3031.660	10.59692	1.55561	11.95361	2.23189
3035.661	10.61330	1.55785	11.90937	2.27962
3039.663	10.62116	1.59895	11.86916	2.32878
3043.559	10.51036	1.62897	11.85362	2.36606
3047.660	10.49649	1.63827	11.81886	2.33254
3051.663	10.40898	1.65485	11.85112	2.30502
3055.662	10.42442	1.62273	11.77308	2.28251
3059.668	10.39895	1.61080	11.77039	2.26881
3063.650	10.43716	1.62313	11.77957	2.26674
3067.662	10.49603	1.68507	11.76100	2.31289
3071.664	10.36437	1.62351	11.79625	2.35990
3075.560	10.41470	1.70239	11.78607	2.27283
3079.664	10.34278	1.66915	11.74808	2.27754
3083.661	10.34950	1.69290	11.73838	2.16757
3087.683	10.35460	1.66830	11.73818	2.09498
3091.664	10.41398	1.65541	11.78069	2.14382
3095.664	10.38404	1.74619	11.78214	2.27760
3099.663	10.40392	1.78999	11.79125	2.17068
3103.664	10.38608	1.82493	11.80607	2.23235
3107.565	10.36471	1.83885	11.77710	2.28388
3111.662	10.32830	1.88754	11.76419	2.06033
3115.662	10.36269	1.90494	11.71625	2.07697
3119.666	10.38163	1.89769	11.66889	2.07093
3123.531	10.39897	1.89320	11.68405	2.25214
3127.664	10.28529	1.92976	11.61640	2.05353
3131.664	10.21858	1.89995	11.55240	2.15935
3135.620	10.11673	1.83032	11.57839	2.20769
3139.664	10.08623	1.81857	11.49445	2.05279
3143.664	10.09222	1.73265	11.51404	2.22825
3147.645	9.94267	1.62785	11.46223	2.19987
3151.666	9.99989	1.64104	11.39306	2.10556
3155.560	9.86763	1.73937	11.34623	2.07941
3159.665	9.81710	1.60408	11.38726	2.13507
3163.663	9.87825	1.56887	11.27159	2.07876
3167.663	9.79710	1.52203	11.32161	2.03959
3171.560	9.85091	1.51295	11.31961	1.97207
3175.665	9.81710	1.55373	11.44151	2.00022
3179.663	9.78831	1.59125	11.42740	1.99877
3183.667	9.73807	1.56229	11.27729	1.97516
3187.564	9.73684	1.56756	11.26889	1.93111
3191.658	9.78638	1.52358	11.21348	1.84575
3195.664	9.81192	1.55669	11.25104	1.82185
3199.620	9.80397	1.50820	11.28555	1.82742
3203.564	9.81101	1.52422	11.28457	1.79919
3207.667	9.77847	1.52816	11.31667	1.82569
3211.663	9.84084	1.50874	11.41142	1.86720
3215.667	9.78582	1.38487	11.34153	1.88253
3219.668	9.81775	1.37605	11.17445	1.87642
3223.668	9.87620	1.40857	11.19301	1.97946
3227.667	9.87878	1.37095	11.23432	1.99478
3231.668	9.88350	1.41541	11.12978	1.98764
3235.553	9.91103	1.45054	11.22702	1.96513
3239.664	9.86011	1.42755	11.21649	2.00949
3243.664	9.82479	1.47172	11.05997	2.05797
3247.665	9.87083	1.51250	11.07556	2.11860
3251.560	9.81132	1.57005	11.26362	2.20678
3255.665	9.76922	1.55928	11.24719	2.15502
3259.665	9.79373	1.58660	11.02409	2.07125
3263.620	9.80975	1.60487	11.22561	2.17478
3267.561	9.71570	1.62872	11.18527	2.08985
3271.656	9.72831	1.61934	11.16621	2.04765
3275.662	9.73865	1.62367	11.19944	2.03089
3279.663	9.64277	1.60572	11.21665	2.21288
3283.530	9.68746	1.70314	11.24055	2.06828
3287.666	9.75034	1.76839	11.23633	1.98588
3291.664	9.75222	1.79569	11.34764	1.90344
3295.667	9.70753	1.82989	11.24468	1.82257
3299.526	9.76387	1.52309	11.19468	1.74982
3303.542	9.65071	1.57137	11.27978	1.94547
3307.537	9.58987	1.75491	11.22795	1.82214
3311.540	9.67266	1.85555	11.05208	1.94105
3315.530	8.92396	1.88613	9.25383	2.21994
3319.519	6.86273	2.06765	6.41663	3.08001
3323.540	5.33647	2.22993	3.87013	3.28089
3327.542	2.68160	2.17410	2.07925	3.48913
3331.531	2.31455	2.09480	1.17421	2.87365
3335.538	-0.08063	2.23216	-0.45937	2.56988
3339.543	-0.62116	2.18177	-2.37897	2.54771
3343.539	-2.62979	2.27909	-3.92754	2.68911
3347.499	-3.92541	2.35049	-5.57532	2.72534
3351.540	-6.14273	2.42073	-6.78911	2.83803
3355.540	-7.18369	2.49325	-9.03430	2.85261
3359.537	-8.08443	2.51234	-9.11953	2.78655
3363.500	-8.96632	2.50991	-9.52072	2.70213
3367.542	-10.13948	2.52158	-10.39772	2.64926
3371.541	-10.04509	2.52869	-10.26951	2.45236
3375.539	-10.24336	2.55268	-9.78729	2.41209
3379.501	-10.25543	2.56212	-9.33190	2.43915
3383.543	-10.13785	2.54203	-9.41139	2.57464
3387.541	-10.12072	2.47219	-9.68918	2.57080
3391.542	-10.24271	2.49609	-9.73699	2.50036
3395.500	-10.34677	2.44061	-9.93077	2.40407
3399.544	-10.44355	2.37765	-10.02767	2.34053
3403.516	-10.49143	2.37772	-9.95521	2.28124
3407.546	-10.40413	2.33198	-10.00341	2.30154
3411.500	-10.48835	2.33294	-10.00447	2.21942
3415.541	-10.45464	2.28140	-9.82624	2.18996
3419.540	-10.38492	2.23988	-9.76601	2.30340
3423.541	-10.54989	2.28655	-9.78202	2.28077
3427.500	-10.55078	2.32388	-9.75357	2.25693
3431.499	-10.57927	2.31174	-9.81551	2.18585
3435.542	-10.59948	2.26955	-9.78876	2.19757
3439.539	-10.55965	2.33140	-9.78433	2.22066
3443.501	-10.58239	2.33342	-9.89179	2.23287
3447.538	-10.53595	2.35367	-9.86216	2.25411
3451.544	-10.52816	2.43056	-9.63505	2.26793
3455.542	-10.52648	2.39479	-9.59503	2.33417
3459.534	-10.60164	2.43722	-9.54783	2.35661
3463.540	-10.59313	2.42736	-9.71611	2.33932
3467.539	-10.49994	2.34383	-9.82913	2.42395
3471.542	-10.48898	2.39047	-9.89985	2.40205
3475.533	-10.54814	2.37436	-9.90190	2.41619
3479.542	-10.54054	2.43126	-9.98336	2.39475
3483.542	-10.55217	2.42690	-9.94488	2.35058
3487.508	-10.54377	2.41463	-9.73988	2.39360
3491.501	-10.46150	2.36088	-9.75507	2.39394
3495.542	-10.52619	2.26121	-9.85267	2.37749
3499.542	-10.54862	2.31470	-9.73470	2.47925
3503.547	-10.49049	2.28477	-9.84363	2.54281
3507.531	-10.53365	2.29759	-9.87953	2.49538
3511.540	-10.49642	2.27728	-9.85016	2.37829
3515.531	-10.52094	2.26888	-9.84879	2.30737
3519.543	-10.60092	2.21500	-9.69906	2.48485
3523.502	-10.61840	2.21478	-9.60948	2.52613
3527.543	-10.67425	2.25436	-9.56395	2.58230
3531.544	-10.59443	2.25522	-9.63049	2.52763
3535.543	-10.66371	2.22557	-9.68238	2.48847
3539.539	-10.70392	2.23203	-9.72689	2.40859
3543.544	-10.71923	2.22112	-9.78030	2.37439
3547.543	-10.69903	2.20057	-9.73267	2.36067
3551.543	-10.69091	2.19682	-9.62208	2.39437
3555.563	-10.66668	2.15218	-9.58673	2.39616
3559.546	-10.71926	2.14968	-9.66516	2.44233
3563.544	-10.70855	2.19440	-9.76435	2.46547
3567.539	-10.99819	2.18599	-11.55466	2.51892
3571.535	-13.29984	2.21164	-13.42131	2.22972
3575.543	-13.85512	2.10430	-15.02367	2.01388
3579.544	-14.84821	1.87577	-15.19401	1.55500
3583.546	-15.08648	1.91762	-15.36107	0.88245
3587.535	-15.21966	1.75794	-15.47830	1.08775
3591.514	-15.63543	1.63847	-15.46936	0.83023
3595.544	-15.55708	1.40495	-15.44555	0.64561
3599.544	-15.62590	1.41469	-15.36038	0.61203
3603.544	-15.61186	1.51871	-15.27185	0.53230
3607.546	-15.70243	1.47149	-15.31884	0.58423
3611.521	-15.65359	1.34149	-15.29090	0.57899
3615.551	-15.70349	1.26372	-15.38078	0.62222
3619.544	-15.75267	1.24929	-15.46779	0.58465
3623.498	-15.78166	1.18577	-15.48630	0.54868
3627.543	-15.80567	1.18525	-15.35533	0.55825
3631.544	-15.85419	1.12919	-15.30565	0.55656
3635.533	-15.91103	1.20190	-15.44545	0.56852
3639.500	-15.90027	1.13374	-15.47722	0.60474
3643.545	-15.93341	1.16596	-15.53126	0.63479
3647.545	-15.97881	1.20304	-15.45942	0.66291
3651.503	-15.97074	1.17496	-15.30492	0.63328
3655.540	-15.95654	1.17029	-15.14019	0.57496
3659.548	-15.98546	1.18615	-15.18973	0.39465
3663.543	-15.98698	1.15935	-15.14793	0.39945
3667.541	-16.03261	1.16577	-15.25737	0.32376
3671.545	-16.11794	1.17417	-15.32232	0.42611
3675.546	-16.18972	1.22328	-15.29780	0.45396
3679.543	-16.20297	1.24493	-15.32673	0.49703
3683.543	-16.25143	1.29582	-15.23195	0.50636
3687.546	-16.33128	1.27007	-15.20660	0.49237
3691.548	-16.36363	1.28814	-15.24069	0.51469
3695.545	-16.37908	1.30117	-15.24669	0.36194
3699.538	-16.44891	1.35079	-15.23283	0.44319
3703.544	-16.41046	1.38973	-15.21495	0.50077
3707.542	-16.36446	1.40197	-15.21536	0.54824
3711.546	-16.36772	1.47724	-15.21180	0.58333
3715.504	-16.32069	1.46682	-15.14659	0.58660
3719.545	-16.25528	1.39960	-15.13239	0.49814
3723.500	-16.16086	1.42513	-15.10783	0.33538
3727.544	-16.13260	1.35693	-15.12409	0.41089
3731.536	-15.94919	1.36019	-15.11248	0.42106
3735.523	-15.94442	1.37823	-15.04846	0.52801
3739.545	-15.97454	1.38069	-15.09025	0.54161
3743.548	-15.92485	1.35099	-14.97277	0.68182
3747.544	-15.88716	1.35134	-14.97588	0.60733
3751.546	-15.91275	1.31785	-15.00170	0.51855
3755.545	-15.95243	1.27967	-15.01987	0.51613
3759.547	-15.95266	1.26159	-15.00167	0.59982
3763.544	-15.92577	1.32928	-15.03378	0.63577
3767.547	-15.93031	1.34876	-15.04955	0.69839
3771.547	-15.89347	1.36460	-15.07961	0.73637
3775.536	-15.92655	1.39693	-15.10128	0.84327
3779.543	-15.97436	1.40574	-15.22576	0.80145
3783.546	-15.99232	1.40103	-15.27499	0.78101
3787.546	-15.98711	1.40997	-15.27686	0.74323
3791.549	-15.97879	1.44756	-15.40938	0.80685
3795.546	-15.99672	1.38589	-15.56791	0.74446
3799.548	-16.07171	1.33819	-15.83018	0.63948
3803.547	-16.18984	1.34102	-15.85301	0.57671
3807.551	-16.12566	1.37602	-15.83673	0.63300
3811.542	-16.17384	1.21429	-15.76350	0.64218
3815.548	-16.26536	1.20572	-15.72720	0.70447
3819.519	-16.30231	1.17476	-15.82249	0.66793
3823.501	-16.35130	1.17985	-15.77097	0.67364
3827.508	-16.34746	1.21277	-15.83367	0.63975
3831.501	-16.45813	1.10743	-15.71043	0.61735
3835.546	-16.52008	1.08750	-15.68030	0.59881
3839.546	-16.53147	1.09132	-15.61911	0.63782
3843.506	-16.50229	1.08946	-15.60889	0.68899
3847.547	-16.44654	1.06581	-15.63262	0.74456
3851.549	-16.43206	1.01754	-15.70494	0.76078
3855.546	-16.46340	1.06521	-15.67370	0.75683
3859.531	-16.47096	1.11855	-15.65610	0.70142
3863.546	-16.39484	1.09624	-15.68198	0.63356
3867.547	-16.38566	1.06185	-15.70712	0.53388
3871.548	-16.41144	1.05699	-15.68198	0.42972
3875.507	-16.38059	1.10487	-15.65226	0.27184
3879.548	-16.32444	1.12860	-15.75794	0.09447
3883.547	-16.29356	1.16871	-15.83455	0.08212
3887.546	-16.24704	1.18344	-15.84018	0.07380
3891.552	-16.23617	1.22238	-15.86950	0.10232
3895.547	-16.28848	1.24653	-15.83797	0.03756
3899.551	-16.27751	1.33081	-15.86920	0.02017
3903.511	-16.28832	1.27679	-15.88117	0.08860
3907.546	-16.29420	1.27725	-15.91470	0.15504
3911.549	-16.32513	1.29474	-15.88691	0.21531
3915.547	-16.30567	1.31415	-15.91468	0.24458
3919.547	-16.31715	1.31691	-15.92326	0.35513
3923.549	-16.33086	1.36341	-15.85811	0.42779
3927.549	-16.28926	1.20524	-15.75573	0.47105
3931.548	-16.34305	1.11481	-15.70738	0.44959
3935.553	-16.31697	1.03855	-15.63253	0.42102
3939.538	-16.25614	1.10572	-15.61660	0.39559
3943.548	-16.16347	1.06952	-15.55086	0.44393
3947.525	-16.27478	1.11844	-15.58463	0.17832
3951.504	-16.32892	1.14102	-15.58177	0.11525
3955.545	-16.32280	1.14711	-15.54858	0.12389
3959.550	-16.32444	1.13413	-15.50036	0.15196
3963.548	-16.25518	1.13598	-15.48895	0.14208
3967.548	-16.27899	1.06195	-15.55796	0.04711
3971.546	-16.30302	1.13108	-15.54048	0.06900
3975.549	-16.33729	1.14020	-15.56240	0.09338
3979.549	-16.32938	1.17057	-15.55098	0.13097
3983.541	-16.33966	1.20145	-15.55301	0.35224
3987.450	-16.40873	1.16052	-15.54547	0.32834
3991.550	-16.41099	1.15769	-15.47715	0.44557
3995.548	-16.38959	1.18329	-15.46835	0.54205
3999.549	-16.39176	1.17887	-15.44430	0.52017
4003.545	-16.40480	1.18125	-15.46563	0.57850
4007.556	-16.40603	1.17564	-15.50525	0.66664
4011.547	-16.35196	1.18462	-15.49914	0.70679
4015.550	-16.28238	1.18823	-15.54851	0.75253
4019.552	-16.35468	1.20100	-15.55692	0.79972
4023.506	-16.35575	1.14656	-15.56335	0.82121
4027.526	-16.34846	1.13680	-15.60369	0.76001
4031.548	-16.34092	1.15513	-15.60355	0.72153
4035.545	-16.23627	1.13383	-15.66664	0.70502
4039.551	-16.14059	1.06976	-15.66707	0.69145
4043.547	-16.28190	1.11456	-15.65888	0.71937
4047.548	-16.26516	1.12264	-15.68299	0.73352
4051.446	-16.25399	1.09843	-15.63603	0.68285
4055.547	-16.24420	1.05534	-15.58161	0.60714
4059.550	-16.27890	1.04736	-15.51267	0.55833
4063.551	-16.32104	1.03908	-15.46122	0.58828
4067.536	-16.33630	1.01437	-15.42689	0.59078
4071.506	-16.33534	0.96384	-15.32419	0.67304
4075.550	-16.27016	1.02792	-15.26159	0.62744
4079.551	-16.27261	1.05274	-15.17205	0.67667
4083.553	-16.32330	1.10436	-15.21534	0.65371
4087.546	-16.31054	1.03940	-15.28610	0.69955
4091.549	-16.29026	1.02858	-15.26252	0.64378
4095.550	-16.30142	1.05244	-15.31651	0.66847
4099.552	-16.33226	1.09909	-15.42973	0.68861
4103.552	-16.35698	1.09883	-15.44098	0.75026
4107.552	-16.31658	1.10414	-15.44467	0.72661
4111.514	-16.30787	1.13008	-15.52642	0.71857
4115.428	-16.33363	1.17386	-15.57525	0.67101
4119.553	-16.38097	1.17157	-15.57535	0.67616
4123.507	-16.38529	1.09877	-15.58364	0.65251
4127.550	-16.37010	1.00612	-15.58207	0.64512
4131.444	-16.35388	0.99507	-15.60070	0.60150
4135.553	-16.37275	0.99917	-15.56201	0.57218
4139.551	-16.36820	0.97223	-15.53149	0.59194
4143.552	-16.45891	0.94398	-15.49082	0.62960
4147.553	-16.45724	0.94141	-15.46288	0.61575
4151.517	-16.49236	0.98145	-15.47323	0.62235
4155.549	-16.38515	0.84878	-15.46381	0.60083
4159.549	-16.38207	0.78654	-15.45705	0.56830
4163.444	-16.25953	0.67698	-15.46775	0.53819
4167.552	-16.20901	0.56543	-15.48852	0.54465
4171.550	-16.20858	0.63648	-15.51230	0.50786
4175.552	-16.25168	0.56738	-15.50739	0.51889
4179.449	-16.19695	0.56646	-15.54706	0.41645
4183.554	-16.18608	0.49653	-15.60137	0.37113
4187.551	-16.17310	0.51782	-15.61819	0.27428
4191.543	-16.05108	0.42939	-15.66443	0.28862
4195.449	-16.01369	0.40759	-15.64215	0.23670
4199.507	-15.95899	0.39461	-15.56646	0.21836
4203.552	-15.94543	0.47083	-15.52347	0.22417
4207.555	-15.91117	0.48130	-15.49684	0.22075
4211.553	-15.91441	0.49938	-15.50460	0.20114
4215.542	-15.92707	0.47194	-15.46971	0.17179
4219.551	-15.85570	0.58593	-15.33578	0.19790
4223.553	-15.79703	0.67346	-15.30683	0.26081
4227.553	-15.78354	0.66703	-15.18067	0.37896
4231.554	-15.76320	0.68859	-15.14911	0.47831
4235.524	-15.77166	0.72146	-15.11482	0.52017
4239.552	-15.79165	0.71544	-15.06503	0.49266
4243.460	-15.82256	0.77143	-15.11368	0.52087
4247.561	-15.81626	0.74265	-15.03494	0.57633
4251.550	-15.81739	0.73578	-15.06855	0.64001
4255.551	-15.80641	0.74247	-15.03316	0.63397
4259.554	-15.82086	0.75016	-15.01638	0.64355
4263.508	-15.85320	0.73166	-15.04851	0.62894
4267.509	-15.90715	0.66499	-15.05672	0.50556
4271.552	-15.89673	0.62942	-15.13048	0.38833
4275.445	-15.92561	0.58587	-15.21386	0.30522
4279.546	-15.97599	0.55489	-15.19454	0.26654
4283.552	-16.00885	0.55038	-15.30314	0.28009
4287.551	-16.02681	0.56389	-15.40378	0.23839
4291.446	-16.05693	0.56999	-15.47611	0.13593
4295.552	-16.13429	0.60681	-15.43217	0.17330
4299.553	-16.16411	0.61965	-15.52532	0.13757
4303.552	-16.18988	0.67615	-15.61368	0.16259
4307.554	-16.23473	0.70102	-15.60104	0.15856
4311.553	-16.25479	0.68864	-15.68539	0.20565
4315.557	-16.27485	0.68664	-15.69657	0.24578
4319.517	-16.26509	0.70756	-15.64259	0.28822
4323.431	-16.26991	0.73044	-15.68099	0.32350
4327.508	-16.24608	0.73680	-15.59128	0.38898
4331.554	-16.23432	0.76476	-15.61529	0.41780
4335.553	-16.17102	0.75615	-15.58686	0.47283
4339.424	-16.11675	0.75311	-15.56457	0.50991
4343.429	-16.04886	0.73697	-15.49501	0.57852
4347.431	-16.02369	0.69109	-15.46775	0.59931
4351.430	-15.99177	0.64474	-15.47314	0.60975
4355.449	-15.96950	0.63581	-15.44903	0.58688
4359.428	-15.94961	0.62725	-15.41545	0.62441
4363.431	-15.93313	0.57534	-15.41877	0.61624
4367.417	-15.91381	0.56110	-15.42205	0.62006
4371.427	-15.86218	0.51591	-15.43005	0.57712
4375.429	-15.84606	0.52384	-15.40932	0.54888
4379.430	-15.85322	0.53955	-15.42484	0.50257
4383.425	-15.86392	0.53538	-15.41437	0.48956
4387.452	-15.88466	0.54720	-15.49276	0.40097
4391.429	-15.94057	0.56478	-15.48598	0.33669
4395.419	-15.95342	0.59427	-15.56231	0.33886
4399.429	-16.01193	0.65051	-15.50933	0.30411
4403.427	-15.96785	0.62662	-15.55400	0.23195
4407.398	-15.94956	0.64839	-15.56950	0.22503
4411.433	-15.96284	0.65822	-15.51903	0.18041
4415.428	-16.02470	0.70969	-15.47084	0.14312
4419.387	-16.03329	0.71267	-15.44831	0.10886
4423.427	-16.10301	0.67000	-15.45136	0.10208
4427.433	-16.15367	0.66446	-15.47485	0.09409
4431.429	-16.18936	0.61900	-15.37222	0.10130
4435.450	-16.22377	0.61181	-15.29416	0.15911
4439.430	-16.24349	0.61728	-15.30157	0.15606
4443.431	-16.24423	0.60273	-15.33241	0.14542
4447.428	-16.25727	0.64333	-15.27203	0.15709
4451.425	-16.30405	0.72302	-15.24022	0.19161
4455.429	-16.31873	0.82208	-15.25499	0.25661
4459.420	-16.33598	0.90042	-15.20429	0.31262
4463.428	-16.35022	0.94319	-15.21513	0.36195
4467.425	-16.36955	0.99048	-15.14636	0.44570
4471.428	-16.26500	0.98305	-15.12719	0.47778
4475.432	-16.30481	1.01391	-15.09064	0.57400
4479.425	-16.31345	0.96032	-15.06508	0.55101
4483.425	-16.31905	0.98759	-15.04675	0.54023
4487.429	-16.36277	1.00174	-14.99371	0.55347
4491.431	-16.42229	1.00320	-14.97868	0.56004
4495.430	-16.41868	0.95335	-14.98528	0.52133
4499.427	-16.45482	0.90340	-14.98375	0.50002
4503.430	-16.48623	0.88536	-15.02323	0.47099
4507.432	-16.45017	0.79548	-15.03066	0.43632
4511.398	-16.47541	0.76157	-15.06179	0.43695
4515.389	-16.44142	0.82018	-14.94074	0.44822
4519.418	-15.23526	0.79388	-14.50795	0.44088
4523.385	-13.28625	0.79906	-12.74688	0.49430
4527.431	-12.73087	0.90246	-11.58525	0.55610
4531.427	-10.94552	1.10161	-11.16201	0.79912
4535.429	-10.63348	1.15747	-9.83566	1.36983
4539.427	-10.60876	1.22780	-9.69224	1.24456
4543.432	-10.63099	1.17327	-9.30356	1.66952
4547.422	-10.58124	1.22256	-9.08658	1.92438
4551.427	-10.56351	1.23533	-9.02764	1.68413
4555.430	-10.55095	1.25738	-9.06257	1.94411
4559.433	-10.55006	1.34091	-9.09178	1.91727
4563.422	-10.53797	1.32317	-9.20874	1.84374
4567.430	-10.55035	1.42815	-8.99620	1.88872
4571.423	-10.50961	1.44330	-8.94791	2.07180
4575.385	-10.43584	1.43612	-8.86749	1.98415
4579.423	-10.35882	1.35759	-8.97506	2.12959
4583.427	-10.38238	1.42670	-8.77742	2.14746
4587.431	-10.36557	1.44446	-8.83154	2.03548
4591.430	-10.35200	1.40880	-8.79489	2.03146
4595.391	-10.24641	1.47147	-8.86931	2.03961
4599.432	-10.37253	1.48595	-8.81225	2.06479
4603.431	-10.21238	1.43648	-8.80871	2.06476
4607.431	-10.15980	1.44977	-8.79603	2.07690
4611.422	-10.16964	1.45276	-8.86842	2.06497
4615.400	-10.17899	1.52345	-8.84877	2.02091
4619.431	-10.19188	1.39588	-8.91151	2.02756
4623.432	-10.16706	1.60477	-8.89276	2.03296
4627.390	-10.21791	1.46781	-8.93404	1.99781
4631.430	-10.19216	1.46534	-8.89155	2.04017
4635.429	-10.17175	1.48518	-8.93300	2.01067
4639.431	-10.34292	1.42573	-9.01109	1.96224
4643.454	-10.21483	1.41115	-8.89727	1.96344
4647.433	-10.26831	1.51088	-9.00290	1.96486
4651.432	-10.32376	1.49197	-9.04018	1.94041
4655.412	-10.36290	1.48158	-9.01339	1.92930
4659.416	-10.41347	1.31507	-8.95164	1.93196
4663.431	-10.26996	1.38092	-8.96838	1.94298
4667.431	-10.31761	1.28542	-8.97533	1.88839
4671.432	-10.27741	1.33898	-8.97370	1.91738
4675.390	-10.26208	1.34437	-9.00448	1.86205
4679.430	-10.20207	1.30161	-8.96414	1.85005
4683.432	-10.17312	1.21660	-8.95167	1.87870
4687.432	-10.08957	1.24401	-8.96121	1.87346
4691.390	-10.09010	1.24316	-8.94387	1.86952
4695.432	-10.05433	1.27426	-8.93903	1.95348
4699.432	-9.96925	1.33560	-8.92679	1.97745
4703.431	-9.94515	1.48275	-8.94280	1.99757
4707.389	-9.93781	1.61371	-8.95910	2.02236
4711.392	-9.98933	1.87747	-8.93966	2.10114
4715.429	-11.37584	2.16753	-8.83420	2.09785
4719.433	-10.75023	2.49817	-8.90996	2.39998
4723.416	-13.77921	4.14568	-2.63108	2.54536
4727.433	-14.45591	4.78886	-12.01274	8.64048
4731.437	-15.47153	5.76952	-12.06114	5.44123
4735.431	-7.31233	2.34123	-11.96710	8.70564
4739.423	NaN	NaN	NaN	NaN
4743.433	NaN	NaN	NaN	NaN
4747.432	NaN	NaN	NaN	NaN
4751.431	NaN	NaN	NaN	NaN
4755.431	NaN	NaN	NaN	NaN
4759.387	NaN	NaN	NaN	NaN
4763.434	NaN	NaN	NaN	NaN
4767.414	NaN	NaN	NaN	NaN
4771.432	NaN	NaN	NaN	NaN
4775.388	NaN	NaN	NaN	NaN
4779.421	NaN	NaN	NaN	NaN
4783.432	NaN	NaN	NaN	NaN
4787.433	NaN	NaN	NaN	NaN
4791.387	NaN	NaN	NaN	NaN
4795.432	NaN	NaN	NaN	NaN
4799.431	-4.35230	14.53882	NaN	NaN
4803.434	-19.96913	4.16944	NaN	NaN
4807.433	-19.79935	3.96544	NaN	NaN
4811.439	-18.93769	6.68772	-19.87493	10.31098
4815.449	-18.39902	2.87299	-19.81440	7.16609
4819.431	-18.72876	2.35140	-17.78211	5.62250
4823.399	-18.35707	1.74807	-18.04534	4.95971
4827.390	-18.47606	1.48794	-18.18324	4.33952
4831.393	-18.07446	1.17090	-18.77801	2.75204
4835.434	-17.06208	0.53655	-18.07089	3.08632
4839.432	-16.48105	0.25915	-17.77211	1.75754
4843.433	-16.15293	0.30563	-17.56241	1.01242
4847.419	-16.64606	0.38478	-17.61421	0.58862
4851.434	-16.25397	0.44152	-15.07165	0.23742
4855.436	-16.15071	0.41776	-13.92949	0.17310
4859.429	-15.93233	0.33404	-13.69945	0.03187
4863.393	-15.72359	0.43688	-13.71392	-0.03442
4867.436	-15.54870	0.29673	-13.79943	-0.01583
4871.434	-15.46795	0.24263	-13.82295	-0.08469
4875.435	-15.42329	0.24934	-13.93094	-0.12937
4879.394	-15.50896	0.35279	-13.87994	-0.14363
4883.434	-15.48734	0.43080	-13.86881	-0.20060
4887.434	-15.38230	0.44968	-13.98061	-0.21699
4891.391	-15.39937	0.45541	-14.00924	-0.34431
4895.395	-15.33493	0.45831	-14.17213	-0.29176
4899.437	-15.41960	0.42160	-14.25699	-0.27667
4903.433	-15.33509	0.43164	-14.34899	-0.34717
4907.427	-15.36133	0.43734	-14.40270	-0.30436
4911.395	-15.25466	0.46218	-14.33362	-0.32295
4915.435	-15.17787	0.46805	-14.34883	-0.30749
4919.434	-15.37575	0.46498	-14.34033	-0.19303
4923.433	-15.33493	0.38211	-14.35584	-0.22537
4927.392	-15.35519	0.27858	-14.39136	-0.11852
4931.432	-15.36827	0.23941	-14.38903	-0.07375
4935.433	-15.44730	0.26028	-14.39152	0.01343
4939.438	-15.41162	0.24907	-14.31305	0.06939
4943.421	-15.42707	0.29003	-14.25504	0.17403
4947.406	-15.43794	0.28491	-14.24800	0.19169
4951.435	-15.51589	0.30647	-14.19350	0.20809
4955.436	-15.57111	0.31678	-14.18976	0.28328
4959.394	-15.59747	0.35350	-14.18239	0.34523
4963.435	-15.61598	0.31319	-14.17476	0.35127
4967.435	-15.67013	0.37785	-14.19725	0.40808
4971.435	-15.71920	0.42500	-14.21999	0.44056
4975.395	-15.75555	0.50963	-14.25529	0.42481
4979.435	-15.77283	0.59564	-14.28653	0.37076
4983.392	-15.81027	0.62450	-14.30636	0.36320
4987.421	-15.77545	0.63042	-14.38649	0.31933
4991.390	-15.79933	0.66219	-14.35363	0.32494
4995.434	-15.78823	0.63344	-14.39720	0.30709
4999.433	-15.81596	0.64277	-14.40903	0.31961
5003.433	-15.83742	0.54181	-14.43254	0.25408
5007.395	-15.82230	0.58973	-14.47422	0.23372
5011.434	-15.79430	0.53891	-14.48767	0.22165
5015.439	-15.75791	0.50568	-14.47322	0.23656
5019.433	-15.74516	0.45814	-14.48432	0.24892
5023.396	-15.68969	0.41119	-14.48695	0.23854
5027.434	-15.65002	0.39914	-14.48190	0.24153
5031.406	-15.62427	0.38715	-14.43426	0.23345
5035.434	-15.57314	0.38397	-14.42006	0.21344
5039.394	-15.51096	0.38075	-14.39140	0.23075
5043.434	-15.47605	0.43302	-14.32693	0.22819
5047.434	-15.38805	0.45810	-14.30629	0.25205
5051.433	-15.33594	0.48563	-14.23333	0.24395
5055.395	-15.26787	0.52147	-14.18613	0.26163
5059.437	-15.21594	0.54891	-14.11138	0.20957
5063.437	-15.12028	0.55602	-14.07763	0.19152
5067.436	-15.06346	0.58419	-14.03921	0.20469
5071.395	-14.96675	0.55179	-14.00181	0.15108
5075.438	-14.97831	0.55207	-13.97192	0.10193
5079.433	-14.91951	0.52800	-13.96923	0.02920
5083.434	-14.89050	0.51224	-13.94546	-0.08385
5087.395	-14.82859	0.49733	-13.98206	-0.03089
5091.438	-14.78350	0.50238	-14.01709	0.01854
5095.436	-14.71670	0.52018	-14.04813	0.16570
5099.437	-14.71709	0.54800	-14.14226	0.23578
5103.396	-14.68596	0.57676	-14.22650	0.16290
5107.439	-14.68586	0.60279	-14.24023	0.26533
5111.433	-14.71561	0.63493	-14.29555	0.26008
5115.432	-14.73228	0.68758	-14.30314	0.39590
5119.396	-14.70906	0.71339	-14.31104	0.45155
5123.413	-14.69984	0.73509	-14.34837	0.53934
5127.436	-14.70669	0.76432	-14.41648	0.47369
5131.440	-14.69998	0.75055	-14.42372	0.51425
5135.304	-14.77721	0.70495	-14.43301	0.51512
5139.436	-14.84385	0.60780	-14.43950	0.52066
5143.439	-14.94101	0.49241	-14.41503	0.50537
5147.434	-14.96603	0.45757	-14.40409	0.46046
5151.397	-14.97951	0.48020	-14.39541	0.49107
5155.414	-15.01871	0.54321	-14.38479	0.47191
5159.435	-15.04543	0.50736	-14.37177	0.43896
5163.437	-15.10230	0.43077	-14.36609	0.42041
5167.306	-15.13226	0.32114	-14.34154	0.41555
5171.436	-15.15529	0.30676	-14.34196	0.41487
5175.435	-15.16588	0.30977	-14.34166	0.42628
5179.437	-15.18455	0.27269	-14.32118	0.43350
5183.299	-15.19063	0.28403	-14.27695	0.46217
5187.435	-15.16701	0.31495	-14.29948	0.43104
5191.438	-15.18294	0.34924	-14.30512	0.47321
5195.427	-15.19283	0.35136	-14.29424	0.50506
5199.300	-15.19186	0.35661	-14.21883	0.38343
5203.440	-15.17688	0.39477	-14.15475	0.28244
5207.405	-15.12502	0.41890	-14.12714	0.30184
5211.437	-15.12129	0.53808	-14.09780	0.28270
5215.401	-15.12647	0.56474	-14.06149	0.25893
5219.440	-15.11553	0.50429	-14.02150	0.27173
5223.437	-15.12536	0.41773	-14.00777	0.24718
5227.438	-15.13651	0.43931	-14.04773	0.22158
5231.301	-15.12578	0.48258	-14.00475	0.22644
5235.438	-15.14370	0.51557	-13.98414	0.19968
5239.437	-15.16514	0.58602	-13.98893	0.17392
5243.446	-15.14985	0.42933	-14.02356	0.16830
5247.397	-15.16396	0.41796	-14.08251	0.22167
5251.438	-15.18835	0.27298	-14.06018	0.22374
5255.437	-15.20164	0.28854	-14.11925	0.22014
5259.437	-15.20575	0.26461	-14.12744	0.24208
5263.296	-15.19170	0.27935	-14.15232	0.23119
5267.394	-15.16773	0.29214	-14.22281	0.22115
5271.395	-15.16162	0.39549	-14.20003	0.21517
5275.437	-15.16250	0.44854	-14.20623	0.21177
5279.338	-15.15085	0.49711	-14.19102	0.23327
5283.440	-15.22313	0.54048	-14.16361	0.25501
5287.439	-15.35304	0.57194	-14.13556	0.30116
5291.438	-15.37132	0.57244	-14.08701	0.33672
5295.334	-15.43083	0.65297	-14.11885	0.44051
5299.441	-15.42154	0.73761	-14.11584	0.53016
5303.439	-15.61195	0.70611	-14.10072	0.63285
5307.438	-15.66931	0.62252	-14.11348	0.60060
5311.441	-15.69049	0.59636	-14.16109	0.66287
5315.445	-15.71018	0.54569	-14.14828	0.67630
5319.438	-15.69360	0.48352	-14.16093	0.75232
5323.402	-15.68447	0.48179	-14.26753	0.72866
5327.298	-15.66528	0.46935	-14.30610	0.76611
5331.440	-15.60724	0.49705	-14.31887	0.78797
5335.440	-15.60100	0.47199	-14.29548	0.71015
5339.439	-15.22038	0.40874	-13.52998	0.72081
5343.335	-14.22724	0.37840	-13.18517	0.70633
5347.440	-12.22324	0.36234	-11.86215	0.61662
5351.438	-11.60894	0.33588	-10.93040	0.77316
5355.441	-11.21847	0.39357	-10.16004	0.66270
5359.334	-10.89748	0.40608	-9.60746	1.06049
5363.419	-9.91553	0.49564	-9.46365	0.89732
5367.438	-9.36385	0.48290	-8.60339	0.98426
5371.440	-9.25482	0.43525	-7.71077	1.06186
5375.336	-9.67914	0.40172	-7.32990	1.26426
5379.319	-9.72952	0.36240	-8.10491	1.18584
5383.316	-9.62666	0.41006	-7.93328	1.08029
5387.315	-9.80359	0.41029	-7.94616	0.89432
5391.273	-9.64765	0.46283	-8.01701	1.01616
5395.317	-9.58120	0.51140	-8.03633	0.89410
5399.315	-9.55842	0.53942	-7.91453	0.97872
5403.271	-9.56477	0.53882	-7.70399	1.00816
5407.310	-9.52485	0.44138	-7.70948	1.08889
5411.316	-9.52690	0.43351	-7.68476	1.22225
5415.316	-9.51925	0.39421	-7.81459	1.08721
5419.313	-9.47328	0.44814	-7.97719	0.90417
5423.442	-9.50160	0.42822	-8.04446	0.96111
5427.316	-9.42194	0.41764	-8.11418	1.03669
5431.314	-9.37370	0.43407	-8.10866	0.97171
5435.315	-9.33422	0.46970	-8.09394	1.02898
5439.316	-9.33396	0.46124	-7.90248	1.01944
5443.317	-9.39533	0.49839	-7.80221	1.06027
5447.313	-9.36926	0.50432	-7.88078	1.11047
5451.271	-9.37825	0.50778	-7.83173	1.16616
5455.344	-9.39784	0.50999	-8.03587	1.08442
5459.316	-9.46841	0.50054	-8.04696	1.08252
5463.313	-9.46696	0.43834	-7.91475	1.10951
5467.315	-9.42559	0.44330	-7.99406	1.10320
5471.311	-9.44933	0.44846	-8.06270	1.06838
5475.318	-9.45370	0.43044	-8.12359	1.06539
5479.315	-9.45252	0.40865	-8.16958	1.05278
5483.315	-9.44141	0.38651	-8.18575	1.05441
5487.316	-9.40325	0.35510	-8.22781	1.03153
5491.311	-9.39045	0.32285	-8.28840	0.96478
5495.315	-9.36841	0.31554	-8.33921	0.92899
5499.316	-9.33898	0.30723	-8.33926	0.90141
5503.312	-9.32139	0.31141	-8.35318	0.87338
5507.317	-9.32550	0.32509	-8.38211	0.84886
5511.317	-9.34314	0.32718	-8.38070	0.80163
5515.319	-9.34379	0.33496	-8.35833	0.77092
5519.314	-9.36107	0.33599	-8.33931	0.74325
5523.272	-9.37329	0.31593	-8.31360	0.70031
5527.315	-9.36534	0.30098	-8.28208	0.64069
5531.317	-9.38083	0.28616	-8.26777	0.59756
5535.339	-9.36486	0.27205	-8.23211	0.54777
5539.319	-9.35952	0.25340	-8.21410	0.53998
5543.273	-9.33932	0.24569	-8.19781	0.51951
5547.315	-9.30810	0.25363	-8.19263	0.52006
5551.317	-9.30984	0.26108	-8.20848	0.55361
5555.317	-9.30665	0.22354	-8.20442	0.58364
5559.317	-9.33683	0.19354	-8.19900	0.63241
5563.316	-9.35590	0.17447	-8.15603	0.68585
5567.312	-9.35152	0.18963	-8.11590	0.78035
5571.319	-9.39965	0.19603	-8.09126	0.88473
5575.272	-9.38455	0.19885	-8.06584	0.94321
5579.315	-9.40694	0.21384	-8.03694	1.02469
5583.322	-9.39617	0.22944	-7.98235	1.05605
5587.316	-9.43211	0.23783	-7.94582	1.12097
5591.319	-9.45631	0.23666	-7.91275	1.16158
5595.318	-9.43325	0.24363	-7.91419	1.18598
5599.311	-9.44168	0.29013	-7.88220	1.19495
5603.318	-9.43530	0.26591	-7.87684	1.24098
5607.319	-9.41566	0.28039	-7.85935	1.27705
5611.316	-9.40298	0.23115	-7.84479	1.25554
5615.345	-9.38837	0.23604	-7.89213	1.23518
5619.281	-9.39030	0.20991	-7.90564	1.22281
5623.273	-9.40045	0.21689	-7.94423	1.22277
5627.320	-9.42276	0.21288	-7.99472	1.21760
5631.340	-9.40004	0.18139	-8.07385	1.18461
5635.319	-9.41895	0.19474	-8.10948	1.14100
5639.319	-9.41709	0.25664	-8.11196	1.12053
5643.315	-9.42467	0.28414	-8.14171	1.15293
5647.319	-9.41206	0.33305	-8.12532	1.11521
5651.320	-9.40936	0.39993	-8.17658	1.08136
5655.319	-9.39612	0.45015	-8.18098	1.10960
5659.295	-9.39965	0.41315	-8.16508	1.10035
5663.313	-9.40489	0.43038	-8.15032	1.09326
5667.317	-9.39641	0.42186	-8.14740	1.04888
5671.317	-9.38204	0.40702	-8.11870	1.01893
5675.316	-9.41907	0.39656	-8.08438	0.97260
5679.276	-9.39832	0.35172	-8.08706	0.98728
5683.274	-9.36950	0.27800	-8.08616	0.95005
5687.320	-9.38400	0.23806	-8.09559	0.89869
5691.317	-9.39892	0.27526	-8.09820	0.83292
5695.304	-9.37682	0.23237	-8.08713	0.77787
5699.311	-9.36189	0.20875	-8.08511	0.69444
5703.312	-9.32886	0.16637	-8.11481	0.64932
5707.319	-9.29708	0.16369	-8.16943	0.56822
5711.277	-9.30232	0.13990	-8.22739	0.51571
5715.317	-9.32345	0.17675	-8.27134	0.46766
5719.319	-9.32917	0.15678	-8.34030	0.47401
5723.317	-9.35667	0.14135	-8.35619	0.51763
5727.278	-9.41941	0.13958	-8.39605	0.50376
5731.319	-9.40644	0.16401	-8.44705	0.49360
5735.318	-9.37511	0.16485	-8.46638	0.51566
5739.319	-9.39192	0.16764	-8.52535	0.54453
5743.277	-9.36938	0.14536	-8.57197	0.54732
5747.319	-9.40866	0.12510	-8.58532	0.56398
5751.320	-9.40574	0.10255	-8.58815	0.58921
5755.319	-9.38832	0.11219	-8.58893	0.61510
5759.278	-9.36201	0.08652	-8.60766	0.63249
5763.320	-9.34338	0.08579	-8.60196	0.63412
5767.319	-9.29945	0.10456	-8.63277	0.59879
5771.319	-9.37320	0.10979	-8.48818	0.59823
5775.278	-9.53313	0.19504	-8.62263	0.55832
5779.318	-10.66706	0.19382	-8.78614	0.55692
5783.301	-11.41247	0.27955	-9.27975	0.65792
5787.318	-11.48852	0.54572	-9.28025	0.86276
5791.277	-11.23941	0.58456	-9.42049	0.93601
5795.321	-11.28822	0.48353	-9.47507	1.00792
5799.319	-11.27166	0.53934	-9.42371	1.09448
5803.319	-11.17890	0.59094	-9.43919	1.13489
5807.305	-11.13626	0.65134	-9.50870	1.21611
5811.320	-11.12570	0.69020	-9.59168	1.20671
5815.320	-11.18814	0.74406	-9.57131	1.25757
5819.319	-11.30336	0.80531	-9.62220	1.28498
5823.278	-11.37615	0.82912	-9.61800	1.31522
5827.275	-11.28209	0.82152	-9.56856	1.28999
5831.276	-11.25669	0.82378	-9.56569	1.25155
5835.320	-11.21871	0.80620	-9.54633	1.22431
5839.315	-11.18812	0.83568	-9.53764	1.18669
5843.320	-11.22711	0.93184	-9.52879	1.13452
5847.320	-11.21052	1.03717	-9.52063	1.09594
5851.322	-11.28056	1.09557	-9.53521	1.08352
5855.315	-11.26319	1.13018	-9.53912	1.08762
5859.324	-11.23430	1.20322	-9.56062	1.06842
5863.322	-11.24079	1.28149	-9.55176	1.07374
5867.319	-11.22026	1.20306	-9.57681	1.08194
5871.288	-11.19700	1.20861	-9.57495	1.11127
5875.321	-11.17407	1.22189	-9.55620	1.18682
5879.324	-11.22203	1.19126	-9.53383	1.24968
5883.319	-11.28209	1.19646	-9.51259	1.27731
5887.316	-11.32999	1.21222	-9.46715	1.36242
5891.322	-11.35055	1.23356	-9.52864	1.35007
5895.319	-11.31273	1.17812	-9.55673	1.38780
5899.323	-11.33626	1.17205	-9.50737	1.39934
5903.312	-11.31829	1.15011	-9.55780	1.43788
5907.322	-11.31462	1.14357	-9.58393	1.44474
5911.311	-11.31932	1.09733	-9.57732	1.39051
5915.322	-11.33824	1.10809	-9.61465	1.37368
5919.319	-11.30546	1.06111	-9.59778	1.33209
5923.277	-11.22771	1.07835	-9.58449	1.30117
5927.322	-11.22083	1.07173	-9.61834	1.24689
5931.322	-11.17660	1.08715	-9.66868	1.19061
5935.321	-11.17035	1.04116	-9.62439	1.14096
5939.322	-11.16984	1.00982	-9.64806	1.13241
5943.322	-11.14077	0.97461	-9.69868	1.10995
5947.321	-11.16597	0.99938	-9.72684	1.08530
5951.279	-11.15456	0.98782	-9.73091	1.10003
5955.321	-11.10345	1.02446	-9.73009	1.14136
5959.324	-11.05593	0.98720	-9.70639	1.23991
5963.321	-10.97636	1.01024	-9.66704	1.24889
5967.318	-10.89599	0.99335	-9.51981	1.30401
5971.323	-10.91693	1.00737	-9.42115	1.37022
5975.324	-11.01223	0.99405	-9.27905	1.46705
5979.321	-11.00790	1.01767	-9.19742	1.56056
5983.321	-11.01464	1.06183	-9.12844	1.67898
5987.322	-11.02165	1.06485	-9.24274	1.79338
5991.312	-11.00649	1.01853	-9.70229	1.61023
5995.317	-11.07489	1.02212	-10.01178	1.59577
5999.325	-11.09176	1.04378	-9.76343	1.56856
6003.321	-11.12562	1.08349	-10.18389	1.49354
6007.325	-11.23974	1.12316	-10.32995	1.39952
6011.324	-11.99175	1.12969	-10.66136	1.39566
6015.281	-13.36408	1.16207	-12.69457	1.36358
6019.325	-13.91404	1.12556	-14.25592	0.98879
6023.280	-14.58257	1.07949	-14.35999	0.63887
6027.323	-15.88427	0.95569	-16.30860	0.08808
6031.320	-16.71212	0.70308	-16.64508	-0.11440
6035.286	-16.69905	0.48744	-16.77750	-0.07806
6039.325	-16.67478	0.24302	-16.56647	-0.17699
6043.323	-16.57117	0.17563	-16.62348	-0.15467
6047.320	-16.77102	0.22215	-16.64129	-0.35648
6051.323	-16.73736	0.04697	-16.52592	-0.34490
6055.325	-16.81062	0.23407	-16.41786	-0.37603
6059.323	-16.85446	0.19900	-16.47641	-0.36586
6063.222	-16.92821	0.25719	-16.50528	-0.41793
6067.322	-16.96732	0.18886	-16.58380	-0.45549
6071.327	-17.04682	0.12779	-16.51431	-0.42973
6075.321	-17.04723	0.19659	-16.39511	-0.35607
6079.221	-17.01966	0.29083	-16.32844	-0.32460
6083.322	-17.01163	0.41839	-16.40041	-0.33335
6087.326	-17.07000	0.39045	-16.37985	-0.33200
6091.324	-17.07653	0.46019	-16.33043	-0.26622
6095.220	-17.06757	0.38021	-16.26689	-0.17786
6099.322	-17.10066	0.35863	-16.33246	-0.22811
6103.323	-17.05825	0.37695	-16.24729	-0.21664
6107.281	-17.06000	0.48256	-16.24834	-0.19419
6111.315	-17.08565	0.38759	-16.22451	-0.28779
6115.315	-17.14506	0.42317	-16.19485	-0.40137
6119.328	-17.11784	0.54978	-16.12149	-0.31270
6123.279	-17.01072	0.46437	-16.03426	-0.23510
6127.220	-17.07653	0.31583	-15.79131	-0.21417
6131.324	-17.02204	0.43350	-15.78579	-0.43839
6135.280	-17.00904	0.60088	-15.75644	-0.32659
6139.325	-16.93455	0.49879	-15.85350	-0.29586
6143.225	-16.93703	0.45702	-15.81426	-0.26565
6147.326	-16.92508	0.59233	-15.86369	-0.20530
6151.325	-16.87010	0.53401	-15.83593	-0.02646
6155.323	-16.84762	0.47676	-15.94208	0.02036
6159.210	-16.90302	0.40984	-16.15534	0.02902
6163.323	-16.84102	0.38873	-16.02091	0.07084
6167.326	-16.82754	0.53888	-15.91794	0.01147
6171.324	-16.77425	0.44002	-16.02048	-0.53886
6175.223	-16.80935	0.38975	-16.04508	-0.26728
6179.324	-16.80002	0.44258	-16.04265	-0.17517
6183.326	-16.74048	0.49399	-15.97730	-0.05872
6187.324	-16.69789	0.46588	-15.83489	-0.06548
6191.221	-16.65476	0.49307	-15.73525	-0.08024
6195.324	-16.68136	0.43207	-15.63534	-0.16849
6199.306	-16.69181	0.50204	-15.66279	-0.41918
6203.317	-16.66498	0.63951	-15.53444	-0.38619
6207.220	-16.61222	0.78860	-15.53939	-0.47541
6211.324	-16.63013	0.64565	-15.57042	-0.44853
6215.325	-16.61466	0.66686	-15.60682	-0.29088
6219.326	-16.62104	0.65932	-15.61294	-0.22372
6223.193	-16.65619	0.61252	-15.66339	-0.12188
6227.324	-16.64047	0.59079	-15.71975	-0.15409
6231.325	-16.65382	0.66040	-15.70169	0.01065
6235.328	-16.65656	0.64532	-15.84759	-0.12222
6239.220	-16.64970	0.62170	-15.88089	0.11310
6243.290	-16.64740	0.61369	-15.96248	0.05065
6247.282	-16.64218	0.58792	-15.98902	0.10164
6251.327	-16.67553	0.62781	-15.99360	0.19277
6255.220	-16.64471	0.64172	-16.01016	0.25612
6259.323	-16.68796	0.64226	-16.02529	0.24191
6263.325	-16.65410	0.66220	-16.00440	0.22658
6267.280	-16.59857	0.69013	-15.97282	0.24124
6271.226	-16.60907	0.70650	-15.91346	0.22095
6275.325	-16.59971	0.70580	-15.88739	0.18338
6279.326	-16.64872	0.67184	-15.83682	0.20444
6283.302	-16.69846	0.67190	-15.74902	0.15455
6287.284	-16.65423	0.67411	-15.71853	0.10817
6291.326	-16.69892	0.65803	-15.64572	0.08530
6295.325	-16.68457	0.62126	-15.54430	0.05985
6299.327	-16.68903	0.59059	-15.48478	-0.00194
6303.194	-16.74301	0.55490	-15.43669	0.05102
6307.325	-16.77746	0.57649	-15.37633	0.03651
6311.325	-16.81881	0.60469	-15.35521	0.04467
6315.325	-16.90745	0.64594	-15.40708	0.08739
6319.188	-16.96530	0.64218	-15.39029	0.07758
6323.283	-17.02286	0.72199	-15.45009	0.04570
6327.317	-17.00952	0.80938	-15.45327	0.04879
6331.327	-17.04965	0.83203	-15.46761	0.03046
6335.286	-17.03280	0.90788	-15.45295	-0.01102
6339.325	-17.04802	0.97588	-15.51366	-0.12288
6343.325	-17.07032	0.98419	-15.56521	-0.11112
6347.325	-17.06213	1.02382	-15.60157	-0.27109
6351.187	-17.06056	1.06727	-15.66125	-0.34028
6355.326	-17.05603	1.05941	-15.70809	-0.44342
6359.327	-17.00064	1.05024	-15.73049	-0.48238
6363.326	-16.98178	1.07615	-15.76132	-0.52853
6367.190	-16.96450	1.04895	-15.78694	-0.53188
6371.327	-16.97545	1.06207	-15.80965	-0.57846
6375.326	-16.92806	1.01600	-15.82456	-0.56219
6379.328	-16.82035	0.93535	-15.84631	-0.58730
6383.285	-16.78487	0.90082	-15.88289	-0.54286
6387.328	-16.76547	0.89651	-15.89113	-0.55928
6391.284	-16.75020	0.90287	-15.90724	-0.49185
6395.326	-16.66141	0.85009	-15.91911	-0.40929
6399.188	-16.65214	0.88862	-15.92710	-0.18598
6403.327	-16.57158	0.77967	-15.95007	-0.19076
6407.326	-16.56704	0.76895	-15.93150	-0.06313
6411.201	-16.57406	0.73942	-15.94309	0.00459
6415.194	-16.53553	0.70822	-15.79648	-0.18638
6419.207	-16.49640	0.72416	-15.87494	-0.11903
6423.161	-16.45738	0.74344	-15.85049	-0.01484
6427.201	-16.46423	0.80758	-15.85196	0.01974
6431.199	-16.43855	0.85525	-15.82805	0.09505
6435.201	-16.37759	0.90626	-15.79372	0.16738
6439.203	-16.37174	0.86951	-15.72154	0.21609
6443.202	-16.31061	0.82133	-15.69436	0.23207
6447.199	-16.31155	0.83916	-15.58898	0.20388
6451.203	-16.28107	0.83929	-15.52799	0.22400
6455.182	-16.27234	0.87281	-15.42442	0.19741
6459.206	-16.26291	0.90131	-15.44375	0.24115
6463.199	-16.27170	0.90797	-15.39402	0.27074
6467.201	-16.30021	0.91740	-15.39054	0.30292
6471.203	-16.30773	0.87284	-15.32442	0.31342
6475.203	-16.31882	0.86405	-15.31339	0.33199
6479.203	-16.36082	0.83313	-15.30341	0.31573
6483.203	-16.38762	0.83636	-15.31886	0.31151
6487.204	-16.42941	0.83015	-15.32498	0.34016
6491.204	-16.46064	0.82932	-15.31616	0.30051
6495.201	-16.51493	0.84857	-15.30840	0.30271
6499.192	-16.52029	0.83374	-15.33158	0.28882
6503.205	-16.55370	0.82809	-15.33278	0.30512
6507.203	-16.58115	0.84802	-15.34633	0.29645
6511.200	-16.60107	0.85405	-15.35505	0.32023
6515.159	-16.63104	0.88522	-15.38290	0.30092
6519.158	-16.65485	0.89908	-15.37688	0.27316
6523.211	-16.65079	0.90991	-15.39160	0.27887
6527.187	-16.62945	0.91275	-15.42078	0.25715
6531.205	-16.57577	0.93376	-15.41386	0.18994
6535.202	-16.52221	0.91659	-15.48185	0.16706
6539.205	-16.53920	0.90984	-15.52437	0.15752
6543.171	-16.47710	0.91482	-15.58216	0.12183
6547.201	-16.37720	0.90710	-15.62696	0.09082
6551.201	-16.31962	0.87260	-15.65874	0.05228
6555.206	-16.20178	0.84812	-15.71418	0.01765
6559.201	-16.24846	0.83113	-15.73405	-0.02834
6563.204	-16.22613	0.80143	-15.78131	-0.09443
6567.203	-16.18384	0.83930	-15.85294	-0.10425
6571.203	-16.15163	0.84772	-15.89281	-0.08907
6575.162	-16.15857	0.84712	-15.90628	-0.03374
6579.186	-16.18249	0.86025	-15.94126	-0.02882
6583.204	-16.19846	0.87953	-15.97592	-0.03674
6587.201	-16.22334	0.88918	-16.02068	-0.04896
6591.194	-16.29975	0.87369	-16.00842	0.00315
6595.206	-16.36098	0.92667	-16.04517	0.01579
6599.205	-16.41494	0.94791	-16.03692	0.09997
6603.204	-16.44412	0.99294	-16.02339	0.16695
6607.195	-16.41478	1.04601	-16.02626	0.18975
6611.205	-16.46297	1.05326	-15.99780	0.15194
6615.204	-16.49346	1.08322	-15.97448	0.08476
6619.202	-16.47037	1.12268	-15.99679	-0.00626
6623.203	-16.51550	1.17838	-15.98626	-0.09252
6627.206	-16.46012	1.19284	-16.04379	-0.20032
6631.206	-16.47612	1.18462	-15.96647	-0.12227
6635.206	-16.39621	1.22135	-15.86948	0.01726
6639.197	-16.34023	1.24933	-15.65815	0.00060
6643.206	-16.27412	1.25349	-15.54137	-0.03809
6647.205	-16.19801	1.22760	-15.54902	-0.00034
6651.203	-16.28203	1.19496	-15.58948	-0.04004
6655.229	-16.01725	1.15404	-15.56061	0.00869
6659.208	-14.06581	1.10684	-14.27042	0.11326
6663.184	-12.15723	1.24250	-12.89690	0.56661
6667.204	-10.62528	1.20088	-10.54550	0.77576
6671.164	-8.74952	1.31915	-9.07046	1.11059
6675.208	-7.18232	1.30383	-8.11150	1.25927
6679.205	-5.41069	1.17412	-7.06178	1.08563
6683.205	-3.83119	1.08682	-5.23034	1.55048
6687.165	-2.17688	1.07015	-3.89397	1.26534
6691.207	-0.97584	0.91094	-2.05625	1.23345
6695.204	0.93331	0.95809	-1.01695	1.38264
6699.205	1.57533	0.95053	0.96455	1.80392
6703.205	3.26760	0.93000	1.73222	1.62463
6707.211	3.92267	0.94542	2.56597	1.60370
6711.206	5.26758	0.83983	4.74792	1.80766
6715.205	6.16118	0.89511	4.89658	1.86165
6719.203	6.86378	0.82546	5.26849	1.85079
6723.163	7.46792	0.84060	7.54725	1.81998
6727.211	8.25591	0.83055	7.93583	1.81715
6731.205	8.42525	0.80859	7.89720	1.77994
6735.201	7.92614	0.84097	8.05567	1.81600
6739.205	7.42327	0.85424	7.94820	1.78993
6743.209	7.52142	0.85818	7.58193	1.64836
6747.206	7.66209	0.83360	7.71411	1.63035
6751.199	7.74323	0.80277	7.85334	1.58340
6755.206	7.84265	0.77139	7.96626	1.48996
6759.207	7.78260	0.72505	8.14443	1.37007
6763.207	7.76153	0.69658	8.00518	1.29758
6767.203	7.73463	0.65064	7.95317	1.25125
6771.204	7.69281	0.67515	8.13125	1.23297
6775.208	7.65186	0.67081	8.06827	1.18836
6779.206	7.60280	0.67064	8.16476	1.13711
6783.199	7.64600	0.67072	8.17113	1.12949
6787.190	7.63508	0.67940	8.15868	1.08731
6791.208	7.63016	0.68953	8.29280	1.17845
6795.209	7.60673	0.74572	8.30614	1.18741
6799.204	7.54418	0.78804	8.37599	1.23029
6803.207	7.48390	0.87252	8.33321	1.22925
6807.206	7.45223	0.90931	8.37371	1.25664
6811.209	7.45296	0.96392	8.41395	1.32061
6815.203	7.43766	0.98452	8.41769	1.37544
6819.208	7.45370	1.03333	8.44205	1.42804
6823.210	7.44601	1.08074	8.46796	1.44165
6827.163	7.44215	1.08757	8.47461	1.46508
6831.201	7.41011	1.10487	8.52331	1.43562
6835.203	7.40284	1.15078	8.51297	1.38902
6839.205	7.41492	1.16439	8.53933	1.38586
6843.206	7.46116	1.12861	8.50389	1.42256
6847.194	7.53779	1.08312	8.51365	1.43365
6851.205	7.57061	1.05433	8.49957	1.44325
6855.208	7.51881	0.99466	8.50651	1.43640
6859.207	7.52986	0.95806	8.36642	1.38351
6863.166	7.47870	0.90216	8.40011	1.36157
6867.208	7.45643	0.85292	8.29008	1.32347
6871.182	7.35105	0.81224	8.26155	1.32120
6875.206	7.34218	0.77251	8.25399	1.33757
6879.165	7.31804	0.73998	8.13981	1.32547
6883.206	7.27008	0.72702	8.09927	1.29774
6887.207	7.25846	0.73971	8.18504	1.31167
6891.207	7.21970	0.73144	8.18035	1.34942
6895.167	7.20221	0.74424	8.25839	1.33151
6899.207	7.33171	0.80395	8.32456	1.33470
6903.208	7.25492	0.95681	8.31841	1.39107
6907.208	7.33237	0.95312	8.31982	1.44056
6911.167	7.15083	1.03124	8.38884	1.45634
6915.197	7.36603	1.34655	8.65045	1.78759
6919.210	12.03434	4.94972	5.97320	2.94436
6923.209	11.51335	5.25445	14.05110	1.71068
6927.168	NaN	NaN	8.75824	4.10358
6931.206	NaN	NaN	13.22074	4.48482
6935.208	NaN	NaN	NaN	NaN
6939.209	NaN	NaN	NaN	NaN
6943.163	NaN	NaN	NaN	NaN
6947.205	NaN	NaN	NaN	NaN
6951.215	NaN	NaN	NaN	NaN
6955.178	NaN	NaN	NaN	NaN
6959.164	NaN	NaN	NaN	NaN
6963.205	NaN	NaN	NaN	NaN
6967.206	NaN	NaN	NaN	NaN
6971.208	NaN	NaN	NaN	NaN
6975.162	NaN	NaN	NaN	NaN
6979.206	NaN	NaN	NaN	NaN
6983.208	NaN	NaN	NaN	NaN
6987.207	NaN	NaN	NaN	NaN
6991.198	NaN	NaN	NaN	NaN
6995.192	NaN	NaN	NaN	NaN
6999.208	NaN	NaN	9.15243	7.43564
7003.207	NaN	NaN	10.66536	5.41139
7007.208	16.58268	14.33154	14.17955	2.05754
7011.165	15.72639	10.14500	17.33377	5.09070
7015.205	16.25223	10.19962	17.46751	5.21645
7019.211	14.45907	6.51662	8.09941	2.12244
7023.181	15.18779	6.90388	14.04297	2.31278
7027.209	13.77630	6.36212	10.85880	2.02054
7031.210	13.46860	5.90615	13.27877	1.76186
7035.208	12.66294	2.96433	12.04545	1.69999
7039.203	10.62701	2.86711	10.33401	1.74337
7043.209	10.59277	2.37675	10.49440	1.66594
7047.207	10.44914	1.74732	10.18418	1.67602
7051.209	10.51919	1.77067	10.03910	1.66976
7055.210	9.76939	1.34896	10.11154	1.55812
7059.166	9.73641	1.59832	10.85796	1.30872
7063.210	9.18010	1.58704	10.88369	1.15243
7067.210	9.31714	1.58681	10.98953	1.27176
7071.213	9.30411	1.69880	11.09836	1.27410
7075.211	9.28671	1.66617	10.83493	1.32356
7079.209	9.41042	1.57056	10.92354	1.42299
7083.209	9.29466	1.58735	10.90813	1.43650
7087.208	9.22961	1.57954	11.13184	1.38436
7091.187	9.19558	1.54260	11.14357	1.45604
7095.168	9.22378	1.48520	11.15429	1.48237
7099.208	9.25772	1.57644	11.17911	1.55413
7103.209	9.25013	1.58035	11.15470	1.57819
7107.207	9.28173	1.56590	11.14323	1.60183
7111.109	9.31946	1.57053	11.09733	1.62255
7115.212	9.29565	1.49026	11.01747	1.65107
7119.197	9.31554	1.50012	11.06342	1.67530
7123.208	9.29976	1.42733	10.99798	1.66256
7127.109	9.31114	1.40817	11.08763	1.61498
7131.212	9.35812	1.43251	11.08333	1.62511
7135.211	9.39223	1.46405	11.01804	1.58611
7139.212	9.37655	1.52581	10.99520	1.55014
7143.204	9.42694	1.56157	10.91767	1.53143
7147.214	9.47886	1.63515	10.88197	1.52603
7151.210	9.52408	1.68675	10.83508	1.49166
7155.209	9.51182	1.80211	10.88144	1.46443
7159.207	9.52857	1.87230	10.82641	1.46285
7163.183	9.55594	1.96771	10.78218	1.46084
7167.211	9.58579	2.04658	10.78204	1.46065
7171.209	9.59578	2.05051	10.73998	1.48359
7175.107	9.59223	2.10236	10.70421	1.51990
7179.211	9.56079	2.09903	10.67397	1.62078
7183.217	9.51416	2.11544	10.70145	1.63942
7187.210	9.45769	2.12306	10.73030	1.68754
7191.111	9.44160	2.14206	10.77675	1.63804
7195.211	9.34341	2.13368	10.84492	1.72452
7199.212	9.34778	1.97257	10.97561	1.74514
7203.211	9.34577	1.95111	11.06540	1.76083
7207.103	9.30658	1.89937	11.12481	1.78717
7211.211	9.30824	1.86713	11.23838	1.79819
7215.209	9.31578	1.89719	11.23535	1.67475
7219.211	9.37711	1.95269	11.31335	1.51194
7223.078	9.37059	1.94191	11.30987	1.46650
7227.213	9.36873	2.01310	11.32297	1.37044
7231.214	9.37774	2.05345	11.31374	1.24419
7235.215	9.32009	2.03259	11.22986	1.23364
7239.112	9.33004	2.04693	11.15604	1.17791
7243.210	9.26727	2.02792	11.07114	1.25411
7247.204	9.20567	2.05904	11.17866	1.25203
7251.211	9.19113	2.06599	11.09310	1.22764
7255.109	9.18422	2.07328	11.08206	1.27546
7259.209	9.16247	2.06209	11.07544	1.28195
7263.213	9.12362	2.02458	11.05177	1.38123
7267.212	9.12357	2.03053	11.03851	1.31899
7271.106	9.09865	1.95973	11.02789	1.41771
7275.213	9.12742	1.92119	11.00216	1.47754
7279.215	9.12244	1.85434	11.03635	1.54512
7283.215	9.13727	1.85362	11.12288	1.61844
7287.109	9.19730	1.87507	11.14954	1.62706
7291.210	9.21795	1.85602	11.12421	1.65519
7295.211	9.26703	1.90186	11.08842	1.55986
7299.214	9.26280	1.90987	10.94150	1.59701
7303.109	9.21696	1.89165	10.95662	1.62550
7307.212	9.19435	1.87619	10.98119	1.39756
7311.212	9.17449	1.90981	10.93947	1.43652
7315.212	9.18356	1.91966	11.03791	1.44197
7319.171	9.14305	1.90525	11.04329	1.39470
7323.168	9.14409	1.90765	11.02497	1.39893
7327.201	9.15493	1.88406	11.01842	1.32598
7331.213	9.17195	1.83327	11.02155	1.48916
7335.074	9.43890	1.82174	11.08342	1.46446
7339.212	9.20869	1.80596	11.11657	1.52002
7343.213	9.17689	1.69583	11.14975	1.36371
7347.213	9.23519	1.74535	11.14567	1.31617
7351.074	9.25040	1.69683	11.11726	1.57634
7355.212	9.24752	1.70578	11.03533	1.83752
7359.213	9.06819	1.74452	9.36269	1.93705
7363.214	7.60743	2.08985	8.00048	3.01883
7367.174	6.24582	3.56980	6.38180	4.41938
7371.183	4.83927	4.17099	4.86056	5.02606
7375.212	4.48996	4.81361	4.79778	6.27136
7379.214	3.29458	5.16465	4.37808	6.07989
7383.073	2.93611	5.68677	3.97867	6.60139
7387.212	2.39710	5.83516	4.06229	6.78642
7391.216	2.49790	7.12279	3.97471	7.02073
7395.215	2.58945	6.56964	4.12113	7.13475
7399.173	2.34874	6.74064	4.27689	7.15125
7403.214	2.52703	6.43748	4.10172	7.22049
7407.215	2.62737	6.36171	4.11216	6.93618
7411.214	2.45470	6.74671	4.14374	7.20408
7415.173	2.35846	6.57783	4.00099	7.31695
7419.214	2.37622	6.63924	3.91284	7.33652
7423.214	2.35169	6.70605	3.91306	7.43173
7427.217	2.30472	6.60119	3.99022	7.42390
7431.077	2.33400	6.63858	3.90271	7.39449
7435.215	2.35139	6.61685	3.99218	7.43997
7439.213	2.32483	6.61506	3.94599	7.44601
7443.213	2.34389	6.60853	3.87532	7.41375
7447.177	2.34099	6.58487	3.91084	7.41463
7451.090	2.26378	6.68714	3.94431	7.48990
7455.217	2.24314	6.71601	3.91445	7.41702
7459.062	2.30742	6.85947	3.95582	7.49503
7463.047	2.36344	6.83992	4.01104	7.46651
7467.090	2.35925	6.84013	3.94194	7.37762
7471.086	2.40233	6.79912	3.93836	7.24883
7475.087	2.37466	6.78114	3.92867	7.26067
7479.088	2.34800	6.91576	3.88673	7.34808
7483.092	2.38373	6.85795	3.90558	7.27809
7487.088	2.35026	6.95932	3.85649	7.19870
7491.089	2.34518	6.96487	3.76915	7.27515
7495.083	2.37146	6.93360	3.80774	7.30985
7499.090	2.37994	6.82495	3.74268	7.34542
7503.087	2.28479	6.81466	3.68779	7.28015
7507.088	2.25645	6.79472	3.67484	7.30429
7511.110	2.26054	6.73302	3.64978	7.24688
7515.045	2.30377	6.82804	3.65240	7.27622
7519.091	2.27094	6.84697	3.63604	7.22622
7523.090	2.28809	6.82579	3.63866	7.29604
7527.105	2.22736	6.78526	3.61785	7.22415
7531.092	2.09348	6.68955	3.57713	7.19730
7535.087	2.18017	6.71232	3.55795	7.06678
7539.090	2.13703	6.65284	3.46622	6.98442
7543.108	2.17745	6.67587	3.51787	6.96239
7547.091	2.22936	6.64771	3.48368	6.89677
7551.092	2.24775	6.63905	3.53142	6.82831
7555.091	2.20837	6.61708	3.57857	7.12052
7559.112	2.19447	6.75896	3.75842	7.32756
7563.090	2.29736	6.72379	3.50675	7.18097
7567.093	1.99525	6.84649	3.89483	7.34777
7571.090	1.59869	7.23993	2.92963	7.36164
7575.112	2.17289	9.24189	2.43944	6.89110
7579.056	2.62274	11.66988	2.42237	7.65639
7583.047	3.60712	11.90744	NaN	NaN
7587.092	NaN	NaN	NaN	NaN
7591.063	NaN	NaN	NaN	NaN
7595.089	NaN	NaN	NaN	NaN
7599.048	NaN	NaN	NaN	NaN
7603.089	NaN	NaN	NaN	NaN
7607.098	NaN	NaN	NaN	NaN
7611.089	NaN	NaN	NaN	NaN
7615.045	NaN	NaN	NaN	NaN
7619.090	NaN	NaN	NaN	NaN
7623.077	NaN	NaN	NaN	NaN
7627.078	NaN	NaN	NaN	NaN
7631.045	NaN	NaN	NaN	NaN
7635.085	NaN	NaN	NaN	NaN
7639.047	NaN	NaN	NaN	NaN
7643.089	NaN	NaN	NaN	NaN
7647.047	NaN	NaN	NaN	NaN
7651.090	NaN	NaN	NaN	NaN
7655.090	NaN	NaN	NaN	NaN
7659.090	NaN	NaN	NaN	NaN
7663.049	NaN	NaN	NaN	NaN
7667.062	NaN	NaN	NaN	NaN
7671.118	NaN	NaN	NaN	NaN
7675.089	NaN	NaN	NaN	NaN
7679.046	1.39091	9.95907	NaN	NaN
7683.089	1.64573	11.79887	3.67294	13.96975
7687.092	1.46048	11.34825	4.15043	11.78116
7691.088	1.54787	12.20059	3.83806	11.07071
7695.091	0.52610	10.13203	3.97318	10.75498
7699.094	-2.11348	10.78789	7.97254	10.34947
7703.093	0.18757	11.35752	0.90666	11.91377
7707.118	-2.11336	9.17214	1.10177	12.15707
7711.092	-0.02124	9.80133	0.92557	11.25589
7715.070	-0.09560	9.66104	0.65704	9.09873
7719.092	-0.12739	9.50677	0.32531	8.57642
7723.112	-0.14521	9.42042	0.94480	8.46842
7727.092	0.63660	9.35438	3.03311	8.53068
7731.095	1.43786	9.42208	2.31463	9.01453
7735.093	0.82399	9.42629	3.16075	9.76391
7739.113	1.15776	9.24758	3.70322	9.72275
7743.093	1.04597	8.99724	3.00947	9.32039
7747.097	1.10591	8.79045	4.06473	9.12758
7751.070	1.16984	8.65468	3.21827	8.99575
7755.050	1.31024	8.70113	3.40002	8.68940
7759.091	1.40088	8.66570	3.50803	8.83868
7763.049	1.15595	8.53223	3.41825	8.73771
7767.093	1.02027	8.38335	3.52964	9.03673
7771.113	1.29030	8.52162	3.49144	9.20134
7775.092	1.30444	8.48515	3.46953	9.07077
7779.092	1.40370	8.44896	3.53125	9.14802
7783.093	1.45745	8.42419	3.45972	9.05766
7787.114	1.58624	8.44062	3.60633	9.07548
7791.069	1.66170	8.47877	3.57167	9.17548
7795.095	1.62168	8.50156	3.65549	9.32935
7799.094	1.63693	8.59064	3.67398	9.26755
7803.115	1.63690	8.62746	3.72477	9.32735
7807.093	1.70646	8.68564	3.73883	9.27343
7811.093	1.72255	8.73985	3.74713	9.30974
7815.092	1.74660	8.75593	3.78118	9.29953
7819.113	1.76291	8.77570	3.80332	9.24925
7823.094	1.78915	8.83541	3.85022	9.27450
7827.058	1.78017	8.84721	3.87855	9.27064
7831.089	1.79110	8.92688	3.88915	9.33084
7835.113	1.75778	8.95944	3.87756	9.35846
7839.093	1.75969	8.99115	3.84673	9.25529
7843.095	1.77814	8.98094	3.73080	9.19222
7847.096	1.78324	8.98687	3.67432	9.18197
7851.115	1.76988	9.01083	3.64348	9.25124
7855.094	1.76738	9.01525	3.62222	9.18416
7859.094	1.76963	8.96641	3.65873	9.20632
7863.094	1.77258	8.87395	3.62941	9.23735
7867.116	1.78845	8.85459	3.54161	9.24924
7871.088	1.82651	8.78507	3.50501	9.30871
7875.094	1.81096	8.70258	3.51933	9.29258
7879.096	1.84297	8.63250	3.50425	9.34224
7883.118	1.87701	8.57445	3.45925	9.36499
7887.095	1.86040	8.57128	3.46422	9.30154
7891.097	1.86437	8.54144	3.43613	9.34539
7895.090	1.90202	8.52593	3.48857	9.20084
7899.120	1.93204	8.48492	3.53028	9.31404
7903.094	1.94084	8.47635	3.53125	9.31502
7907.093	1.97146	8.53452	3.55656	9.36632
7911.096	1.96757	8.53991	3.60185	9.34945
7915.109	1.91838	8.52891	3.65505	9.38652
7919.092	1.88457	8.46200	3.62047	9.26901
7923.096	1.94045	8.65358	3.30975	9.09172
7927.094	2.63076	7.89686	3.80903	8.87836
7931.091	4.82865	6.57796	4.70584	7.17030
7935.096	6.56669	4.36650	6.18779	5.29342
7939.094	7.27184	3.02257	7.89841	3.23701
7943.097	7.28461	2.82613	7.73909	3.22938
7947.098	7.87489	2.16566	8.34524	3.11991
7951.096	7.40948	1.63401	8.49991	2.95439
7955.096	7.92593	1.88416	9.75714	2.91362
7959.091	8.52957	1.78033	9.98973	2.87932
7963.094	8.91379	1.47765	9.93167	2.72414
7967.094	8.60041	1.43487	10.02557	2.58738
7971.094	8.63357	1.44510	9.97390	2.60022
7975.097	8.84884	1.53243	10.09693	2.64445
7979.098	8.78277	1.49093	10.08368	2.64019
7983.095	8.90146	1.49791	10.11998	2.53099
7987.095	8.79586	1.53285	10.13280	2.47375
7991.096	8.75099	1.47391	10.08308	2.29453
7995.088	8.74394	1.51279	10.14891	2.22673
7999.052	8.69605	1.50861	10.11281	2.21178
8003.096	8.75182	1.48262	10.13992	2.17088
8007.097	8.74942	1.56092	10.15853	2.10490
8011.092	8.72297	1.60086	10.18760	2.05503
8015.096	8.69537	1.61445	10.30399	2.13751
8019.096	8.63102	1.63874	10.36667	2.04198
8023.053	8.60846	1.66783	10.29507	2.06149
8027.090	8.51858	1.69774	10.33017	2.02027
8031.100	8.46803	1.83930	10.25516	1.81902
8035.094	8.48296	1.78312	10.23555	1.74912
8039.089	8.48641	1.67303	10.24589	1.63665
8043.055	8.49044	1.64924	10.38310	1.85130
8047.095	8.43457	1.72060	10.33454	1.81456
8051.095	8.39822	1.69203	10.27953	1.86710
8055.097	8.40154	1.72384	10.22969	1.90616
8059.082	8.41199	1.87573	10.19524	1.90702
8063.095	8.39511	1.82746	10.18743	1.88721
8067.100	8.41162	1.84971	10.14636	1.90971
8071.096	8.47403	1.87470	10.12298	1.86784
8075.092	8.42785	1.79860	10.24192	1.95843
8079.097	8.42814	1.82026	10.36711	2.09004
8083.069	12.26612	3.64087	10.89599	2.07278
8087.095	12.76992	6.80002	10.07509	3.12743
8091.099	12.46237	6.66803	17.25060	4.24360
8095.096	12.18002	7.11475	18.33753	5.64927
8099.100	NaN	NaN	11.45100	3.82115
8103.097	NaN	NaN	NaN	NaN
8107.088	NaN	NaN	NaN	NaN
8111.097	NaN	NaN	NaN	NaN
8115.051	NaN	NaN	NaN	NaN
8119.098	NaN	NaN	NaN	NaN
8123.097	NaN	NaN	NaN	NaN
8127.091	NaN	NaN	NaN	NaN
8131.059	NaN	NaN	NaN	NaN
8135.097	NaN	NaN	NaN	NaN
8139.094	NaN	NaN	NaN	NaN
8143.095	NaN	NaN	NaN	NaN
8147.052	NaN	NaN	NaN	NaN
8151.097	NaN	NaN	NaN	NaN
8155.098	NaN	NaN	NaN	NaN
8159.096	NaN	NaN	12.71165	7.40853
8162.993	NaN	NaN	10.61433	6.55898
8167.063	NaN	NaN	12.22450	3.62420
8171.097	15.55229	9.11084	18.79149	6.75635
8175.098	14.94984	8.58238	16.59599	3.11435
8179.100	15.08005	8.87161	16.05049	6.34551
8183.100	14.69850	8.02791	6.86887	-0.54782
8187.097	14.79600	7.38754	13.17155	3.00543
8191.099	12.97959	5.31165	12.71179	2.59855
8195.110	13.59910	4.98900	12.52282	2.11458
8199.098	13.46130	4.36595	12.50158	1.62268
8203.097	11.42313	3.61677	12.12132	1.32943
8207.078	11.29035	2.50704	12.46774	1.15496
8210.988	10.90482	2.73862	12.03702	1.04855
8215.099	10.08212	2.46149	12.03600	0.98303
8219.099	9.84228	2.33374	11.23597	1.00282
8223.096	9.69918	1.75168	10.52108	0.88085
8227.094	9.72129	1.49440	10.76590	1.00666
8231.102	9.58716	1.58696	11.18941	1.03227
8235.098	9.27542	1.31143	10.75107	1.09877
8239.098	9.27044	1.41008	10.72340	1.15571
8242.996	9.26930	1.59007	10.61138	1.33230
8247.092	9.22612	1.36929	10.71382	1.47286
8251.087	9.05456	1.22868	10.86354	1.56909
8255.099	8.96022	1.15765	10.87857	1.63490
8258.996	9.04304	1.18898	10.76547	1.59692
8263.101	9.05974	1.21272	10.70069	1.60022
8267.100	9.04831	1.24432	10.76432	1.58110
8271.100	9.09906	1.30754	10.85026	1.65283
8274.995	9.09401	1.31401	10.80884	1.64218
8279.100	9.11886	1.33055	10.85981	1.58384
8283.100	9.17495	1.40881	10.88597	1.49555
8287.101	9.15906	1.36367	10.90715	1.49320
8290.998	9.21831	1.43941	10.92334	1.43455
8295.103	9.25966	1.53887	10.90715	1.39140
8299.100	9.29592	1.56248	10.88003	1.36048
8303.100	9.27312	1.57750	10.87424	1.30916
8306.966	9.27781	1.53869	10.94028	1.34055
8311.100	9.23877	1.53508	10.98975	1.37231
8315.098	9.19106	1.50762	11.00926	1.42292
8319.096	9.13361	1.50168	11.04066	1.41127
8322.996	9.09272	1.51571	11.03877	1.51986
8327.055	9.04168	1.48605	11.08280	1.54232
8331.061	9.01552	1.52852	11.09597	1.57480
8335.100	8.96886	1.52182	11.07919	1.63827
8338.993	8.93622	1.51372	11.07310	1.74410
8343.099	8.90243	1.52796	11.09638	1.80952
8347.100	8.91941	1.44519	11.08861	1.83436
8351.099	8.91476	1.40623	11.10240	1.77552
8355.000	8.94203	1.43129	11.05321	1.76451
8359.100	8.97581	1.42983	11.02617	1.77430
8363.101	9.07557	1.44972	11.00077	1.78771
8367.102	9.05645	1.40394	10.96141	1.77618
8371.019	9.12500	1.48203	10.92052	1.81803
8375.064	9.12021	1.27299	10.89013	1.80244
8379.102	9.16864	1.28108	10.84504	1.78609
8383.100	9.17140	1.24088	10.85200	1.78607
8386.997	9.18881	1.13099	10.80180	1.76832
8391.058	9.19123	1.15813	10.76065	1.77359
8395.102	9.18949	1.15762	10.71010	1.81179
8399.103	9.19031	1.15799	10.67672	1.87912
8402.999	9.20736	1.16933	10.65594	1.90852
8407.103	9.19348	1.16795	10.58716	1.93379
8411.111	9.24873	1.25085	10.56004	1.95185
8415.079	9.25876	1.26146	10.44417	1.97052
8418.998	9.35268	1.31268	10.35733	1.99446
8423.099	9.36288	1.35756	10.31259	1.99113
8427.103	9.45947	1.42271	10.16468	2.04204
8431.101	9.47435	1.47443	10.07774	2.04005
8434.999	9.51346	1.50960	10.11187	2.06038
8439.101	9.53294	1.54769	10.06017	2.02652
8443.068	9.58019	1.53504	10.07151	2.07051
8447.101	8.93101	1.50532	9.89513	2.15279
8450.995	7.14885	1.46316	7.84511	2.41370
8455.089	5.73261	1.49977	5.28517	2.30520
8459.092	4.27639	1.33740	4.00080	2.10561
8463.103	2.59524	1.21404	2.20074	2.03614
8466.999	2.18800	1.10420	1.95661	1.96199
8471.101	1.60506	1.17747	1.68322	2.15040
8475.102	0.98633	1.02382	1.61681	1.95456
8479.102	0.63086	1.15290	1.41216	1.85189
8482.998	0.49148	1.22858	1.54748	1.75681
8486.977	0.42658	1.13893	1.58098	1.66027
8490.978	0.45512	0.99475	1.65146	1.57096
8494.933	0.39246	1.00423	1.55839	1.57235
8498.972	0.30493	0.92790	1.48076	1.53524
8502.959	0.29555	0.89998	1.43243	1.53406
8506.977	0.21256	0.91628	1.33425	1.53643
8510.933	0.20941	0.93449	1.24461	1.55908
8514.971	0.16007	0.96067	1.24024	1.54702
8518.977	0.11473	0.96756	1.32458	1.51032
8522.931	0.09393	0.94662	1.39736	1.51748
8526.974	0.09312	0.88419	1.33741	1.49425
8530.975	0.05187	0.85221	1.21725	1.48886
8534.979	0.04418	0.84277	1.22285	1.51028
8538.976	0.04504	0.82116	1.28241	1.49017
8542.977	0.05465	0.80024	1.27088	1.49536
8546.974	0.05018	0.78990	1.34517	1.44328
8550.977	0.08937	0.82767	1.41514	1.42310
8554.974	0.10729	0.83793	1.43508	1.41204
8558.979	0.10428	0.82665	1.45447	1.37090
8562.975	0.04445	0.77202	1.49485	1.36737
8566.978	-0.05120	0.75733	1.41144	1.35317
8570.977	0.07564	0.76146	1.41737	1.33360
8574.974	0.02621	0.73137	1.48927	1.35697
8578.969	0.00548	0.71746	1.48987	1.42224
8582.978	0.04532	0.75147	1.45440	1.52901
8586.978	-0.01869	0.74282	1.45009	1.45754
8590.977	-0.03407	0.75053	1.46412	1.50380
8594.964	-0.06956	0.69910	1.42216	1.51500
8598.978	-0.11744	0.68911	1.38920	1.47290
8602.977	-0.10351	0.67204	1.37124	1.48867
8606.980	-0.05343	0.68590	1.36080	1.45909
8610.937	-0.00633	0.71363	1.41536	1.42204
8614.978	-0.02348	0.69331	1.53490	1.45200
8618.988	-0.03611	0.69077	1.49329	1.42713
8622.982	0.00005	0.68891	1.36065	1.30943
8626.935	-0.01010	0.70481	1.30176	1.23343
8630.965	-0.03440	0.70036	1.38106	1.20803
8634.979	-0.04763	0.67124	1.40705	1.15468
8638.975	0.00429	0.72014	1.51253	1.16451
8642.936	-0.00546	0.74173	1.45522	1.13231
8646.946	-0.07351	0.74394	1.49165	1.10709
8650.977	-0.06187	0.70995	1.50433	1.04788
8654.976	-0.04616	0.66404	1.40137	1.06904
8658.974	-0.06326	0.67833	1.36928	1.06322
8662.981	-0.11662	0.63134	1.31419	1.07514
8666.978	-0.08820	0.59874	1.28765	1.11106
8670.948	-0.05569	0.63281	1.31560	1.08718
8674.975	-0.03077	0.60615	1.32991	1.16537
8678.980	0.04172	0.60433	1.29529	1.21431
8682.978	0.01286	0.60558	1.26277	1.33999
8686.977	0.05936	0.59807	1.23630	1.38366
8690.974	0.10240	0.68051	1.22499	1.38776
8694.981	0.07341	0.76153	1.19596	1.36133
8698.978	0.03569	0.71415	1.21936	1.41065
8702.935	0.07808	0.66764	1.22112	1.38401
8706.973	0.06840	0.68980	1.22635	1.28506
8710.981	0.14528	0.76647	1.22844	1.29373
8714.980	0.10421	0.70009	1.24119	1.31202
8718.977	0.09592	0.69529	1.23044	1.31165
8722.976	0.07691	0.74528	1.34095	1.19844
8726.980	0.04150	0.70277	1.24305	1.24783
8730.976	-0.05460	0.77537	1.09361	1.25341
8734.981	-0.45195	0.72767	0.19455	1.22191
8738.937	-1.35757	0.65235	-0.01797	1.27301
8742.978	-1.69882	0.65975	-0.12136	1.23637
8746.979	-0.70501	0.68583	0.33923	1.24624
8750.979	-0.71985	0.67902	0.32744	1.23233
8754.975	-0.87570	0.68359	0.09480	1.26392
8758.981	-1.08120	0.71646	0.05599	1.27477
8762.980	-1.20348	0.75327	-0.03884	1.25950
8766.979	-1.43577	0.73733	-0.15067	1.26896
8770.979	-1.28963	0.73752	-0.09217	1.25729
8774.981	-1.33862	0.71766	-0.16844	1.25450
8778.936	-1.31917	0.76314	-0.09743	1.23183
8782.981	-1.36826	0.80319	-0.14600	1.21206
8786.938	-1.29028	0.75125	-0.08696	1.20751
8790.982	-1.24615	0.74600	-0.10669	1.20871
8794.958	-1.27234	0.74681	0.04219	1.20774
8798.979	-1.37258	0.75451	0.00419	1.19818
8803.000	-1.46697	0.75661	-0.01325	1.18620
8806.982	-1.38652	0.66211	-0.05075	1.20170
8810.981	-1.39745	0.65383	-0.05738	1.20379
8814.980	-1.31920	0.67944	-0.03465	1.19900
8818.978	-1.34232	0.70725	-0.00107	1.17401
8822.935	-1.32882	0.66908	-0.04341	1.19023
8826.935	-1.27830	0.67920	-0.04296	1.17793
8830.936	-1.38870	0.64288	-0.11721	1.15510
8834.941	-1.40259	0.64347	-0.09173	1.09410
8838.968	-1.41348	0.59834	-0.06728	1.05127
8842.983	-1.40509	0.58137	-0.07440	1.04062
8846.979	-1.39130	0.55460	-0.10987	1.03033
8850.980	-1.42670	0.57889	-0.08929	1.02857
8854.980	-1.41965	0.57628	-0.05787	0.97484
8858.983	-1.41824	0.60601	-0.11523	0.97195
8862.982	-1.37910	0.56643	-0.07324	0.99829
8866.973	-1.40209	0.47009	-0.07314	0.96406
8870.982	-1.40202	0.40924	-0.14930	0.93225
8874.984	-1.34988	0.43560	-0.12379	0.94962
8878.946	-1.32552	0.38831	-0.12158	1.01548
8883.002	-1.30107	0.41725	-0.14359	1.05617
8886.979	-1.26882	0.44384	-0.16030	1.05962
8890.981	-1.21296	0.41664	-0.15774	1.09432
8894.981	-1.16840	0.38403	-0.13724	1.07614
8898.978	-1.12943	0.37522	-0.16861	1.07025
8902.982	-1.11819	0.35920	-0.16913	1.02824
8906.983	-1.15848	0.36948	-0.25435	1.03820
8910.981	-1.19445	0.43021	-0.27649	1.02749
8914.976	-1.23424	0.44481	-0.20891	1.07069
8918.963	-1.26173	0.45835	-0.17650	1.04839
8922.936	-1.31550	0.49649	-0.14397	1.06009
8926.981	-1.35085	0.49544	-0.21864	1.09692
8930.977	-1.36528	0.47589	-0.24210	1.08346
8934.985	-1.39244	0.47847	-0.28332	1.10191
8938.981	-1.42040	0.48701	-0.32258	1.06271
8942.992	-1.43585	0.48775	-0.28074	1.06199
8946.977	-1.44800	0.45722	-0.25488	1.03686
8950.981	-1.39150	0.44277	-0.19477	0.99965
8954.981	-1.31463	0.39415	-0.13196	0.91437
8958.977	-1.33292	0.37775	-0.15392	0.98363
8962.972	-1.38141	0.36569	-0.12530	0.91822
8966.981	-1.34715	0.34190	-0.12014	0.92411
8970.978	-1.33954	0.33420	-0.04212	0.89420
8974.984	-1.29367	0.34553	-0.00573	0.88255
8978.978	-1.22521	0.33672	0.01375	0.83810
8982.982	-1.21075	0.30053	0.07758	0.85440
8986.981	-1.12903	0.28755	0.02060	0.87331
8990.983	-1.12390	0.29132	-0.00720	0.88913
8994.975	-1.12797	0.28628	-0.04519	0.90779
8998.983	-1.13233	0.33602	-0.06507	0.96271
9002.959	-1.12826	0.34667	-0.04859	0.95101
9006.985	-1.10217	0.35199	-0.02894	0.95963
9010.980	-1.09135	0.34283	-0.14697	0.92505
9014.984	-1.08497	0.33274	-0.22204	0.87889
9018.983	-1.12298	0.30114	-0.20358	0.81176
9022.946	-1.15451	0.32183	-0.20983	0.78963
9026.988	-1.20177	0.36410	-0.25259	0.74230
9030.984	-1.21407	0.36189	-0.23018	0.71226
9034.980	-1.26217	0.41472	-0.21571	0.67047
9038.986	-1.31630	0.47466	-0.23132	0.67330
9042.975	-1.33865	0.44427	-0.24075	0.59998
9046.974	-1.36692	0.42387	-0.28473	0.59444
9050.982	-1.40418	0.46135	-0.31761	0.58236
9054.982	-1.42590	0.44438	-0.32183	0.58102
9058.982	-1.44783	0.49495	-0.33541	0.56189
9062.982	-1.45532	0.52992	-0.35285	0.55945
9066.982	-1.46655	0.49276	-0.37834	0.54183
9070.983	-1.38530	0.50132	-0.31004	0.57369
9074.980	-1.29236	0.69440	-0.15680	0.74868
9078.985	-1.25622	1.09592	0.13290	1.16509
9082.983	-0.97048	1.52255	0.35166	2.04113
9086.985	-0.91349	1.90645	0.58583	2.48797
9090.978	-0.73332	1.90443	0.36380	2.30369
9094.984	-0.63181	1.94381	0.43966	2.30181
9098.984	-0.58250	1.59564	0.56218	2.20040
9102.986	-0.66930	1.86010	0.57868	2.09583
9106.975	-0.73402	1.84245	0.67183	2.11805
9110.985	-0.75168	1.84808	0.72203	2.20467
9114.985	-0.51853	1.86377	0.77575	2.16902
9118.988	-0.55349	1.84450	0.81923	2.16840
9122.943	-0.46378	1.84180	0.76221	2.21899
9126.984	-0.46857	1.85833	0.77322	2.20338
9130.984	-0.43797	1.80554	0.75667	2.13382
9134.984	-0.38531	1.77198	0.75159	2.03575
9138.955	-0.38417	1.84946	0.80890	1.98617
9142.942	-0.33645	1.88747	0.81972	1.99522
9146.983	-0.36246	1.85118	0.78275	2.04033
9150.986	-0.32908	1.87218	0.82908	2.00827
9154.980	-0.26853	1.90779	0.86098	1.93507
9158.984	-0.28798	1.85231	0.85696	2.01304
9162.984	-0.25537	1.85254	0.84741	2.16364
9166.982	-0.28317	1.85092	0.84649	2.11583
9170.880	-0.33025	1.81233	0.82297	2.06016
9174.985	-0.40192	1.90836	0.84962	2.10347
9178.984	-0.41467	1.88813	0.90433	2.04426
9182.987	-0.39986	1.85750	0.91540	2.05718
9186.882	-0.37541	1.88451	0.89081	1.93478
9190.984	-0.35772	1.89611	0.91284	2.14249
9194.983	-0.25373	1.83916	0.91145	2.17988
9198.986	-0.30635	1.81172	0.89282	2.15655
9202.883	-0.29496	1.84022	0.91234	2.16519
9206.987	-0.31823	1.83984	0.89416	2.19254
9210.964	-0.25249	1.84144	0.87458	2.16869
9214.986	-0.20901	1.84482	0.89974	2.15458
9218.981	-0.18554	1.77174	0.87138	2.05443
9222.985	-0.26711	1.69537	0.86347	2.06731
9226.983	-0.32469	1.62567	0.83265	2.09790
9230.988	-0.33476	1.57755	0.83324	2.12236
9234.983	-0.32513	1.57047	0.82607	2.08530
9238.984	-0.32335	1.53268	0.78593	2.07331
9242.985	-0.27078	1.51009	0.77101	2.03872
9246.986	-0.23835	1.50317	0.76608	2.07230
9250.886	-0.19343	1.51305	0.79712	2.02685
9254.987	-0.20616	1.50684	0.85850	2.02101
9258.984	-0.15486	1.53506	0.86019	1.99773
9262.941	-0.08579	1.55321	0.89649	1.99481
9266.884	-0.08428	1.57958	0.83240	1.95260
9270.986	-0.10371	1.57253	0.86423	1.90102
9274.985	-0.08232	1.56036	0.88250	1.91612
9278.988	-0.11359	1.56185	0.93522	1.89286
9282.884	-0.11429	1.56866	0.94242	1.85975
9286.985	-0.11587	1.57717	0.97010	1.87703
9290.987	-0.16288	1.59428	1.00486	1.85386
9294.955	-0.16414	1.56863	0.97693	1.78969
9298.863	-0.19690	1.55825	0.98871	1.76345
9302.984	-0.20896	1.52964	0.95892	1.75311
9306.986	-0.24815	1.52499	0.94323	1.71777
9310.986	-0.23276	1.50093	0.99258	1.72825
9314.882	-0.23316	1.54903	1.02513	1.74682
9318.986	-0.23324	1.56830	1.01171	1.77086
9322.987	-0.23939	1.54210	0.98033	1.74009
9326.941	-0.25001	1.55332	1.00283	1.72985
9330.884	-0.26346	1.57336	0.98162	1.71145
9334.968	-0.25309	1.55290	0.95991	1.67159
9338.991	-0.26041	1.51913	0.92502	1.65162
9342.988	-0.27912	1.51041	0.87287	1.63901
9346.849	-0.30339	1.52911	0.88880	1.65370
9350.987	-0.29620	1.53037	0.88664	1.67656
9354.985	-0.33042	1.57876	0.85974	1.67829
9358.988	-0.36025	1.59902	0.82687	1.68789
9362.854	-0.41924	1.66503	0.81526	1.66376
9366.986	-0.46076	1.72696	0.69819	1.69846
9370.987	-0.49369	1.77365	0.64811	1.81265
9374.983	-0.57468	1.71884	0.50562	1.82543
9378.853	-0.65059	1.77084	0.49527	1.85311
9382.987	-0.73590	1.70672	0.58086	1.97825
9386.986	-0.76873	1.69471	0.67685	2.01951
9390.987	-0.88222	1.70839	0.61513	2.11599
9394.947	-0.99740	1.70950	0.53163	2.07182
9398.987	-1.06009	1.68008	0.56553	2.03938
9402.987	-1.04907	1.75842	0.40852	2.06280
9406.986	-1.07748	1.74945	0.41065	2.12695
9410.847	-1.09041	1.73760	0.46023	2.12733
9414.989	-1.14461	1.75142	0.48302	2.06559
9418.965	-1.17865	1.86477	0.47957	2.07107
9422.986	-1.22598	1.98859	0.47383	2.07400
9426.849	-1.22479	2.02958	0.43485	2.05083
9430.987	-1.23578	2.05054	0.43207	2.03552
9434.988	-1.17609	2.17541	0.42442	2.00162
9438.989	-1.05729	2.18254	0.49438	2.01766
9442.947	-1.02263	2.19819	0.47966	2.01901
9446.988	-0.95604	2.16670	0.49274	2.03355
9450.988	-0.88917	2.13144	0.47820	2.02442
9454.987	-0.87974	2.13298	0.50465	2.03957
9458.848	-0.80379	2.11836	0.52806	2.10870
9462.987	-0.81002	2.05089	0.50058	2.14452
9466.986	-0.77719	1.96094	0.49416	2.18965
9470.988	-0.72727	1.89023	0.48756	2.09320
9474.846	-0.70173	1.91504	0.47120	2.11872
9478.986	-0.72121	1.84737	0.43651	2.12990
9482.985	-0.75637	1.81928	0.42604	2.13166
9486.987	-0.76672	1.81903	0.41390	2.11799
9490.849	-0.79340	1.81569	0.41065	2.12871
9494.987	-0.83312	1.83945	0.40668	2.12832
9498.989	-0.83307	1.86961	0.48560	2.02300
9502.953	-0.86907	1.93715	0.48252	1.98431
9506.847	-0.92587	1.91684	0.46450	1.98188
9510.945	-0.92517	1.92516	0.49428	1.94981
9514.946	-0.95500	1.91109	0.48656	1.99099
9518.989	-0.98675	1.85749	0.46080	2.02254
9522.849	-0.95299	1.89529	0.44855	2.05354
9526.864	-0.94981	1.87089	0.37765	2.05256
9530.861	-0.94229	1.89656	0.37784	2.08038
9534.864	-0.95117	1.92820	0.33943	2.10858
9538.825	-0.90433	1.89812	0.33769	2.09982
9542.866	-0.90708	1.85863	0.27885	2.12432
9546.860	-0.90150	1.86521	0.26622	2.18371
9550.854	-0.89562	1.85985	0.27121	2.22340
9554.857	-0.90336	1.84379	0.23907	2.22780
9558.865	-0.88473	1.87944	0.20944	2.25083
9562.865	-0.87128	1.95219	0.19847	2.25867
9566.863	-0.90473	1.97607	0.19742	2.26813
9570.861	-0.92857	2.02484	0.21008	2.30499
9574.817	-0.96881	2.03154	0.21331	2.30568
9578.863	-0.99777	2.06182	0.24621	2.29908
9582.865	-1.09368	2.10029	0.19159	2.29961
9586.866	-1.05997	2.05193	0.19100	2.34940
9590.839	-1.25726	2.10211	-1.35700	2.38454
9594.863	-3.80829	2.07594	-3.97469	2.35359
9598.866	-5.34058	2.05850	-5.26777	2.40165
9602.857	-5.94610	2.06300	-5.73443	2.22162
9606.866	-7.19021	2.00171	-7.38163	2.09832
9610.866	-7.91460	1.86074	-7.76927	2.04352
9614.866	-8.89787	1.83778	-9.51073	1.73554
9618.862	-9.22828	1.60094	-9.73875	1.43157
9622.821	-10.36024	1.74164	-10.39904	1.33414
9626.865	-10.74391	1.58272	-10.33605	1.31652
9630.846	-10.84444	1.40744	-10.18127	1.26153
9634.824	-10.84204	1.37184	-10.17579	1.07785
9638.824	-10.81884	1.20914	-10.11055	0.96787
9642.865	-10.70982	1.11666	-10.32164	1.00435
9646.865	-10.76549	1.10296	-10.48296	0.98713
9650.863	-10.83728	1.11865	-10.38685	0.88656
9654.865	-10.90073	1.09095	-10.40360	0.83711
9658.867	-10.88987	1.04572	-10.51746	0.88580
9662.865	-10.91004	1.05233	-10.53212	0.93377
9666.862	-10.92576	0.98247	-10.48883	0.92726
9670.867	-10.92339	0.99550	-10.41705	0.97099
9674.867	-10.88891	0.96793	-10.39215	0.95963
9678.865	-10.87034	0.94593	-10.40937	1.01768
9682.862	-10.94100	1.02212	-10.40958	1.06522
9686.863	-11.00321	1.05414	-10.29286	1.08745
9690.865	-11.08259	1.13611	-10.19219	1.06559
9694.865	-11.09714	1.14546	-10.10579	1.07160
9698.862	-11.14455	1.24477	-10.06556	1.10275
9702.866	-11.15764	1.31684	-9.94847	1.09182
9706.866	-11.18461	1.33475	-9.90563	1.07941
9710.867	-11.19700	1.35708	-9.86751	1.10535
9714.886	-11.27555	1.37440	-9.84746	1.10559
9718.867	-11.30097	1.39558	-9.90156	1.11510
9722.822	-11.30942	1.48630	-9.95887	1.09792
9726.865	-11.30794	1.52305	-9.98186	1.07240
9730.862	-11.27913	1.55472	-10.14126	1.05028
9734.867	-11.21868	1.56768	-10.11863	1.06635
9738.866	-11.23745	1.63570	-10.15110	1.07331
9742.866	-11.19659	1.66903	-10.14292	1.11725
9746.886	-11.15996	1.68429	-10.18187	1.13347
9750.866	-11.10457	1.74630	-10.20488	1.12073
9754.854	-11.11795	1.69467	-10.27681	1.06751
9758.867	-11.10347	1.71907	-10.29973	1.03541
9762.861	-11.08794	1.76277	-10.23202	1.01207
9766.858	-11.10116	1.72188	-10.27691	0.91224
9770.865	-11.06583	1.64678	-10.32116	0.91373
9774.858	-11.09716	1.58081	-10.26617	0.85155
9778.865	-11.13176	1.48617	-10.28138	0.76502
9782.866	-11.08964	1.48840	-10.27388	0.76834
9786.877	-11.02892	1.42685	-10.27129	0.73447
9790.866	-11.04876	1.47547	-10.24817	0.77364
9794.864	-11.05890	1.38922	-10.20003	0.75759
9798.835	-11.09719	1.42834	-10.06525	0.81236
9802.866	-11.08194	1.49658	-9.98278	0.88685
9806.867	-11.05101	1.55599	-10.21519	0.82900
9810.863	-11.07965	1.54197	-10.15709	0.89488
9814.867	-11.10782	1.51533	-10.16009	0.90143
9818.867	-11.12515	1.59253	-10.19041	0.96822
9822.822	-11.08247	1.58949	-10.09359	1.00292
9826.834	-11.14720	1.60447	-10.18930	0.98925
9830.823	-11.16012	1.62800	-10.21551	1.02080
9834.867	-11.19034	1.64391	-10.22534	1.03135
9838.868	-11.18676	1.70781	-10.28039	1.07559
9842.853	-11.15917	1.66501	-10.34482	1.04941
9846.869	-11.16621	1.60183	-10.31203	1.03332
9850.867	-11.24473	1.53666	-10.32808	1.04170
9854.865	-11.24225	1.47038	-10.31938	0.99004
9858.827	-11.24640	1.43942	-10.25422	0.94788
9862.868	-11.22489	1.42324	-10.23115	0.91252
9866.865	-11.25834	1.28984	-10.22611	0.97532
9870.867	-11.24328	1.28839	-10.20099	0.99139
9874.826	-11.19344	1.25385	-10.13210	0.95624
9878.871	-11.15052	1.21297	-10.12327	0.95482
9882.832	-11.13215	1.21117	-10.14672	1.00875
9886.868	-11.13776	1.22816	-10.08827	0.99780
9890.859	-11.14421	1.23975	-10.12585	1.01602
9894.866	-11.13886	1.35823	-10.10391	1.00506
9898.868	-11.09439	1.34445	-10.05430	0.96907
9902.868	-11.06411	1.32482	-10.05536	0.99296
9906.826	-11.07393	1.36451	-10.08736	1.03777
9910.869	-11.03119	1.40310	-10.10357	1.08826
9914.867	-10.95473	1.41358	-10.09268	1.06514
9918.868	-10.94770	1.46552	-10.14761	1.08337
9922.826	-10.96504	1.48879	-10.16916	1.05009
9926.868	-10.97332	1.50145	-10.17209	0.98893
9930.867	-10.96961	1.47307	-10.23726	1.03613
9934.869	-11.05208	1.46478	-10.23531	0.97881
9938.857	-10.95540	1.40590	-10.23661	1.01616
9942.873	-10.99377	1.40849	-10.28157	1.01565
9946.866	-11.00161	1.38878	-10.28340	0.98575
9950.868	-10.95189	1.36892	-10.21877	1.00248
9954.867	-10.92916	1.41277	-10.09222	1.02347
9958.871	-10.95385	1.41246	-10.00545	1.05613
9962.859	-10.95811	1.39859	-9.83411	1.08816
9966.868	-10.93768	1.38467	-9.92206	1.12413
9970.866	-10.94220	1.33651	-9.89241	1.16865
9974.871	-10.95607	1.31702	-9.85230	1.14434
9978.869	-10.92267	1.30246	-9.79660	1.14502
9982.869	-10.95799	1.32415	-9.78669	1.13292
9986.865	-10.92167	1.28391	-9.75280	1.16001
9990.870	-10.92165	1.28547	-9.80845	1.18108
9994.868	-10.93361	1.30273	-9.91645	1.16951
9998.869	-11.44718	1.26858	-11.97560	1.12660
10002.866	-12.44465	1.19657	-12.12210	0.98179
10006.872	-13.72765	1.05301	-12.73177	0.73552
10010.867	-14.18195	0.75919	-13.47296	0.34686
10014.869	-14.43799	0.73289	-14.19392	0.15252
10018.827	-14.58022	0.72436	-14.49558	-0.52503
10022.868	-14.99155	0.53617	-14.50949	-0.70401
10026.869	-15.13378	0.42658	-14.36432	-0.96331
10030.870	-15.23750	0.33434	-14.35414	-0.96104
10034.866	-15.23177	0.24731	-14.35021	-1.03227
10038.868	-15.19644	0.24306	-14.28788	-1.02057
10042.829	-15.25901	0.18013	-14.28082	-0.96463
10046.852	-15.29723	0.10887	-14.33092	-0.96518
10050.864	-15.29538	0.01014	-14.35684	-0.95626
10054.868	-15.33740	-0.00762	-14.38940	-0.87530
10058.827	-15.29688	-0.17464	-14.35566	-0.88267
10062.873	-15.25198	-0.01484	-14.32842	-0.77742
10066.873	-15.23121	-0.00074	-14.25958	-0.69302
10070.871	-15.27450	0.11163	-14.23974	-0.60265
10074.826	-15.18227	0.09442	-14.21894	-0.59546
10078.869	-15.10973	0.04896	-14.16312	-0.65412
10082.865	-15.17905	0.09296	-14.12343	-0.69204
10086.872	-15.11227	0.07096	-14.15290	-0.70501
10090.872	-15.11389	0.10042	-14.10900	-0.84552
10094.870	-15.07317	0.09269	-14.12457	-0.87950
10098.864	-15.03966	0.14963	-14.07076	-0.82491
10102.882	-15.02844	0.16346	-14.08223	-0.97971
10106.873	-15.03450	0.13338	-14.02083	-0.83922
10110.870	-15.04552	0.08428	-14.02487	-0.91209
10114.863	-14.97534	0.09960	-14.00340	-1.00808
10118.870	-14.95980	0.06784	-13.96825	-0.98739
10122.825	-15.03045	0.09304	-13.97047	-1.04304
10126.869	-15.01691	0.06876	-14.02454	-1.03614
10130.862	-15.01800	0.03773	-14.00017	-0.96965
10134.848	-15.02214	-0.10219	-13.95140	-0.89295
10138.827	-14.96128	-0.01496	-13.93291	-0.85615
10142.873	-15.01422	0.05019	-13.93398	-0.72263
10146.868	-15.09742	0.02680	-13.90422	-0.69554
10150.870	-15.15452	0.02127	-13.93214	-0.78485
10154.869	-15.13184	0.14524	-13.93022	-0.73784
10158.872	-15.11021	0.07578	-13.93691	-0.65091
10162.872	-15.17584	-0.03571	-13.93036	-0.68587
10166.873	-15.18677	0.01089	-14.00985	-0.62233
10170.863	-15.16507	-0.03252	-13.96531	-0.59187
10174.873	-15.17697	-0.01636	-13.98618	-0.63423
10178.868	-15.22019	0.05388	-13.99370	-0.63934
10182.828	-15.27695	0.13155	-13.92447	-0.63189
10186.871	-15.28173	0.03219	-13.98036	-0.67311
10190.874	-15.18273	-0.09415	-13.96678	-0.69492
10194.872	-15.22017	0.01057	-13.95551	-0.74398
10198.872	-15.23888	-0.10249	-13.89405	-0.59394
10202.874	-15.29838	-0.13794	-13.93871	-0.61446
10206.873	-15.28469	-0.09981	-14.01847	-0.63978
10210.761	-15.31565	0.00772	-13.94076	-0.66192
10214.843	-15.30401	0.02016	-13.92010	-0.65554
10218.870	-15.29653	0.00676	-13.90714	-0.59077
10222.826	-15.19546	-0.10448	-13.87608	-0.53276
10226.766	-15.09432	-0.10768	-13.85173	-0.64594
10230.870	-15.22248	-0.02005	-13.85213	-0.42807
10234.871	-15.17781	0.02451	-13.89800	-0.59190
10238.871	-15.14914	0.01254	-13.86366	-0.55737
10242.834	-15.15193	-0.02375	-13.89886	-0.56464
10246.874	-15.16301	-0.00216	-13.84649	-0.67608
10250.869	-15.13561	-0.00456	-13.78040	-0.65967
10254.858	-15.09638	0.04441	-13.78810	-0.72205
10258.830	-15.20538	0.05259	-13.89732	-0.67335
10262.873	-15.23327	-0.02266	-13.88623	-0.66723
10266.873	-15.25469	-0.08554	-13.83084	-0.68071
10270.873	-15.19112	-0.00110	-13.85805	-0.64667
10274.831	-15.17827	-0.01413	-13.83732	-0.74115
10278.872	-15.17408	-0.01098	-13.84132	-0.70258
10282.872	-15.24637	-0.05176	-13.89634	-0.71397
10286.873	-15.16024	-0.03778	-13.78464	-0.75015
10290.830	-13.33795	0.00068	-12.26863	-0.66470
10294.875	-11.08679	0.14114	-11.09700	-0.39210
10298.837	-9.68377	0.18060	-8.99407	-0.10527
10302.873	-7.94577	0.09569	-8.12189	0.15208
10306.740	-6.10968	0.12465	-6.81918	0.35033
10310.873	-4.65212	0.15440	-6.01014	0.63783
10314.874	-3.62333	0.23435	-3.79865	0.67401
10318.874	-2.64861	0.23400	-2.48116	0.88959
10322.739	-1.63494	0.23264	-1.99181	0.89709
10326.828	-0.30652	0.39320	-0.88170	1.25446
10330.828	0.00325	0.34349	-0.13491	1.24959
10334.872	0.69796	0.42585	0.49071	1.12402
10338.768	1.02441	0.42631	1.14898	1.33302
10342.879	0.96936	0.35178	1.48384	1.38843
10346.873	0.74039	0.43978	1.38128	1.49460
10350.871	0.58682	0.52900	1.31821	1.48798
10354.771	0.77354	0.58612	1.45723	1.44329
10358.874	0.86049	0.72535	1.47127	1.51102
10362.874	0.90579	0.73756	1.62537	1.51019
10366.877	0.89123	0.77831	1.77050	1.52348
10370.771	1.01447	0.76206	1.70088	1.44319
10374.877	0.91671	0.66810	1.74861	1.48081
10378.864	0.92088	0.66152	1.80350	1.47501
10382.858	0.90949	0.73841	1.73814	1.46516
10386.771	0.84895	0.80184	1.79133	1.50391
10390.850	0.88776	0.81281	1.77784	1.54145
10394.876	0.91847	0.84329	1.88693	1.45330
10398.874	0.85525	0.83667	1.90111	1.42660
10402.771	0.89838	0.76941	1.97324	1.49206
10406.874	0.87059	0.72602	1.99025	1.40297
10410.875	0.87766	0.70977	1.97275	1.30914
10414.875	0.81168	0.67836	2.04441	1.38397
10418.876	0.79057	0.68847	2.07046	1.40035
10422.871	0.79359	0.64186	2.02755	1.26219
10426.887	0.84007	0.66633	2.08830	1.29433
10430.872	0.87540	0.64183	2.10558	1.27583
10434.769	0.84642	0.58300	2.13076	1.21423
10438.874	0.91976	0.53805	2.13963	1.29481
10442.875	0.98387	0.52609	2.11765	1.27500
10446.874	0.97981	0.55399	2.09232	1.25047
10450.770	0.99050	0.53508	2.11227	1.26336
10454.873	0.97316	0.49630	2.08642	1.27753
10458.877	1.00010	0.48676	2.10820	1.30375
10462.855	1.02072	0.45597	2.07685	1.27317
10466.772	1.04248	0.52173	2.07251	1.27953
10470.875	1.02479	0.53011	2.11445	1.34487
10474.877	0.99668	0.52231	2.08181	1.27123
10478.876	1.01342	0.55746	2.10902	1.29297
10482.769	1.01072	0.66009	2.12114	1.23059
10486.871	0.95626	0.66879	2.09866	1.22909
10490.876	0.97539	0.67897	2.06830	1.21601
10494.875	0.92398	0.67237	2.08496	1.23906
10498.772	0.97363	0.77961	2.11489	1.23822
10502.876	0.91934	0.74650	1.95319	1.23469
10506.843	0.95916	0.74903	2.11698	1.16591
10510.834	0.99047	0.80951	2.10682	1.17004
10514.741	0.94800	0.72710	2.07452	1.15234
10518.876	0.97876	0.71872	1.98807	1.16533
10522.830	1.01322	0.76951	1.99682	1.08874
10526.877	0.97028	0.72570	2.11038	1.10157
10530.770	0.99762	0.76338	2.00413	1.10654
10534.872	0.93195	0.77599	2.09090	1.07808
10538.874	0.96150	0.76905	2.12825	1.02230
10542.878	0.93058	0.79243	2.10310	1.01360
10546.771	0.99090	0.74972	1.96608	0.94035
10550.876	0.97182	0.70317	2.14136	0.96212
10554.876	0.94678	0.71398	2.08334	0.97759
10558.877	0.94969	0.80545	2.18766	0.94526
10562.771	0.93043	0.80985	2.21422	0.93303
10566.751	0.93547	0.78374	2.31205	0.98919
10570.752	0.98544	0.78363	2.15338	0.99138
10574.706	0.94125	0.73209	2.22079	0.96785
10578.877	1.02960	0.68771	2.15628	0.95764
10582.751	0.98866	0.67331	2.22356	0.92806
10586.751	0.94691	0.63682	2.34148	0.87069
10590.755	0.98710	0.72083	2.17237	0.86928
10594.751	0.95601	0.80122	2.08813	0.85733
10598.751	0.93917	0.75157	2.00123	0.86706
10602.751	1.00370	0.73384	2.01724	0.88329
10606.707	1.00794	0.74837	1.97114	0.86949
10610.749	0.97427	0.77829	1.97054	0.81062
10614.752	0.95864	0.88359	2.12461	0.82737
10618.753	1.00551	0.76268	2.05891	0.80968
10622.707	1.05734	0.82989	2.14682	0.83292
10626.748	1.02355	0.88914	2.15455	0.83366
10630.751	1.07024	0.90460	2.11323	0.90667
10634.745	1.11410	0.89160	2.11995	0.91409
10638.706	1.11611	0.86904	2.16689	0.91369
10642.709	1.13323	0.88558	2.14545	0.88846
10646.753	1.08661	0.85057	2.08258	0.87544
10650.752	0.91048	0.85076	1.52984	0.91434
10654.752	-0.82813	0.83280	-0.16486	1.06041
10658.709	-1.24776	0.80805	-0.20187	0.99602
10662.748	-1.25381	0.83182	0.14943	0.98087
10666.750	-1.05257	0.79789	0.12185	1.00253
10670.752	-1.07316	0.72990	0.57970	1.07241
10674.754	-0.91765	0.65799	0.44008	1.03438
10678.746	-0.99757	0.58601	0.27753	1.03725
10682.752	-0.85652	0.60792	0.25599	1.06470
10686.752	-0.99137	0.65097	0.28478	1.08368
10690.711	-0.93142	0.66226	0.13344	1.04439
10694.751	-0.94666	0.67113	0.08962	1.04424
10698.751	-0.92413	0.65697	0.16514	0.99563
10702.752	-0.92927	0.61603	0.18179	0.96147
10706.712	-0.90277	0.54414	0.22892	0.96683
10710.757	-0.93810	0.63379	0.16618	0.95968
10714.751	-0.88964	0.69608	0.09900	0.89392
10718.727	-0.87595	0.70465	0.14461	0.89586
10722.710	-0.87806	0.74154	0.19115	0.85616
10726.753	-0.88344	0.71064	0.15141	0.91171
10730.753	-0.86064	0.65231	0.13233	0.90162
10734.751	-0.90897	0.66274	0.14563	0.90664
10738.751	-0.98504	0.57220	0.10932	0.92431
10742.753	-1.04736	0.47331	0.06554	0.88294
10746.754	-1.03181	0.46646	0.07165	0.85427
10750.753	-1.04927	0.56506	0.06654	0.81003
10754.752	-0.92688	0.58542	0.11868	0.81644
10758.745	-0.97524	0.54216	0.11612	0.82968
10762.752	-1.03870	0.51435	0.09262	0.91402
10766.754	-1.00417	0.51240	0.14074	0.94306
10770.749	-1.04580	0.58163	0.14335	0.92212
10774.754	-1.05141	0.60910	0.15446	0.85760
10778.752	-1.06880	0.61898	0.26850	0.84391
10782.754	-1.02429	0.62284	0.25453	0.78326
10786.751	-0.99772	0.63321	0.31039	0.74731
10790.755	-0.97174	0.64193	0.31416	0.67670
10794.753	-0.99405	0.61965	0.33228	0.58012
10798.755	-1.02109	0.60277	0.32833	0.64696
10802.751	-1.00199	0.58906	0.37923	0.58509
10806.756	-0.96018	0.56209	0.34082	0.59086
10810.754	-0.97303	0.53998	0.30054	0.58308
10814.753	-0.91825	0.50789	0.28294	0.57859
10818.746	-0.93624	0.52113	0.24063	0.56564
10822.708	-0.91721	0.51927	0.21651	0.60468
10826.714	-0.92058	0.52717	0.18869	0.67040
10830.709	-0.85443	0.60521	0.14436	0.68722
10834.744	-0.85108	0.63110	0.03703	0.74774
10838.755	-0.82114	0.63920	0.07190	0.80404
10842.756	-0.81798	0.65299	0.06118	0.80551
10846.751	-0.85997	0.67683	-0.02273	0.82359
10850.712	-0.91952	0.68482	-0.02380	0.81860
10854.754	-1.00836	0.69099	-0.03936	0.80258
10858.757	-1.05304	0.70583	-0.04887	0.82789
10862.756	-1.04565	0.72794	-0.07123	0.85268
10866.750	-1.05721	0.76021	-0.05269	0.77358
10870.753	-1.07966	0.82129	-0.01588	0.71132
10874.755	-1.05763	0.87363	-0.00692	0.73050
10878.753	-1.05811	0.87701	0.01767	0.68871
10882.744	-1.06840	1.01597	0.02261	0.67055
10886.749	-1.09083	1.04187	0.03167	0.65181
10890.710	-1.05297	1.09148	0.06008	0.64006
10894.755	-1.02059	1.09720	0.11158	0.65055
10898.751	-0.97132	1.16602	0.13402	0.65581
10902.754	-0.93641	1.23097	0.13923	0.65231
10906.754	-0.94274	1.29241	0.13322	0.86394
10910.755	-0.93735	1.42149	0.12302	1.30160
10914.778	-0.92103	1.52225	0.15849	1.60322
10918.758	-0.92083	1.55376	0.15020	1.54025
10922.755	-0.90818	1.54306	0.16258	1.47973
10926.757	-0.88488	1.50233	0.16873	1.41437
10930.723	-0.83213	1.58552	0.14670	1.57086
10934.754	-0.76962	1.61415	0.16831	1.59594
10938.755	-0.74595	1.64954	0.16305	1.70211
10942.758	-0.75426	1.74355	0.13446	1.71430
10946.755	-0.73168	1.77123	0.16337	1.79198
10950.756	-0.72030	1.72606	0.18698	1.81764
10954.756	-0.67159	1.73452	0.17146	1.86046
10958.756	-0.65146	1.66787	0.13491	1.81521
10962.754	-0.71325	1.66410	0.10820	1.77436
10966.744	-0.70938	1.72157	0.13320	1.84513
10970.754	-0.66124	1.76761	0.14183	1.93749
10974.757	-0.73702	1.79248	0.11424	1.89170
10978.774	-0.80779	1.81775	0.10786	1.88765
10982.753	-0.76248	1.83844	0.12704	1.93866
10986.756	-0.76977	1.79224	0.08321	1.85925
10990.757	-0.81560	1.76777	0.07666	1.92059
10994.751	-0.76513	1.84062	0.07629	1.83915
10998.755	-0.78841	1.87742	0.10391	1.88869
11002.756	-0.80486	1.94994	0.09848	1.89651
11006.758	-0.78347	1.93054	0.06691	1.91545
11010.747	-0.74935	1.96116	0.13769	1.89030
11014.758	-0.77372	1.92431	0.12446	1.93044
11018.755	-0.73888	1.94071	0.12662	1.97288
11022.733	-0.75305	1.83899	0.13491	1.90934
11026.752	-0.79531	1.83222	0.10845	1.82060
11030.756	-0.82672	1.86544	0.07289	1.88276
11034.756	-0.79955	1.93659	0.08979	1.82018
11038.759	-0.87217	1.93529	0.08954	1.81460
11042.754	-0.88006	1.93913	0.13339	1.82306
11046.758	-0.88689	1.87283	0.08175	1.75023
11050.738	-0.89989	1.95403	0.12942	1.65762
11054.756	-0.94242	2.00037	0.15442	1.67298
11058.751	-0.95132	1.96944	0.17400	1.65747
11062.755	-0.95750	1.93420	0.14975	1.61595
11066.753	-0.89795	1.91577	0.13513	1.61702
11070.759	-0.84969	1.96418	0.09403	1.66154
11074.749	-0.84607	1.92550	0.10314	1.64096
11078.713	-0.81258	1.91477	0.11550	1.60953
11082.757	-0.81200	1.90293	0.12568	1.60570
11086.760	-0.74826	1.84604	0.10036	1.57784
11090.743	-0.69248	1.83212	0.13647	1.57183
11094.752	-0.68704	1.80399	0.12875	1.59753
11098.758	-0.66888	1.76076	0.08463	1.62318
11102.759	-0.67020	1.76982	0.06368	1.63056
11106.753	-0.69943	1.78334	0.03231	1.62381
11110.759	-0.76263	1.82280	0.03512	1.63192
11114.757	-0.78163	1.83913	0.02420	1.62102
11118.759	-0.82749	1.87160	0.04557	1.63592
11122.718	-0.88704	1.91200	0.01859	1.67607
11126.761	-0.88761	1.96692	-0.01032	1.71095
11130.758	-0.96276	1.99254	-0.02765	1.75800
11134.737	-0.99812	2.01306	-0.04095	1.78538
11138.725	-0.99869	2.04386	-0.04956	1.80827
11142.758	-1.02327	2.08622	-0.06691	1.81475
11146.757	-1.02394	2.09912	-0.08855	1.79561
11150.757	-1.00702	2.10199	-0.08053	1.81189
11154.749	-0.95807	2.08388	-0.05673	1.83729
11158.758	-0.95522	2.07066	-0.04867	1.83312
11162.759	-0.88026	2.05502	-0.05534	1.83039
11166.756	-0.82550	2.01663	-0.02710	1.81189
11170.747	-0.88399	1.99894	-0.06728	1.79273
11174.743	-0.81369	2.01808	-0.03743	1.68637
11178.747	-0.78804	2.00236	-0.04978	1.74030
11182.759	-0.82300	1.99348	-0.04683	1.69290
11186.758	-0.82855	1.99117	-0.00638	1.63322
11190.758	-0.88929	2.04730	0.05584	1.59133
11194.757	-0.90292	2.05940	0.02536	1.51962
11198.760	-0.90178	2.06424	0.12151	1.45607
11202.762	-0.90731	2.11642	0.09917	1.49039
11206.759	-0.87324	2.14452	0.11481	1.54072
11210.757	-0.91656	2.17988	0.11704	1.51884
11214.759	-0.83649	2.14492	0.14896	1.54737
11218.756	-0.82037	2.13904	0.13191	1.62705
11222.759	-0.81751	2.10438	0.06018	1.59351
11226.759	-0.78374	2.07775	0.10031	1.59257
11230.760	-0.87624	2.04299	0.02010	1.60037
11234.760	-0.85644	1.99962	0.02780	1.58850
11238.759	-0.90336	1.97934	0.02430	1.58969
11242.759	-0.86240	1.96681	-0.00104	1.64387
11246.759	-0.91448	2.00021	0.02363	1.61534
11250.655	-0.92031	2.01840	0.02941	1.65171
11254.760	-0.93482	1.96429	0.06194	1.69680
11258.741	-1.06399	2.00009	0.04626	1.71847
11262.715	-1.09529	2.01002	0.06991	1.78491
11266.760	-1.10053	2.02727	0.04229	1.68744
11270.759	-1.14605	2.09710	0.06003	1.68525
11274.756	-1.15664	2.08509	0.06336	1.80713
11278.758	-1.14166	2.08026	0.11813	1.68354
11282.716	-1.11638	2.08725	0.10729	1.80385
11286.759	-1.05200	2.06216	0.17012	1.79793
11290.758	-1.00524	2.05554	0.11754	1.85970
11294.757	-0.90602	2.03945	0.09813	1.81631
11298.717	-0.93686	2.08821	0.05423	1.83481
11302.760	-0.92666	2.05194	0.05644	1.82147
11306.716	-0.86230	2.06682	0.04894	1.82460
11310.760	-0.81776	2.04681	0.06316	1.85203
11314.628	-0.70407	1.98438	0.11456	1.84416
11318.762	-0.66970	2.04795	0.15856	1.81680
11322.760	-0.73655	2.04869	0.13568	1.85066
11326.716	-0.66253	2.07897	0.15092	1.83924
11330.721	-0.48455	2.03315	0.26664	1.79427
11334.761	0.54761	2.07304	1.24833	1.81680
11338.763	2.54170	2.03487	2.47393	1.79597
11342.731	4.82503	1.96541	4.89200	1.83238
11346.628	5.98609	1.91687	5.15505	1.74889
11350.762	6.50217	1.85071	6.14199	1.73476
11354.762	7.50949	1.80549	6.88494	1.76283
11358.762	8.50265	1.69255	8.53972	1.48959
11362.720	9.19217	1.67892	8.78004	1.51335
11366.760	9.63891	1.59636	9.53038	1.46934
11370.761	9.68722	1.46665	10.32981	1.52839
11374.762	9.72773	1.33586	10.19928	1.23970
11378.724	9.71527	1.25772	10.51158	1.35124
11382.746	9.64473	1.20429	10.45363	1.11188
11386.715	9.80496	1.13290	10.35179	1.24543
11390.715	9.91890	1.13584	10.41131	1.19758
11394.654	9.90082	1.10123	10.53747	1.05304
11398.761	9.98904	1.09638	10.70028	1.12988
11402.761	9.95199	1.10375	10.67905	1.15202
11406.762	9.96111	1.10328	10.67313	1.20298
11410.622	9.92897	1.09462	10.79090	1.20876
11414.760	9.93732	1.08564	10.75624	1.13743
11418.761	9.85500	1.11638	10.82830	1.18280
11422.762	9.81836	1.14930	10.81873	1.22424
11426.637	9.90277	1.19521	10.84183	1.27464
11430.760	9.84751	1.18714	10.86057	1.25939
11434.761	9.88634	1.18257	10.87584	1.27203
11438.761	9.91613	1.21984	10.86088	1.29354
11442.719	9.95160	1.25665	10.81865	1.27420
11446.763	9.81614	1.29973	10.79717	1.27537
11450.764	9.71645	1.25858	10.77526	1.18001
11454.763	9.75331	1.28194	10.74101	1.20376
11458.658	9.71141	1.32073	10.72992	1.24183
11462.762	9.78693	1.34233	10.69982	1.26438
11466.740	9.87519	1.42851	10.69901	1.23776
11470.762	9.83392	1.48100	10.69278	1.21667
11474.720	9.80956	1.50451	10.70521	1.21550
11478.762	9.82351	1.55651	10.71363	1.30442
11482.763	9.70697	1.47606	10.73052	1.35832
11486.760	9.64398	1.48390	10.73787	1.41060
11490.625	9.61993	1.43563	10.69235	1.28020
11494.759	9.70832	1.42901	10.69139	1.33275
11498.760	9.76401	1.42527	10.68787	1.39556
11502.762	9.81934	1.39797	10.68801	1.35192
11506.621	9.77720	1.40062	10.69613	1.40199
11510.756	9.75840	1.33290	10.70109	1.34474
11514.763	9.64808	1.36507	10.70907	1.28928
11518.762	9.72706	1.37435	10.77457	1.39311
11522.626	9.67883	1.34920	10.73483	1.42116
11526.762	9.66651	1.34585	10.75950	1.40101
11530.763	9.71951	1.36170	10.76788	1.40161
11534.760	9.74786	1.38045	10.79823	1.44111
11538.658	9.72252	1.41994	10.82066	1.46607
11542.764	9.67512	1.48543	10.77725	1.36880
11546.764	9.68004	1.51968	10.77804	1.33288
11550.743	9.68144	1.56545	10.76626	1.29048
11554.659	9.72894	1.60812	10.78233	1.28185
11558.764	9.77753	1.63424	10.79686	1.32558
11562.763	9.77630	1.61149	10.74729	1.32223
11566.764	9.82122	1.64555	10.76300	1.31633
11570.660	9.87610	1.68366	10.73193	1.38015
11574.763	9.89470	1.71269	10.72800	1.37966
11578.763	9.90657	1.69091	10.70634	1.40443
11582.764	9.90508	1.69153	10.71959	1.56343
11586.659	9.89179	1.68133	10.73555	1.68417
11590.718	9.85255	1.65352	10.74534	1.79258
11594.640	9.81094	1.64249	10.77433	1.84238
11598.637	9.75398	1.65760	10.89757	1.71842
11602.632	9.79975	1.61953	10.87244	1.75077
11606.638	9.77469	1.60203	10.86873	1.67555
11610.640	9.74171	1.62333	10.84731	1.50182
11614.638	9.80857	1.56659	10.83893	1.50508
11618.631	9.79219	1.53427	10.87307	1.52856
11622.637	9.79595	1.58182	10.91432	1.48905
11626.640	9.81130	1.58762	10.91461	1.75040
11630.638	9.74415	1.55605	10.86009	1.76659
11634.630	9.72146	1.57806	10.95921	1.54794
11638.637	9.73147	1.57911	11.01450	1.59203
11642.638	9.75627	1.61382	10.93265	1.45267
11646.639	9.74743	1.58785	10.87036	1.37454
11650.638	9.79571	1.64076	10.84968	1.44932
11654.639	9.81489	1.64964	10.91155	1.45292
11658.640	9.74914	1.71782	10.90554	1.52654
11662.638	9.70376	1.65714	10.83007	1.62343
11666.659	9.66689	1.56412	10.76863	1.66352
11670.639	9.68975	1.58621	10.77964	1.71280
11674.641	9.72322	1.54929	10.88405	1.62431
11678.631	9.63947	1.47993	10.82811	1.69599
11682.631	9.69344	1.49688	10.79217	1.49248
11686.638	9.73836	1.52419	10.82550	1.49573
11690.644	9.71546	1.46425	10.84068	1.58689
11694.639	9.68339	1.49161	10.79792	1.58646
11698.597	9.58188	1.45215	10.75591	1.63254
11702.596	9.57254	1.42172	10.73008	1.68940
11706.640	9.63298	1.42460	10.76487	1.68703
11710.641	9.64506	1.45907	10.77062	1.66910
11714.635	9.61445	1.46352	10.71640	1.58155
11718.639	9.62613	1.48969	10.68904	1.54311
11722.593	9.66851	1.47652	10.66893	1.48806
11726.638	9.74895	1.50375	10.65515	1.52896
11730.628	9.71515	1.53166	10.69688	1.56035
11734.640	9.66889	1.55610	10.71885	1.56902
11738.640	9.61411	1.51097	10.73382	1.56204
11742.639	9.65753	1.57904	10.79315	1.54929
11746.638	9.62208	1.58340	10.74022	1.62862
11750.637	9.61674	1.59730	10.76525	1.70130
11754.642	9.57939	1.59814	10.76966	1.74410
11758.645	9.63006	1.57893	10.81973	1.78699
11762.638	9.53149	1.60581	10.81681	1.78979
11766.637	9.51457	1.65356	10.84547	1.88738
11770.639	9.52854	1.65658	10.84212	1.87597
11774.643	9.51556	1.61916	10.79986	1.89382
11778.629	9.50383	1.62235	10.74187	1.85180
11782.639	9.58576	1.65185	10.65192	1.80787
11786.641	9.58412	1.63249	10.71614	1.89105
11790.641	9.65008	1.65036	10.77217	1.74070
11794.638	9.63952	1.60762	10.73279	1.70511
11798.649	9.69193	1.59558	10.62694	1.71037
11802.639	9.68018	1.60004	10.80867	1.68518
11806.633	9.59090	1.55184	10.75351	1.57520
11810.637	9.61107	1.55681	10.84207	1.62844
11814.640	9.59409	1.63163	10.65611	1.61570
11818.639	9.65664	1.55942	10.94681	1.61843
11822.594	9.66311	1.56247	10.83285	1.53769
11826.598	9.45503	1.46307	10.94232	1.57540
11830.595	9.66347	1.44670	10.71250	1.55922
11834.639	9.61093	1.41268	10.90540	1.58864
11838.642	9.50279	1.48454	10.87335	1.56606
11842.599	9.58094	1.43800	10.87984	1.47361
11846.642	9.61479	1.48100	10.81157	1.47339
11850.640	9.57997	1.55791	10.69012	1.52056
11854.641	9.52874	1.47669	10.70524	1.45624
11858.599	9.60104	1.45549	10.68329	1.37530
11862.642	9.58388	1.45133	10.67253	1.44622
11866.640	9.38615	1.43372	10.69774	1.40740
11870.642	9.52360	1.47669	10.68432	1.28446
11874.625	9.53212	1.47536	10.75615	1.38397
11878.642	9.53115	1.47945	10.71353	1.37804
11882.641	9.60261	1.47356	10.80836	1.44603
11886.640	9.56641	1.56172	10.77624	1.39278
11890.599	9.54766	1.64366	10.70879	1.40039
11894.640	9.48033	1.58308	10.80527	1.54088
11898.642	9.47017	1.57080	10.77502	1.46025
11902.642	9.41458	1.54918	10.79301	1.51914
11906.652	9.38830	1.57252	10.76087	1.53291
11910.642	9.40868	1.63957	10.76226	1.50732
11914.639	9.44701	1.63170	10.76604	1.62297
11918.640	9.38218	1.57199	10.71844	1.55806
11922.600	9.32419	1.59163	10.71660	1.61045
11926.643	9.28207	1.58496	10.66831	1.60342
11930.610	9.28453	1.57676	10.63626	1.69055
11934.642	9.26225	1.53564	10.66273	1.71397
11938.600	9.28855	1.55714	10.59435	1.69759
11942.644	9.31586	1.64053	10.57553	1.73672
11946.639	9.36882	1.57072	10.57855	1.48406
11950.643	9.32282	1.65154	10.34922	1.46293
11954.664	9.09023	1.62522	9.99067	1.79091
11958.644	8.51132	1.81817	8.30405	1.84796
11962.643	7.20443	2.17517	7.97836	2.39227
11966.643	7.38427	2.19871	7.91801	2.25406
11970.641	7.83690	2.20197	7.90601	2.71141
11974.645	7.50371	2.40819	7.95263	2.64796
11978.642	7.42000	2.27721	8.12434	2.84685
11982.640	7.21994	2.39275	7.94392	2.80471
11986.663	7.10047	2.45666	7.99914	2.88899
11990.645	7.08466	2.45696	8.00241	2.91761
11994.642	7.03059	2.52280	7.95660	2.96511
11998.643	7.03247	2.54864	7.91670	3.03366
12002.640	6.97751	2.57161	7.91706	3.03086
12006.641	6.95193	2.56244	7.90421	3.05253
12010.644	6.91332	2.56283	7.89381	3.06168
12014.606	6.85564	2.59057	7.88003	3.03631
12018.600	6.82816	2.62248	7.90596	3.02328
12022.599	6.76329	2.66880	7.93951	3.00659
12026.642	6.77741	2.67778	7.97184	3.00604
12030.643	6.77707	2.70662	8.20240	2.96701
12034.639	6.82170	2.75132	8.14302	2.92737
12038.642	6.84101	2.81855	8.14706	2.91941
12042.642	6.81214	2.83056	8.30371	2.92474
12046.643	6.80213	2.85454	8.39433	2.95390
12050.636	6.78148	2.87049	8.38529	3.00249
12054.646	6.75365	2.87354	8.38921	2.95703
12058.600	6.75698	2.88563	8.45033	2.89733
12062.645	6.89595	2.84170	8.51120	2.88366
12066.641	6.94900	2.78220	8.51297	2.93314
12070.643	6.95741	2.77809	8.51940	2.84636
12074.645	6.96592	2.77790	8.47825	2.88484
12078.642	6.98008	2.74607	8.44227	2.89288
12082.635	6.97274	2.59367	8.35296	2.83959
12086.645	7.05371	2.52315	8.12965	2.81268
12090.644	7.07376	2.49293	8.10396	2.86962
12094.638	7.04381	2.45834	8.04927	2.75194
12098.644	7.05054	2.43639	8.06956	2.70283
12102.645	7.02944	2.47461	8.22440	2.70996
12106.642	6.91434	2.54091	8.22334	2.71635
12110.648	6.96675	2.43570	8.08533	2.70501
12114.649	6.94093	2.43263	8.14020	2.72560
12118.646	6.94993	2.38637	8.11758	2.73013
12122.641	6.96824	2.29994	8.10610	2.79954
12126.646	6.95056	2.37184	8.17194	2.83846
12130.640	6.98881	2.39816	8.20262	2.89803
12134.644	7.14252	2.27466	8.30337	2.81137
12138.645	7.56001	2.20916	8.37849	2.59351
12142.601	7.92817	1.78082	8.58311	1.24442
12146.637	7.56781	1.54570	8.82327	0.66485
12150.645	7.70933	0.93457	8.96002	0.59428
12154.648	7.79661	0.61908	8.87745	0.39402
12158.647	7.83057	0.05359	8.87290	0.10680
12162.640	7.86970	0.04492	9.16876	-0.06825
12166.642	7.95266	0.23650	9.07370	-0.18310
12170.645	8.04224	0.24472	9.07225	-0.16151
12174.648	8.10180	0.28318	9.13581	-0.15353
12178.603	8.15285	0.15167	9.14871	-0.04524
12182.641	8.10219	0.11282	9.18852	-0.07553
12186.643	8.09518	0.05132	9.14060	-0.14325
12190.648	8.02326	-0.03511	9.13964	-0.13520
12194.642	8.00766	-0.07397	9.18255	-0.07107
12198.646	8.00245	-0.09676	9.16668	-0.16171
12202.603	8.04832	-0.06872	9.23783	-0.07412
12206.648	8.05784	-0.03100	9.26053	-0.08859
12210.642	8.02657	-0.01737	9.25502	-0.02641
12214.644	8.12962	-0.05090	9.21691	0.04562
12218.647	8.11401	-0.11373	9.24409	0.06051
12222.601	8.09090	-0.10921	9.18826	0.13663
12226.639	8.06314	-0.17166	9.18763	0.11770
12230.645	8.08185	-0.14968	9.21406	0.08124
12234.641	8.12559	-0.09161	9.17672	0.06044
12238.644	8.23352	-0.06212	9.14254	0.06720
12242.603	8.28801	-0.04906	9.13277	-0.02051
12246.643	8.27803	-0.09930	9.11646	0.00422
12250.645	8.28121	-0.17609	9.10497	0.03146
12254.648	8.24366	-0.17711	9.10572	0.06789
12258.606	8.14088	-0.23504	9.18112	0.01604
12262.622	8.11576	-0.17589	9.31165	0.00696
12266.646	8.15443	-0.18982	9.25717	-0.03711
12270.644	8.16744	-0.11551	9.27511	-0.00554
12274.604	8.15808	-0.12461	9.25187	0.05268
12278.646	8.09871	-0.13250	9.29937	0.11864
12282.647	8.00684	-0.14990	9.22825	0.08594
12286.647	7.98362	-0.18700	9.15693	0.15524
12290.605	7.85475	-0.24281	9.16247	0.15595
12294.647	7.77839	-0.22688	9.23860	0.12433
12298.647	7.77254	-0.22597	9.31989	0.08450
12302.639	7.79132	-0.14929	9.25231	0.11660
12306.605	7.81593	-0.14574	9.19191	0.16675
12310.645	7.85848	-0.08451	9.23635	0.22857
12314.645	7.84172	-0.12843	9.23616	0.16156
12318.647	7.86678	-0.05049	9.26981	0.14940
12322.605	7.87423	-0.09816	9.27931	0.12397
12326.602	7.90557	-0.07010	9.28456	0.13054
12330.603	7.93630	-0.04671	9.34159	0.14741
12334.654	8.00126	-0.02375	9.38136	0.14475
12338.639	8.06944	0.05501	9.37308	0.17956
12342.641	8.31873	0.10988	9.41463	0.13895
12346.616	8.88547	-0.05566	9.58673	0.08860
12350.645	10.33466	-0.82165	10.09003	-0.25064
12354.548	11.14844	-1.24027	11.22162	-0.44533
12358.649	11.52128	-1.68214	11.98519	-0.69514
12362.647	12.21736	-1.75676	12.00227	-1.30974
12366.647	12.28346	-1.91413	12.29287	-1.48935
12370.544	12.43845	-2.05175	12.54753	-1.70341
12374.650	12.39177	-2.05006	12.73859	-1.67557
12378.648	12.34574	-2.14717	12.70834	-1.60200
12382.648	12.37027	-2.15867	12.58772	-1.61642
12386.545	12.37913	-2.18342	12.57569	-1.70126
12390.602	12.37136	-2.23722	12.75311	-1.87153
12394.603	12.43781	-2.29300	12.75686	-1.86898
12398.644	12.51305	-2.39209	12.77919	-1.95255
12402.651	12.52121	-2.43076	12.79203	-1.97588
12406.645	12.54698	-2.44194	12.86754	-2.07613
12410.650	12.56384	-2.42881	12.91215	-2.08285
12414.647	12.55580	-2.38537	12.89737	-2.02607
12418.648	12.53133	-2.39182	12.90885	-1.94107
12422.645	12.51660	-2.33345	12.89421	-2.04100
12426.651	12.52007	-2.30479	12.96731	-2.05569
12430.614	12.40418	-2.29792	13.04867	-2.06473
12434.638	12.34721	-2.22356	13.05856	-1.93308
12438.650	12.22746	-2.17920	13.05809	-1.96727
12442.649	12.15720	-2.15879	13.04975	-2.00805
12446.604	12.12245	-2.14668	13.02723	-2.06706
12450.549	12.21020	-2.12584	13.06920	-2.05180
12454.647	12.26206	-2.12867	13.05041	-1.99473
12458.650	12.18936	-2.13027	13.03390	-2.02520
12462.648	12.26327	-2.09740	13.02337	-2.03813
12466.543	12.19930	-2.15314	13.04330	-2.04440
12470.625	12.18554	-2.18027	13.01482	-2.00771
12474.650	12.08584	-2.22866	12.98256	-1.99810
12478.649	12.05917	-2.24774	12.96484	-2.04403
12482.544	12.06337	-2.23649	12.92562	-2.07809
12486.647	12.11574	-2.25292	12.93248	-2.11407
12490.649	12.12732	-2.27011	12.97431	-2.12970
12494.647	12.13875	-2.22434	12.95452	-2.08586
12498.545	12.16190	-2.24862	12.95284	-2.08531
12502.649	12.18635	-2.24087	12.98685	-2.03886
12506.651	12.11472	-2.26105	12.97278	-2.03376
12510.646	12.12288	-2.24293	12.96003	-2.08600
12514.546	12.15562	-2.17807	12.97259	-2.12094
12518.649	12.16247	-2.13410	12.97278	-2.14214
12522.604	12.19214	-2.09794	12.98768	-2.12526
12526.648	12.23519	-2.08053	12.98049	-2.07834
12530.544	12.22682	-2.05287	12.96503	-2.03585
12534.652	12.21798	-2.07421	12.96887	-2.02264
12538.649	12.16418	-2.12558	12.99006	-1.98573
12542.651	12.06211	-2.10520	13.01206	-1.88268
12546.651	12.04151	-2.12575	12.99986	-1.88246
12550.649	12.05438	-2.08352	12.96406	-1.91028
12554.619	12.03679	-2.06404	12.98518	-1.91193
12558.653	12.04564	-2.04376	12.95989	-1.91970
12562.654	12.05153	-2.00944	12.90374	-1.87038
12566.649	12.10343	-1.96457	12.82215	-1.85548
12570.648	12.12523	-1.92425	12.84930	-1.88855
12574.651	12.13201	-1.90231	12.85463	-1.86051
12578.554	12.16468	-1.81577	12.83524	-1.89672
12582.650	12.21627	-1.78108	12.85282	-1.92282
12586.650	12.31253	-1.70352	12.78578	-1.95262
12590.648	12.31860	-1.65417	12.77655	-2.02487
12594.554	12.35955	-1.60336	12.77046	-2.02596
12598.646	12.37461	-1.57269	12.75830	-2.03758
12602.649	12.39045	-1.51650	12.79097	-2.04484
12606.651	12.41305	-1.46522	12.77683	-2.04817
12610.655	12.37472	-1.44321	12.81700	-2.07413
12614.650	12.37738	-1.41106	12.79883	-2.07084
12618.651	12.38476	-1.39169	12.79439	-2.08893
12622.604	12.39537	-1.36745	12.79114	-2.12439
12626.546	12.37340	-1.35301	12.77200	-2.12948
12630.526	12.36028	-1.42226	12.84281	-1.99941
12634.528	11.85559	-1.44928	12.69604	-1.91367
12638.532	10.65537	-1.45687	11.28185	-1.65478
12642.570	8.34645	-1.44505	9.21885	-1.34083
12646.481	7.27751	-1.08930	6.37182	-0.38073
12650.525	6.65113	-1.01706	5.07281	0.07958
12654.521	4.86569	-0.81124	4.16344	-0.46116
12658.631	3.80527	-0.51276	2.24160	-0.45470
12662.525	1.85326	-0.38930	0.66183	-0.05183
12666.525	0.63454	-0.22897	-0.96427	-0.00196
12670.524	-0.25689	0.10551	-1.71355	0.15583
12674.484	-2.08396	0.25910	-2.65874	0.47449
12678.526	-2.81246	0.31433	-4.47950	0.30057
12682.526	-4.31533	0.45366	-5.61074	0.50198
12686.517	-5.17710	0.47294	-5.72409	0.41807
12690.484	-5.93186	0.65922	-5.68688	0.52504
12694.526	-6.57051	0.69919	-5.69308	0.48287
12698.526	-6.44797	0.81253	-5.57124	0.51987
12702.527	-6.25053	0.84586	-5.27073	0.59510
12706.483	-6.25536	0.84418	-5.46128	0.60758
12710.526	-6.34733	0.88163	-5.57311	0.60813
12714.527	-6.37758	0.93600	-5.62249	0.61451
12718.529	-6.35130	0.94757	-5.45056	0.67746
12722.510	-6.37587	0.93997	-5.54228	0.67800
12726.491	-6.40410	0.95064	-5.40629	0.73143
12730.525	-6.39464	0.97697	-5.38004	0.80512
12734.527	-6.35976	0.96886	-5.28428	0.79078
12738.545	-6.32512	0.95305	-5.26157	0.77797
12742.529	-6.30075	0.93981	-5.34432	0.81210
12746.526	-6.25502	0.97701	-5.31204	0.81726
12750.525	-6.22140	1.04513	-5.31029	0.82068
12754.523	-6.20619	1.07660	-5.27946	0.86280
12758.530	-6.17504	1.09600	-5.27493	0.89684
12762.526	-6.18963	1.09150	-5.27205	0.88359
12766.526	-6.18078	1.13316	-5.27860	0.90305
12770.503	-6.17168	1.14053	-5.29398	0.91646
12774.528	-6.20661	1.03617	-5.30116	0.90118
12778.523	-6.21769	0.98543	-5.32683	0.90486
12782.527	-6.22243	1.01836	-5.34080	0.91498
12786.523	-6.22920	1.06376	-5.34080	0.89979
12790.531	-6.30593	0.99020	-5.35618	0.88080
12794.528	-6.37226	0.99341	-5.36981	0.83769
12798.527	-6.39481	0.99790	-5.35975	0.89027
12802.522	-6.42601	0.95457	-5.33118	0.91489
12806.524	-6.44988	0.93799	-5.31175	0.88160
12810.520	-6.45101	0.91841	-5.27703	0.89598
12814.527	-6.45003	0.88434	-5.24934	0.88995
12818.518	-6.46238	0.91061	-5.22643	0.87796
12822.482	-6.49477	0.94516	-5.17464	0.81111
12826.500	-6.51682	0.93179	-5.13479	0.78641
12830.483	-6.54673	0.92502	-5.11021	0.77511
12834.519	-6.52309	0.89838	-5.00797	0.71910
12838.528	-6.54097	0.88399	-5.02322	0.67191
12842.530	-6.56941	0.88532	-5.04509	0.63709
12846.530	-6.59966	0.90343	-5.04718	0.57623
12850.529	-6.53767	0.88271	-5.08082	0.67519
12854.529	-6.58984	0.91364	-5.07801	0.63067
12858.499	-6.59116	0.92067	-5.10679	0.59332
12862.527	-6.63188	0.94759	-5.07981	0.56409
12866.528	-6.58134	0.89729	-5.13139	0.58088
12870.526	-6.55219	0.85916	-5.16083	0.59040
12874.530	-6.52887	0.81677	-5.20371	0.65032
12878.524	-6.53149	0.78905	-5.27053	0.62466
12882.547	-6.39834	0.78180	-5.31996	0.68127
12886.527	-6.35993	0.71354	-5.34609	0.65754
12890.516	-6.32502	0.68030	-5.40299	0.72406
12894.526	-6.38253	0.66449	-5.40292	0.69884
12898.525	-6.31220	0.70224	-5.40737	0.69059
12902.528	-6.33576	0.71110	-5.38767	0.68458
12906.529	-6.31448	0.68243	-5.48546	0.68749
12910.529	-6.37155	0.66199	-5.63842	0.83291
12914.527	-7.22803	0.71932	-6.96661	0.82282
12918.526	-8.92093	0.73084	-8.66751	0.78545
12922.483	-10.06737	0.73256	-10.26903	0.86839
12926.528	-10.86127	0.74696	-10.94155	0.63880
12930.552	-11.13712	0.82783	-11.22981	0.65630
12934.498	-11.56660	0.75510	-11.52155	0.48701
12938.532	-11.99842	0.75267	-11.52669	0.04244
12942.531	-12.04341	0.72422	-11.78259	0.12343
12946.504	-12.35154	0.75966	-11.76816	0.42243
12950.486	-12.38535	0.71384	-11.74442	0.43268
12954.528	-12.35767	0.71758	-11.62523	0.33340
12958.534	-12.39705	0.68646	-11.53618	0.21114
12962.527	-12.42482	0.66382	-11.59380	0.20995
12966.529	-12.42209	0.65243	-11.60999	0.14785
12970.529	-12.46337	0.60082	-11.67474	0.14470
12974.508	-12.49464	0.59102	-11.52514	0.17742
12978.524	-12.51468	0.59980	-11.59277	0.19201
12982.528	-12.53618	0.55248	-11.56776	0.26681
12986.527	-12.60292	0.56468	-11.47820	0.29610
12990.532	-12.59079	0.48044	-11.46499	0.28269
12994.502	-12.53140	0.50204	-11.47262	0.27927
12998.528	-12.45930	0.51048	-11.47050	0.27835
13002.527	-12.37004	0.51764	-11.40217	0.25969
13006.529	-12.43918	0.51818	-11.39973	0.20349
13010.534	-12.36246	0.48642	-11.41087	0.22611
13014.528	-12.41308	0.49528	-11.29806	0.26475
13018.522	-12.44079	0.56921	-11.36346	0.23904
13022.486	-12.46084	0.63042	-11.32624	0.24777
13026.527	-12.49784	0.62582	-11.30106	0.13677
13030.530	-12.37084	0.55851	-11.30402	0.17556
13034.528	-12.38429	0.65376	-11.38538	0.24867
13038.533	-12.38720	0.67452	-11.30624	0.08770
13042.526	-12.47922	0.61390	-11.27932	-0.00007
13046.531	-12.48151	0.77551	-11.36844	0.10517
13050.532	-12.44732	0.70926	-11.43150	0.30002
13054.533	-12.51695	0.74499	-11.40388	0.27720
13058.512	-12.54048	0.78884	-11.46940	-0.01917
13062.530	-12.59555	0.80188	-11.40376	0.28733
13066.527	-12.60661	0.72984	-11.54239	0.30820
13070.533	-12.54727	0.82825	-11.49033	0.33263
13074.533	-12.46756	0.77931	-11.42952	0.28438
13078.531	-12.62606	0.73565	-11.48516	0.33571
13082.529	-12.56164	0.76166	-11.50827	0.33222
13086.535	-12.67927	0.83466	-11.57589	0.44974
13090.522	-12.69230	0.75294	-11.45202	0.48172
13094.532	-12.71892	0.72533	-11.44070	0.45417
13098.528	-12.59368	0.79171	-11.43228	0.41785
13102.534	-12.58590	0.75577	-11.56436	0.54528
13106.531	-12.69979	0.76004	-11.69355	0.56488
13110.528	-13.17038	0.76553	-12.17867	0.18402
13114.532	-13.92938	0.71401	-13.51804	-0.13313
13118.535	-15.00774	0.62097	-13.87344	-0.09580
13122.490	-14.59496	0.58998	-14.19359	-0.37937
13126.533	-15.03105	0.49717	-14.31764	-0.30010
13130.534	-14.98778	0.51957	-14.30422	-0.35940
13134.487	-15.03399	0.57684	-14.49814	-0.52161
13138.532	-15.16165	0.51828	-14.41445	-0.55162
13142.502	-15.29741	0.48454	-14.40821	-0.49756
13146.531	-15.13431	0.48360	-14.36840	-0.48935
13150.522	-15.22558	0.48907	-14.46698	-0.54985
13154.529	-15.30787	0.37343	-14.54063	-0.51735
13158.531	-15.33566	0.33912	-14.60937	-0.49814
13162.529	-15.32669	0.39185	-14.54105	-0.48156
13166.533	-15.34702	0.35554	-14.51472	-0.44084
13170.529	-15.34686	0.31456	-14.46410	-0.42061
13174.529	-15.38897	0.19816	-14.50472	-0.43615
13178.532	-15.43916	0.36096	-14.47911	-0.39308
13182.534	-15.38348	0.30408	-14.35803	-0.39650
13186.507	-15.37030	0.30633	-14.40572	-0.42284
13190.530	-15.39898	0.23897	-14.42982	-0.45764
13194.532	-15.41358	0.31839	-14.44276	-0.41399
13198.531	-15.40865	0.33991	-14.33381	-0.41860
13202.529	-15.38320	0.27943	-14.30701	-0.37952
13206.532	-15.45454	0.30642	-14.31566	-0.43096
13210.532	-15.43328	0.35730	-14.36744	-0.44135
13214.531	-15.43510	0.45311	-14.28573	-0.50455
13218.496	-15.43535	0.31110	-14.35680	-0.48812
13222.487	-15.40339	0.31749	-14.37690	-0.52844
13226.525	-15.38632	0.33664	-14.41704	-0.52173
13230.532	-15.38646	0.31570	-14.42295	-0.52318
13234.522	-15.45760	0.25866	-14.40440	-0.48188
13238.530	-15.43591	0.40990	-14.41690	-0.53222
13242.531	-15.35706	0.35377	-14.43650	-0.53874
13246.531	-15.39268	0.23948	-14.40321	-0.59374
13250.490	-15.31297	0.25549	-14.41825	-0.61257
13254.532	-15.28670	0.35010	-14.42300	-0.60646
13258.534	-15.29028	0.29499	-14.42679	-0.58434
13262.535	-15.34859	0.23038	-14.38777	-0.56967
13266.490	-15.34074	0.37769	-14.40866	-0.55703
13270.488	-15.35334	0.30976	-14.44190	-0.58962
13274.531	-15.37967	0.27419	-14.37131	-0.67060
13278.533	-15.32643	0.29408	-14.38581	-0.64245
13282.529	-15.31120	0.25165	-14.39378	-0.63434
13286.533	-15.43300	0.27654	-14.39471	-0.65607
13290.532	-15.39794	0.24987	-14.42744	-0.57183
13294.530	-15.41670	0.29457	-14.48795	-0.56645
13298.529	-15.39688	0.37291	-14.47610	-0.56107
13302.532	-15.39831	0.20605	-14.48308	-0.49032
13306.531	-15.44887	0.17516	-14.55688	-0.56671
13310.533	-15.82086	0.24219	-14.69752	-0.52599
13314.525	-15.77184	0.37836	-15.03490	-0.55085
13318.535	-16.51796	0.42975	-15.50900	-0.44203
13322.490	-16.81446	0.45211	-15.41845	-0.29443
13326.532	-16.76742	0.44465	-15.13531	-0.37482
13330.430	-16.52864	0.38644	-15.13651	-0.38244
13334.531	-16.41658	0.39975	-15.38355	-0.34500
13338.532	-16.54905	0.46674	-15.49785	-0.42613
13342.531	-16.61509	0.36615	-15.54769	-0.40027
13346.433	-16.61644	0.49817	-15.58921	-0.41127
13350.500	-16.63829	0.46314	-15.59515	-0.44658
13354.536	-16.63872	0.41057	-15.61649	-0.39499
13358.535	-16.69773	0.44301	-15.63895	-0.34728
13362.526	-16.60055	0.43085	-15.55992	-0.37525
13366.536	-16.52590	0.35762	-15.51762	-0.43590
13370.534	-16.50434	0.38432	-15.53303	-0.41322
13374.535	-16.50877	0.38405	-15.47803	-0.37591
13378.428	-16.56627	0.37265	-15.50587	-0.38546
13382.538	-16.56248	0.39938	-15.53313	-0.33707
13386.534	-16.55053	0.34097	-15.52175	-0.35062
13390.523	-16.56173	0.37199	-15.54529	-0.46057
13394.424	-16.60762	0.35656	-15.57852	-0.35801
13398.536	-16.53181	0.32860	-15.60484	-0.41164
13402.532	-16.51780	0.29770	-15.58707	-0.50677
13406.533	-16.58567	0.34058	-15.58486	-0.47614
13410.525	-16.59216	0.36614	-15.72239	-0.46596
13414.534	-16.59041	0.40403	-15.59589	-0.50778
13418.533	-16.60153	0.35498	-15.60641	-0.52496
13422.533	-16.51924	0.32928	-15.60551	-0.49545
13426.431	-16.50377	0.35902	-15.53734	-0.53246
13430.533	-16.50957	0.39150	-15.59029	-0.58035
13434.527	-16.49236	0.36395	-15.57272	-0.51255
13438.533	-16.45514	0.34975	-15.51338	-0.49563
13442.430	-16.51151	0.40196	-15.43353	-0.49311
13446.490	-16.52704	0.40283	-15.50723	-0.47629
13450.532	-16.48657	0.40649	-15.43367	-0.46142
13454.536	-16.51808	0.32614	-15.48499	-0.41931
13458.432	-16.52590	0.43580	-15.48566	-0.42613
13462.536	-16.55042	0.40305	-15.48817	-0.44068
13466.536	-16.59544	0.42224	-15.44299	-0.51306
13470.535	-16.59800	0.40640	-15.55460	-0.55063
13474.436	-16.58197	0.35685	-15.53483	-0.48377
13478.537	-16.53730	0.36210	-15.60344	-0.47959
13482.532	-16.52551	0.37030	-15.59344	-0.53590
13486.534	-16.53261	0.40149	-15.59344	-0.52930
13490.430	-16.52296	0.40675	-15.54932	-0.51658
13494.535	-16.44781	0.32223	-15.55545	-0.51956
13498.532	-16.43889	0.37992	-15.61444	-0.53479
13502.534	-16.44008	0.33328	-15.54587	-0.57672
13506.429	-16.44359	0.32276	-15.54140	-0.50461
13510.492	-16.42030	0.37841	-15.57560	-0.54579
13514.521	-16.39623	0.36775	-15.59027	-0.45736
13518.527	-16.36628	0.41859	-15.52343	-0.48325
13522.397	-16.39333	0.41527	-15.52488	-0.47810
13526.537	-16.40802	0.41845	-15.49866	-0.53881
13530.536	-16.39409	0.43643	-15.51658	-0.52633
13534.534	-16.36898	0.43742	-15.52073	-0.43777
13538.431	-16.35641	0.45213	-15.47263	-0.49520
13542.535	-16.34716	0.43046	-15.48778	-0.53424
13546.536	-16.37213	0.43021	-15.46244	-0.53742
13550.535	-16.37602	0.43988	-15.43960	-0.50529
13554.434	-16.34236	0.48231	-15.47344	-0.65666
13558.494	-16.32060	0.44449	-15.46464	-0.51732
13562.539	-16.38365	0.40187	-15.44963	-0.43205
13566.537	-16.43912	0.41846	-15.38883	-0.42022
13570.433	-16.43103	0.39638	-15.36511	-0.42647
13574.492	-16.41391	0.39995	-15.37330	-0.42006
13578.534	-16.41957	0.33396	-15.41704	-0.38818
13582.538	-16.46681	0.37989	-15.39737	-0.36879
13586.436	-16.50580	0.51678	-15.36327	-0.35582
13590.536	-16.44629	0.37996	-15.37568	-0.30429
13594.536	-16.44245	0.37994	-15.42348	-0.39716
13598.543	-16.43903	0.42501	-15.41331	-0.31937
13602.434	-16.39287	0.35648	-15.43724	-0.32578
13606.537	-16.44957	0.36520	-15.41665	-0.37209
13610.537	-16.40183	0.47010	-15.44345	-0.38725
13614.537	-16.35555	0.49944	-15.48402	-0.38006
13618.435	-16.36638	0.42007	-15.49151	-0.36666
13622.492	-16.37195	0.49160	-15.45793	-0.41294
13626.537	-16.32142	0.43636	-15.46304	-0.44955
13630.536	-16.29699	0.43768	-15.43169	-0.39738
13634.432	-16.31532	0.50970	-15.43462	-0.33527
13638.493	-16.38419	0.57965	-15.43374	-0.29258
13642.493	-19.39699	1.56824	-15.35369	-0.06954
13646.537	-19.51267	3.36498	-17.20487	3.07560
13650.434	-16.56025	5.48866	-17.94057	4.09377
13654.533	-19.71221	-12.09824	-18.88832	7.76585
13658.537	-19.79427	-12.09220	-19.70735	-12.09859
13662.540	-19.84047	-12.08879	-19.82340	-12.09005
13666.411	-19.87026	-12.08659	-19.87324	-12.08637
13670.412	-19.89120	-12.08504	-19.90114	-12.08430
13674.413	-19.90682	-12.08388	-19.91908	-12.08297
13678.409	-19.91895	-12.08298	-19.93167	-12.08204
13682.411	-19.92869	-12.08226	-19.94106	-12.08134
13686.393	-19.96621	-12.07947	-19.94834	-12.08080
13690.367	-19.99370	-12.07743	-19.95431	-12.08035
13694.412	NaN	NaN	-19.96277	-12.07973
13698.369	NaN	NaN	NaN	NaN
13702.409	NaN	NaN	NaN	NaN
13706.413	NaN	NaN	NaN	NaN
13710.410	NaN	NaN	NaN	NaN
13714.413	NaN	NaN	NaN	NaN
13718.411	NaN	NaN	NaN	NaN
13722.369	NaN	NaN	NaN	NaN
13726.414	NaN	NaN	-8.01596	2.29248
13730.413	-3.47846	13.94898	-0.98655	2.46127
13734.414	NaN	NaN	-1.44887	3.29027
13738.412	-0.08334	1.05383	-2.23008	2.19742
13742.414	-0.53379	0.91008	-0.46924	2.23311
13746.412	-0.55421	1.00863	-0.45800	1.99400
13750.413	-0.78885	1.06131	-1.85428	1.83863
13754.432	-2.77260	1.08160	-3.43665	2.00445
13758.417	-4.44213	1.19153	-5.45073	2.24871
13762.412	-6.68842	1.47164	-5.19694	2.25512
13766.415	-6.68332	1.40566	-4.98694	2.40557
13770.404	-6.04252	1.41346	-4.84997	2.31075
13774.415	-6.13652	1.47309	-4.85157	2.43263
13778.414	-6.29072	1.53375	-4.91371	2.49760
13782.411	-6.15328	1.55755	-4.85100	2.49219
13786.410	-6.19383	1.50720	-4.80295	2.47198
13790.408	-6.12467	1.66880	-4.91173	2.53628
13794.414	-6.08723	1.68208	-4.81648	2.61027
13798.413	-6.25598	1.81029	-4.82848	2.66333
13802.411	-6.26794	1.80931	-4.75186	2.65342
13806.414	-6.23344	1.79055	-4.80145	2.70156
13810.402	-6.15728	1.75245	-4.71025	2.72264
13814.402	-6.34682	1.88562	-4.57322	2.79793
13818.403	-6.37565	1.80375	-4.59734	2.81728
13822.368	-6.24376	1.80732	-4.61240	2.74554
13826.370	-6.34098	1.87402	-4.66625	2.53968
13830.369	-6.26424	1.91787	-4.73197	2.61129
13834.413	-6.31002	1.91782	-4.54612	2.84293
13838.415	-6.36253	1.83279	-4.71393	2.52011
13842.417	-6.37398	1.89134	-4.81505	2.47038
13846.420	-6.25107	1.94622	-4.86179	2.60634
13850.411	-6.28506	1.94848	-4.69721	2.57654
13854.389	-6.34841	2.05226	-4.77564	2.56120
13858.414	-6.23538	1.90440	-4.82111	2.35965
13862.414	-6.21634	1.79698	-4.84233	2.32578
13866.413	-6.32105	1.94822	-4.89547	2.38554
13870.414	-6.30651	1.93219	-4.80882	2.39712
13874.416	-6.24070	1.88548	-4.69001	2.64817
13878.415	-6.26932	1.91262	-4.74296	2.57511
13882.412	-6.33709	1.87995	-4.76310	2.44763
13886.413	-6.24737	1.86609	-4.76847	2.39387
13890.372	-6.27780	1.80814	-4.90028	2.33854
13894.372	-6.33907	1.73248	-4.99901	2.32625
13898.412	-6.25186	1.75530	-4.84745	2.41935
13902.414	-6.20236	1.76055	-4.91188	2.36170
13906.415	-6.13964	1.81257	-4.66497	2.43309
13910.417	-6.22635	1.76365	-4.60799	2.55215
13914.412	-6.31566	1.79449	-4.63849	2.44409
13918.415	-6.23700	1.78390	-4.81236	2.36776
13922.415	-6.17813	1.79276	-4.86490	2.25810
13926.419	-6.18652	1.76159	-5.01201	2.29319
13930.374	-6.23354	1.79114	-4.98349	2.38507
13934.416	-6.15865	1.82761	-4.74698	2.35140
13938.378	-6.14302	1.89708	-4.87572	2.33993
13942.416	-6.14386	1.91115	-4.89649	2.29037
13946.374	-6.12531	1.94757	-4.80189	2.19385
13950.414	-6.15787	1.93467	-4.87281	2.04094
13954.413	-6.11442	1.92949	-5.17484	2.07685
13958.416	-6.07714	1.91015	-5.15162	2.13829
13962.437	-6.07383	1.94568	-5.13176	2.25760
13966.417	-6.09086	1.90458	-5.02021	2.23940
13970.416	-6.06075	1.94040	-4.95640	2.26463
13974.418	-6.06004	1.90219	-4.86438	2.33322
13978.413	-6.11689	1.85811	-4.75282	2.34557
13982.372	-6.06917	1.84460	-5.03046	2.36237
13986.415	-6.04269	1.83410	-5.06518	2.08531
13990.417	-5.99782	1.87735	-5.03208	2.08307
13994.435	-6.00315	1.75896	-4.83585	2.29426
13998.416	-5.99171	1.83908	-5.05215	2.03791
14002.417	-6.02035	1.79825	-4.93314	2.37764
14006.418	-6.03017	1.82009	-4.78437	2.30185
14010.412	-6.01407	1.83217	-4.78289	2.18429
14014.418	-6.05898	1.79242	-4.83747	2.23018
14018.409	-5.93053	1.94553	-4.75568	2.30094
14022.373	-5.74529	1.95528	-4.76031	2.36542
14026.412	-4.14384	2.26395	-3.47767	3.34001
14030.416	-2.10548	4.66377	-2.00086	5.15815
14034.415	-1.17203	6.08530	-0.34645	6.80847
14038.418	-0.44785	7.72518	0.49113	6.90488
14042.439	0.15002	8.86221	1.43751	10.33194
14046.417	0.74476	9.81921	1.96759	10.68322
14050.415	1.36089	10.46979	2.82239	11.32688
14054.422	1.10988	10.62930	3.04140	11.52124
14058.442	1.36479	10.89703	3.23009	11.41137
14062.387	1.47677	10.52797	3.27623	11.50096
14066.419	1.53934	10.40233	3.33814	11.45330
14070.418	1.50715	10.09016	3.35523	11.29015
14074.438	1.79606	10.68703	3.36466	11.38514
14078.418	1.78731	10.82959	3.36930	11.44320
14082.417	1.74345	10.68351	3.61092	11.58675
14086.413	1.91035	10.66736	3.67250	11.82801
14090.419	1.91955	10.82370	3.62012	11.72874
14094.419	1.96427	10.95645	3.69002	11.54725
14098.419	1.91467	10.98786	3.68285	11.62012
14102.408	2.00579	10.98737	3.93490	12.01788
14106.421	2.01372	10.93913	3.84992	11.70327
14110.420	2.05283	10.94347	3.84305	11.54835
14114.418	1.95639	10.86125	3.88367	11.62834
14118.420	1.83945	10.82064	3.76665	11.73877
14122.408	1.88229	10.86089	3.73759	11.72298
14126.419	1.92230	10.87087	3.71367	11.61530
14130.415	1.92143	10.86233	3.67628	11.50021
14134.421	1.98127	10.89596	3.64845	11.42024
14138.421	1.94126	10.91791	3.74454	11.61564
14142.420	1.95210	10.82992	3.80443	11.52303
14146.416	2.04022	10.73414	3.68574	11.47771
14150.415	1.96918	10.70949	3.64031	11.42330
14154.422	1.99709	10.69517	3.54257	11.45039
14158.419	1.86977	10.67518	3.59874	11.43715
14162.423	1.90406	10.77467	3.69649	11.58620
14166.420	1.92190	10.65141	3.76369	11.48027
14170.421	1.88747	10.58497	3.94520	11.73057
14174.418	1.92014	10.76400	3.88097	11.89219
14178.418	1.92842	10.79573	3.90706	12.16076
14182.422	1.92609	10.70441	3.86269	11.82205
14186.399	2.03300	10.63644	4.02544	11.72371
14190.418	1.90839	10.67361	3.95997	11.42961
14194.419	1.94003	10.63542	3.94759	11.86107
14198.375	1.94159	10.70763	4.12624	11.67717
14202.415	2.00180	10.67022	3.84478	11.88924
14206.421	2.06260	10.57822	3.74693	11.76182
14210.418	2.05167	10.73011	3.46837	11.46352
14214.409	2.10419	10.71948	3.27291	11.26546
14218.422	2.08015	10.72908	3.99341	11.51560
14222.418	2.05806	10.60757	3.48417	11.45876
14226.406	2.11851	10.59747	3.38194	11.46066
14230.419	2.09916	10.59523	3.35330	11.42000
14234.423	2.08867	10.59863	3.52934	11.45505
14238.420	2.08954	10.60155	3.27564	11.43911
14242.420	2.08617	10.62525	3.32778	11.39920
14246.420	1.97438	10.75865	3.45591	11.60056
14250.423	2.07745	10.94477	3.57332	11.34794
14254.420	2.07279	10.66830	3.53671	11.27739
14258.420	2.16352	10.59695	3.68246	11.54813
14262.376	2.02758	10.67397	3.79608	11.77172
14266.428	2.12181	10.80281	3.74001	11.63646
14270.420	1.93918	10.69493	3.74797	11.55820
14274.416	1.73740	10.63826	3.82897	11.74840
14278.421	2.00787	10.84827	3.91973	11.67437
14282.422	2.04991	10.90085	3.88942	11.45994
14286.418	1.88683	10.77283	3.83114	11.38021
14290.421	1.94816	10.75242	3.65833	11.28813
14294.422	2.12892	10.66440	3.85217	11.29887
14298.423	3.42008	10.69907	4.08809	11.30474
14302.418	4.31079	9.88718	5.43329	11.08138
14306.421	6.25075	7.90000	6.55077	9.95018
14310.422	6.61046	7.35098	6.68773	8.23078
14314.422	6.78923	6.66248	7.03093	7.44950
14318.421	7.09690	6.52523	7.88539	7.47744
14322.420	7.29028	6.45955	8.32101	7.77415
14326.419	7.28459	6.68044	8.38614	7.70780
14330.424	7.31203	6.75909	8.11987	7.71373
14334.421	7.17541	6.61213	8.07414	7.69655
14338.420	7.23435	6.55493	8.11590	7.50114
14342.421	7.17267	6.60896	8.03292	7.26295
14346.380	7.27592	6.41792	8.17989	7.45541
14350.423	7.41658	6.47668	8.29193	7.46667
14354.421	7.40216	6.42044	8.30449	7.48616
14358.419	7.49388	6.39400	8.40577	7.46534
14362.380	7.47026	6.36137	8.38622	7.53205
14366.426	7.46450	6.39513	8.34208	7.54758
14370.421	7.50056	6.42689	8.27948	7.57378
14374.422	7.46246	6.40305	8.34485	7.43955
14378.379	7.46550	6.43755	8.34570	7.40051
14382.419	7.49159	6.45807	8.43474	7.42951
14386.419	7.51386	6.44161	8.38418	7.45778
14390.419	7.52415	6.51569	8.36574	7.32425
14394.380	7.44193	6.51360	8.39865	7.17491
14398.420	7.41814	6.50018	8.42471	7.15532
14402.377	7.29719	6.50800	8.37400	7.17832
14406.420	7.29284	6.51991	8.37917	7.11948
14410.380	7.34445	6.57083	8.43100	7.12306
14414.419	7.34047	6.52627	8.44358	7.10652
14418.420	7.25943	6.51426	8.40808	7.04125
14422.423	7.19730	6.45968	8.42430	7.02948
14426.381	7.16771	6.46706	8.47131	7.07073
14430.424	7.25284	6.45354	8.50336	7.04407
14434.418	7.25384	6.51548	8.53862	7.04067
14438.410	7.20472	6.50200	8.49731	7.07662
14442.382	7.13473	6.53044	8.45915	7.06010
14446.421	7.23902	6.46155	8.48107	7.07747
14450.422	7.31313	6.40191	8.48796	7.18609
14454.421	7.25128	6.39134	8.44958	7.15743
14458.289	7.19026	6.40965	8.35410	7.13020
14462.420	7.35830	6.43689	8.44528	7.24008
14466.421	7.25282	6.39405	8.43202	7.23121
14470.422	7.29877	6.31865	8.40171	7.18321
14474.382	7.41143	6.45702	8.38597	7.15474
14478.421	7.28354	6.37974	8.39105	7.14223
14482.421	7.30258	6.36695	8.38794	7.18440
14486.428	7.29687	6.38561	8.43676	7.22577
14490.381	7.23785	6.30119	8.46556	7.35440
14494.419	7.29492	6.49056	8.35782	7.24019
14498.419	7.26940	6.42514	8.38374	7.27460
14502.422	7.35014	6.42730	8.39751	7.10741
14506.285	7.32439	6.35983	8.36997	7.11316
14510.425	7.37438	6.39006	8.45252	7.18767
14514.378	7.36667	6.39642	8.55270	7.11587
14518.410	7.27834	6.37764	8.53899	7.10509
14522.284	7.30371	6.29777	8.48940	7.04694
14526.420	7.41311	6.43367	8.51892	7.16082
14530.422	7.33862	6.41004	8.42588	7.12543
14534.421	7.36337	6.41119	8.49243	7.08327
14538.317	7.34480	6.48665	8.51875	7.11744
14542.423	7.38969	6.34267	8.52549	7.10311
14546.423	7.37348	6.38016	8.45361	7.12064
14550.423	7.29277	6.41361	8.36999	7.14199
14554.427	7.31526	6.51170	8.37711	7.11569
14558.427	7.31399	6.43541	8.46915	7.23373
14562.388	7.32719	6.36777	8.39047	7.18953
14566.423	7.36799	6.37803	8.43144	7.09878
14570.428	7.38947	6.46999	8.45048	7.10463
14574.379	7.41080	6.49496	8.49971	7.18106
14578.422	7.42851	6.43347	8.42428	7.07882
14582.424	7.44908	6.34169	8.51615	7.07306
14586.320	7.47600	6.41582	8.49355	7.14725
14590.424	7.54869	6.37894	8.50171	7.03645
14594.423	7.51176	6.39028	8.63908	7.13545
14598.422	7.50800	6.32700	8.65923	7.16811
14602.374	7.59502	6.39704	8.58202	7.02557
14606.425	7.56410	6.38689	8.60094	7.20532
14610.424	7.55903	6.35149	8.53552	7.16109
14614.424	7.52720	6.26714	8.52375	6.89990
14618.427	7.57893	6.30190	8.46468	7.02347
14622.380	7.61597	6.31005	8.35857	6.95094
14626.424	7.60853	6.40964	8.37966	7.13586
14630.424	7.59120	6.33737	8.35109	7.15971
14634.425	7.56276	6.30905	8.38816	7.03112
14638.379	7.56149	6.35511	8.37735	6.87122
14642.425	7.62436	6.33808	8.28962	6.64284
14646.411	7.61307	6.34238	8.30585	6.73124
14650.321	7.62172	6.32841	8.33746	6.67274
14654.425	7.60300	6.30167	8.35534	6.70242
14658.425	7.63930	6.38243	8.40358	6.77088
14662.424	7.60426	6.34261	8.43367	6.74612
14666.318	7.56261	6.33171	8.44861	6.86170
14670.428	7.38600	6.24974	8.34849	6.82480
14674.427	6.44454	6.13826	7.02902	6.85200
14678.423	3.86825	5.46193	4.20681	6.60689
14682.284	3.57800	4.71291	3.15651	6.14819
14686.394	2.89876	3.83445	1.30786	3.77744
14690.427	1.39889	3.20056	0.80042	3.22589
14694.432	0.77578	2.79973	0.18534	2.97674
14698.319	-1.16396	2.26276	-0.66645	2.36218
14702.425	-1.53902	1.75096	-1.50879	2.36179
14706.426	-1.91717	1.34481	-3.74456	1.64311
14710.298	-2.50041	0.92033	-2.78307	1.42826
14714.257	-3.11079	0.47862	-3.03383	0.89781
14718.299	-3.11819	0.19421	-2.94740	0.77368
14722.255	-3.59953	-0.16477	-4.29231	0.50470
14726.300	-4.15939	-0.36687	-4.86441	-0.20793
14730.298	-4.26403	-0.72920	-4.70079	-0.49485
14734.262	-4.41546	-1.14900	-4.28098	-1.01926
14738.301	-4.58035	-0.95526	-4.07036	-1.12147
14742.301	-4.44551	-0.86753	-3.98274	-1.09619
14746.298	-4.56816	-0.92977	-3.99087	-1.10562
14750.300	-4.63516	-1.05190	-4.19674	-0.91113
14754.299	-4.56138	-1.00223	-4.07594	-0.97701
14758.303	-4.64539	-1.11215	-4.19314	-1.02188
14762.297	-4.66923	-1.20970	-4.37946	-1.13019
14766.303	-4.71033	-1.27409	-4.50542	-1.23224
14770.302	-4.70303	-1.32212	-4.31923	-1.18655
14774.303	-4.70530	-1.34872	-4.15497	-1.22959
14778.271	-4.69951	-1.35381	-4.05310	-1.31700
14782.300	-4.71292	-1.35524	-4.16803	-1.37061
14786.300	-4.72167	-1.39040	-4.26353	-1.55773
14790.300	-4.74360	-1.42609	-4.20032	-1.42685
14794.298	-4.77698	-1.43463	-4.10424	-1.40765
14798.299	-4.77890	-1.47333	-4.15134	-1.38535
14802.300	-4.74580	-1.50817	-4.28182	-1.41627
14806.301	-4.78671	-1.52199	-4.30403	-1.39583
14810.300	-4.79851	-1.54978	-4.35247	-1.38841
14814.301	-4.78060	-1.57441	-4.20368	-1.32567
14818.290	-4.81303	-1.59720	-4.25255	-1.32231
14822.254	-4.78149	-1.61113	-4.25090	-1.39043
14826.295	-4.75122	-1.59935	-4.33189	-1.35440
14830.257	-4.79847	-1.60852	-4.25645	-1.29709
14834.301	-4.74634	-1.63069	-4.16581	-1.25385
14838.301	-4.69137	-1.67249	-4.22695	-1.21307
14842.260	-4.68168	-1.68025	-4.16282	-1.22232
14846.300	-4.69300	-1.70648	-4.15670	-1.22740
14850.302	-4.71250	-1.72789	-4.26111	-1.25929
14854.301	-4.72586	-1.70383	-4.15848	-1.27945
14858.260	-4.71181	-1.72108	-4.10352	-1.30245
14862.302	-4.68974	-1.77688	-4.11283	-1.37241
14866.301	-4.70988	-1.71837	-4.11592	-1.37399
14870.304	-4.73623	-1.73312	-4.06629	-1.35448
14874.260	-4.69953	-1.70429	-4.08187	-1.36434
14878.300	-4.70616	-1.63407	-4.17648	-1.41253
14882.301	-4.67416	-1.68542	-4.23426	-1.45874
14886.301	-4.68962	-1.68041	-4.21397	-1.42442
14890.262	-4.71654	-1.61452	-4.22422	-1.45489
14894.302	-4.77717	-1.59384	-4.16105	-1.38623
14898.283	-4.75869	-1.66856	-4.06117	-1.37780
14902.301	-4.68447	-1.62544	-4.13927	-1.34681
14906.259	-4.80704	-1.57913	-4.11125	-1.33278
14910.304	-4.82059	-1.54562	-4.21972	-1.29426
14914.299	-4.82124	-1.59446	-4.23880	-1.32657
14918.301	-4.83834	-1.55352	-4.35472	-1.38570
14922.298	-4.90582	-1.59607	-4.26728	-1.35067
14926.302	-4.86554	-1.57535	-4.20654	-1.32727
14930.302	-4.88616	-1.56407	-4.21666	-1.30969
14934.302	-4.92213	-1.59583	-4.08611	-1.29121
14938.292	-4.88461	-1.57254	-4.13305	-1.31947
14942.266	-4.87633	-1.51946	-4.18267	-1.29831
14946.302	-4.91376	-1.50013	-4.18926	-1.36240
14950.303	-4.88702	-1.46036	-4.25100	-1.34696
14954.300	-4.87675	-1.48099	-4.22397	-1.37594
14958.307	-4.84750	-1.54368	-4.23271	-1.38419
14962.303	-4.86022	-1.58477	-4.21175	-1.36456
14966.300	-4.83765	-1.62992	-4.27390	-1.40415
14970.263	-4.83775	-1.58903	-4.24626	-1.40492
14974.304	-4.84578	-1.53938	-4.26728	-1.37499
14978.301	-4.79073	-1.59307	-4.32249	-1.33604
14982.301	-4.79782	-1.54730	-4.33396	-1.32784
14986.270	-4.80596	-1.59044	-4.28913	-1.34563
14990.306	-4.81978	-1.62722	-4.24789	-1.24155
14994.303	-4.81850	-1.67423	-4.23313	-1.20809
14998.302	-4.79398	-1.60036	-4.27059	-1.19344
15002.301	-4.82417	-1.58216	-4.34171	-1.21411
15006.302	-4.80522	-1.54966	-4.29051	-1.16596
15010.303	-4.79780	-1.52137	-4.31533	-1.13781
15014.304	-4.80800	-1.50264	-4.46899	-1.16846
15018.298	-4.77104	-1.48983	-4.60293	-1.18998
15022.259	-4.78595	-1.42942	-4.62010	-1.25979
15026.288	-4.77476	-1.41771	-4.61474	-1.26842
15030.303	-4.73830	-1.40152	-4.60362	-1.26002
15034.294	-4.72800	-1.38670	-4.64206	-1.28399
15038.304	-4.72472	-1.33252	-4.70784	-1.31614
15042.302	-4.71898	-1.34060	-4.71661	-1.26430
15046.303	-4.70877	-1.30151	-4.67798	-1.21864
15050.296	-4.72840	-1.28385	-4.62212	-1.22174
15054.305	-4.73130	-1.25872	-4.64623	-1.20682
15058.303	-4.75085	-1.26258	-4.50182	-1.12089
15062.305	-4.74222	-1.29276	-4.41087	-1.04464
15066.305	-4.73771	-1.30676	-4.37505	-1.05376
15070.310	-4.76404	-1.33725	-4.33883	-0.99446
15074.305	-4.75122	-1.36306	-4.27012	-1.00471
15078.305	-4.70037	-1.30938	-4.29549	-0.98892
15082.298	-4.64840	-1.33264	-4.29808	-0.98158
15086.309	-4.53453	-1.33786	-4.28829	-1.02525
15090.303	-4.56259	-1.35820	-4.27987	-1.03462
15094.304	-4.51337	-1.39132	-4.26235	-1.03846
15098.325	-4.49985	-1.43859	-4.26598	-1.05034
15102.309	-4.51512	-1.47747	-4.29766	-1.05320
15106.261	-4.57024	-1.50325	-4.30798	-1.08484
15110.305	-4.58210	-1.54397	-4.31847	-1.05594
15114.307	-4.62155	-1.47216	-4.29470	-1.08191
15118.305	-4.57006	-1.47476	-4.32422	-1.12732
15122.261	-4.66336	-1.48744	-4.31499	-1.14022
15126.300	-4.66196	-1.46262	-4.31314	-1.12474
15130.301	-4.67113	-1.43500	-4.27355	-1.11169
15134.305	-4.72773	-1.34514	-4.33063	-1.09888
15138.305	-4.69339	-1.37389	-4.34855	-1.12550
15142.268	-4.69586	-1.33075	-4.30186	-1.12488
15146.294	-4.65503	-1.26661	-4.31802	-1.13590
15150.308	-4.66147	-1.18674	-4.27997	-1.14807
15154.303	-4.69946	-1.19608	-4.29046	-1.17097
15158.306	-4.70567	-1.18820	-4.33179	-1.20199
15162.303	-4.67700	-1.19015	-4.26287	-1.22867
15166.305	-4.72172	-1.23780	-4.20681	-1.26619
15170.305	-4.76517	-1.22745	-4.24737	-1.30199
15174.306	-4.66144	-1.29586	-4.19210	-1.33148
15178.303	-4.64998	-1.30576	-4.15154	-1.37690
15182.307	-4.76588	-1.26856	-4.09527	-1.38510
15186.305	-4.79445	-1.27972	-4.13700	-1.37750
15190.278	-4.83420	-1.25418	-4.10945	-1.37472
15194.273	-4.83994	-1.28558	-3.99277	-1.43557
15198.261	-4.89382	-1.26671	-4.04722	-1.42120
15202.305	-4.89897	-1.24790	-4.01519	-1.35712
15206.307	-4.91526	-1.20298	-3.96565	-1.29444
15210.308	-4.91292	-1.08535	-4.02534	-1.13343
15214.295	-4.86712	-1.11035	-3.97652	-1.09095
15218.304	-4.84519	-1.08398	-4.09626	-1.01256
15222.306	-4.89614	-0.94433	-4.10908	-0.94448
15226.309	-4.88616	0.51363	-4.16028	1.78546
15230.302	-4.95356	2.97509	-4.18625	4.37275
15234.293	-5.16972	5.04405	-5.03721	6.67149
15238.305	-6.25742	7.39921	-4.53670	9.62261
15242.310	-6.57607	8.28701	-5.54835	11.91990
15246.262	-7.07378	10.32147	-5.70509	13.58875
15250.306	-7.24139	11.65306	NaN	NaN
15254.303	-7.54474	13.63387	NaN	NaN
15258.302	-7.77675	13.70067	NaN	NaN
15262.306	-8.13682	14.32516	NaN	NaN
15266.304	NaN	NaN	NaN	NaN
15270.306	NaN	NaN	NaN	NaN
15274.309	-8.10435	14.20471	NaN	NaN
15278.307	-8.17563	14.15456	NaN	NaN
15282.308	-8.27312	14.30515	NaN	NaN
15286.306	-8.21184	13.95197	NaN	NaN
15290.312	-8.33294	14.22414	NaN	NaN
15294.304	NaN	NaN	NaN	NaN
15298.309	NaN	NaN	NaN	NaN
15302.308	-8.42265	14.20771	NaN	NaN
15306.307	-8.39540	14.16262	NaN	NaN
15310.305	NaN	NaN	NaN	NaN
15314.288	-8.40390	14.28761	NaN	NaN
15318.303	-8.45096	14.24468	NaN	NaN
15322.301	-8.45815	14.17724	NaN	NaN
15326.263	-8.48901	14.26344	NaN	NaN
15330.319	NaN	NaN	NaN	NaN
15334.304	-8.52464	14.30992	NaN	NaN
15338.309	-8.46577	14.30217	NaN	NaN
15342.307	-8.47231	14.32803	NaN	NaN
15346.307	NaN	NaN	NaN	NaN
15350.308	-8.46985	14.42930	NaN	NaN
15354.304	-8.38712	14.28767	NaN	NaN
15358.300	NaN	NaN	NaN	NaN
15362.309	-8.26672	12.81384	NaN	NaN
15366.308	NaN	NaN	NaN	NaN
15370.303	NaN	NaN	NaN	NaN
15374.311	NaN	NaN	NaN	NaN
15378.308	NaN	NaN	NaN	NaN
15382.308	NaN	NaN	NaN	NaN
15386.266	NaN	NaN	NaN	NaN
15390.263	NaN	NaN	NaN	NaN
15394.310	NaN	NaN	NaN	NaN
15398.307	NaN	NaN	NaN	NaN
15402.309	NaN	NaN	NaN	NaN
15406.305	NaN	NaN	NaN	NaN
15410.308	NaN	NaN	NaN	NaN
15414.307	NaN	NaN	NaN	NaN
15418.310	-8.28267	14.01070	NaN	NaN
15422.309	-8.52086	14.64541	NaN	NaN
15426.311	-8.62695	14.52043	NaN	NaN
15430.308	NaN	NaN	NaN	NaN
15434.313	-8.63044	14.50327	NaN	NaN
15438.293	-8.61251	14.45950	NaN	NaN
15442.304	NaN	NaN	NaN	NaN
15446.307	-8.61584	14.26533	NaN	NaN
15450.310	-8.68412	14.54769	NaN	NaN
15454.308	NaN	NaN	NaN	NaN
15458.304	NaN	NaN	NaN	NaN
15462.307	NaN	NaN	NaN	NaN
15466.206	NaN	NaN	NaN	NaN
15470.308	NaN	NaN	NaN	NaN
15474.311	-12.21610	14.24183	NaN	NaN
15478.308	NaN	NaN	NaN	NaN
15482.204	NaN	NaN	NaN	NaN
15486.309	NaN	NaN	NaN	NaN
15490.311	-12.45788	14.61401	NaN	NaN
15494.308	NaN	NaN	NaN	NaN
15498.309	-12.73018	14.19879	NaN	NaN
15502.309	NaN	NaN	NaN	NaN
15506.308	-12.66214	14.38189	NaN	NaN
15510.309	-12.69580	14.31315	NaN	NaN
15514.201	-12.23315	14.05727	NaN	NaN
15518.307	-12.32909	13.71955	NaN	NaN
15522.265	NaN	NaN	NaN	NaN
15526.266	-12.53651	14.18409	NaN	NaN
15530.207	-12.20103	13.46657	NaN	NaN
15534.309	-12.47939	13.99855	NaN	NaN
15538.321	-12.51123	14.22628	NaN	NaN
15542.309	-12.34257	13.99207	NaN	NaN
15546.312	-12.28033	14.02166	NaN	NaN
15550.308	-12.52201	14.25052	NaN	NaN
15554.308	-12.41708	14.17089	NaN	NaN
15558.311	-12.40538	13.82989	NaN	NaN
15562.312	NaN	NaN	NaN	NaN
15566.310	-12.65526	14.43123	NaN	NaN
15570.311	-12.41862	13.97865	NaN	NaN
15574.269	NaN	NaN	NaN	NaN
15578.315	-12.48528	14.11003	NaN	NaN
15582.312	NaN	NaN	NaN	NaN
15586.311	-12.70279	14.40764	NaN	NaN
15590.309	-12.67598	14.56770	NaN	NaN
15594.314	NaN	NaN	NaN	NaN
15598.310	NaN	NaN	NaN	NaN
15602.312	-12.41180	13.31893	NaN	NaN
15606.312	-12.29038	12.89569	NaN	NaN
15610.314	NaN	NaN	NaN	NaN
15614.310	-12.42652	14.71581	NaN	NaN
15618.309	NaN	NaN	NaN	NaN
15622.266	NaN	NaN	NaN	NaN
15626.208	-12.52435	14.51211	NaN	NaN
15630.311	-12.34129	14.39191	NaN	NaN
15634.307	NaN	NaN	NaN	NaN
15638.310	-12.28500	13.46995	NaN	NaN
15642.268	-12.24737	13.82742	NaN	NaN
15646.298	-12.12654	13.64878	NaN	NaN
15650.306	-12.29799	13.84125	NaN	NaN
15654.309	-12.28642	13.65878	NaN	NaN
15658.270	-12.41066	13.98045	NaN	NaN
15662.311	-12.39350	14.19231	NaN	NaN
15666.310	-12.34399	14.32347	NaN	NaN
15670.267	NaN	NaN	NaN	NaN
15674.176	-12.29616	13.59576	NaN	NaN
15678.311	-12.18950	12.92907	NaN	NaN
15682.311	-12.11830	12.58571	NaN	NaN
15686.311	NaN	NaN	NaN	NaN
15690.187	NaN	NaN	NaN	NaN
15694.312	-12.31213	12.62114	NaN	NaN
15698.310	-12.43085	13.36598	NaN	NaN
15702.312	-12.47342	13.57859	NaN	NaN
15706.272	-12.43987	13.86066	NaN	NaN
15710.310	-12.57486	13.79300	NaN	NaN
15714.312	-12.69174	14.04124	NaN	NaN
15718.311	-12.41663	13.37351	NaN	NaN
15722.269	-12.54514	13.76520	NaN	NaN
15726.313	-11.60204	13.51038	NaN	NaN
15730.292	-9.94361	13.12950	NaN	NaN
15734.313	-8.67546	11.69442	-8.20119	14.83314
15738.206	-7.27602	9.86736	-7.36879	12.46477
15742.313	-6.61068	7.95245	-6.65603	10.40586
15746.187	-6.43741	6.33755	-5.89353	9.17068
15750.187	-6.42055	5.74446	-5.65147	7.42294
15754.314	-5.10527	4.03179	-5.31809	5.48640
15758.163	-4.64603	2.64532	-4.86024	5.00296
15762.183	-4.15606	1.76927	-3.69417	3.04393
15766.187	-3.14833	1.40322	-2.61803	2.54464
15770.205	-2.40672	0.83692	-2.90926	1.50221
15774.146	-1.97907	-0.05382	-2.56092	0.54647
15778.155	-1.97029	-0.27891	-2.18243	-0.08150
15782.189	-1.48746	-0.47624	-1.21898	-0.83752
15786.209	-0.95301	-0.74265	-1.06555	-0.48891
15790.185	-0.37948	-0.94993	-0.80183	-0.70233
15794.189	-0.33481	-1.27187	-0.64888	-0.90828
15798.187	-0.59208	-1.61024	-0.24897	-1.04334
15802.208	-0.64384	-2.01349	-0.58942	-1.63648
15806.143	-0.64024	-2.22808	-0.50401	-1.90220
15810.190	-0.47721	-2.22732	-0.38333	-2.21308
15814.189	-0.37906	-2.35038	0.02390	-1.83833
15818.200	-0.38690	-2.21182	0.32543	-1.38838
15822.142	-0.37067	-2.39449	0.23463	-1.18222
15826.143	-0.36983	-2.17887	0.30903	-1.54743
15830.143	-0.32359	-2.29969	0.47770	-1.69307
15834.184	-0.31796	-2.38688	0.39874	-1.86045
15838.188	-0.34863	-2.49728	0.70752	-1.69357
15842.177	-0.30372	-2.44245	0.67280	-1.82403
15846.188	-0.32134	-2.42975	0.69868	-1.78306
15850.209	-0.33779	-2.43904	0.60692	-1.64112
15854.188	-0.38621	-2.41884	0.51222	-1.62923
15858.189	-0.41509	-2.48625	0.84148	-1.62294
15862.197	-0.43979	-2.56751	0.65235	-1.72859
15866.181	-0.44425	-2.52927	0.58300	-1.76838
15870.186	-0.40467	-2.57223	0.55421	-1.79793
15874.187	-0.41467	-2.59956	0.41552	-1.80673
15878.188	-0.42758	-2.65157	0.38973	-1.86455
15882.188	-0.39896	-2.59901	0.42586	-1.93429
15886.186	-0.33101	-2.65133	0.33144	-1.94265
15890.189	-0.32618	-2.65912	0.28699	-1.99667
15894.188	-0.25381	-2.65306	0.27602	-2.00796
15898.180	-0.20765	-2.69120	0.23639	-2.05080
15902.164	-0.13977	-2.69139	0.19072	-2.06493
15906.190	-0.12637	-2.72595	0.15141	-2.08645
15910.190	-0.06681	-2.67322	0.09793	-2.10263
15914.211	-0.08877	-2.62117	0.10592	-2.10062
15918.188	-0.10793	-2.63342	0.12756	-2.13998
15922.143	-0.09011	-2.60887	0.20435	-2.15657
15926.189	-0.10840	-2.61457	0.18817	-2.15652
15930.209	-0.17834	-2.58310	0.15918	-2.16839
15934.188	-0.18345	-2.56343	0.22068	-2.05564
15938.189	-0.18124	-2.51946	0.18487	-2.03773
15942.190	-0.21969	-2.48344	0.18762	-1.93170
