time (ms)	lx (deg)	ly (deg)	rx (deg)	ry (deg)
0.000	-5.88022	4.61238	-4.16440	6.30455
3.985	-5.91000	4.64987	-4.16050	6.29456
8.001	-5.81260	4.69488	-4.19496	6.33838
11.956	-5.79804	4.74723	-4.30902	6.34453
16.002	-5.80931	4.86575	-4.13596	6.29875
19.959	-5.77224	4.98009	-4.25443	6.09214
24.001	-5.74207	4.92757	-4.15618	6.20888
28.001	-5.70571	4.79264	-4.21982	6.26258
31.964	-5.70001	4.78289	-4.29187	6.17085
35.958	-5.68426	4.62996	-4.37024	6.31127
39.999	-5.70168	4.73342	-4.39654	6.24179
44.001	-5.65255	4.53323	-4.51896	6.01764
48.000	-5.64253	4.57477	-4.55756	5.96917
51.991	-5.64191	4.69839	-4.47851	6.11610
55.999	-5.65105	4.73391	-4.52725	6.02852
60.001	-5.66477	4.64449	-4.52575	6.27700
64.001	-5.67251	4.68299	-4.49349	6.24203
67.998	-5.73200	4.45830	-4.52444	6.30433
72.000	-5.78340	4.48218	-4.47679	6.21656
76.002	-5.75605	4.31401	-4.41593	6.06620
79.999	-5.68123	4.37790	-4.24149	6.02941
83.959	-3.05952	4.06320	-2.28668	5.00729
88.002	-2.72352	3.04021	-0.75340	2.61142
92.001	-1.32567	1.08161	-0.68776	2.21478
96.002	-1.06138	-0.43244	0.07487	1.63361
99.961	-0.92264	0.13539	-0.31603	1.27689
104.001	-0.83669	-0.15678	0.34317	1.46647
107.998	-0.71851	-0.04756	0.78617	1.11680
112.002	-0.71789	0.09407	0.91063	1.21327
115.959	-0.71784	0.23090	0.89882	1.24904
120.002	-0.96663	0.27009	0.71206	1.35047
124.001	-0.99008	0.10122	0.60580	1.32196
128.001	-0.86644	-0.03118	0.72913	1.25873
131.959	-0.84434	-0.02395	0.85632	1.07970
136.002	-0.89274	-0.13670	0.96539	1.07268
140.001	-0.92894	-0.16796	0.97256	1.04156
144.002	-0.89051	-0.13091	0.99050	1.04886
148.004	-0.93850	-0.14696	0.93031	1.01082
152.002	-1.01454	-0.19429	0.90994	1.04523
156.001	-1.05776	-0.24534	0.88525	0.98756
160.003	-1.06724	-0.30899	0.84590	0.98472
163.999	-1.06366	-0.38420	0.81133	0.93033
167.962	-1.01958	-0.42718	0.81446	0.88812
172.002	-0.98368	-0.43340	0.71052	0.86221
176.005	-0.91909	-0.44078	0.70355	0.88444
180.003	-0.93793	-0.46503	0.67732	0.86112
183.967	-0.91877	-0.43490	0.57208	0.84437
188.002	-0.88612	-0.42650	0.54093	0.83198
192.002	-0.84240	-0.38574	0.57476	0.84718
195.960	-0.83208	-0.31274	0.73159	0.77392
200.004	-0.82930	-0.21999	0.80942	0.73381
204.002	-0.83870	-0.22029	0.94720	0.60825
208.002	-0.86237	-0.13029	0.92738	0.61360
212.006	-0.87518	-0.06333	0.87024	0.53912
215.959	-0.91989	-0.00957	0.87877	0.59375
220.002	-0.97001	0.03409	0.80374	0.56415
224.003	-0.96001	-0.01376	0.60151	0.57113
228.003	-0.96254	0.01304	0.30051	0.61886
231.958	-0.97040	-0.01126	0.52217	0.49124
236.003	-1.00310	-0.12423	0.61349	0.53081
239.968	-1.01685	0.01848	0.87652	0.56007
243.900	-0.95981	0.04527	0.87696	0.61306
248.003	-0.83635	0.39672	0.68099	0.67790
252.003	-0.90418	0.05262	0.77528	0.75908
256.005	-0.82052	0.08214	0.74794	0.82335
260.007	-0.79704	-0.00480	0.72446	0.82052
264.003	-0.69317	0.07387	0.40658	0.88118
268.005	-0.84714	0.16138	0.67846	0.94325
272.005	-0.84582	0.12242	0.72424	0.92550
275.964	-0.77600	0.13412	0.56074	0.96938
279.985	-0.83878	0.22009	0.71015	0.96654
284.003	-0.73374	0.19915	0.48989	0.99373
288.016	-0.59032	0.08503	0.78511	0.99998
292.004	-0.55136	0.09641	0.90051	0.81505
296.005	-0.16089	0.11545	0.68188	0.67227
300.003	-0.23718	0.04227	0.72876	0.56774
304.003	-0.37417	0.14350	0.93951	0.77984
307.999	-0.36777	0.03419	0.93048	0.63126
312.000	-0.22251	0.19586	0.85620	0.75355
316.005	-0.12255	0.10106	0.95445	0.60793
319.999	-0.06557	0.38444	0.93418	0.47626
323.906	-0.14243	0.31670	0.89917	0.42503
328.004	-0.08542	0.10648	0.90708	0.35803
332.003	-0.08019	0.23189	0.85342	0.35460
336.007	-0.14471	0.29858	0.82277	0.35463
340.001	-0.17030	0.24923	0.91619	0.31410
344.004	-0.20963	0.29749	0.84220	0.33597
348.005	-0.22629	0.17158	0.84994	0.26913
352.009	-0.22792	0.22376	0.88277	0.40757
355.872	-0.19167	0.24248	0.89091	0.23832
359.960	-0.25406	0.09743	0.87026	0.14249
363.982	-0.28183	0.16887	0.95758	0.04753
368.010	-0.24604	0.00944	0.90761	0.08659
371.900	-0.20616	0.09843	0.83220	-0.02403
376.005	-0.25133	0.10876	0.98090	0.00542
380.002	-0.24234	-0.00818	1.02082	-0.03280
384.006	-0.28113	0.04016	0.84116	0.12190
388.005	-0.27835	0.08722	0.87423	0.08935
392.002	-0.29443	0.09318	0.92356	0.19656
396.004	-0.29371	-0.01913	0.90361	0.13616
400.006	-0.31439	-0.09244	0.97313	0.17665
403.901	-0.31851	-0.03484	1.06897	0.29801
407.993	-0.39082	-0.10901	1.00553	0.33685
412.005	-0.42321	-0.00887	1.17163	0.41792
416.005	-0.44259	0.00253	1.15588	0.41332
420.006	-0.44587	-0.05839	1.30278	0.43767
424.007	-0.50967	-0.03484	1.35048	0.43535
428.002	-0.45827	-0.08896	1.29898	0.50591
431.961	-0.51061	-0.05993	1.36551	0.60287
435.903	-0.41805	-0.16211	1.30270	0.52521
440.004	-0.60593	-0.13445	1.33597	0.58104
444.005	-0.59111	-0.04975	1.28045	0.60095
448.008	-0.59047	-0.02626	1.29050	0.55847
452.008	-0.59774	0.14394	1.28115	0.77431
456.004	-1.93504	0.28262	1.23427	1.12735
460.006	-0.82277	0.87960	1.53964	0.73426
464.008	-0.65776	3.12416	1.33760	2.09403
468.008	-0.65546	4.29449	0.44917	0.37873
472.006	NaN	NaN	1.55090	5.63371
476.005	NaN	NaN	NaN	NaN
479.962	NaN	NaN	NaN	NaN
484.006	NaN	NaN	NaN	NaN
487.982	NaN	NaN	NaN	NaN
492.003	NaN	NaN	NaN	NaN
496.006	NaN	NaN	NaN	NaN
500.005	NaN	NaN	NaN	NaN
504.003	NaN	NaN	NaN	NaN
508.002	NaN	NaN	NaN	NaN
511.962	NaN	NaN	NaN	NaN
516.004	NaN	NaN	NaN	NaN
520.003	NaN	NaN	NaN	NaN
524.008	NaN	NaN	NaN	NaN
527.963	NaN	NaN	NaN	NaN
532.017	NaN	NaN	1.23575	10.39754
536.005	NaN	NaN	NaN	NaN
539.880	0.65206	1.78070	NaN	NaN
543.962	3.27101	5.32746	1.62269	14.21427
548.004	-3.57399	1.82822	-2.92646	1.72268
552.006	-1.92188	11.28490	-2.23546	1.72808
556.008	-0.30823	6.35940	2.68143	3.41549
560.005	-0.11764	1.79623	1.58058	-0.02372
564.007	-0.20316	1.77350	1.79043	0.11127
568.004	-0.36598	1.48351	1.45269	0.14708
571.986	0.29237	0.83355	1.59809	0.25145
576.006	-0.03219	0.74576	1.11432	0.20278
580.009	-0.57089	0.36668	2.15658	0.41669
584.004	-1.32733	-0.01105	1.92788	0.85454
587.905	-3.54094	0.35992	1.47625	0.43858
592.007	-0.97204	0.38177	1.98341	0.28216
596.008	-0.61158	0.27129	1.91749	0.18924
600.009	-1.04089	-0.00532	1.74645	0.25260
603.841	-0.88711	0.23909	1.67417	0.33465
608.002	-1.10093	0.07784	1.34948	0.38162
611.882	-1.23940	-0.01761	1.58165	0.30227
615.885	-1.01385	-0.04231	1.69688	0.19317
619.858	-0.96628	-0.11754	1.64960	0.18517
623.882	-0.91272	-0.08356	1.45599	0.05008
627.884	-0.86277	-0.08403	1.48602	0.04243
631.840	-1.03429	-0.27946	1.50351	0.09189
635.879	-1.03843	-0.26040	1.35762	0.18768
639.883	-1.20398	-0.26001	1.20529	0.32930
643.885	-1.10120	-0.22889	1.21385	0.22367
647.882	-1.11472	-0.36802	1.11874	0.12353
651.905	-1.12742	-0.42456	1.06044	0.14991
655.881	-1.07190	-0.39513	1.02672	0.09481
659.869	-1.10519	-0.38173	1.01442	0.13411
663.884	-1.12782	-0.37855	0.99861	0.12703
667.901	-1.19351	-0.42042	1.02838	0.12246
671.885	-1.17227	-0.36257	0.96740	0.17998
675.884	-1.22729	-0.32636	0.94529	0.13541
679.883	-1.14367	-0.26124	0.93815	0.09382
683.905	-1.12879	-0.30240	0.96740	0.08877
687.884	-1.03796	-0.34395	0.99211	0.03227
691.886	-1.07885	-0.31925	1.01313	0.05389
695.885	-1.07503	-0.42630	1.02042	0.01757
699.908	-1.08227	-0.37465	0.98497	0.03044
703.874	-1.02623	-0.32728	0.87322	2.30846
707.883	-0.97941	-0.31039	0.81620	0.01001
711.883	-0.91691	-0.31000	0.85426	-0.03506
715.902	-0.92827	-0.33345	0.87456	-0.02887
719.882	-0.89778	-0.27107	0.89614	-0.02897
723.886	-0.89637	-0.30396	0.95641	0.06420
727.885	-0.87255	-0.30640	0.99340	-0.02820
731.893	-0.93956	-0.30364	0.83617	-0.03784
735.837	-0.84617	-0.19631	0.77841	-0.05404
739.882	-0.86922	-0.10371	0.84104	-0.07123
743.855	-0.90909	-0.07635	0.87922	-0.09029
747.851	-0.88136	-0.11519	0.94601	-0.08557
751.884	-0.91212	-0.20734	0.93542	-0.08954
755.886	-0.98717	-0.23782	0.96127	-0.03332
759.882	-1.00481	-0.17367	0.97460	-0.04268
763.907	-0.94239	-0.21382	0.92584	-0.09253
767.883	-1.00273	-0.29094	0.89386	-0.09253
771.888	-0.90431	-0.29899	0.83071	-0.07663
775.886	-0.89522	-0.28468	0.83597	-0.04117
779.905	-0.89215	-0.40826	0.82682	0.01384
783.870	-0.92492	-0.58369	0.77379	0.04028
787.885	-0.88833	-0.52916	0.80843	0.00080
791.884	-0.88379	-0.51783	0.80250	-0.00124
795.877	-0.86349	-0.41838	0.80029	0.03242
799.884	-0.86565	-0.37845	0.83942	-0.00457
803.887	-0.91713	-0.41333	0.81759	-0.09255
807.884	-0.93477	-0.29022	0.86835	-0.05250
811.904	-0.87997	-0.36623	0.87957	-0.04567
815.884	-0.90118	-0.28613	0.88617	-0.20515
819.887	-0.85902	-0.30673	0.82466	-0.23723
823.884	-0.89880	-0.26903	0.95050	-0.25554
827.905	-0.87423	-0.22903	0.93075	-0.26794
831.885	-0.84079	-0.21954	0.94648	-0.21874
835.890	-0.87815	-0.16135	0.98492	-0.20435
839.885	-0.77034	-0.19651	0.93783	-0.21951
843.843	-0.83491	-0.22879	0.92108	-0.19203
847.885	-0.84195	-0.18540	0.90753	-0.14679
851.886	-0.87237	-0.24153	0.94294	-0.05931
855.886	-0.91609	-0.25117	0.92336	-0.10997
859.903	-0.87721	-0.22371	0.88203	-0.08073
863.886	-0.93348	-0.17387	1.03640	0.01421
867.886	-0.91430	-0.09687	1.09105	0.03988
871.888	-0.90061	-0.08289	1.12144	0.06879
875.906	-0.96383	-0.12661	1.09006	0.02050
879.885	-0.94926	-0.16952	1.08510	0.12462
883.887	-1.08334	-0.18919	1.03049	0.19061
887.885	-1.06282	-0.19349	1.00161	0.21195
891.908	-1.07830	-0.28549	1.14089	0.19364
895.885	-1.07153	-0.29893	1.06227	0.14567
899.888	-1.08805	-0.25394	1.11546	0.19118
903.887	-1.15017	-0.38776	1.18688	0.10633
907.877	-1.19001	-0.24826	1.07500	0.05173
911.876	-1.20078	-0.35630	1.07190	0.08224
915.887	-1.26688	-0.36959	1.04692	0.08847
919.884	-1.25627	-0.33719	0.99392	0.11310
923.908	-1.23392	-0.32671	1.04091	0.05866
927.887	-1.08807	-0.22176	1.08567	0.01481
931.842	-1.06984	-0.09086	1.09018	0.05361
935.887	-1.09596	-0.02959	1.11224	0.08146
939.906	-1.03193	0.02157	1.07041	0.06800
943.886	-0.93408	-0.01717	1.05528	0.10323
947.888	-1.03868	0.03491	0.99186	0.14567
951.855	-0.92999	0.01210	1.09971	0.20887
955.880	-0.91324	0.05754	1.04220	0.17481
959.886	-0.81325	0.05188	0.94502	0.23815
963.888	-0.86964	0.02259	1.00236	0.16699
967.883	-0.93547	-0.04023	0.95261	0.18823
971.908	-0.92681	-0.15904	0.96998	0.21141
975.886	-0.97988	-0.21767	1.06312	0.22171
979.843	-0.95507	-0.26483	1.13099	0.22303
983.886	-0.94663	-0.20301	1.19405	0.24024
987.910	-0.98281	-0.29052	1.31024	0.24380
991.884	-0.90937	-0.31996	1.24431	0.22056
995.884	-0.86620	-0.29510	1.28606	0.23553
999.887	-0.85878	-0.33627	1.27470	0.23444
1003.908	-0.92639	-0.31462	1.36035	0.27229
1007.886	-0.89200	-0.25740	1.36640	0.28732
1011.891	-0.95738	-0.26764	1.40266	0.33678
1015.884	-0.94177	-0.21961	1.40998	0.36619
1019.890	-0.99367	-0.16987	1.40968	0.33889
1023.886	-0.96705	-0.14065	1.33745	0.34558
1027.889	-0.93659	-0.13847	1.33227	0.31629
1031.844	-0.93038	-0.07312	1.27899	0.29476
1035.884	-0.99792	-0.02502	1.18634	0.27057
1039.887	-0.93788	0.01635	1.11651	0.14425
1043.844	-0.95557	0.04425	1.05175	0.15235
1047.888	-1.05704	0.00313	1.03302	0.09379
1051.909	-1.11561	0.01359	1.00251	0.09990
1055.887	-1.09247	0.06825	0.95480	0.08992
1059.849	-0.97259	0.10122	0.95331	0.12900
1063.883	-0.98395	0.10408	0.96383	0.14577
1067.905	-0.96948	0.13133	0.98668	0.19904
1071.889	-0.97015	0.11946	0.94033	0.13027
1075.866	-0.99814	0.01714	0.90403	0.17608
1079.887	-0.97276	0.05893	0.94058	0.27872
1083.892	-1.04597	0.05044	0.91996	0.33947
1087.887	-1.01886	-0.02283	0.94956	0.28426
1091.888	-1.06438	-0.01242	0.96003	0.34970
1095.886	-0.98387	-0.00378	0.96829	0.36170
1099.888	-0.91631	0.03133	1.04506	0.42333
1103.888	-0.94559	-0.03600	0.92234	0.42998
1107.844	-0.89113	-0.02030	0.85865	0.40094
1111.886	-0.82734	-0.05335	0.81069	0.41217
1115.881	-0.82044	-0.14642	0.81977	0.51694
1119.878	-0.74332	-0.10751	0.75771	0.52778
1123.890	-0.77625	-0.22312	0.59325	0.57469
1127.890	-0.83171	-0.30198	0.62541	0.51269
1131.876	-0.72106	-0.26887	0.59528	0.58602
1135.887	-0.79330	-0.37630	0.66106	0.58062
1139.889	-0.73134	-0.31779	0.63580	0.62527
1143.891	-0.72067	-0.37864	0.64491	0.66452
1147.891	-0.74580	-0.41208	0.65881	0.61689
1151.889	-0.70295	-0.42694	0.73776	0.67795
1155.889	-0.82059	-0.40937	0.78975	0.71649
1159.861	-0.85260	-0.43493	0.65558	0.63172
1163.882	-0.88344	-0.37686	0.67918	0.45639
1167.888	-0.91947	-0.32133	0.75913	0.50205
1171.889	-0.98003	-0.29086	0.70799	0.69030
1175.895	-1.00553	-0.26820	0.74377	0.66369
1179.889	-0.97906	-0.20490	0.74367	0.61618
1183.889	-1.02079	-0.27498	0.62265	0.63938
1187.888	-1.08597	-0.30064	0.71682	0.65867
1191.890	-1.04372	-0.26584	0.76618	0.55891
1195.894	-0.99695	-0.28251	0.70563	0.54613
1199.872	-0.95294	-0.25109	0.74496	0.58856
1203.882	-0.92331	-0.23780	0.67074	0.38597
1207.891	-1.04168	-0.24201	0.64747	0.49893
1211.885	-0.97683	-0.19683	0.72494	0.38744
1215.887	-0.96303	-0.17675	0.75072	0.44682
1219.888	-0.97780	-0.13568	0.75593	0.43859
1223.892	-1.02990	-0.14003	0.75732	0.44314
1227.892	-1.07453	-0.12934	0.74868	0.39678
1231.889	-0.94457	-0.06336	0.64675	0.29722
1235.890	-1.01700	-0.03590	0.63225	0.31328
1239.846	-1.04649	-0.02030	0.67970	0.30930
1243.888	-1.10241	-0.11051	0.57689	0.30878
1247.889	-1.09706	-0.08499	0.72064	0.33648
1251.889	-1.07056	-0.16316	0.71168	0.35685
1255.892	-1.03364	-0.14765	0.61828	0.39776
1259.886	-1.05121	-0.31376	0.63302	0.41107
1263.890	-1.06270	-0.19975	0.62677	0.47610
1267.889	-0.91217	-0.26140	0.59521	0.42926
1271.891	-0.95147	-0.23591	0.61950	0.45689
1275.847	-0.95217	-0.27415	0.68712	0.49028
1279.889	-0.96896	-0.29017	0.74431	0.48843
1283.867	-0.94085	-0.29427	0.63518	0.35907
1287.891	-0.92448	-0.19762	0.55917	0.49985
1291.889	-0.83190	-0.16612	0.57114	0.48659
1295.846	-0.83592	-0.20051	0.55041	0.43347
1299.890	-0.72953	-0.17751	0.59148	0.39915
1303.887	-0.81397	-0.16016	0.60359	0.34374
1307.893	-0.85649	-0.15661	0.54461	0.33060
1311.891	-0.80841	-0.17619	0.49833	0.38691
1315.890	-0.85223	-0.23746	0.46120	0.24876
1319.893	-0.87813	-0.11387	0.39412	0.29530
1323.884	-0.85500	-0.15149	0.37161	0.30489
1327.881	-0.90458	-0.10917	0.42770	0.30317
1331.890	-1.02667	-0.08077	0.47391	0.35540
1335.890	-0.99611	-0.15936	0.44524	0.31883
1339.892	-0.94604	-0.23531	0.52198	0.28953
1343.890	-0.99154	-0.31784	0.53992	0.33130
1347.893	-1.00734	-0.31476	0.56094	0.32799
1351.892	-0.95269	-0.32349	0.48632	0.28466
1355.894	-0.99392	-0.36927	0.47907	0.29172
1359.895	-0.91718	-0.36528	0.49622	0.29373
1363.894	-0.91661	-0.36749	0.38556	0.27671
1367.893	-0.98402	-0.41598	0.56945	0.27628
1371.886	-0.87664	-0.44839	0.59620	0.25919
1375.893	-0.91736	-0.48766	0.59116	0.21292
1379.888	-0.89078	-0.48578	0.55409	0.17254
1383.892	-0.97172	-0.49104	0.68908	0.21689
1387.895	-0.96484	-0.45894	0.69866	0.16347
1391.891	-0.93899	-0.51576	0.37104	0.15970
1395.890	-0.99611	-0.56653	0.48247	0.09537
1399.893	-0.98224	-0.46721	0.43651	0.13550
1403.894	-0.98276	-0.52599	0.56347	0.15202
1407.873	-1.00680	-0.58563	0.58754	0.15147
1411.891	-1.07726	-0.63130	0.53200	0.08237
1415.849	-1.04543	-0.57020	0.41281	0.08955
1419.786	-1.04550	-0.55922	0.50396	0.18303
1423.893	-1.12095	-0.58181	0.53359	0.10883
1427.890	-1.03692	-0.39282	0.38395	0.03834
1431.849	-0.98288	-0.53498	0.43075	0.09582
1435.789	-0.97350	-0.61016	0.45770	-0.00589
1439.891	-0.99846	-0.50442	0.17429	0.22364
1443.890	-1.77712	-0.37670	-2.20084	-0.11529
1447.895	-3.71169	-0.42358	-3.87411	0.02683
1451.895	-4.35765	-0.52219	-4.48480	-0.01796
1455.892	-5.58874	-0.60942	-5.65100	-0.11229
1459.892	-6.41690	-0.52339	-6.41285	-0.09379
1463.893	-6.62919	-0.57966	-7.06633	-0.17531
1467.897	-7.21090	-0.49977	-7.65171	-0.26362
1471.891	-7.73236	-0.60320	-7.95750	-0.20037
1475.894	-8.17121	-0.52341	-8.25253	-0.31568
1479.850	-8.04582	-0.57865	-8.07295	-0.34178
1483.893	-8.28639	-0.78031	-7.61065	-0.38061
1487.895	-7.88268	-0.79147	-7.54637	-0.35310
1491.870	-8.23775	-0.83091	-7.43056	-0.29600
1495.893	-8.31849	-0.84630	-7.70931	-0.19515
1499.896	-8.45116	-0.69013	-7.63872	-0.02433
1503.891	-8.30903	-0.90679	-7.60758	-0.31522
1507.893	-8.28818	-0.81716	-7.68510	-0.23599
1511.896	-8.38216	-0.86983	-7.64188	-0.26256
1515.897	-8.39783	-0.83155	-7.63967	-0.34588
1519.894	-8.38894	-0.97159	-7.53525	-0.18951
1523.891	-8.25107	-0.95585	-7.54003	-0.12652
1527.895	-8.28447	-1.17575	-7.51396	0.11675
1531.853	-8.31576	-1.34483	-7.55274	0.09750
1535.884	-8.17824	-0.81805	-7.59615	0.10564
1539.885	-8.17405	-0.86719	-7.57508	-0.06983
1543.850	-8.30806	-1.00379	-7.61919	-0.02396
1547.898	-8.47527	-0.86303	-7.66214	-0.05071
1551.894	-8.53037	-0.84124	-7.70511	-0.18931
1555.894	-8.32079	-0.95067	-7.70387	-0.22773
1559.893	-8.58866	-1.27991	-7.68676	-0.28029
1563.755	-8.73174	-1.03111	-7.70053	-0.01758
1567.892	-8.56857	-0.67181	-7.73019	-0.26650
1571.895	-8.11702	-0.45687	-7.73930	-0.28584
1575.868	-8.33841	-0.58946	-7.73499	-0.27248
1579.753	-8.64796	-0.78183	-7.71301	-0.27020
1583.893	-8.27562	-0.62437	-7.68615	-0.27135
1587.905	-8.37354	-0.62818	-7.68520	-0.29612
1591.893	-8.41347	-0.90556	-7.62458	-0.36636
1595.754	-8.29363	-0.79969	-7.58498	-0.29045
1599.893	-8.29564	-1.15025	-7.52835	-0.21102
1603.892	-8.41976	-0.90135	-7.46748	-0.11326
1607.893	-8.65383	-1.08258	-7.39889	-0.04332
1611.903	-8.35457	-0.49656	-7.37743	-0.00656
1615.875	-8.67665	-0.66280	-7.32954	0.09787
1619.895	-8.68882	-0.57023	-7.29440	0.10904
1623.851	-8.64888	-0.44904	-7.29221	0.12728
1627.755	-8.76062	-0.49942	-7.37331	0.09756
1631.866	-8.82112	-0.48466	-7.32502	0.15241
1635.896	-8.97237	-0.30445	-7.33728	0.18142
1639.894	-8.97462	-0.35114	-7.40152	0.23730
1643.759	-9.02859	-0.22948	-7.46355	0.24114
1647.768	-9.08082	-0.29646	-7.46860	0.20849
1651.768	-9.02530	-0.31685	-7.55374	0.16256
1655.771	-9.07431	-0.36323	-7.54423	0.15372
1659.742	-8.98840	-0.43683	-7.49298	0.20045
1663.747	-9.01544	-0.31752	-7.47900	0.23450
1667.773	-9.04185	-0.35544	-7.45621	0.26992
1671.767	-8.92139	-0.24757	-7.37729	0.30604
1675.731	-8.89727	-0.34885	-7.36039	0.28839
1679.769	-8.96993	-0.18824	-7.37340	0.37931
1683.770	-8.95036	0.38925	-7.56030	1.04886
1687.770	-9.23157	2.54022	-8.43768	4.06314
1691.754	-10.02913	4.25970	-8.29749	6.53288
1695.767	-10.07382	6.11141	-8.22786	7.50663
1699.770	-10.19692	6.57430	-8.32923	9.15498
1703.757	-9.96126	9.08962	-7.63952	11.73557
1707.755	-9.95673	9.46756	-7.61541	13.52264
1711.767	-10.09703	11.01410	-7.69651	14.30485
1715.769	-10.06689	10.91873	NaN	NaN
1719.769	-10.10348	12.51649	NaN	NaN
1723.729	-10.12190	12.54908	NaN	NaN
1727.770	-10.24882	12.05344	NaN	NaN
1731.768	-10.27181	12.30682	NaN	NaN
1735.735	-10.23260	12.44100	NaN	NaN
1739.792	-10.15588	12.45743	NaN	NaN
1743.770	-9.91059	12.06916	NaN	NaN
1747.739	-9.79062	11.17535	NaN	NaN
1751.772	-9.93436	12.55080	NaN	NaN
1755.757	-9.75114	12.49131	NaN	NaN
1759.728	-10.09845	12.51745	NaN	NaN
1763.769	-10.14552	12.60471	NaN	NaN
1767.770	-9.74993	12.19871	NaN	NaN
1771.730	-9.73407	12.45132	NaN	NaN
1775.770	-9.63522	12.69562	NaN	NaN
1779.771	-9.91057	12.69632	NaN	NaN
1783.770	-9.91544	12.55267	NaN	NaN
1787.730	-9.83231	12.68894	NaN	NaN
1791.772	-9.70268	12.52451	NaN	NaN
1795.784	-9.72192	12.68215	NaN	NaN
1799.771	-9.89626	12.55858	NaN	NaN
1803.729	-9.79636	12.69896	NaN	NaN
1807.769	-9.82469	12.55910	NaN	NaN
1811.771	-9.81448	12.59917	NaN	NaN
1815.771	-9.63303	12.59692	NaN	NaN
1819.730	-9.68537	12.64945	NaN	NaN
1823.772	-9.78267	12.99025	NaN	NaN
1827.769	-9.74798	12.94144	NaN	NaN
1831.772	-9.79643	13.24672	NaN	NaN
1835.730	-9.66805	13.00235	NaN	NaN
1839.773	-9.65997	13.09190	NaN	NaN
1843.773	-9.75666	13.55195	NaN	NaN
1847.771	-9.83411	13.44487	NaN	NaN
1851.756	-9.54959	12.81206	NaN	NaN
1855.773	-9.62389	13.09439	NaN	NaN
1859.773	-9.76936	13.52784	NaN	NaN
1863.774	-9.78445	13.50533	NaN	NaN
1867.758	-9.63899	13.58237	NaN	NaN
1871.743	-9.69482	13.43147	NaN	NaN
1875.773	-9.65659	13.41241	NaN	NaN
1879.775	-9.75784	13.55262	NaN	NaN
1883.758	-9.84792	13.48786	NaN	NaN
1887.771	-9.75943	13.17243	NaN	NaN
1891.771	-9.89973	13.31727	NaN	NaN
1895.771	-9.79103	13.21393	NaN	NaN
1899.759	-9.83915	13.30570	NaN	NaN
1903.772	-9.88485	13.29163	NaN	NaN
1907.772	-9.88752	13.28322	NaN	NaN
1911.759	-9.98020	13.32827	NaN	NaN
1915.756	-10.09941	13.55773	NaN	NaN
1919.773	-9.99142	13.39160	NaN	NaN
1923.774	-10.02398	13.84058	NaN	NaN
1927.773	-10.01542	13.87897	NaN	NaN
1931.731	-10.01970	13.42535	NaN	NaN
1935.772	-9.98569	13.49468	NaN	NaN
1939.771	-10.00836	13.48695	NaN	NaN
1943.773	-9.94281	13.37654	NaN	NaN
1947.759	-9.86290	13.29139	NaN	NaN
1951.772	-9.81587	13.06725	NaN	NaN
1955.742	-9.95117	12.91326	NaN	NaN
1959.773	-10.43143	12.97919	NaN	NaN
1963.757	-11.16144	12.75777	-8.64264	14.23165
1967.773	-11.07145	10.81500	-9.39371	13.83935
1971.772	-11.73619	12.13573	-9.59674	13.83514
1975.773	-12.14878	11.72853	-9.73889	13.85067
1979.733	-12.42124	11.98394	-9.87358	13.83263
1983.774	-12.76406	11.82559	-9.99597	13.75809
1987.774	-12.68101	11.94206	-9.93942	13.76325
1991.774	-12.75101	11.78187	-9.95721	13.76886
1995.733	-12.79963	11.71168	-9.96289	13.76717
1999.773	-12.78278	11.57564	-9.98730	13.71884
2003.774	-12.83246	11.43464	-9.99787	13.63771
2007.774	-12.81299	11.41055	-10.01205	13.62286
2011.768	-12.75599	11.36908	-10.05065	13.52599
2015.772	-12.85732	11.29429	-10.09845	13.44976
2019.773	-12.86178	11.21063	-10.12395	13.48378
2023.772	-12.88369	11.21384	-10.12767	13.44184
2027.763	-12.79350	11.24726	-10.08989	13.42467
2031.731	-12.80206	11.12756	-10.05914	13.34140
2035.774	-12.74973	11.02428	-10.06311	13.10769
2039.739	-12.69795	11.00975	-10.03438	13.07921
2043.733	-12.68354	10.99901	-9.98800	12.89255
2047.775	-12.73200	10.95821	-9.97207	12.92050
2051.776	-12.85442	10.91308	-9.92138	12.84682
2055.773	-12.83066	10.93289	-9.85869	12.88186
2059.734	-12.87369	10.86769	-9.85091	12.81224
2063.774	-12.93436	10.92449	-9.78932	12.92498
2067.771	-12.97394	10.93684	-9.77242	12.75544
2071.777	-12.82224	10.87211	-9.76254	12.71163
2075.763	-12.80145	10.76533	-9.74810	12.85587
2079.747	-12.79350	10.71544	-9.71999	12.86057
2083.774	-12.81049	10.67134	-9.71587	12.92221
2087.773	-12.76843	10.54184	-9.72479	12.99699
2091.733	-12.81146	10.52859	-9.69918	13.11456
2095.775	-12.68798	10.39325	-9.70502	13.20013
2099.774	-12.66845	10.33555	-9.74094	13.17975
2103.775	-12.59755	10.30343	-9.74921	13.17825
2107.734	-12.59517	10.31451	-9.81397	13.08442
2111.734	-12.52572	10.24650	-9.80342	13.10975
2115.775	-12.52774	10.26688	-9.81149	13.12021
2119.760	-12.57926	10.31002	-9.86784	12.99743
2123.765	-12.59375	10.41690	-9.84623	13.11055
2127.777	-12.68583	10.44357	-9.85664	13.18903
2131.731	-12.75538	10.54200	-9.87989	13.22231
2135.775	-12.77679	10.62388	-9.89511	13.24023
2139.779	-12.89819	10.76222	-9.93080	13.27316
2143.777	-12.88671	10.70130	-9.93195	13.42735
2147.776	-12.98815	10.84074	-9.93521	13.26478
2151.775	-13.03654	10.90110	-9.91570	13.33141
2155.765	-13.12321	10.94979	-10.00191	13.40661
2159.777	-13.09070	10.93179	-10.02786	13.38841
2163.740	-13.02610	11.00068	-9.99306	13.44201
2167.777	-12.90815	10.99268	-10.01443	13.43519
2171.774	-12.80098	10.96388	-10.03248	13.35933
2175.779	-12.80799	10.91680	-10.02779	13.26597
2179.778	-12.63530	10.82979	-10.05031	13.14759
2183.733	-12.46221	10.59633	-10.04511	12.94605
2187.773	-12.80900	10.78005	-9.99681	12.96114
2191.778	-12.80107	10.71695	-10.00064	12.94851
2195.776	-12.52405	10.72983	-9.95642	12.83590
2199.777	-12.64170	10.63006	-9.91645	12.91377
2203.779	-12.70553	10.75895	-9.85452	12.77623
2207.779	-12.79664	10.71943	-9.76314	12.83790
2211.777	-12.75649	10.72276	-9.73012	12.78179
2215.775	-12.93125	10.79853	-9.76360	12.83641
2219.778	-12.76199	10.75378	-10.02261	12.79813
2223.785	-13.70017	11.77464	-10.77615	13.89853
2227.775	-14.82571	13.31763	NaN	NaN
2231.773	-15.38311	13.51355	NaN	NaN
2235.767	-15.01786	13.16556	NaN	NaN
2239.733	-15.11893	13.38505	NaN	NaN
2243.769	-14.86159	13.25073	NaN	NaN
2247.767	-14.40705	13.15383	NaN	NaN
2251.780	-14.95612	13.40122	NaN	NaN
2255.777	-14.87216	13.45368	NaN	NaN
2259.776	-15.12754	13.41969	NaN	NaN
2263.777	-15.02205	13.13229	NaN	NaN
2267.780	-15.23708	13.57976	NaN	NaN
2271.778	-15.12934	13.13438	NaN	NaN
2275.734	-15.02364	12.88549	NaN	NaN
2279.779	-15.09664	12.86939	NaN	NaN
2283.780	-15.01853	12.97763	NaN	NaN
2287.779	-14.94718	13.18239	NaN	NaN
2291.753	-15.04258	12.75749	NaN	NaN
2295.733	-15.01672	13.01298	NaN	NaN
2299.775	-15.10355	13.09178	NaN	NaN
2303.747	-14.94810	12.51991	NaN	NaN
2307.776	-15.01154	12.61994	-11.37741	14.98874
2311.778	-14.90442	12.51077	NaN	NaN
2315.782	-14.94808	13.00377	NaN	NaN
2319.780	-14.82629	12.74204	NaN	NaN
2323.776	-14.72638	12.70902	NaN	NaN
2327.776	-14.78463	12.86298	NaN	NaN
2331.676	-14.82059	12.88863	NaN	NaN
2335.778	-14.79445	12.79931	NaN	NaN
2339.779	-14.88201	12.93219	NaN	NaN
2343.778	-14.78936	12.60253	NaN	NaN
2347.778	-14.80908	12.71529	NaN	NaN
2351.776	-14.78681	12.83294	NaN	NaN
2355.776	-14.71800	12.75070	NaN	NaN
2359.778	-14.81361	13.10886	-11.61563	14.91200
2363.781	-14.83267	13.14722	NaN	NaN
2367.775	-14.94674	13.18647	NaN	NaN
2371.779	-15.06896	13.40811	NaN	NaN
2375.778	-15.12141	13.06242	NaN	NaN
2379.782	-15.00269	13.06160	NaN	NaN
2383.780	-14.48180	10.36029	-11.54118	14.90622
2387.771	-14.87937	12.53967	NaN	NaN
2391.779	-14.46863	10.71480	NaN	NaN
2395.676	-14.29865	11.22649	NaN	NaN
2399.781	-14.23837	11.47386	NaN	NaN
2403.779	-14.05563	10.94088	NaN	NaN
2407.778	-14.04302	10.77092	NaN	NaN
2411.764	-14.06497	11.66533	NaN	NaN
2415.735	-14.08010	10.73983	NaN	NaN
2419.779	-13.94371	10.82828	-11.33741	14.95010
2423.780	-13.90321	10.88853	NaN	NaN
2427.783	-14.01146	10.90265	NaN	NaN
2431.735	-13.98101	11.54121	NaN	NaN
2435.782	-13.87646	10.88034	-11.66487	14.87214
2439.776	-13.94698	10.91066	NaN	NaN
2443.782	-13.97517	10.86673	NaN	NaN
2447.779	-14.01886	11.03973	NaN	NaN
2451.778	-14.13937	12.62096	NaN	NaN
2455.778	-14.14000	11.91658	NaN	NaN
2459.675	-14.07501	11.51659	NaN	NaN
2463.738	-14.18321	11.94363	NaN	NaN
2467.779	-14.14945	11.13954	NaN	NaN
2471.779	-14.12312	11.00140	NaN	NaN
2475.780	-14.01660	10.82054	NaN	NaN
2479.778	-13.84441	10.63175	NaN	NaN
2483.780	-13.95290	10.75596	NaN	NaN
2487.779	-14.17318	10.50270	-12.39561	14.54530
2491.783	-14.42560	10.27049	-14.12623	13.99474
2495.779	-17.40932	11.68757	-14.28967	13.26926
2499.778	-17.23081	10.94688	-14.72343	12.58636
2503.780	-16.40811	10.20270	-14.83958	12.28735
2507.780	-16.81385	10.43630	-14.82583	11.94588
2511.779	-16.82765	10.23398	-14.75444	11.93947
2515.780	-16.66296	10.12724	-14.96006	11.72818
2519.778	-16.73229	10.11746	-14.98076	11.69228
2523.784	-16.62209	9.88729	-14.91268	11.61433
2527.780	-16.61915	9.80663	-14.93552	11.78389
2531.735	-16.54410	9.84472	-14.84684	11.83040
2535.781	-16.60354	9.76974	-14.89601	11.89052
2539.680	-16.60164	9.66659	-14.88978	11.94477
2543.735	-16.62136	10.08077	-14.85950	11.86876
2547.777	-16.57757	9.62064	-14.79298	11.63251
2551.781	-16.58029	9.67768	-14.80085	11.62025
2555.675	-16.52658	9.53575	-14.73782	11.72715
2559.780	-16.49595	9.55994	-14.58294	12.04605
2563.780	-16.38426	9.21380	-14.58561	11.76108
2567.783	-16.60584	9.77298	-14.55741	11.61480
2571.679	-16.36505	9.54138	-14.51172	11.68705
2575.778	-16.66410	9.61331	-14.47596	11.88346
2579.748	-16.68332	9.56869	-14.39126	11.77056
2583.781	-16.36187	8.43499	-14.42002	11.54782
2587.782	-16.17445	9.44838	-14.43564	11.50624
2591.778	-16.36848	8.70045	-14.62280	11.70399
2595.781	-16.26086	8.57027	-14.50758	11.67857
2599.783	-16.32803	9.43338	-14.60281	11.62352
2603.782	-16.09006	9.03124	-14.46424	11.65632
2607.738	-16.53933	9.55628	-14.70061	11.64110
2611.735	-16.62168	10.18611	-14.68129	11.60773
2615.782	-16.24141	9.13057	-14.51442	11.71678
2619.784	-16.06939	8.86862	-14.46147	11.66625
2623.781	-15.94206	8.59185	-14.67918	11.62821
2627.781	-16.16939	9.11274	-14.72397	11.59769
2631.736	-16.61067	9.53706	-14.59837	11.74661
2635.680	-16.32586	9.13191	-14.40481	11.66946
2639.782	-16.38401	9.65891	-14.55962	11.61591
2643.781	-16.09008	9.13823	-14.60600	11.69557
2647.783	-15.89145	8.44158	-14.34392	11.72205
2651.741	-16.24848	9.61233	-14.29639	11.75525
2655.777	-15.90174	7.90209	-14.26996	11.72652
2659.781	-16.02532	9.47878	-14.21118	11.79706
2663.772	-15.72373	7.74693	-14.34632	11.62255
2667.739	-15.78841	9.41669	-14.35694	11.57209
2671.778	-15.68695	7.97699	-14.45909	11.50448
2675.783	-16.01190	7.98650	-14.51667	10.40438
2679.656	-15.89026	7.31778	-14.92915	7.65264
2683.744	-15.65635	3.54774	-15.17686	4.74690
2687.657	-15.54628	3.01381	-15.36599	3.49660
2691.656	-15.53479	1.91991	-15.07331	1.62217
2695.657	-15.46629	1.38192	-15.04712	0.69737
2699.647	-15.18331	0.20514	-14.72738	0.51734
2703.659	-14.77681	-0.52916	-14.58234	-1.02239
2707.643	-14.89571	-0.96343	-14.52381	-1.71363
2711.650	-14.61083	-1.69107	-14.61176	-1.85749
2715.654	-14.09815	-1.86088	-14.20548	-2.24020
2719.659	-13.87952	-2.28686	-14.00183	-2.31673
2723.656	-13.87737	-2.19090	-13.83542	-2.42580
2727.614	-13.59387	-1.85008	-13.65530	-2.55774
2731.633	-13.75758	-2.05374	-13.68227	-2.55956
2735.657	-13.84490	-2.02471	-13.59914	-2.66982
2739.659	-13.85187	-2.13298	-13.66283	-2.65785
2743.658	-13.92842	-2.22483	-13.56270	-2.75029
2747.683	-13.65484	-2.41993	-13.54209	-2.74125
2751.620	-13.65896	-2.23704	-13.47111	-2.84291
2755.657	-13.70582	-2.28078	-13.43202	-2.96290
2759.657	-13.84380	-2.24939	-13.42796	-2.93472
2763.676	-13.74360	-2.22264	-13.44681	-2.97265
2767.658	-13.78609	-2.17183	-13.45416	-3.02071
2771.660	-13.81429	-2.25351	-13.46369	-2.96219
2775.658	-13.86951	-2.29900	-13.47958	-2.99648
2779.680	-14.01522	-2.35961	-13.44451	-2.91220
2783.660	-13.86521	-2.37732	-13.43235	-2.91039
2787.659	-13.82401	-2.38622	-13.44242	-2.85065
2791.636	-13.77841	-2.33850	-13.48202	-2.90984
2795.615	-13.92115	-2.38626	-13.51393	-2.92090
2799.657	-13.81364	-2.40545	-13.51670	-2.87315
2803.657	-13.73229	-2.40333	-13.52205	-2.89957
2807.650	-13.72966	-2.44063	-13.44705	-2.90554
2811.657	-13.78906	-2.50515	-13.39234	-2.84440
2815.657	-13.77069	-2.54521	-13.37968	-2.79675
2819.658	-13.75896	-2.61950	-13.32447	-2.81972
2823.660	-13.81488	-2.59361	-13.41446	-2.84597
2827.680	-13.71139	-2.55101	-13.42087	-2.88719
2831.651	-13.66627	-2.46271	-13.39285	-2.90477
2835.658	-13.77577	-2.43685	-13.35224	-2.90721
2839.662	-13.70195	-2.41561	-13.27896	-2.92920
2843.649	-13.68530	-2.39969	-13.27946	-2.95020
2847.658	-13.88352	-2.43430	-13.20247	-2.83902
2851.659	-13.81289	-2.49198	-13.21670	-2.82208
2855.659	-13.79026	-2.41743	-13.23342	-2.80343
2859.682	-13.76577	-2.36077	-13.12809	-2.80736
2863.657	-13.69193	-2.32534	-13.17997	-2.80971
2867.659	-13.62659	-2.30647	-13.15485	-2.75294
2871.659	-13.68879	-2.36694	-13.15355	-2.67161
2875.617	-13.61014	-2.34543	-13.18823	-2.65863
2879.657	-13.57546	-2.41659	-13.16579	-2.53711
2883.659	-13.54964	-2.48413	-13.17882	-2.56172
2887.657	-13.68340	-2.50292	-13.20301	-2.56982
2891.649	-13.66775	-2.48588	-13.29337	-2.59185
2895.659	-13.64469	-2.45130	-13.29123	-2.60669
2899.658	-13.60528	-2.40551	-13.44822	-2.58876
2903.660	-13.74615	-2.39328	-13.40760	-2.57776
2907.648	-13.73840	-2.40049	-13.55576	-2.60442
2911.660	-13.73683	-2.37781	-13.47435	-2.64631
2915.641	-13.78536	-2.33819	-13.45407	-2.68752
2919.659	-13.86107	-2.29569	-13.44644	-2.71517
2923.636	-13.84902	-2.27423	-13.50316	-2.74908
2927.659	-13.96182	-2.28978	-13.50652	-2.78404
2931.659	-13.95180	-2.25778	-13.52362	-2.77017
2935.659	-13.95572	-2.22760	-13.48798	-2.75701
2939.618	-13.99555	-2.21229	-13.48003	-2.71074
2943.660	-14.06233	-2.20031	-13.32242	-2.76904
2947.660	-14.06990	-2.20300	-13.26528	-2.71492
2951.658	-13.99160	-2.20960	-13.16776	-2.62114
2955.619	-13.99300	-2.24924	-13.22843	-2.67999
2959.661	-13.97267	-2.27101	-13.26335	-2.67297
2963.660	-14.01006	-2.30374	-13.18887	-2.54141
2967.662	-14.03110	-2.31602	-13.23772	-2.70666
2971.678	-14.04489	-2.32070	-13.16979	-2.64543
2975.662	-14.00947	-2.28276	-13.09515	-2.61100
2979.659	-14.00807	-2.27004	-13.11592	-2.65183
2983.666	-13.99772	-2.25989	-13.12936	-2.66299
2987.679	-13.87749	-2.26366	-13.14296	-2.62070
2991.663	-13.87552	-2.24521	-13.10961	-2.63425
2995.658	-13.77436	-2.22069	-13.12251	-2.69868
2999.637	-13.78054	-2.18135	-13.09193	-2.63791
3003.627	-13.76816	-2.14987	-12.96100	-2.62560
3007.660	-13.87842	-2.07017	-13.05590	-2.49086
3011.664	-14.03529	-1.80427	-13.15197	-2.35402
3015.659	-13.98043	-1.37397	-13.25054	-1.92649
3019.658	-14.10639	-0.84881	-13.25348	-1.58892
3023.661	-13.89868	-1.28105	-13.21792	-1.47428
3027.617	-14.12565	-1.47981	-13.28785	-1.58524
3031.617	-14.09640	-1.50283	-13.22594	-1.47606
3035.687	-14.13976	-1.43370	-13.19694	-1.38030
3039.654	-14.05110	-1.49797	-13.34789	-1.41760
3043.650	-14.15631	-1.65252	-13.34686	-1.36251
3047.616	-14.06100	-1.53452	-13.33361	-1.41679
3051.646	-14.07043	-1.37068	-13.41613	-1.40988
3055.661	-14.01814	-1.50296	-13.38757	-1.40036
3059.662	-14.03902	-1.52004	-13.31349	-1.43317
3063.662	-14.12142	-1.39106	-13.36041	-1.53238
3067.619	-14.08757	-1.53848	-13.37977	-1.57944
3071.659	-14.00900	-1.51287	-13.38193	-1.59861
3075.660	-14.01062	-1.51071	-13.51942	-1.64624
3079.661	-14.06777	-1.51573	-13.57649	-1.66812
3083.648	-14.11633	-1.45287	-13.73095	-1.71435
3087.635	-14.15486	-1.41063	-13.58280	-1.69966
3091.662	-14.18284	-1.42228	-13.69446	-1.71140
3095.661	-14.22811	-1.52523	-13.35769	-1.69537
3099.620	-14.25126	-1.52828	-13.51365	-1.71848
3103.661	-14.25884	-1.54421	-13.47812	-1.70121
3107.662	-14.25893	-1.57308	-13.40791	-1.64302
3111.661	-14.22864	-1.56215	-13.55463	-1.61734
3115.647	-14.24371	-1.54335	-13.55806	-1.65908
3119.663	-14.29697	-1.47787	-13.37376	-1.65038
3123.643	-14.24007	-1.45063	-13.36906	-1.65406
3127.662	-14.21155	-1.47997	-13.41838	-1.68743
3131.646	-14.14642	-1.51261	-13.32496	-1.68596
3135.663	-14.12838	-1.41296	-13.20395	-1.67377
3139.658	-14.09581	-1.38079	-13.24278	-1.63938
3143.663	-14.01550	-1.32308	-13.20891	-1.62000
3147.661	-13.99994	-1.24938	-13.21126	-1.55641
3151.663	-13.94210	-1.19283	-13.16565	-1.54365
3155.661	-13.89924	-1.14979	-13.10864	-1.52850
3159.661	-13.99921	-1.17716	-13.05131	-1.51113
3163.654	-13.91958	-1.22781	-13.02735	-1.48548
3167.666	-14.02276	-1.22299	-13.03640	-1.43320
3171.661	-14.06796	-1.21162	-13.00021	-1.36563
3175.664	-14.04313	-1.19917	-13.01769	-1.36870
3179.620	-14.11339	-1.21523	-13.05802	-1.35198
3183.661	-14.10352	-1.23634	-13.04495	-1.38522
3187.653	-14.10475	-1.22896	-12.92908	-1.38337
3191.662	-12.16513	-1.46619	-12.28415	-1.55775
3195.662	-9.68650	-1.48100	-10.96456	-1.85851
3199.662	-9.14426	-3.02274	-8.81116	-2.88612
3203.666	-7.73545	-3.98667	-7.89496	-3.43737
3207.638	-6.40361	-4.27335	-7.15826	-3.78072
3211.635	-5.98847	-4.94064	-6.17884	-4.18308
3215.660	-5.28903	-5.20976	-5.04075	-4.56227
3219.662	-5.23832	-5.62634	-4.36654	-4.84742
3223.666	-4.52407	-5.87149	-4.29475	-4.98924
3227.665	-3.81612	-6.46243	-3.25481	-5.13267
3231.664	-3.27601	-6.73499	-1.72443	-5.23325
3235.661	-2.63036	-7.18540	-1.74774	-5.73495
3239.666	-2.08352	-7.22980	-1.22486	-6.01669
3243.666	-2.41066	-7.21349	-0.48840	-6.14164
3247.651	-2.15856	-7.26877	-0.94075	-6.13935
3251.651	-2.46196	-7.32925	-0.84947	-6.28715
3255.662	-2.73152	-7.17849	-0.84793	-6.31678
3259.623	-2.81387	-7.28645	-0.62208	-6.30240
3263.662	-2.08369	-7.24742	-0.69543	-6.34933
3267.664	-2.80815	-7.32374	-0.61327	-6.43268
3271.663	-2.47586	-7.37699	-0.69079	-6.49754
3275.626	-2.29562	-7.40580	-0.67364	-6.52668
3279.661	-2.74331	-7.36601	-0.58208	-6.57596
3283.668	-2.39611	-7.35617	-0.68250	-6.58959
3287.664	-2.40104	-7.30862	-0.74771	-6.55737
3291.553	-2.60493	-7.29829	-0.76228	-6.57064
3295.661	-2.44303	-7.25641	-0.78449	-6.63044
3299.665	-2.21593	-7.23267	-0.72531	-6.61895
3303.663	-2.27592	-7.20193	-0.77950	-6.66214
3307.648	-2.24037	-7.20526	-0.84818	-6.66266
3311.661	-2.20027	-7.19147	-0.82401	-6.73554
3315.664	-2.06344	-7.19826	-0.81853	-6.75129
3319.664	-1.95443	-7.12446	-0.74355	-6.79017
3323.624	-2.05596	-7.16153	-0.78243	-6.80814
3327.665	-2.01032	-7.17376	-0.70171	-6.78756
3331.664	-1.89402	-7.21009	-0.65369	-6.83395
3335.657	-1.84086	-7.21976	-0.58320	-6.87279
3339.663	-1.79931	-7.28164	-0.55528	-6.87233
3343.668	-1.78734	-7.32054	-0.58538	-6.87570
3347.666	-1.68481	-7.31380	-0.55587	-6.91830
3351.666	-1.70236	-7.34640	-0.47624	-6.97118
3355.665	-1.74794	-7.36609	-0.55704	-7.00485
3359.619	-1.74585	-7.39739	-0.54324	-7.05702
3363.665	-1.75059	-7.46561	-0.62806	-7.08858
3367.665	-1.59328	-7.46664	-0.58027	-7.13246
3371.561	-1.67526	-7.46336	-0.63024	-7.17286
3375.663	-1.95539	-7.46539	-0.58957	-7.21510
3379.666	-2.08424	-7.49048	-0.69489	-7.17232
3383.663	-2.22213	-7.50241	-0.69369	-7.21469
3387.666	-2.19152	-7.52731	-0.76359	-7.23969
3391.664	-1.79281	-7.53883	-0.75149	-7.23700
3395.668	-2.11029	-7.54047	-0.74893	-7.23177
3399.664	-2.14451	-7.58296	-0.73030	-7.21377
3403.668	-1.84912	-7.47920	-0.73330	-7.16566
3407.665	-1.93908	-7.52590	-0.66364	-7.16535
3411.666	-2.04039	-7.48810	-0.56506	-7.18265
3415.667	-2.24297	-7.53457	-0.66451	-7.19098
3419.662	-2.13784	-7.50556	-0.70498	-7.19828
3423.665	-1.93113	-7.35257	-0.61612	-7.24106
3427.665	-1.68039	-7.32542	-0.59334	-7.24630
3431.621	-1.78689	-7.29667	-0.57245	-7.24995
3435.659	-1.82842	-7.25367	-0.56426	-7.23991
3439.663	-1.89000	-7.30092	-0.49718	-7.23898
3443.665	-1.85861	-7.16535	-0.51101	-7.22187
3447.668	-1.88477	-7.13661	-0.52575	-7.20219
3451.578	-1.90180	-7.10262	-0.56808	-7.10843
3455.664	-2.13229	-7.12043	-0.59600	-7.11035
3459.652	-2.05955	-7.06933	-0.50103	-7.10217
3463.665	-2.01429	-7.06331	-0.56935	-7.04453
3467.534	-2.08912	-7.03591	-0.49637	-6.94483
3471.666	-1.63750	-7.18809	-0.28220	-6.93218
3475.665	0.26753	-7.15364	1.35092	-6.91065
3479.667	1.32510	-7.20675	2.65372	-6.81296
3483.624	2.96129	-7.17424	3.45979	-6.75648
3487.669	3.07105	-7.15010	3.81807	-6.61933
3491.678	3.91514	-7.31331	4.61696	-6.53918
3495.664	4.42513	-7.25837	4.89796	-6.52510
3499.626	5.00110	-7.17521	5.54385	-6.50039
3503.666	5.07865	-7.10562	5.99620	-6.30826
3507.665	4.85536	-6.98563	6.06686	-6.25344
3511.664	4.46290	-7.05001	5.81120	-6.28306
3515.534	4.46702	-6.99043	5.83640	-6.22462
3519.666	4.80443	-7.09802	5.81570	-6.20255
3523.666	5.13936	-7.03229	5.84340	-6.18756
3527.665	5.42830	-6.98828	5.96645	-6.07767
3531.625	5.18163	-6.96405	5.88149	-6.15442
3535.667	5.33795	-6.88969	6.00504	-6.18085
3539.651	5.40577	-6.87169	6.01817	-6.18967
3543.662	5.30377	-6.89609	6.00941	-6.20747
3547.669	5.20376	-6.92311	6.00185	-6.25152
3551.634	5.25574	-6.91545	6.01584	-6.23771
3555.666	5.33473	-6.91791	6.08070	-6.29266
3559.667	5.33492	-6.96916	6.07879	-6.31875
3563.669	5.36688	-6.91016	6.14060	-6.35471
3567.666	5.27870	-6.90634	6.17143	-6.35766
3571.666	5.20563	-6.91107	6.21367	-6.36436
3575.665	5.13895	-6.93989	6.20332	-6.36636
3579.671	5.07665	-7.00128	6.24585	-6.30441
3583.670	4.98844	-7.00722	6.25642	-6.26997
3587.625	4.87520	-7.05293	6.30078	-6.21511
3591.668	4.83299	-7.04247	6.25863	-6.30230
3595.566	4.76418	-7.06407	6.27645	-6.31629
3599.667	4.66817	-7.08170	6.29528	-6.23590
3603.622	4.63792	-7.07849	6.27238	-6.23731
3607.667	4.59418	-7.11002	6.29330	-6.25544
3611.669	4.49405	-7.10590	6.31223	-6.22073
3615.667	4.44748	-7.13140	6.36618	-6.27875
3619.664	4.45069	-7.13400	6.36685	-6.32081
3623.669	4.38692	-7.14149	6.49546	-6.32442
3627.671	4.39220	-7.13917	6.46912	-6.37042
3631.667	4.36863	-7.10599	6.59838	-6.38332
3635.666	4.37201	-7.09789	6.65502	-6.32840
3639.669	4.36649	-7.11489	6.71434	-6.31330
3643.668	4.38706	-7.10467	6.73133	-6.30865
3647.667	4.36787	-7.08577	6.80083	-6.32868
3651.666	4.37095	-7.07459	6.83203	-6.31611
3655.667	4.39084	-7.07748	6.87056	-6.30778
3659.627	4.41891	-7.06560	6.84240	-6.30564
3663.662	4.41655	-7.06697	6.87389	-6.31001
3667.667	4.43912	-7.03418	6.70017	-6.34562
3671.668	4.44479	-7.00281	6.33083	-6.39097
3675.627	4.51450	-6.99273	6.51035	-6.44020
3679.668	4.55741	-6.98029	6.55200	-6.48339
3683.668	4.58104	-6.95805	6.47382	-6.53248
3687.670	4.68619	-6.95449	6.38366	-6.56705
3691.628	4.68777	-6.96072	6.39619	-6.54281
3695.668	4.74143	-6.92797	6.27898	-6.58992
3699.668	4.60570	-6.98824	6.16358	-6.58119
3703.668	3.67885	-6.97517	5.57930	-6.57331
3707.672	1.90507	-7.02539	2.66793	-6.59385
3711.669	1.60513	-7.08669	2.45792	-6.63786
3715.538	1.67365	-7.12358	2.74100	-6.67388
3719.540	1.55489	-7.10491	2.99138	-6.70587
3723.671	1.44393	-7.15418	2.82291	-6.71900
3727.533	1.46928	-7.28290	3.15780	-6.76234
3731.506	1.31223	-7.21666	3.28518	-6.75220
3735.544	1.30201	-7.10693	2.97431	-6.75612
3739.541	1.32686	-7.26217	3.01878	-6.77141
3743.543	1.32128	-7.18360	3.07144	-6.77258
3747.548	1.31081	-7.30455	3.05625	-6.88515
3751.544	1.21301	-7.27219	3.04261	-6.97430
3755.543	1.26155	-7.26974	2.96129	-6.98107
3759.545	1.23975	-7.19686	2.86579	-6.90506
3763.543	1.17830	-7.20568	2.92337	-6.90408
3767.543	1.07163	-7.12366	3.00866	-6.95080
3771.540	1.12501	-7.13332	2.81192	-6.97423
3775.543	1.21782	-7.02678	2.80345	-6.94354
3779.549	1.14630	-7.11947	2.87557	-6.93739
3783.543	1.06753	-7.11421	3.05051	-6.90302
3787.564	1.09299	-7.16070	2.84940	-6.98119
3791.546	1.08038	-7.07124	2.81716	-6.94001
3795.544	1.11321	-7.18643	2.84415	-6.94714
3799.544	1.21308	-7.09756	2.83858	-6.92836
3803.566	1.05959	-7.20572	2.98435	-7.03806
3807.544	1.32242	-7.20754	2.77550	-7.07869
3811.541	1.55459	-7.17138	2.69354	-7.15652
3815.545	1.15042	-7.28272	2.81887	-7.15441
3819.563	0.91463	-7.23990	2.87351	-7.20702
3823.544	1.04560	-7.28338	2.81647	-7.19816
3827.545	1.32007	-7.38375	2.87086	-7.18966
3831.500	1.10152	-7.25355	2.79087	-7.18637
3835.504	0.66662	-7.31732	2.76720	-7.14527
3839.541	0.76903	-7.27680	2.81325	-7.07759
3843.545	1.23957	-7.27300	2.89698	-7.15398
3847.546	0.96589	-7.23364	2.83903	-7.12699
3851.504	0.94837	-7.19247	2.78758	-7.06662
3855.546	1.06364	-7.10174	2.85928	-7.01903
3859.549	1.03650	-7.11180	2.82073	-6.99701
3863.547	1.00119	-7.13383	2.95116	-7.01367
3867.504	1.18919	-7.11247	2.91057	-7.04886
3871.545	1.14737	-7.09351	3.00631	-7.08682
3875.547	1.22194	-7.13075	3.03714	-7.11805
3879.509	1.32156	-7.09697	2.87089	-7.09395
3883.535	1.52890	-7.08222	3.00938	-7.12788
3887.535	1.58641	-6.94033	2.83157	-7.13119
3891.548	1.56791	-7.09457	2.73900	-7.09973
3895.546	1.44445	-7.21913	2.71681	-7.10688
3899.504	1.28442	-7.24439	2.54987	-7.06709
3903.544	1.40058	-7.19603	2.76931	-7.04712
3907.546	1.18564	-7.31164	2.81360	-7.01735
3911.545	1.02814	-7.16994	2.72372	-7.00250
3915.504	0.92155	-7.36751	2.65027	-6.98663
3919.525	0.72389	-7.32283	2.60708	-6.98750
3923.547	0.68397	-7.39924	2.62174	-7.00523
3927.547	0.83084	-7.34100	2.57944	-6.99964
3931.503	0.87071	-7.41289	2.59737	-6.94722
3935.547	0.85012	-7.39505	2.61706	-6.97387
3939.545	0.86910	-7.26141	2.64205	-6.99682
3943.545	0.83203	-7.25908	2.66932	-6.99484
3947.543	0.73114	-7.25603	2.61771	-7.02963
3951.549	0.79712	-7.26998	2.61860	-7.00370
3955.545	1.26115	-7.06868	2.62313	-7.00813
3959.547	0.99070	-7.02663	2.63963	-6.99882
3963.544	1.04764	-7.00100	2.68093	-6.95689
3967.549	1.01824	-6.89110	2.62680	-6.93182
3971.547	1.04305	-6.90147	2.61870	-6.94376
3975.547	1.00521	-6.78823	2.65169	-6.95458
3979.567	0.88838	-7.18985	2.63658	-6.90352
3983.503	0.95301	-6.73369	2.60825	-6.90494
3987.548	1.02479	-6.94343	2.64857	-6.92684
3991.549	0.96085	-6.78540	2.60238	-6.90855
3995.505	1.09403	-6.80041	2.60102	-6.94586
3999.548	1.04890	-6.79789	2.59785	-7.01152
4003.527	1.19830	-6.91930	2.50846	-7.03854
4007.549	1.05679	-7.09020	2.48455	-7.05023
4011.532	1.16037	-7.13485	2.54033	-7.07401
4015.546	1.52868	-7.07305	2.61528	-7.19001
4019.550	2.09120	-7.04825	2.85049	-7.05380
4023.555	2.39688	-7.01997	3.51298	-7.03544
4027.567	5.28790	-6.95303	5.60642	-6.80025
4031.547	6.47301	-6.84934	5.97661	-6.60774
4035.551	5.81125	-6.93187	6.86863	-6.47958
4039.548	6.66807	-6.85838	6.76540	-6.63669
4043.561	6.69990	-7.04307	7.24993	-6.81093
4047.548	6.84426	-7.05211	7.49405	-6.66053
4051.505	6.88856	-6.99166	7.67277	-6.78550
4055.548	6.76085	-6.97544	7.63928	-6.81034
4059.567	6.72704	-6.96406	7.62275	-6.78216
4063.545	6.86650	-6.84943	7.51930	-6.77697
4067.548	6.83254	-7.01240	7.58707	-6.90194
4071.547	6.73201	-7.03889	7.66772	-6.86818
4075.567	6.94269	-6.98897	7.60307	-6.89696
4079.548	7.01695	-7.03965	7.64688	-6.88917
4083.550	7.09421	-6.89246	7.70672	-6.81963
4087.516	7.15044	-6.75375	7.73224	-6.78019
4091.540	7.08598	-6.84319	7.68286	-6.73274
4095.549	6.96118	-6.81133	7.62321	-6.64956
4099.549	7.05146	-6.64220	7.59949	-6.57281
4103.548	7.00673	-6.61713	7.51703	-6.59696
4107.568	6.85769	-6.72873	7.54535	-6.57219
4111.548	6.99445	-6.68595	7.56949	-6.63850
4115.544	6.92484	-6.59973	7.58359	-6.64956
4119.549	6.82254	-6.62303	7.55393	-6.66433
4123.572	6.83663	-6.39523	7.62862	-6.61313
4127.528	6.84698	-6.41595	7.66336	-6.63045
4131.502	6.75969	-6.55682	7.77632	-6.66295
4135.549	6.89563	-6.57034	7.86547	-6.66593
4139.540	6.87433	-6.71825	7.98924	-6.66220
4143.548	6.98783	-6.80207	8.19363	-6.63242
4147.549	6.93401	-6.89270	7.94728	-6.66991
4151.505	6.96313	-6.84104	7.97607	-6.60931
4155.544	6.98133	-6.75143	8.13592	-6.49013
4159.546	7.07229	-6.75564	7.87350	-6.50432
4163.550	7.09143	-6.87530	8.00299	-6.41842
4167.504	7.20314	-6.85331	7.93841	-6.41672
4171.546	7.26854	-6.79809	7.99883	-6.42718
4175.550	7.22622	-6.88456	7.89720	-6.37285
4179.548	7.12908	-6.92025	7.91658	-6.32058
4183.548	7.12197	-6.87292	7.80182	-6.38675
4187.571	7.16595	-6.82261	7.74964	-6.46089
4191.551	6.92682	-6.82350	7.69934	-6.31836
4195.549	6.94166	-6.51049	7.74484	-6.52480
4199.549	6.93176	-6.78142	7.73743	-6.63472
4203.552	7.07935	-6.53889	7.79853	-6.70005
4207.547	6.98702	-6.38844	7.75093	-6.70403
4211.526	6.92320	-6.68053	7.75141	-6.70171
4215.551	6.81750	-6.79883	7.78667	-6.70162
4219.547	6.78703	-6.37634	7.74579	-6.79442
4223.550	6.72376	-6.64533	7.80224	-6.62151
4227.551	6.66695	-6.51911	7.76065	-6.73530
4231.506	6.50369	-6.33378	7.77663	-6.67086
4235.550	6.52380	-6.25418	7.81476	-6.43617
4239.549	6.41268	-6.65744	7.80024	-6.16873
4243.549	6.37991	-6.37204	7.78460	-6.18528
4247.550	6.45312	-6.54901	7.77907	-6.10666
4251.508	6.41388	-6.45812	7.77809	-6.11514
4255.551	6.48458	-6.41793	7.81761	-5.98785
4259.547	6.55280	-6.31258	7.82431	-5.90829
4263.550	6.49744	-6.50267	7.84944	-5.88994
4267.553	6.70964	-6.37384	7.84883	-5.82812
4271.552	6.72580	-6.45047	7.87414	-5.80141
4275.507	6.81077	-6.47091	7.85728	-5.77682
4279.548	6.76158	-6.55877	7.86013	-5.81727
4283.551	6.85498	-6.53237	7.86681	-5.83304
4287.553	6.89676	-5.99415	7.86868	-5.82049
4291.554	6.83939	-6.40445	7.75461	-5.83776
4295.516	6.89487	-6.48875	7.80209	-5.85862
4299.542	6.93379	-6.43973	7.69154	-5.87072
4303.553	6.91948	-6.50329	7.72500	-5.92783
4307.551	6.86721	-6.52870	7.66126	-5.99739
4311.548	6.88318	-6.51126	7.64391	-6.00587
4315.544	6.86811	-6.46156	7.66487	-6.06860
4319.552	6.87457	-6.50381	7.62589	-6.09487
4323.550	6.89982	-6.47495	7.66972	-6.11945
4327.552	6.88641	-6.47462	7.62726	-6.16339
4331.555	6.89067	-6.50561	7.61880	-6.19869
4335.552	6.97174	-6.55222	7.65797	-6.19151
4339.560	7.06161	-6.48115	7.65212	-6.16506
4343.547	6.99609	-6.49009	7.69468	-6.18900
4347.553	6.98912	-6.50777	7.69220	-6.22250
4351.549	6.99262	-6.51057	7.68033	-6.14963
4355.551	7.05286	-6.35649	7.71330	-6.03385
4359.550	7.15550	-4.05307	7.76915	-3.40377
4363.542	7.22182	-2.96899	7.84676	-2.93263
4367.543	7.21103	-1.78169	7.96195	-0.66480
4371.551	7.17656	-0.69392	7.99031	1.12973
4375.549	7.31389	1.55925	8.20734	1.27200
4379.556	7.25020	2.20631	8.45074	1.70884
4383.553	7.50159	2.22550	8.49651	2.27436
4387.554	7.59171	2.54646	8.47993	3.11510
4391.556	7.48761	3.16464	8.49578	3.40800
4395.556	7.64776	3.83955	8.47422	3.25537
4399.552	7.58705	3.41686	8.50598	3.00888
4403.550	7.65108	3.24377	8.64922	3.27711
4407.552	7.65276	3.19311	8.63020	3.53551
4411.554	7.68091	3.12659	8.58575	3.47423
4415.554	7.70156	3.30647	8.71082	3.42812
4419.529	7.59934	3.35618	8.66338	3.70197
4423.556	7.63569	3.39460	8.67590	3.53219
4427.556	7.62189	3.50686	8.62460	3.44720
4431.509	7.55954	3.52312	8.62629	3.43274
4435.545	7.51957	3.61422	8.52736	3.23131
4439.552	7.44638	3.47330	8.55326	3.38063
4443.556	7.41516	3.51719	8.60274	3.35015
4447.551	7.33786	3.47749	8.61101	3.56290
4451.552	7.28740	3.54946	8.60560	3.39405
4455.551	7.12701	3.52062	8.53860	3.44908
4459.539	7.21884	3.58666	8.53549	3.52547
4463.539	7.20646	3.57122	8.57973	3.40904
4467.551	7.13510	3.59469	8.57267	3.48532
4471.553	7.11247	3.50710	8.56170	3.50405
4475.556	7.15469	3.42812	8.59536	3.50558
4479.552	7.15012	3.33115	8.60521	3.56242
4483.553	7.15828	3.32996	8.66224	3.68661
4487.552	7.25142	3.24225	8.67299	3.59765
4491.556	7.33152	3.20374	8.56906	3.54356
4495.553	7.56427	3.12280	8.51241	3.58776
4499.553	7.61255	3.17171	8.61096	3.56297
4503.553	7.58186	3.17864	8.57083	3.62241
4507.432	7.60709	3.15082	8.64119	3.58180
4511.552	7.61380	3.10476	8.59325	3.55017
4515.551	7.49561	3.05365	8.60536	3.53522
4519.555	7.49886	3.13403	8.55886	3.54508
4523.556	7.53613	3.12253	8.57478	3.45152
4527.555	7.49381	3.44442	8.54256	3.46983
4531.553	7.37602	3.23297	8.66389	3.52202
4535.555	7.22221	3.73127	8.72820	3.50515
4539.557	7.36435	3.68540	8.67791	3.44316
4543.530	7.26603	3.66603	8.68085	3.39677
4547.552	7.15667	3.42587	8.65007	3.29420
4551.510	7.15203	3.44490	8.72866	3.28053
4555.448	7.17854	3.73877	8.66792	3.26116
4559.553	7.23843	3.69341	8.65574	3.37915
4563.552	7.25882	3.86578	8.73342	3.36325
4567.555	7.28024	3.82007	8.73924	3.45449
4571.557	7.28415	3.85761	8.68194	3.48409
4575.553	7.25680	3.69630	8.61783	3.40990
4579.555	7.33432	3.81750	8.48398	3.44668
4583.550	7.30857	3.60773	8.61535	3.47217
4587.551	7.36838	3.73749	8.59936	3.52847
4591.553	7.41412	3.59202	8.50814	3.58780
4595.553	7.45860	3.42486	8.40179	3.63347
4599.556	7.54110	3.37819	8.52906	3.64716
4603.556	7.50373	3.21305	8.67522	3.56291
4607.511	7.56379	3.10787	8.51362	3.53593
4611.555	7.65812	3.05824	8.48646	3.58920
4615.554	7.69239	3.13664	8.53666	3.56174
4619.556	7.72113	3.11659	8.50336	3.63254
4623.555	7.68888	3.15123	8.62688	3.56686
4627.531	7.70448	3.21855	8.58364	3.63347
4631.510	7.72914	3.22020	8.63001	3.57731
4635.453	7.69434	3.24423	8.65984	3.54289
4639.556	7.65268	3.55980	8.69430	3.58140
4643.554	7.57698	3.21857	8.74784	3.57934
4647.554	7.59405	3.36940	8.58320	3.65540
4651.417	7.49022	3.71865	8.59791	4.15076
4655.556	7.41782	5.39293	8.64492	6.65232
4659.556	7.33198	7.36198	8.63779	7.52472
4663.564	7.09793	7.85661	8.63512	7.92230
4667.413	7.27108	8.06433	8.62678	7.99351
4671.549	7.33098	7.81750	8.58658	7.94382
4675.555	7.28190	6.97611	8.56241	7.98960
4679.553	7.30178	6.96952	8.52848	7.85108
4683.513	7.33659	7.03232	8.59150	7.99608
4687.554	7.27675	6.85818	8.58709	8.00374
4691.555	7.40870	7.01063	8.64580	7.98141
4695.553	7.38976	7.23287	8.74496	8.08942
4699.513	7.35146	6.97008	8.79659	8.09883
4703.556	7.40145	7.03029	8.83856	8.11539
4707.554	7.44145	7.09052	8.88697	8.13796
4711.520	7.38117	6.98921	8.91631	8.14911
4715.414	7.30097	7.00008	8.92423	8.22707
4719.553	7.22292	7.02671	8.90790	8.15288
4723.555	7.09023	7.06181	8.96709	8.03522
4727.555	7.02678	7.09791	8.94762	8.14928
4731.690	6.93900	7.13739	8.88256	8.09265
4735.556	6.94719	7.13535	8.92626	8.25235
4739.519	6.93565	7.10480	8.88060	8.23513
4743.556	6.90099	7.13575	8.85378	8.00792
4747.389	6.87457	7.18530	8.78609	8.01751
4751.432	6.86342	7.20076	8.78714	8.15436
4755.423	6.82557	7.18209	8.77953	8.09510
4759.434	6.84641	7.24018	8.73540	8.11548
4763.389	6.84194	7.27174	8.70248	8.06557
4767.429	6.85953	7.25686	8.70476	8.15595
4771.430	6.86488	7.36542	8.69503	8.16210
4775.431	6.88817	7.32514	8.71118	8.21578
4779.428	6.91278	7.36087	8.68160	8.10840
4783.431	6.91950	7.46714	8.65695	8.10613
4787.432	6.93403	7.45835	8.66947	8.00753
4791.387	6.96895	7.52763	8.69055	8.03931
4795.563	6.97049	7.55052	8.65053	7.09431
4799.403	7.00208	7.58237	8.64058	8.14432
4803.433	7.01338	7.61531	8.64410	8.06724
4807.427	7.08849	7.66014	8.64534	8.08725
4811.428	7.16725	7.69427	8.64010	8.14859
4815.431	7.21486	7.66039	8.62350	8.09740
4819.431	7.25614	7.67016	8.62132	7.91820
4823.433	7.30678	7.72536	8.62692	7.97860
4827.452	7.31464	7.69977	8.63221	8.02903
4831.432	7.36166	7.68996	8.63532	8.14087
4835.433	7.36818	7.67250	8.61977	8.14751
4839.435	7.40736	7.67110	8.64235	8.13275
4843.428	7.39747	7.67957	8.66979	8.06196
4847.432	7.42912	7.62391	8.68967	8.15249
4851.432	7.41612	7.57264	8.70296	8.15553
4855.389	7.39261	7.56609	8.70851	8.17507
4859.455	7.40582	7.60828	8.75875	8.05905
4863.435	7.40499	7.57285	8.79165	7.99924
4867.443	7.40108	7.57493	8.78423	7.98203
4871.423	7.39608	7.55908	8.79082	7.90023
4875.427	7.38803	7.55311	8.86810	7.94412
4879.432	7.37431	7.54339	8.87789	7.70379
4883.427	7.36625	7.57574	8.86047	7.91971
4887.398	7.41963	7.58786	8.83859	7.96281
4891.429	7.46180	7.65034	8.81581	8.03835
4895.433	7.47644	7.63900	8.81523	7.74383
4899.432	7.48319	7.60841	8.82007	7.79366
4903.434	7.44140	7.57569	8.75742	7.71910
4907.451	7.43871	7.57095	8.77499	7.93362
4911.433	7.36989	7.48296	8.78689	7.88202
4915.433	7.34668	7.41215	8.80401	7.81185
4919.431	7.36808	7.45941	8.76881	7.53249
4923.437	7.35166	7.46574	8.77536	7.70986
4927.434	7.34773	7.41088	8.77870	7.52809
4931.433	7.27760	7.28413	8.77810	7.34788
4935.434	7.21357	7.21182	8.79652	7.40241
4939.391	7.15159	7.17733	8.79148	7.38889
4943.434	7.10748	7.17120	8.76690	7.39353
4947.433	7.07564	7.09693	8.76828	7.41396
4951.434	7.06686	7.11474	8.73109	7.31748
4955.416	7.07679	7.10670	8.75053	7.28799
4959.435	7.18066	7.21219	8.79528	7.27881
4963.421	7.24146	7.23852	8.86115	7.32477
4967.432	7.28913	7.14785	8.81242	7.37930
4971.424	7.47038	7.09617	8.76852	7.69097
4975.433	7.60231	7.15359	8.74888	7.57706
4979.432	7.65476	7.17883	8.72840	7.64226
4983.433	7.71922	7.21712	8.75211	7.84870
4987.417	7.76150	7.21504	8.82087	8.01552
4991.432	7.77597	7.23435	8.84278	8.03618
4995.435	7.83911	7.21580	8.86980	8.06997
4999.435	7.86649	7.23134	8.87014	8.05735
5003.392	7.88892	7.24331	8.83839	8.08601
5007.434	7.88760	7.20930	8.80095	8.14287
5011.435	7.89057	7.20663	8.78946	8.17161
5015.434	7.85526	7.22667	8.81472	8.26735
5019.417	7.90567	7.23214	8.81346	8.25215
5023.434	7.91124	7.24968	8.83134	8.32913
5027.435	7.91945	7.22827	8.81137	8.28255
5031.435	7.93440	7.15863	8.82487	8.20175
5035.392	7.72610	7.21082	8.75177	8.25505
5039.434	6.59099	7.35178	8.11221	8.36030
5043.434	5.53043	9.35068	5.92790	10.20371
5047.414	4.17736	9.39363	3.30139	10.27449
5051.424	2.51745	9.92061	3.16250	11.65894
5055.434	2.18082	10.11660	3.19034	11.67741
5059.435	1.49245	10.66434	2.49337	13.38837
5063.434	0.21279	10.79774	1.54542	11.94385
5067.424	-0.10952	10.71369	1.08599	13.63346
5071.434	-0.56394	11.10783	0.71186	13.44627
5075.436	-0.91944	11.25820	0.51892	13.59310
5079.433	-1.48146	11.51613	0.57079	13.62073
5083.419	-1.61079	11.52845	0.57486	13.63955
5087.439	-1.57991	11.56083	0.62258	13.70010
5091.399	-1.32600	11.41788	0.69302	13.73218
5095.437	-1.51313	11.62674	0.59741	13.73714
5099.422	-1.31377	12.03428	0.63881	13.75638
5103.436	-1.46871	11.93596	0.59263	13.75792
5107.391	-1.54582	11.90632	0.57525	13.79662
5111.435	-1.66683	11.80001	0.59059	13.79222
5115.394	-1.69740	11.84839	0.63161	13.80252
5119.435	-1.67496	11.96379	0.67168	13.81566
5123.435	-1.65847	11.86627	0.63268	13.62486
5127.436	-1.62792	11.76571	0.66317	13.38595
5131.420	-1.63767	12.10578	0.64997	13.36198
5135.436	-1.64908	11.68546	0.65474	13.37222
5139.437	-1.63750	11.93855	0.72111	13.33283
5143.437	-1.64494	11.91530	0.70558	13.25001
5147.457	-1.74680	11.69384	0.75871	13.18604
5151.435	-1.72515	11.68109	0.77779	13.17279
5155.433	-1.69108	11.58562	0.75302	13.10043
5159.433	-1.65232	11.64511	0.75923	13.04100
5163.440	-1.64226	11.67957	0.77694	13.11252
5167.439	-1.61128	11.65149	0.80285	13.12722
5171.436	-1.62190	11.71110	0.83245	13.19484
5175.438	-1.59730	11.63982	0.86319	13.17537
5179.458	-1.57746	11.68339	NaN	NaN
5183.428	-1.56355	11.52343	0.89322	13.24999
5187.433	-1.61337	11.50322	0.90468	13.23959
5191.440	-1.56905	11.43547	0.91073	13.17853
5195.457	-1.53567	11.47938	0.89810	13.25207
5199.440	-1.52888	11.49371	0.90579	13.33327
5203.434	-1.50132	11.41344	0.78255	13.12757
5207.436	-1.49309	11.32070	0.63233	13.14362
5211.461	-1.50433	11.33172	0.68888	13.13695
5215.439	-1.46690	11.26658	0.61382	13.04657
5219.436	-1.44649	11.27803	0.47587	13.16766
5223.436	-1.42273	11.27458	0.56587	13.18166
5227.458	-1.41142	11.29291	0.48416	13.15273
5231.395	-1.34896	11.29227	0.48192	13.13035
5235.435	-1.26649	11.49073	0.39077	13.18458
5239.436	-1.29367	11.50445	0.41378	13.30379
5243.437	-1.29829	11.56763	0.41524	13.44286
5247.436	-1.31260	11.58078	0.40435	13.49928
5251.437	-1.31739	11.60574	0.42120	13.75837
5255.420	-1.29549	11.63144	0.41413	13.76659
5259.426	-1.34467	11.65328	0.41075	14.11805
5263.437	-1.31426	11.67546	0.42591	13.83945
5267.437	-1.32714	11.66437	0.37747	13.82495
5271.439	-1.31870	11.71484	0.37643	13.78481
5275.398	-1.31317	11.73852	0.38732	14.05806
5279.438	-1.32781	11.72497	0.40891	14.06967
5283.438	-1.30365	11.70824	0.40105	13.97807
5287.439	-1.31707	11.57308	0.31096	13.79903
5291.448	-1.35755	11.55544	0.19708	13.77621
5295.440	-1.75188	10.98644	-0.50460	13.55188
5299.436	-2.58068	11.21008	-2.37327	13.43235
5303.433	-3.63557	8.05377	-3.27371	13.27083
5307.440	-4.39032	9.87009	-3.76856	13.28413
5311.435	-5.01534	11.07987	-3.76764	13.08748
5315.437	-5.49532	10.81444	-4.06263	13.13235
5319.438	-5.62306	10.52621	-4.29083	13.14131
5323.440	-5.79941	10.53944	-4.35129	13.23845
5327.438	-5.95017	10.20290	-4.28182	13.12125
5331.437	-5.97342	9.89613	-4.37221	13.02840
5335.440	-5.91523	10.05488	-4.43626	12.98418
5339.418	-5.96377	9.80870	-4.53652	12.94245
5343.438	-6.00590	9.99174	-4.49783	13.06717
5347.437	-6.02256	9.83106	-4.58661	13.24536
5351.437	-6.08046	9.88601	-4.60767	13.11001
5355.443	-6.12288	9.98362	-4.63279	13.06900
5359.394	-6.15178	9.93578	-4.62875	13.12213
5363.440	-6.21078	9.94639	-4.59943	13.09279
5367.393	-6.21183	9.96454	-4.57374	12.99202
5371.436	-6.24541	9.95857	-4.56432	13.02990
5375.439	-6.23690	10.16712	-4.51795	13.10276
5379.432	-6.27464	10.12306	-4.48633	13.10554
5383.442	-6.30806	10.21981	-4.38590	13.05573
5387.444	-6.33194	10.17272	-4.38141	12.99861
5391.437	-6.33897	10.32679	-4.33969	12.92545
5395.440	-6.33476	10.43321	-4.30707	12.75115
5399.451	-6.37319	10.48838	-4.28782	12.73760
5403.441	-6.40285	10.39249	-4.24485	12.88991
5407.437	-6.38888	10.44652	-4.22925	12.85319
5411.437	-6.41082	10.53735	-4.21901	12.77114
5415.441	-6.44415	10.52579	-4.19768	12.78760
5419.431	-6.48073	10.52431	-4.20336	12.74508
5423.412	-6.45856	10.56034	-4.25040	12.70210
5427.441	-6.41881	10.60126	-4.24253	12.69789
5431.395	-6.40864	10.66079	-4.26563	12.73666
5435.342	-6.40797	10.64714	-4.22454	13.03072
5439.439	-6.49979	10.69258	-4.23915	13.14872
5443.438	-6.54107	10.67785	-4.24482	13.26996
5447.437	-6.42712	10.64317	-4.27787	13.02162
5451.398	-6.44378	10.62160	-4.28979	13.26585
5455.440	-6.40202	10.71908	-4.30225	13.12366
5459.441	-6.38028	10.62211	-4.30512	13.03056
5463.420	-6.37261	10.60050	-4.31612	13.11435
5467.397	-6.31774	10.48564	-4.28034	13.20416
5471.438	-6.35628	10.48939	-4.30776	13.29456
5475.439	-6.35545	10.50354	-4.31657	13.28305
5479.438	-6.40719	10.51105	-4.32829	13.15682
5483.443	-6.35819	10.48085	-4.34465	13.17304
5487.440	-6.36025	10.62838	-4.35588	13.23645
5491.440	-6.32787	10.57730	-4.35013	13.12236
5495.437	-6.33767	10.49687	-4.35652	13.22892
5499.443	-6.39930	10.37330	-4.38882	13.17267
5503.452	-6.41565	10.49302	-4.40737	13.15189
5507.404	-6.36300	10.38356	-4.43150	13.28355
5511.440	-6.28405	10.33401	-4.47008	13.31880
5515.339	-6.27503	10.33253	-4.46554	13.19810
5519.440	-6.28092	10.12747	-4.48219	13.13146
5523.439	-6.33481	10.10252	-4.51605	13.21269
5527.429	-6.35655	10.06493	-4.53233	13.21665
5531.442	-6.32422	10.19625	-4.54543	13.23612
5535.442	-6.31961	10.08495	-4.56262	13.26306
5539.441	-6.34116	10.08062	-4.59208	13.37413
5543.441	-6.29403	10.12963	-4.52160	13.19785
5547.442	-6.28293	10.15368	-4.50757	13.10505
5551.396	-6.25573	10.08033	-4.46838	13.23099
5555.440	-6.31044	10.08135	-4.44080	13.22894
5559.439	-6.30600	10.00497	-4.45007	13.18475
5563.445	-6.33027	10.06579	-4.42234	13.18302
5567.443	-6.26836	10.04328	-4.43527	13.22858
5571.440	-6.32449	10.16538	-4.39405	13.27188
5575.440	-6.76315	10.23636	-4.67737	13.55500
5579.440	-8.17731	10.18346	-6.67671	13.00587
5583.441	-8.43161	10.03306	-6.97634	12.97538
5587.427	-8.77802	10.07583	-7.29963	12.86445
5591.431	-9.13250	9.97771	-7.69110	12.54437
5595.444	-9.58589	9.86069	-8.18298	12.57896
5599.444	-10.04980	9.80508	-8.74476	12.62167
5603.442	-10.11382	9.77792	-8.93813	12.35768
5607.441	-10.43980	9.77679	-9.24733	12.35227
5611.445	-10.16182	9.59785	-8.83592	12.33796
5615.441	-10.36235	9.54993	-8.84159	12.16698
5619.440	-10.33798	9.42529	-8.96058	12.22848
5623.437	-10.38617	9.30601	-9.09297	12.23183
5627.443	-10.49949	9.36455	-9.04713	12.22618
5631.395	-10.55788	9.30461	-9.06022	12.25975
5635.441	-10.64012	9.40532	-9.12604	12.29474
5639.442	-10.65774	9.28826	-9.13719	12.29331
5643.445	-10.67406	9.26317	-9.11058	12.27256
5647.441	-10.66814	9.27075	-9.11390	12.24323
5651.442	-10.59893	9.23058	-9.07721	12.19105
5655.442	-10.62322	9.25356	-9.07155	12.10102
5659.443	-10.67440	9.28605	-9.07315	12.14105
5663.441	-10.67358	9.24580	-9.05296	12.18529
5667.442	-10.70090	9.30491	-8.98455	12.13527
5671.425	-10.69822	9.29808	-8.94564	12.09232
5675.332	-10.70512	9.30334	-8.87486	12.07194
5679.441	-10.67996	9.29794	-8.85473	12.05925
5683.441	-10.67842	9.32623	-8.81397	12.06225
5687.443	-10.76391	9.34489	-8.76367	12.08658
5691.444	-10.79327	9.33613	-8.71336	12.11498
5695.442	-10.90985	9.48065	-8.70095	12.26418
5699.443	-11.01366	9.46053	-8.64221	12.25109
5703.442	-11.03473	9.44233	-8.62661	12.27415
5707.444	-11.01362	9.50989	-8.58204	12.35133
5711.445	-11.02646	9.45963	-8.59121	12.36544
5715.407	-11.06714	9.50983	-8.56280	12.38378
5719.447	-11.10395	9.50955	-8.55008	12.43103
5723.444	-11.10151	9.44093	-8.55789	12.37322
5727.438	-11.12352	9.46991	-8.57139	12.26540
5731.441	-11.12424	9.42089	-8.58580	12.35644
5735.440	-11.06502	9.32866	-8.61251	12.19782
5739.405	-10.98231	9.34195	-8.58859	12.45062
5743.443	-10.93480	9.29318	-8.59774	12.41724
5747.444	-10.85473	9.17761	-8.61162	12.37883
5751.443	-10.76949	8.80997	-8.64102	12.42967
5755.446	-10.77608	9.18212	-8.63903	12.39512
5759.442	-10.93550	9.53011	-8.64505	12.29463
5763.440	-10.93112	9.35145	-8.67039	12.17744
5767.443	-11.11105	9.52315	-8.67032	12.15502
5771.446	-11.30395	9.93453	-8.69673	12.10350
5775.444	-11.45741	10.38967	-8.68516	12.24249
5779.442	-15.63168	13.17128	-8.75189	13.24249
5783.440	-15.53462	13.13877	NaN	NaN
5787.308	NaN	NaN	-12.49980	14.22335
5791.320	NaN	NaN	NaN	NaN
5795.318	NaN	NaN	NaN	NaN
5799.322	NaN	NaN	NaN	NaN
5803.282	NaN	NaN	NaN	NaN
5807.317	NaN	NaN	NaN	NaN
5811.317	NaN	NaN	NaN	NaN
5815.316	NaN	NaN	NaN	NaN
5819.316	NaN	NaN	NaN	NaN
5823.274	NaN	NaN	NaN	NaN
5827.317	NaN	NaN	NaN	NaN
5831.317	NaN	NaN	NaN	NaN
5835.319	NaN	NaN	NaN	NaN
5839.275	NaN	NaN	NaN	NaN
5843.312	NaN	NaN	NaN	NaN
5847.319	NaN	NaN	NaN	NaN
5851.315	-17.30595	3.22016	-19.96244	11.71263
5855.319	-17.15875	3.32074	-19.96376	9.08497
5859.276	-17.17103	2.40411	-15.06480	5.08891
5863.320	-17.23168	1.85052	-15.42405	5.00862
5867.319	-17.37854	1.67571	-16.18636	3.60464
5871.320	-16.98262	1.13226	-16.77009	-1.19030
5875.341	-15.71503	0.73333	-9.65963	-1.30989
5879.318	-14.14681	0.49115	-14.79941	-1.02412
5883.318	-14.10564	-0.06574	-13.19174	-1.25486
5887.311	-14.07980	-0.34418	-13.86114	-1.62174
5891.339	-13.81528	-0.53741	-12.77669	-1.37961
5895.320	-13.74219	-0.64964	-12.81736	-1.41900
5899.320	-13.77336	-0.79287	-12.71096	-1.41335
5903.321	-13.67735	-0.79561	-12.65831	-1.38217
5907.340	-13.50840	-0.81944	-12.66715	-1.36269
5911.322	-13.58484	-0.94873	-12.64848	-1.35258
5915.319	-13.64307	-0.89613	-12.64657	-1.28460
5919.288	-13.55208	-0.94147	-12.52355	-1.13973
5923.314	-13.50896	-0.98693	-12.50250	-1.09394
5927.319	-13.48636	-0.99456	-12.40018	-1.16446
5931.321	-13.41977	-1.00598	-12.43374	-1.04945
5935.320	-13.36469	-0.99183	-12.35031	-0.98922
5939.338	-13.34284	-0.97282	-12.28976	-0.88485
5943.323	-13.29445	-0.88344	-12.28377	-0.72169
5947.320	-13.26283	-0.83889	-12.34221	-0.68772
5951.319	-13.30449	-0.75674	-12.37887	-0.68656
5955.314	-13.28416	-0.72926	-12.38926	-0.69265
5959.321	-13.27428	-0.67343	-12.43338	-0.61959
5963.320	-13.30115	-0.58597	-12.44870	-0.56465
5967.318	-13.32242	-0.53899	-12.65448	-0.60018
5971.316	-13.29800	-0.49121	-12.59101	-0.67981
5975.322	-13.25087	-0.43484	-12.55696	-0.81345
5979.320	-13.28825	-0.39489	-12.68134	-0.97268
5983.323	-13.26055	-0.34843	-12.69393	-0.95615
5987.309	-13.29873	-0.34441	-12.76796	-0.97981
5991.314	-13.29119	-0.32002	-12.74041	-1.18332
5995.320	-13.27779	-0.33575	-12.62481	-1.31444
5999.320	-13.11429	-0.32526	-12.61507	-1.33177
6003.345	-13.00064	-0.34412	-12.45911	-1.44861
6007.322	-12.92033	-0.32769	-12.40891	-1.41540
6011.285	-12.84904	-0.34872	-12.31009	-1.44680
6015.322	-12.79147	-0.34131	-12.04426	-1.41687
6019.316	-12.85069	-0.35390	-11.94812	-1.37310
6023.323	-12.83147	-0.33459	-11.88677	-1.37616
6027.319	-12.80862	-0.34810	-11.80100	-1.27439
6031.320	-12.78359	-0.39776	-11.77672	-1.28153
6035.339	-12.75431	-0.44669	-11.74297	-1.28331
6039.324	-12.77693	-0.44938	-11.70868	-1.16328
6043.320	-12.83510	-0.49500	-11.68503	-1.12845
6047.324	-12.87607	-0.52110	-11.65413	-1.08814
6051.310	-12.90376	-0.52932	-11.62637	-1.01161
6055.324	-12.98685	-0.52121	-11.60725	-0.97425
6059.320	-13.01211	-0.57662	-11.62351	-0.97271
6063.319	-13.07778	-0.58428	-11.63725	-0.98235
6067.316	-13.10615	-0.63070	-11.64573	-0.97453
6071.323	-13.09181	-0.68603	-11.69395	-0.97713
6075.320	-13.12729	-0.68620	-11.72348	-0.99763
6079.320	-13.17645	-0.68979	-11.74989	-0.98331
6083.313	-13.20515	-0.66080	-11.79292	-1.02325
6087.324	-13.28463	-0.63384	-11.83721	-1.04706
6091.318	-13.26803	-0.66910	-11.87111	-1.07168
6095.312	-13.37214	-0.66185	-11.90588	-1.10277
6099.315	-13.33358	-0.70293	-11.92785	-1.11000
6103.325	-13.43183	-0.72463	-11.97652	-1.15276
6107.322	-13.38341	-0.76183	-12.03012	-1.13035
6111.324	-13.41354	-0.73639	-12.10967	-1.13686
6115.344	-13.42618	-0.70612	-12.16667	-1.15087
6119.316	-13.42587	-0.65846	-12.21364	-1.15324
6123.322	-13.44052	-0.58730	-12.25325	-1.16162
6127.323	-13.37761	-0.59923	-12.29085	-1.16562
6131.312	-13.40762	-0.55591	-12.26294	-1.17706
6135.323	-13.34322	-0.56297	-12.35301	-1.22712
6139.320	-13.45364	-0.57122	-12.47794	-1.35981
6143.321	-13.56122	-0.63193	-12.55843	-1.33289
6147.320	-13.86734	-0.60990	-12.68503	-1.34847
6151.323	-13.95701	-0.55814	-12.72421	-1.39673
6155.322	-13.96507	-0.60116	-12.73868	-1.43059
6159.323	-13.96563	-0.60376	-12.75918	-1.50347
6163.342	-13.85758	-0.66150	-12.84454	-1.52647
6167.279	-13.93597	-0.71804	-12.77636	-1.51708
6171.327	-14.08101	-0.74492	-12.94580	-1.59262
6175.309	-14.09728	-0.78041	-13.07420	-1.67117
6179.318	-14.10721	-0.79553	-13.04671	-1.67172
6183.324	-14.15342	-0.82035	-13.12234	-1.62457
6187.321	-14.14980	-0.82133	-13.18270	-1.63028
6191.320	-14.14268	-0.80767	-13.17541	-1.67919
6195.320	-14.12805	-0.81478	-13.25790	-1.65315
6199.324	-14.09920	-0.81062	-13.26464	-1.67408
6203.325	-14.06574	-0.82495	-13.33758	-1.69957
6207.324	-14.08657	-0.77230	-13.32924	-1.70581
6211.321	-14.09231	-0.75980	-13.47627	-1.71875
6215.323	-14.09388	-0.75505	-13.38212	-1.69097
6219.290	-14.07254	-0.73887	-13.36422	-1.67102
6223.323	-14.03554	-0.74251	-13.29140	-1.62595
6227.288	-13.99702	-0.72354	-13.28472	-1.62786
6231.323	-13.97765	-0.73089	-13.31725	-1.63897
6235.323	-13.93176	-0.76153	-13.12477	-1.60296
6239.324	-13.92138	-0.77816	-13.13750	-1.61692
6243.324	-13.96778	-0.76378	-13.13712	-1.61008
6247.322	-13.95699	-0.70518	-12.98075	-1.57974
6251.320	-13.97730	-0.74636	-12.95004	-1.58783
6255.325	-14.02767	-0.79648	-12.83602	-1.56252
6259.335	-14.00571	-0.84542	-12.83198	-1.57688
6263.326	-13.99562	-0.88781	-12.82432	-1.55853
6267.322	-14.05885	-0.93786	-12.77669	-1.56795
6271.327	-14.04879	-0.98191	-12.76557	-1.57785
6275.313	-14.12560	-1.02436	-12.70258	-1.55925
6279.320	-14.14250	-1.05615	-12.74518	-1.54492
6283.322	-14.16858	-0.99666	-12.72667	-1.55228
6287.325	-14.11745	-1.05906	-12.69594	-1.54701
6291.320	-14.11603	-1.00253	-12.73961	-1.53495
6295.322	-14.08680	-1.01810	-12.72650	-1.46811
6299.320	-13.99898	-0.92309	-12.77629	-1.48283
6303.322	-13.95161	-0.83889	-12.86147	-1.47398
6307.317	-13.91439	-0.77469	-12.80504	-1.42983
6311.324	-13.83847	-0.84755	-12.79265	-1.36971
6315.325	-13.85557	-0.76480	-12.82566	-1.36072
6319.325	-13.80451	-0.74176	-12.82913	-1.31305
6323.317	-13.82431	-0.76659	-12.85216	-1.31365
6327.322	-13.74186	-0.86122	-12.86919	-1.29027
6331.324	-13.71116	-0.81601	-12.87138	-1.32910
6335.325	-13.69502	-0.82454	-12.88895	-1.38103
6339.315	-13.57206	-0.72950	-12.96213	-1.39391
6343.295	-13.57199	-0.72114	-13.02243	-1.41825
6347.323	-13.52034	-0.70886	-12.99065	-1.44149
6351.327	-13.67813	-0.80253	-13.02507	-1.38637
6355.329	-13.47268	-0.82408	-12.95148	-1.39913
6359.329	-12.47636	-0.84243	-12.08917	-1.34825
6363.327	-10.19317	-1.09524	-9.61165	-1.65397
6367.318	-7.73589	-2.39755	-8.46182	-2.20016
6371.329	-7.44252	-3.25609	-7.75967	-2.28616
6375.325	-5.56446	-3.41844	-6.84752	-2.30358
6379.325	-5.85195	-3.59537	-6.15583	-2.75281
6383.325	-5.78494	-3.69040	-4.99802	-2.91559
6387.329	-4.99334	-3.79727	-4.67816	-3.20311
6391.325	-4.60503	-3.99528	-4.09202	-3.39984
6395.323	-4.42604	-4.02563	-3.81036	-3.69676
6399.325	-4.53060	-4.16920	-3.54640	-3.87323
6403.331	-4.53990	-4.18709	-3.55065	-4.09458
6407.323	-4.57117	-4.20900	-3.48776	-4.26516
6411.325	-4.47388	-4.26899	-3.43098	-4.03760
6415.328	-4.46497	-4.37396	-3.31049	-4.14082
6419.324	-4.44701	-4.34926	-3.26092	-4.21202
6423.326	-4.37712	-4.39315	-3.38526	-4.28555
6427.291	-4.34063	-4.45836	-3.30250	-4.34775
6431.281	-4.30519	-4.49154	-3.19103	-4.29975
6435.323	-4.34359	-4.51589	-3.10574	-4.31064
6439.326	-4.38139	-4.55164	-3.09339	-4.35226
6443.325	-4.37942	-4.58013	-3.11307	-4.36350
6447.325	-4.39639	-4.63040	-3.01237	-4.29702
6451.329	-4.42491	-4.67243	-2.97643	-4.29238
6455.326	-4.43103	-4.71787	-2.96433	-4.29198
6459.326	-4.47358	-4.73994	-2.97819	-4.26490
6463.328	-4.41270	-4.74995	-2.99851	-4.25431
6467.224	-4.44709	-4.75187	-3.01131	-4.21431
6471.327	-4.45298	-4.76130	-3.01027	-4.19402
6475.326	-4.44780	-4.75841	-3.03969	-4.23480
6479.281	-4.43803	-4.75023	-3.19707	-4.21320
6483.221	-4.44149	-4.74216	-3.12804	-4.19475
6487.326	-4.43068	-4.75763	-3.13798	-4.22035
6491.325	-4.44324	-4.75278	-3.21374	-4.24689
6495.316	-4.45047	-4.74183	-3.25693	-4.25068
6499.225	-4.41373	-4.70922	-3.36780	-4.27712
6503.325	-4.43243	-4.67607	-3.42418	-4.34361
6507.320	-4.43362	-4.70803	-3.48763	-4.38657
6511.327	-4.46497	-4.68970	-3.51881	-4.43613
6515.323	-4.52155	-4.71365	-3.58989	-4.48559
6519.325	-4.66221	-4.71134	-3.58840	-4.40107
6523.325	-4.62567	-4.72374	-3.53750	-4.43400
6527.283	-4.60828	-4.71576	-3.60205	-4.42962
6531.230	-4.68856	-4.67646	-3.63755	-4.36296
6535.304	-4.64073	-4.65485	-3.64162	-4.34736
6539.326	-4.64936	-4.65194	-3.67346	-4.33340
6543.283	-4.70525	-4.66242	-3.66711	-4.30697
6547.328	-4.79519	-4.67128	-3.68134	-4.28727
6551.306	-4.74560	-4.65629	-3.62672	-4.24011
6555.325	-4.75383	-4.65956	-3.57053	-4.15561
6559.330	-4.77843	-4.63939	-3.51693	-4.13251
6563.223	-4.79962	-4.65160	-3.48516	-4.10763
6567.328	-4.81998	-4.63294	-3.44372	-4.09914
6571.327	-4.83326	-4.64815	-3.44384	-4.09473
6575.326	-4.63972	-4.70534	-3.36193	-4.16247
6579.225	-3.82506	-4.92178	-2.99428	-4.50649
6583.324	-3.00742	-5.59671	-1.81208	-5.34759
6587.325	-2.64017	-7.52544	-1.80623	-6.10284
6591.327	-2.63675	-8.29871	-1.16798	-7.26580
6595.225	-2.88636	-8.42696	-1.07356	-7.50432
6599.327	-2.77582	-8.59385	-0.94884	-7.81651
6603.326	-2.75529	-8.63878	-0.70223	-7.91211
6607.327	-2.55165	-8.61437	-0.51547	-8.03683
6611.331	-2.56223	-8.55816	-0.64089	-8.03225
6615.328	-2.41980	-8.59269	-0.44214	-8.04761
6619.328	-2.55027	-8.65851	-0.36176	-8.09186
6623.329	-2.46830	-8.67601	-0.57357	-8.07756
6627.189	-2.44237	-8.71574	-0.33253	-8.08423
6631.282	-2.35999	-8.71560	-0.41162	-8.07892
6635.296	-2.26938	-8.72600	-0.25140	-8.11235
6639.327	-2.22946	-8.72835	-0.23415	-8.11947
6643.189	-2.27092	-8.69654	-0.16241	-8.09858
6647.327	-2.05680	-8.70010	-0.13456	-8.07143
6651.328	-2.04493	-8.72016	-0.12136	-8.02837
6655.327	-2.04208	-8.72767	-0.08470	-7.95525
6659.287	-2.09299	-8.74574	-0.03020	-7.93505
6663.328	-2.07871	-8.73902	-0.04534	-7.91201
6667.329	-2.03132	-8.73054	0.04497	-7.88541
6671.332	-2.01318	-8.72319	0.02847	-7.84489
6675.289	-2.07016	-8.72886	0.03405	-7.83223
6679.327	-2.10285	-8.75483	0.07587	-7.81688
6683.329	-2.11767	-8.78388	0.06961	-7.81098
6687.327	-2.12037	-8.82586	0.06475	-7.79269
6691.288	-2.11316	-8.86305	0.06760	-7.80281
6695.328	-2.12030	-8.87156	0.08480	-7.85802
6699.325	-2.14577	-8.89442	0.04683	-7.89207
6703.334	-2.11423	-8.92616	0.11811	-7.93225
6707.288	-2.10555	-8.96408	0.06785	-7.99051
6711.327	-2.08280	-8.99510	0.01395	-8.04420
6715.325	-2.08416	-9.01815	0.08900	-8.08852
6719.320	-2.03935	-9.04546	0.08910	-8.13735
6723.195	-1.99211	-9.06785	0.09557	-8.17604
6727.329	-2.02423	-9.09238	0.13940	-8.22131
6731.329	-1.94025	-9.11830	0.20857	-8.25394
6735.329	-1.94640	-9.12440	0.21167	-8.28550
6739.332	-1.94421	-9.14314	0.24706	-8.26996
6743.327	-1.87753	-9.13955	0.30570	-8.30230
6747.330	-1.95601	-9.16165	0.18961	-8.31456
6751.329	-1.93256	-9.17303	0.25078	-8.30672
6755.333	-1.94925	-9.16972	0.21177	-8.26730
6759.330	-1.94360	-9.16077	0.17722	-8.27632
6763.331	-1.98368	-9.19308	0.13019	-8.27931
6767.330	-1.98070	-9.19917	0.04519	-8.23606
6771.224	-1.97852	-9.20301	-0.08396	-8.20706
6775.330	-1.93403	-9.18352	-0.09664	-8.19023
6779.329	-1.82207	-9.16021	-0.05241	-8.20426
6783.331	-1.21789	-9.02386	0.26446	-8.09958
6787.225	-0.43606	-8.80024	1.15999	-7.75929
6791.286	0.23837	-8.32116	1.75652	-7.69172
6795.329	1.30816	-8.24749	2.66711	-7.34901
6799.317	1.41251	-8.12716	3.00138	-7.41662
6803.228	1.83000	-8.32811	2.99829	-7.45863
6807.333	1.80789	-8.32154	3.14991	-7.45787
6811.327	1.69071	-8.20503	3.05741	-7.34978
6815.328	1.51211	-8.18025	3.04986	-7.34473
6819.332	1.75545	-8.13002	3.04063	-7.28528
6823.331	1.72156	-8.12709	2.95262	-7.27802
6827.204	1.79534	-8.12468	2.95035	-7.22619
6831.205	1.78161	-8.12102	3.00844	-7.24408
6835.196	1.86370	-8.13959	3.08062	-7.23173
6839.209	1.85866	-8.12124	3.05588	-7.27605
6843.206	1.85373	-8.15918	3.06231	-7.28943
6847.185	1.85237	-8.12961	3.15342	-7.27536
6851.173	1.85291	-8.09702	3.07387	-7.25585
6855.162	1.84875	-8.08922	3.06028	-7.27406
6859.206	1.92044	-8.04149	3.04751	-7.25159
6863.204	1.89610	-8.03240	3.02192	-7.24809
6867.197	1.94811	-7.98148	3.06300	-7.21627
6871.208	1.95691	-7.94841	3.08367	-7.18436
6875.204	2.01590	-7.89721	3.08137	-7.20694
6879.206	1.99823	-7.88855	3.10329	-7.24755
6883.205	2.03251	-7.89833	3.16480	-7.21617
6887.207	2.02118	-7.86982	3.12836	-7.21805
6891.194	2.02993	-7.82652	3.06897	-7.21569
6895.207	2.04267	-7.82858	3.12324	-7.23183
6899.225	2.05881	-7.79770	3.13566	-7.21949
6903.208	2.03137	-7.80119	3.15357	-7.22213
6907.208	2.02914	-7.78796	3.18962	-7.21624
6911.210	2.01702	-7.79282	3.21498	-7.23652
6915.202	1.99317	-7.77253	3.25686	-7.22307
6919.161	1.96400	-7.79661	3.28034	-7.19743
6923.205	1.94791	-7.79380	3.31346	-7.13582
6927.207	1.88048	-7.79457	3.38926	-7.14109
6931.166	1.81825	-7.79165	3.42705	-7.12457
6935.207	1.82579	-7.78457	3.48580	-7.13647
6939.206	1.73472	-7.78434	3.47196	-7.13493
6943.205	1.65235	-7.77242	3.49856	-7.11403
6947.207	1.61565	-7.75523	3.54598	-7.10106
6951.209	1.56181	-7.73696	3.60956	-7.10519
6955.208	1.53508	-7.70098	3.64879	-7.09085
6959.206	1.46469	-7.69564	3.66782	-7.10818
6963.196	1.41164	-7.65505	3.63737	-7.10126
6967.208	1.37870	-7.61169	3.58739	-7.12343
6971.188	1.36008	-7.57875	3.55056	-7.12145
6975.199	1.35891	-7.55947	3.51839	-7.11988
6979.227	1.31429	-7.57357	3.49814	-7.09073
6983.164	1.28043	-7.57025	3.47465	-7.06848
6987.206	1.19934	-7.56203	3.41028	-7.05527
6991.207	1.24027	-7.54791	3.39334	-7.03025
6995.225	1.21668	-7.52038	3.31660	-6.99365
6999.206	1.20762	-7.53096	3.24932	-6.97180
7003.208	1.20484	-7.52327	3.19546	-6.95885
7007.211	1.30695	-7.51546	3.18445	-6.96941
7011.230	1.21023	-7.54760	3.16990	-6.97960
7015.171	1.30213	-7.53337	3.18499	-6.99436
7019.208	1.30481	-7.54616	3.18188	-7.01951
7023.206	1.30317	-7.53757	3.19652	-7.04673
7027.227	1.26398	-7.53566	3.19241	-7.07679
7031.207	1.26120	-7.53581	3.23420	-7.09666
7035.211	1.23719	-7.54137	3.21827	-7.11514
7039.208	1.25056	-7.55059	3.24694	-7.07776
7043.197	1.69423	-7.54288	3.30616	-7.16631
7047.205	4.32205	-7.50320	5.82560	-7.11313
7051.199	5.13026	-7.50402	5.60212	-6.97809
7055.184	6.05071	-7.47361	6.19093	-6.85460
7059.177	6.37099	-7.42767	7.70714	-6.75213
7063.206	6.48833	-7.40495	6.54528	-6.93807
7067.208	6.45380	-7.44017	7.44108	-6.95205
7071.209	6.48124	-7.46120	7.48666	-6.87043
7075.227	6.42368	-7.40455	7.40079	-6.80848
7079.204	6.37856	-7.37872	7.42258	-6.78686
7083.210	6.45941	-7.29037	7.35949	-6.76790
7087.208	6.47980	-7.34844	7.51598	-6.75987
7091.167	6.60404	-7.28491	7.53642	-6.73541
7095.209	6.61969	-7.30656	7.54308	-6.80053
7099.212	6.66903	-7.30899	7.60609	-6.88584
7103.206	6.67904	-7.32455	7.57608	-6.93911
7107.232	6.63938	-7.33621	7.63208	-6.91013
7111.209	6.71725	-7.30160	7.65125	-6.89077
7115.211	6.64097	-7.28988	7.68050	-6.87594
7119.208	6.58795	-7.22929	7.72939	-6.86610
7123.166	6.66883	-7.27152	7.73082	-6.89881
7127.207	6.66100	-7.20921	7.76694	-6.88367
7131.163	6.70093	-7.24018	7.73682	-6.87420
7135.209	6.65145	-7.15527	7.74493	-6.87677
7139.207	6.62348	-7.24433	7.80131	-6.82127
7143.208	6.56767	-7.27020	7.83707	-6.76836
7147.209	6.47588	-7.26010	7.78755	-6.72880
7151.211	6.56010	-7.12248	7.75970	-6.70105
7155.205	6.46346	-7.24842	7.72929	-6.70265
7159.208	6.54462	-7.05465	7.76930	-6.69101
7163.209	6.52860	-7.01504	7.69127	-6.70409
7167.164	6.48151	-7.23626	7.74276	-6.63836
7171.201	6.44491	-7.30432	7.66799	-6.66112
7175.211	6.45135	-7.26218	7.75322	-6.65785
7179.189	6.40788	-7.00500	7.72154	-6.56681
7183.209	6.48377	-6.84109	7.66275	-6.64035
7187.208	6.48328	-7.27190	7.60387	-6.66247
7191.210	6.51895	-7.24153	7.63772	-6.67801
7195.209	6.45613	-7.06991	7.63718	-6.66560
7199.209	6.49964	-7.24370	7.56727	-6.72830
7203.213	6.43150	-7.43619	7.55759	-6.72709
7207.209	6.49560	-7.41387	7.59010	-6.68395
7211.212	6.42329	-7.23878	7.59732	-6.70959
7215.212	6.49354	-7.40485	7.61938	-6.75885
7219.233	6.40226	-7.45521	7.58425	-6.78373
7223.174	6.50670	-7.31879	7.63004	-6.81539
7227.204	6.53431	-7.42906	7.58683	-6.86228
7231.165	6.53379	-7.44533	7.64922	-6.86741
7235.206	6.50276	-7.42593	7.71986	-6.83710
7239.209	6.61376	-7.43405	7.70526	-6.80902
7243.209	6.70345	-7.22191	7.76226	-6.78197
7247.209	6.68379	-7.33155	7.78048	-6.85981
7251.228	6.58359	-7.40346	7.68169	-6.83370
7255.212	6.61805	-7.38467	7.70489	-6.84608
7259.209	6.55986	-7.31870	7.74198	-6.83691
7263.186	6.58575	-7.43165	7.83098	-6.80727
7267.178	6.44449	-7.41401	7.66158	-6.83191
7271.208	6.58271	-7.28842	7.59259	-6.81020
7275.166	6.41864	-7.32296	7.72695	-6.80438
7279.211	6.67500	-7.20510	7.71701	-6.77295
7283.232	7.42407	-7.12479	7.68486	-6.76967
7287.211	6.91633	-7.18659	7.82747	-6.79342
7291.210	7.15415	-6.95394	7.74830	-6.84987
7295.166	6.98064	-6.69374	7.77519	-6.84560
7299.202	7.25804	-6.71730	7.86079	-6.83989
7303.214	7.09759	-7.03982	7.90051	-6.85127
7307.211	6.77883	-6.96179	7.78852	-6.82701
7311.211	6.76701	-6.93723	7.88702	-6.75219
7315.233	6.82381	-6.96649	7.88329	-6.88742
7319.215	6.89935	-6.98489	7.84705	-6.89245
7323.207	6.94721	-7.00271	7.97288	-6.90677
7327.211	6.93102	-7.00615	7.96991	-6.96063
7331.212	7.05569	-6.70639	7.93084	-6.97678
7335.212	6.86102	-7.04980	7.88877	-6.93565
7339.211	6.73260	-7.14105	7.83885	-6.91074
7343.211	6.67649	-7.20775	7.84886	-6.89402
7347.214	6.72560	-7.20701	7.78784	-6.83984
7351.177	6.63355	-7.22844	7.78774	-6.89648
7355.212	6.76273	-7.18220	7.85831	-6.93751
7359.167	6.64094	-7.05939	7.77946	-6.86832
7363.210	6.49695	-7.12483	7.32995	-6.79408
7367.214	4.40707	-7.10609	4.51147	-6.76749
7371.211	3.34660	-7.06770	1.94962	-6.74244
7375.211	0.63146	-7.08791	1.10165	-6.69052
7379.205	0.67843	-7.07671	0.23152	-6.78404
7383.216	0.35918	-7.18173	-0.47666	-6.80834
7387.191	-0.33392	-7.14396	-0.76218	-7.11725
7391.209	-1.20008	-7.16322	-0.81498	-7.36041
7395.209	-1.59588	-7.28181	-1.00794	-7.51009
7399.213	-1.79304	-7.43010	-1.06009	-7.37363
7403.212	-1.77348	-7.47436	-0.92760	-7.56335
7407.212	-1.59606	-7.58911	-0.80779	-7.62608
7411.214	-1.71937	-7.48499	-0.74513	-7.58479
7415.214	-1.98601	-7.54439	-0.73853	-7.67641
7419.212	-2.39319	-7.55991	-1.08011	-7.75040
7423.214	-3.23648	-7.47484	-1.02990	-7.86231
7427.212	-2.22173	-7.59148	-0.89150	-7.78140
7431.168	-2.12570	-7.46473	-0.95509	-7.87687
7435.212	-2.76468	-7.57977	-0.84545	-7.80339
7439.212	-2.45659	-7.58554	-0.93192	-7.71330
7443.205	-2.94084	-7.55214	-0.84821	-7.84460
7447.213	-2.48616	-7.64459	-0.98913	-7.83693
7451.212	-2.95725	-7.57518	-0.86530	-7.92694
7455.211	-2.70988	-7.59982	-0.90334	-7.72714
7459.209	-2.93243	-7.64434	-1.05719	-7.94027
7463.215	-2.63717	-7.79885	-0.94539	-7.79572
7467.213	-2.78325	-7.65971	-0.81463	-7.94125
7471.188	-1.69889	-7.75888	-0.85694	-7.91328
7475.120	-2.08865	-7.70198	-0.89609	-7.92475
7479.168	-2.67147	-7.86750	-0.93393	-7.87848
7483.212	-2.14087	-7.76833	-1.01536	-8.00327
7487.212	-2.09576	-7.85394	-0.87952	-8.02709
7491.207	-2.22436	-7.86831	-0.81575	-8.06025
7495.207	-2.65097	-7.88232	-0.87875	-8.17467
7499.213	-2.52993	-7.90525	-1.05664	-8.11486
7503.213	-2.13941	-8.02758	-0.86121	-8.07375
7507.109	-1.96581	-7.86974	-0.97924	-7.95247
7511.216	-2.20215	-7.89416	-0.94564	-8.23103
7515.203	-2.55782	-7.96939	-1.03491	-8.09475
7519.211	-2.39448	-8.07996	-1.00489	-7.81004
7523.110	-2.59799	-7.95746	-0.96854	-8.15861
7527.213	-2.50501	-8.04503	-0.87875	-8.12427
7531.171	-2.56540	-8.00664	-0.98596	-7.95721
7535.215	-2.50665	-7.99473	-0.86820	-7.98681
7539.109	-2.47677	-7.97521	-1.00454	-7.90235
7543.184	-2.33341	-7.84967	-1.01615	-7.67141
7547.210	-2.87609	-8.24549	-1.13206	-7.99332
7551.221	-3.03197	-8.85025	-3.01873	-8.13865
7555.215	-5.13503	-8.45767	-3.98274	-8.28185
7559.211	-4.23584	-8.94705	-4.19304	-8.93730
7563.213	-4.12979	-9.16087	-4.31612	-9.54147
7567.211	-5.13043	-9.50224	-3.55266	-9.65354
7571.216	-5.01356	-9.54134	-2.35060	-9.52524
7575.214	-4.66551	-9.62252	-3.25055	-9.62989
7579.216	-4.63154	-9.34146	-3.48682	-9.42756
7583.216	-4.45612	-9.45956	-3.68414	-9.43792
7587.108	-4.69418	-9.62743	-2.91186	-9.40005
7591.215	-4.63612	-9.35240	-3.47213	-9.49945
7595.200	-4.74323	-9.29731	-3.81444	-9.56656
7599.209	-4.45885	-9.46651	-3.78103	-9.55096
7603.093	-4.65301	-9.64279	-2.73734	-9.57271
7607.216	-4.61364	-9.35792	-3.19694	-9.56321
7611.219	-4.61610	-9.42431	-3.74676	-9.51578
7615.216	-4.51275	-9.49986	-3.38800	-9.48138
7619.217	-4.53825	-9.51107	-2.91334	-9.45380
7623.214	-4.54096	-9.26524	-3.49300	-9.46286
7627.212	-4.46764	-9.34963	-3.52811	-9.48249
7631.170	-4.47506	-9.25899	-3.17653	-9.50572
7635.113	-4.63003	-9.42196	-2.84046	-9.48825
7639.215	-4.66230	-9.50123	-3.16708	-9.50731
7643.215	-4.55009	-9.34224	-3.26396	-9.50374
7647.213	-4.57135	-9.41077	-3.10423	-9.50816
7651.175	-4.60256	-9.41827	-3.15647	-9.60574
7655.213	-4.53228	-9.50230	-3.09057	-9.50734
7659.213	-4.64497	-9.44830	-3.09869	-9.58267
7663.215	-4.64196	-9.40956	-3.11668	-9.61136
7667.077	-4.50700	-9.43905	-3.05303	-9.62785
7671.216	-4.69051	-9.43572	-3.14743	-9.61357
7675.218	-4.80091	-9.48310	-2.96398	-9.55793
7679.216	-4.76554	-9.41040	-3.07125	-9.56320
7683.176	-4.80618	-9.40197	-3.14914	-9.55648
7687.215	-4.78360	-9.44038	-3.15733	-9.48854
7691.215	-5.03622	-9.37852	-3.20778	-9.56436
7695.216	-4.81126	-9.34714	-3.27309	-9.42178
7699.175	-4.78553	-9.28040	-3.39295	-9.45531
7703.214	-4.85002	-9.30683	-3.27066	-9.42856
7707.213	-4.63077	-9.26855	-3.32006	-9.35950
7711.218	-4.85608	-9.21609	-3.35348	-9.37513
7715.079	-4.83954	-9.23742	-3.04449	-9.32570
7719.203	-4.86744	-9.17103	-3.26349	-9.32802
7723.205	-4.86946	-9.17100	-3.09706	-9.30579
7727.216	-5.00519	-9.13396	-3.25320	-9.34589
7731.172	-4.88377	-9.12481	-3.22752	-9.31547
7735.171	-4.75534	-9.11096	-3.38998	-9.30271
7739.213	-4.74737	-9.16755	-3.12737	-9.36279
7743.215	-4.55660	-9.15425	-3.24061	-9.30554
7747.220	-4.83876	-9.17318	-3.29817	-9.29424
7751.172	-4.76105	-9.14543	-3.15124	-9.33035
7755.218	-4.81490	-9.16826	-3.27158	-9.34328
7759.223	-4.69867	-9.16601	-3.20389	-9.29998
7763.216	-4.78932	-9.17571	-3.16414	-9.26014
7767.217	-4.83582	-9.18832	-3.23930	-9.22827
7771.215	-4.89528	-9.20506	-3.19081	-9.27114
7775.213	-4.78834	-9.20408	-3.09513	-9.28882
7779.219	-4.72623	-9.20417	-3.12145	-9.22865
7783.216	-4.83208	-9.18806	-3.13778	-9.20337
7787.216	-4.84152	-9.18730	-3.07120	-9.10785
7791.215	-4.88636	-9.16822	-3.11569	-9.15858
7795.176	-4.77476	-9.26112	-3.02710	-9.16738
7799.219	-4.86066	-9.22126	-3.13823	-9.12615
7803.201	-4.75472	-9.23480	-3.19246	-9.11146
7807.214	-4.64502	-9.22627	-3.11861	-9.16840
7811.225	-4.69482	-9.20695	-3.18210	-9.15924
7815.219	-4.74185	-9.29349	-3.10210	-9.09143
7819.217	-4.90033	-9.40097	-3.20140	-9.07773
7823.217	-5.04674	-9.36981	-3.18692	-9.11751
7827.220	-4.75538	-9.35454	-3.13853	-9.04464
7831.172	-4.63634	-9.47295	-3.21805	-9.05891
7835.217	-4.84083	-9.41032	-3.13927	-9.10529
7839.221	-5.06678	-9.41208	-3.17777	-9.02420
7843.114	-5.06725	-9.41971	-3.27655	-8.97667
7847.092	-5.11541	-9.41658	-3.13444	-8.94606
7851.220	-5.19396	-9.46365	-3.15288	-8.93690
7855.094	-5.22758	-9.46592	-3.33893	-8.96690
7859.115	-5.14018	-9.25691	-3.30757	-8.96708
7863.091	-5.21274	-9.17579	-3.01883	-8.96634
7867.059	-4.97169	-9.26687	-3.40343	-8.84681
7871.092	-4.95122	-9.03403	-2.73330	-8.84519
7875.112	-5.13129	-9.06676	0.46711	-8.43188
7879.091	-4.80231	-8.99393	0.49339	-7.98370
7883.094	-4.75925	-5.51558	-0.78206	-2.67495
7887.093	0.60027	14.14528	-0.90979	-0.59139
7891.103	-19.99372	-12.07731	-19.99372	-12.07740
7895.089	-19.99372	-12.07740	NaN	NaN
7899.092	NaN	NaN	NaN	NaN
7903.095	NaN	NaN	NaN	NaN
7907.093	NaN	NaN	NaN	NaN
7911.092	NaN	NaN	NaN	NaN
7915.090	NaN	NaN	NaN	NaN
7919.091	NaN	NaN	NaN	NaN
7923.091	NaN	NaN	NaN	NaN
7927.092	NaN	NaN	NaN	NaN
7931.093	NaN	NaN	NaN	NaN
7935.056	NaN	NaN	NaN	NaN
7939.051	NaN	NaN	NaN	NaN
7943.094	NaN	NaN	NaN	NaN
7947.094	NaN	NaN	NaN	NaN
7951.093	-14.70365	5.98893	-13.43740	8.46473
7955.091	-17.12482	4.44422	-14.73244	11.07532
7959.095	-11.35589	13.96704	-14.56511	11.37120
7963.095	-14.62466	3.26909	-15.54142	8.55965
7967.094	-8.41495	10.64089	-15.01955	7.44052
7971.119	-17.74427	6.70744	-15.84899	11.44934
7975.092	-18.39237	4.89382	-15.98544	6.92714
7979.094	-18.01370	2.49146	-15.93228	5.81954
7983.093	-17.90181	2.03632	-16.60098	3.82379
7987.117	-18.07596	2.19690	-15.82851	2.43787
7991.049	-17.27638	1.75736	-15.95810	2.46161
7995.093	-14.69311	1.61423	-15.93742	1.22455
7999.094	-14.52947	1.53686	-15.68610	2.29091
8003.114	-14.40025	1.49354	-14.82643	0.71219
8007.095	-13.88645	1.20811	-14.39688	0.41041
8011.093	-13.53146	0.95046	-13.86759	0.73695
8015.093	-13.53997	0.94234	-13.00368	0.20207
8019.112	-13.44392	1.11034	-13.01112	0.23654
8023.097	-13.45968	1.07650	-13.00042	-0.18793
8027.095	-13.40741	0.88143	-12.93901	-0.04817
8031.094	-13.38722	0.94826	-12.99682	0.15009
8035.114	-13.48688	0.79509	-12.77004	0.05232
8039.096	-13.35936	0.74076	-12.60384	0.19051
8043.095	-13.37449	0.77030	-12.61587	0.33253
8047.050	-13.25569	0.69063	-12.60245	0.28809
8051.086	-13.29191	0.73299	-12.71269	0.11689
8055.070	-13.38928	0.73934	-12.51884	0.27419
8059.072	-13.26636	0.76602	-12.49997	0.42365
8063.094	-13.34980	0.70893	-12.40576	0.36539
8067.118	-13.31095	0.69843	-12.50451	0.33672
8071.093	-13.36730	0.70515	-12.45206	0.45003
8075.095	-13.31967	0.70420	-12.42782	0.62288
8079.096	-13.26220	0.69958	-12.38741	0.67913
8083.117	-13.31490	0.79865	-12.47274	0.56477
8087.094	-13.14044	0.74075	-12.51108	0.48250
8091.096	-13.18981	0.73767	-12.45932	0.78242
8095.096	-13.34258	0.70943	-12.42886	0.77203
8099.120	-13.17572	0.70491	-12.50422	0.86717
8103.052	-13.28251	0.69116	-12.44652	0.66277
8107.098	-13.23488	0.74249	-12.56666	0.63770
8111.097	-13.24856	0.78618	-12.49888	0.87861
8115.118	-13.19433	0.77334	-12.43717	0.73447
8119.066	-13.27844	0.81669	-12.51191	0.59197
8123.095	-13.07504	0.74455	-12.55339	0.66863
8127.095	-13.19216	0.71352	-12.42316	0.98188
8131.118	-13.12952	0.59321	-12.33695	0.75206
8135.096	-13.23821	0.70734	-12.64761	0.64589
8139.096	-13.21364	0.58374	-12.52901	0.85101
8143.060	-13.22474	0.75186	-12.28927	0.82434
8147.088	-13.18249	0.77932	-12.51203	0.73566
8151.098	-13.11905	0.71618	-12.64936	0.81876
8155.094	-13.18195	0.72197	-12.83878	0.93192
8159.094	-13.25613	0.69675	-12.28946	0.63974
8163.117	-13.17574	0.71761	-12.51915	0.90704
8167.052	-13.17106	0.77539	-12.63319	0.80843
8171.096	-13.17136	0.77634	-12.76945	0.86758
8175.097	-13.19270	0.83509	-12.70555	0.99917
8179.120	-13.19383	0.83722	-12.64340	0.99122
8183.054	-13.16181	0.85513	-12.68160	1.03521
8187.097	-13.14696	0.84258	-12.62677	1.07300
8191.097	-13.09810	0.77855	-12.61233	1.13345
8195.116	-13.10304	0.82219	-12.62863	1.15827
8199.099	-13.10622	0.80096	-12.58446	1.03381
8203.096	-13.09431	0.70529	-12.61949	1.08348
8207.094	-13.14734	0.71387	-12.66965	1.17689
8211.092	-13.12912	0.61750	-12.59063	1.17846
8215.100	-13.15957	0.77562	-12.52092	1.20223
8219.098	-13.19433	0.76081	-12.47328	1.21967
8223.092	-13.16779	0.81929	-12.47652	1.19703
8227.110	-13.22803	0.81587	-12.43151	1.11425
8231.051	-13.24499	0.57399	-12.45293	1.04256
8235.052	-13.24621	0.75820	-12.47801	1.17158
8239.052	-13.26617	0.62173	-12.44119	1.41522
8243.120	-13.25910	0.63214	-12.57810	0.55738
8247.097	-13.38048	0.45989	-13.13112	-0.65367
8251.062	-13.44667	-0.39879	-13.59363	-0.93121
8255.098	-13.43810	-0.32437	-13.45226	-1.09286
8259.115	-13.46040	-0.93872	-13.74074	-1.45986
8263.094	-13.43838	-0.98050	-12.87088	-1.21072
8267.100	-13.51792	-1.12220	-13.24130	-1.39719
8271.097	-13.49699	-1.20688	-13.37214	-1.51325
8275.088	-13.51382	-1.12265	-13.45726	-1.49644
8279.099	-13.68577	-1.22742	-13.44409	-1.65605
8283.100	-13.57773	-1.24302	-13.45108	-1.33789
8287.097	-13.73217	-1.28310	-13.45954	-1.26272
8291.094	-13.69125	-1.37753	-13.45881	-1.48223
8295.097	-13.63590	-1.46701	-13.46369	-1.43013
8299.096	-13.61358	-1.47016	-13.40309	-1.49624
8303.098	-13.60875	-1.45911	-13.20277	-1.36878
8307.056	-13.57274	-1.48205	-13.43141	-1.39612
8311.093	-13.63663	-1.42573	-13.51217	-1.38333
8315.103	-13.57961	-1.42434	-13.38449	-1.35838
8319.098	-13.69443	-1.36818	-13.34815	-1.34842
8323.088	-13.60524	-1.30632	-13.31880	-1.32468
8327.097	-13.67325	-1.42660	-13.54253	-1.31912
8331.052	-13.67391	-1.35519	-13.47533	-1.47012
8335.097	-13.59856	-1.28791	-13.42103	-1.46944
8339.104	-13.61919	-1.24828	-13.38057	-1.61062
8343.099	-13.58113	-1.18607	-13.37566	-1.47597
8347.100	-13.56608	-1.21949	-13.48190	-1.59681
8351.101	-13.55137	-1.20151	-13.34199	-1.66635
8355.103	-13.57281	-1.24285	-13.34930	-1.71910
8359.100	-13.56716	-1.31080	-13.37270	-1.70041
8363.096	-13.53136	-1.30747	-13.38560	-1.84286
8367.064	-13.59823	-1.34764	-13.39591	-1.84722
8371.089	-13.57977	-1.27510	-13.35351	-1.76255
8375.099	-13.56983	-1.40151	-13.33377	-1.63775
8379.098	-13.57989	-1.35426	-13.35059	-1.66865
8383.100	-13.56810	-1.36895	-13.33690	-1.52930
8387.090	-13.60983	-1.34446	-13.26349	-1.67276
8391.080	-13.62488	-1.29902	-13.24287	-1.81560
8395.098	-13.65069	-1.37012	-13.28279	-1.66915
8399.101	-13.69216	-1.33303	-13.29906	-1.63794
8403.118	-13.68846	-1.36751	-13.36239	-1.66587
8407.099	-13.71512	-1.42794	-13.37270	-1.59586
8411.097	-13.72226	-1.38068	-13.29046	-1.58077
8415.060	-13.79697	-1.44569	-13.26958	-1.60479
8419.097	-13.78546	-1.31128	-13.27073	-1.60932
8423.101	-13.81713	-1.26510	-13.23156	-1.63520
8427.099	-13.85002	-1.28607	-13.20790	-1.63384
8431.055	-13.85870	-1.25781	-13.19868	-1.59938
8435.089	-13.91063	-1.25283	-13.15390	-1.55001
8439.097	-13.94490	-1.25992	-13.08858	-1.53719
8443.098	-13.94231	-1.27018	-13.03522	-1.52267
8447.102	-13.89430	-1.20294	-13.00902	-1.53916
8451.101	-13.90494	-1.20401	-12.97302	-1.55180
8455.099	-13.85880	-1.13041	-13.00933	-1.59734
8459.099	-13.87924	-1.12156	-13.11366	-1.59217
8463.101	-13.82403	-1.28185	-13.25870	-1.61416
8467.099	-13.77073	-1.19286	-13.27097	-1.67718
8471.100	-13.77218	-1.36102	-13.42047	-1.69362
8475.075	-13.75203	-1.19154	-13.31335	-1.79210
8479.101	-13.70416	-1.24221	-13.31022	-1.84155
8483.096	-13.70640	-1.20125	-13.37486	-1.84265
8487.102	-13.73933	-1.21015	-13.29840	-1.89990
8491.100	-13.78007	-1.38379	-13.32874	-1.89718
8495.076	-13.83365	-1.41151	-13.24471	-1.82982
8499.089	-13.87094	-1.34694	-13.24412	-1.84618
8503.100	-13.81474	-1.37722	-13.28623	-1.78551
8507.102	-13.80290	-1.49280	-13.31168	-1.78769
8511.102	-13.80393	-1.47201	-13.32872	-1.76413
8515.092	-13.85248	-1.39447	-13.28952	-1.76099
8519.097	-13.88123	-1.45561	-13.31605	-1.73330
8523.099	-13.90338	-1.44956	-13.35910	-1.70872
8527.103	-13.89690	-1.43285	-13.32110	-1.70814
8531.059	-13.87105	-1.44613	-13.46024	-1.66497
8535.099	-13.95827	-1.45563	-13.44338	-1.65304
8539.098	-13.99555	-1.43930	-13.47693	-1.70129
8543.099	-14.04178	-1.50779	-13.50912	-1.70775
8547.099	-14.00078	-1.53025	-13.50884	-1.77365
8551.099	-14.01447	-1.50568	-13.48411	-1.79481
8555.101	-14.08918	-1.47585	-13.45331	-1.79014
8559.066	-14.12207	-1.50538	-13.43143	-1.80426
8563.060	-14.08830	-1.53908	-13.39424	-1.78384
8567.100	-14.08183	-1.59746	-13.37707	-1.86350
8571.100	-14.12952	-1.65992	-13.58901	-2.04535
8575.100	-14.29193	-1.87286	-16.62076	-3.82176
8579.060	-14.30592	-3.20825	-14.13953	-4.24888
8583.101	-14.37194	-3.53949	-14.58671	-4.45760
8587.100	-14.46007	-3.90816	-14.41001	-4.73344
8591.101	-14.49162	-4.04408	-14.37967	-4.80316
8595.059	-14.93497	-4.13988	-14.40202	-5.29064
8599.102	-14.61241	-4.32453	-14.38272	-5.42996
8603.071	-14.60697	-4.37525	-14.54284	-5.25356
8607.104	-14.83017	-4.34235	-14.32733	-5.38252
8611.061	-14.90373	-4.44381	-14.44436	-5.49245
8615.099	-14.86629	-4.57078	-14.47845	-5.58669
8619.099	-14.87993	-4.44886	-14.54784	-5.40504
8623.103	-14.94354	-4.52317	-14.57285	-5.57684
8627.062	-14.88340	-4.67330	-14.40153	-5.67688
8631.057	-14.85178	-4.66606	-14.43857	-5.69124
8635.100	-14.98715	-4.69959	-14.44813	-5.80534
8639.099	-14.91546	-4.71189	-14.49702	-5.76911
8643.060	-15.01253	-4.70338	-14.50758	-5.70039
8647.101	-15.06089	-4.71411	-14.51581	-5.60341
8651.100	-15.03763	-4.74752	-14.74558	-5.76232
8655.100	-15.01283	-4.73732	-14.98127	-5.77116
8659.060	-15.02311	-4.74210	-15.00415	-5.74004
8663.102	-15.04276	-4.75997	-15.00908	-5.67907
8667.102	-15.02601	-4.83386	-14.89084	-5.70187
8671.098	-15.02709	-4.82976	-14.84366	-5.64669
8674.970	-15.06123	-4.86978	-14.84313	-5.65251
8679.100	-15.00378	-4.92815	-14.91071	-5.64581
8683.072	-15.07357	-4.94436	-14.93300	-5.70219
8687.101	-15.12206	-4.92054	-14.90044	-5.54651
8691.061	-15.12259	-4.89988	-14.89138	-5.52676
8695.101	-15.02527	-4.91024	-14.81293	-5.59179
8699.101	-15.06306	-4.85961	-14.77561	-5.52782
8703.101	-15.10517	-4.83431	-14.74170	-5.48698
8706.964	-15.11833	-4.87788	-14.70379	-5.54356
8711.103	-15.06748	-4.85110	-14.68740	-5.53778
8715.102	-15.06475	-4.78707	-14.68006	-5.56278
8719.102	-15.03918	-4.75015	-14.67676	-5.58705
8723.062	-15.01089	-4.71231	-14.67007	-5.54719
8727.099	-15.09453	-4.66971	-14.65883	-5.56931
8731.601	-14.93485	-4.68941	-14.65960	-5.52917
8735.103	-14.97159	-4.70532	-14.62521	-5.62153
8739.058	-15.01093	-4.66343	-14.61820	-5.67083
8743.102	-15.00471	-4.73569	-14.64756	-5.72257
8747.100	-14.97388	-4.74390	-14.67576	-5.74659
8751.103	-14.97532	-4.81917	-14.71231	-5.74637
8754.964	-15.02170	-4.84968	-14.79533	-5.70887
8759.103	-15.02212	-4.80859	-14.79099	-5.62141
8763.103	-15.05711	-4.83923	-14.91478	-5.75856
8767.067	-14.92961	-4.93318	-14.82012	-5.79928
8771.063	-15.07037	-4.96436	-14.80658	-5.64682
8775.102	-15.11021	-4.95518	-14.87751	-5.70042
8779.103	-15.14537	-4.89562	-14.90185	-5.70327
8783.102	-15.23242	-4.96513	-14.90442	-5.73806
8786.965	-15.25127	-4.86659	-14.86606	-5.65513
8791.104	-15.29877	-4.88117	-14.85197	-5.70544
8795.103	-15.38090	-4.89151	-14.85120	-5.65713
8799.099	-15.30187	-4.87644	-14.84044	-5.61937
8802.965	-15.27951	-4.89961	-14.87638	-5.65169
8807.103	-15.33331	-4.90143	-14.86075	-5.62720
8811.104	-15.30309	-4.83034	-14.95151	-5.61224
8815.102	-15.34460	-4.79783	-14.94363	-5.63334
8818.969	-15.38992	-4.77170	-14.92380	-5.65857
8823.104	-15.40062	-4.86166	-14.85271	-5.67158
8827.103	-15.33841	-4.86365	-14.86775	-5.68581
8831.102	-15.39052	-4.89124	-14.88716	-5.68278
8835.062	-15.38316	-4.89907	-14.90630	-5.67374
8839.103	-15.33426	-4.89581	-14.97319	-5.68119
8843.108	-15.29180	-4.85968	-14.98940	-5.67565
8847.098	-15.32869	-4.86737	-15.02017	-5.68577
8850.967	-15.34190	-4.87856	-15.10672	-5.81820
8855.105	-15.35976	-4.92155	-15.02135	-5.76472
8859.108	-15.34949	-4.94876	-15.03068	-5.71783
8863.104	-15.36313	-4.92537	-15.03994	-5.73179
8867.065	-15.28919	-4.91992	-14.91502	-5.70787
8871.102	-15.32445	-4.90599	-14.95691	-5.69039
8875.103	-15.28032	-4.95153	-14.97574	-5.66156
8879.104	-15.24847	-4.98231	-14.98977	-5.65508
8883.062	-14.96288	-4.82765	-13.72231	-5.67266
8887.105	-12.11574	-5.00292	-12.63764	-5.62290
8890.979	-10.37515	-5.01719	-11.45565	-5.59323
8894.979	-8.80994	-5.15681	-9.03425	-5.50762
8899.062	-7.30239	-5.24397	-8.29676	-5.47973
8902.981	-6.72499	-5.49443	-6.89602	-5.51619
8906.978	-6.66526	-5.63015	-6.24291	-5.55694
8910.980	-5.86497	-6.11480	-6.07339	-5.52600
8914.970	-4.90930	-6.38157	-5.10632	-5.52547
8918.982	-4.11974	-6.58775	-4.33757	-5.49009
8922.944	-4.15080	-6.76424	-3.08401	-5.56793
8926.980	-3.76391	-6.96639	-2.93772	-5.53818
8930.940	-3.61574	-6.88330	-2.65020	-5.74111
8934.938	-4.05006	-6.85113	-2.65082	-5.64071
8938.981	-3.63764	-7.05469	-2.87564	-5.67228
8942.979	-3.54759	-7.07003	-2.66887	-5.71861
8946.966	-3.60964	-7.11611	-2.60431	-5.78123
8950.979	-3.52212	-7.16879	-2.56285	-5.82658
8954.980	-3.73777	-7.13426	-2.47942	-5.88114
8958.980	-3.59214	-7.16608	-2.53171	-5.86074
8962.938	-3.51602	-7.16652	-2.47239	-5.91279
8966.980	-3.37796	-7.16623	-2.39116	-5.91140
8970.978	-3.56250	-7.16362	-2.41645	-6.03496
8974.980	-3.52259	-7.17728	-2.40422	-6.05856
8978.966	-3.63910	-7.20396	-2.29478	-6.11245
8982.980	-3.57832	-7.16809	-2.40580	-6.14084
8986.982	-3.56195	-7.19077	-2.31046	-6.18550
8990.978	-3.63367	-7.16629	-2.28246	-6.24206
8994.940	-3.62936	-7.17982	-2.31406	-6.27532
8998.981	-3.66654	-7.22622	-2.29654	-6.27454
9002.981	-3.69447	-7.20228	-2.24272	-6.32658
9006.980	-3.61226	-7.23791	-2.14597	-6.35149
9010.966	-3.66202	-7.24222	-2.25962	-6.38595
9014.979	-3.76228	-7.17320	-2.21100	-6.40421
9018.970	-3.70757	-7.15726	-2.21162	-6.42081
9022.980	-3.69943	-7.19675	-2.28737	-6.44992
9026.966	-3.75190	-7.14479	-2.40407	-6.46292
9030.941	-3.80962	-7.19238	-2.35206	-6.43549
9034.979	-3.69533	-7.20737	-2.38779	-6.43187
9038.980	-3.69877	-7.22989	-2.54071	-6.40380
9042.965	-3.73183	-7.18923	-2.44281	-6.41932
9046.980	-3.78573	-7.25910	-2.57627	-6.37879
9050.972	-3.80945	-7.27388	-2.57536	-6.40098
9054.983	-3.76319	-7.26609	-2.56453	-6.35717
9058.968	-3.58237	-7.32279	-2.55586	-6.37835
9062.950	-3.78388	-7.29364	-2.58455	-6.38061
9066.979	-3.45025	-7.34168	-2.61516	-6.37766
9070.980	-3.72538	-7.42046	-2.51277	-6.37483
9074.966	-3.69704	-7.39880	-2.43605	-6.33010
9078.981	-3.59463	-7.35624	-2.46352	-6.33331
9082.982	-3.68564	-7.35733	-2.49013	-6.37021
9086.981	-3.61211	-7.32102	-2.43907	-6.34610
9091.004	-3.61995	-7.32569	-2.46251	-6.35531
9094.986	-3.66731	-7.25304	-2.53288	-6.35799
9098.982	-3.71404	-7.25649	-2.55557	-6.37310
9102.970	-3.63856	-7.30585	-2.59524	-6.35908
9106.980	-3.65940	-7.36882	-2.66214	-6.28272
9110.982	-3.71177	-7.29711	-2.37726	-6.47101
9114.982	-3.82188	-7.34710	-2.50068	-6.33936
9118.987	-3.74889	-7.36945	-2.72976	-6.53120
9123.004	-3.75284	-7.36556	-2.54702	-6.49863
9126.983	-3.75047	-7.39418	-2.51435	-6.38821
9130.938	-3.69209	-7.40840	-2.29089	-6.49759
9134.982	-3.78444	-7.41753	-2.36799	-6.47601
9138.977	-3.76057	-7.41368	-2.27533	-6.58802
9142.988	-3.79747	-7.46013	-2.07693	-6.63832
9146.945	-3.88495	-7.48253	-2.17953	-6.58815
9150.980	-3.98410	-7.50160	-2.23244	-6.58735
9155.003	-3.86993	-7.49674	-2.28762	-6.55152
9158.984	-3.89384	-7.48793	-2.25652	-6.59092
9162.983	-3.84752	-7.44593	-2.25813	-6.56883
9166.992	-3.72862	-7.46956	-2.41066	-6.57812
9170.967	-3.78716	-7.47628	-2.53506	-6.62237
9174.956	-3.79680	-7.44378	-2.83019	-6.62830
9178.983	-3.84562	-7.44260	-2.51591	-6.69479
9182.982	-3.72071	-7.47575	-2.23519	-6.68982
9187.002	-3.78012	-7.44850	-2.39227	-6.65749
9190.985	-3.88478	-7.42405	-2.31121	-6.66906
9194.982	-3.79734	-7.39064	-2.55742	-6.67670
9198.983	-3.80028	-7.41786	-2.85036	-6.68237
9202.974	-3.66340	-7.41797	-2.81538	-6.62699
9206.984	-3.65171	-7.41824	-2.43818	-6.62282
9210.982	-3.77305	-7.41750	-2.27372	-6.62967
9214.983	-3.79408	-7.38323	-2.37694	-6.60117
9219.004	-3.93105	-7.39083	-2.28581	-6.62310
9222.984	-3.93727	-7.41016	-2.35838	-6.55879
9226.976	-4.09098	-7.36693	-2.31916	-6.54072
9230.972	-3.92628	-7.43120	-2.52674	-6.56469
9234.979	-3.97869	-7.41918	-2.62293	-6.54857
9238.984	-3.78976	-7.43579	-2.70597	-6.52300
9242.983	-3.89960	-7.43138	-2.62771	-6.54073
9246.983	-3.84599	-7.41403	-2.48911	-6.52474
9251.005	-3.95975	-7.43068	-2.62261	-6.49665
9254.983	-3.86916	-7.41324	-2.69190	-6.50033
9258.984	-3.80913	-7.44460	-2.70218	-6.49792
9262.984	-3.70591	-7.48145	-2.74947	-6.53112
9267.009	-3.78207	-7.45475	-2.65114	-6.54671
9270.991	-3.78573	-7.48826	-2.77473	-6.53088
9274.941	-3.70596	-7.45905	-2.61781	-6.47616
9278.983	-3.70074	-7.44524	-2.59695	-6.48487
9283.006	-3.78694	-7.41829	-2.52532	-6.49557
9286.984	-3.72966	-7.39870	-2.48668	-6.44343
9290.986	-3.77827	-7.29571	-2.47385	-6.35734
9294.941	-3.69175	-7.24364	-2.63068	-6.32516
9298.982	-3.82502	-6.03204	-2.67526	-4.50553
9302.976	-4.05789	-3.52050	-3.39695	-2.94781
9306.983	-4.18966	-1.83666	-4.27528	-0.14984
9310.966	-4.38975	-0.32895	-4.88762	0.27143
9314.963	-4.79782	0.82415	-4.80310	2.26940
9318.985	-5.14345	1.75424	-5.15404	2.88242
9322.985	-5.17361	3.34947	-5.05715	6.15832
9326.985	-5.55620	4.19772	-5.27356	6.00425
9331.005	-6.10666	4.62078	-5.25165	7.63156
9334.990	-6.74562	5.12371	-5.28542	6.78077
9338.984	-6.62716	5.23957	-5.32176	7.12169
9342.985	-6.35118	5.17340	-5.32988	7.18980
9347.009	-6.28013	5.28409	-5.37967	7.00823
9350.988	-6.62126	4.98202	-5.40260	6.92078
9354.988	-6.68849	5.16605	-5.42392	6.83549
9358.941	-6.57502	5.16824	-5.49470	7.38849
9362.981	-6.78145	5.28864	-5.49202	7.35201
9366.953	-6.93362	5.40583	-5.55475	7.43552
9370.985	-6.89793	5.42085	-5.55718	7.24869
9374.985	-6.88399	5.41035	-5.64026	7.30697
9378.988	-6.83012	5.41143	-5.65626	7.45943
9382.986	-6.81882	5.38905	-5.66693	7.49507
9386.984	-6.75783	5.41771	-5.68556	7.59862
9390.986	-6.85527	5.42386	-5.69217	7.68260
9394.985	-6.89578	5.48410	-5.72433	7.63875
9398.988	-6.85270	5.46521	-5.78010	7.66213
9402.984	-6.83783	5.45234	-5.83891	7.59322
9406.986	-6.85456	5.37325	-5.74451	7.60152
9410.992	-6.86944	5.39233	-5.74566	7.59713
9414.942	-6.87822	5.30008	-5.82862	7.58199
9418.987	-6.89311	5.31874	-5.81376	7.54487
9422.989	-6.87758	5.33332	-5.82105	7.62129
9426.991	-6.85542	5.31226	-5.77775	7.47052
9430.942	-6.92175	5.28276	-5.69114	7.25169
9434.974	-6.88888	5.21639	-5.70345	7.38459
9438.975	-6.89358	5.14555	-5.77696	7.43976
9442.988	-6.88485	5.18568	-5.81744	7.19837
9446.991	-6.90163	5.21295	-5.70278	7.41008
9450.987	-6.91170	5.17935	-5.83756	7.27560
9454.986	-6.82985	5.16031	-5.82732	7.26230
9458.987	-6.81798	5.14328	-5.87192	7.25093
9462.989	-6.80137	5.15340	-5.83957	7.45202
9466.987	-6.79405	5.15042	-5.72804	7.52636
9470.988	-6.80619	5.14343	-5.76006	7.46801
9474.988	-6.78155	5.16144	-5.79433	7.63075
9478.979	-6.78152	5.20652	-5.80953	7.69334
9482.993	-6.77502	5.26713	-5.78055	7.64648
9486.988	-6.79168	5.21038	-5.68357	7.75201
9490.987	-6.76865	5.18914	-5.76947	7.75275
9494.980	-6.75147	5.20618	-5.83655	7.61550
9498.988	-6.76525	5.22566	-5.92179	7.60188
9502.983	-6.77986	5.28122	-5.83562	7.59943
9506.987	-6.79349	5.28244	-5.85671	7.50805
9510.990	-6.79723	5.29099	-5.99451	7.56308
9514.988	-6.79437	5.26423	-6.03341	7.54132
9518.968	-6.77964	5.13899	-5.93269	7.51870
9522.990	-6.76963	5.20479	-5.98081	7.38834
9526.980	-6.76633	5.21322	-5.89333	7.13097
9530.943	-6.83560	5.23936	-5.88982	7.23306
9534.986	-6.81096	5.17654	-5.80754	7.30194
9538.989	-6.90931	5.22615	-5.93458	7.24491
9542.986	-6.82246	5.21092	-5.81931	7.22684
9546.987	-6.89483	5.13201	-5.87526	7.28725
9550.986	-6.88595	5.19874	-5.84640	7.40427
9554.993	-6.86535	5.19451	-5.80312	7.11454
9558.988	-6.91816	5.17783	-5.64656	7.18918
9562.983	-6.86087	5.19637	-5.66651	7.16299
9566.984	-6.81255	5.23579	-5.59863	7.15944
9570.991	-6.87898	5.21802	-5.66410	7.07164
9574.989	-6.82229	5.23417	-5.69556	7.30423
9578.989	-7.01553	5.26934	-6.75230	7.08986
9582.988	-8.55758	4.98384	-8.71695	6.83223
9586.992	-10.90789	4.20442	-10.59308	5.27019
9590.987	-11.19619	2.20153	-10.89513	2.63660
9594.988	-11.25075	1.91499	-11.17725	2.50223
9598.986	-11.39341	1.63982	-11.20426	2.25428
9602.966	-11.38652	0.62437	-11.27999	1.80559
9606.944	-11.24091	0.28145	-11.36179	1.45998
9610.943	-11.14087	0.34759	-10.86222	1.06560
9614.987	-11.24667	0.32024	-11.10758	1.22556
9618.989	-11.17577	0.24656	-10.87345	0.95851
9622.989	-11.31822	0.28138	-11.01617	0.94300
9626.987	-11.22749	0.37298	-11.01158	0.76649
9630.944	-11.27371	0.33286	-11.10319	0.83912
9634.948	-11.34726	0.45071	-11.18348	0.85655
9638.990	-11.27314	0.34605	-11.10625	0.70139
9642.976	-11.27667	0.31841	-11.08046	0.70479
9646.988	-11.27758	0.34202	-10.98269	0.57097
9650.947	-11.38189	0.35549	-10.88812	0.54641
9654.987	-11.51347	0.38578	-10.76772	0.63006
9658.988	-11.51325	0.41320	-10.85172	0.61117
9662.989	-11.41376	0.40550	-10.93136	0.63750
9666.947	-11.46096	0.38130	-10.88221	0.67499
9670.990	-11.45875	0.32885	-10.99946	0.69879
9674.990	-11.46213	0.28971	-11.01845	0.71852
9678.986	-11.48077	0.16528	-11.04704	0.67546
9682.949	-11.46842	0.22256	-10.99721	0.81523
9686.990	-11.42792	0.27769	-10.86543	0.90167
9690.987	-11.43576	0.23423	-10.86897	0.94869
9694.989	-11.47500	0.21654	-10.89779	0.95589
9698.946	-11.40362	0.18824	-10.96483	0.91619
9702.988	-11.34583	0.14582	-10.98831	0.94324
9706.989	-11.38659	0.13405	-11.03994	0.88314
9710.987	-11.40689	0.16315	-10.88702	0.89731
9714.948	-11.38888	0.18080	-10.76609	0.93721
9718.988	-11.39966	0.20727	-10.84269	0.85943
9722.992	-11.41178	0.39769	-10.90705	0.90210
9726.976	-11.41089	0.32293	-10.88714	0.83173
9730.948	-11.41998	0.27989	-10.89638	0.76444
9734.988	-11.43369	0.24543	-10.71092	0.70828
9738.989	-11.44516	0.31257	-10.81674	0.84005
9742.988	-11.43686	0.27247	-10.73931	0.94561
9746.884	-11.41669	0.26742	-10.61167	0.94855
9750.989	-11.43741	0.33401	-10.52919	0.93210
9754.990	-11.44127	0.36345	-10.44540	0.93509
9758.988	-11.44144	0.35753	-10.61677	0.96670
9762.994	-11.39465	0.41349	-10.49356	1.02869
9766.988	-11.38263	0.37322	-10.75488	0.93958
9770.992	-11.40622	0.26806	-10.72170	1.02597
9774.946	-11.39170	0.29090	-10.52768	1.13459
9778.994	-11.39663	0.23441	-10.44907	1.12785
9782.988	-11.31698	0.24948	-10.41431	0.99936
9786.990	-11.30035	0.24850	-10.44813	0.93820
9790.991	-11.39687	0.18167	-10.45005	0.93988
9794.994	-11.29906	0.31507	-10.39052	0.92122
9798.991	-11.36274	0.20001	-10.61831	0.91288
9802.954	-11.32753	0.24175	-10.48725	0.96571
9806.989	-11.36463	0.21151	-10.38075	1.03231
9810.995	-11.39380	0.16460	-10.39916	0.94754
9814.989	-11.36319	0.18137	-10.54353	0.96124
9818.993	-11.32684	0.22830	-10.47758	0.95822
9822.994	-11.30166	0.27905	-10.37395	0.93772
9826.995	-11.31600	0.31412	-10.56577	0.90617
9830.990	-11.37867	0.30263	-10.46837	1.00017
9834.993	-11.31491	0.37121	-10.36730	1.25292
9838.990	-11.38905	0.38736	-10.29596	1.20166
9842.995	-11.41559	0.42096	-10.46505	1.17329
9846.991	-11.43750	0.41716	-10.51669	1.09353
9850.992	-11.41450	0.45375	-10.44701	1.08024
9854.982	-11.39859	0.48654	-10.31465	1.19624
9858.886	-11.39206	0.50562	-10.50952	0.97649
9862.991	-11.36706	0.36725	-10.37436	0.79236
9866.982	-11.20863	0.18111	-10.41496	0.74547
9870.991	-11.07052	-0.13405	-10.38368	0.62452
9874.993	-11.02153	-0.32708	-10.21426	0.67171
9878.990	-11.12675	-0.24311	-10.28897	0.53015
9882.992	-10.93098	-0.44267	-10.29517	0.36808
9886.991	-10.91818	-0.46846	-10.25653	0.35920
9890.995	-11.07879	-0.48764	-10.26191	0.24119
9894.991	-11.00807	-0.35553	-10.24230	0.30344
9898.992	-11.08555	-0.54261	-10.32993	0.34423
9902.990	-11.04441	-0.60017	-10.27244	0.27162
9906.993	-11.00252	-0.66859	-10.36226	0.26891
9910.989	-10.95997	-0.62427	-10.36610	0.28789
9914.992	-10.96368	-0.63002	-10.45010	0.23122
9918.993	-11.01572	-0.64373	-10.36579	0.21354
9922.855	-11.07826	-0.68595	-10.33807	0.23047
9926.870	-11.07828	-0.71808	-10.39991	0.22969
9930.949	-11.07140	-0.65748	-10.38082	0.19036
9934.868	-11.05577	-0.74589	-10.38166	0.09056
9938.855	-11.15477	-0.76626	-10.33125	0.16941
9942.868	-11.15690	-0.77486	-10.30901	0.22336
9946.869	-11.01854	-0.69189	-10.29032	0.25894
9950.865	-11.17273	-0.66610	-10.33951	0.30009
9954.993	-11.05677	-0.73984	-10.35748	0.20252
9958.866	-11.11908	-0.71345	-10.28289	0.25284
9962.869	-11.11578	-0.70685	-10.29769	0.32338
9966.868	-11.03612	-0.63747	-10.14040	0.37144
9970.888	-11.03600	-0.58916	-10.10237	0.38369
9974.868	-11.02720	-0.61925	-10.42072	0.28032
9978.823	-11.00173	-0.60598	-10.16021	0.23430
9982.845	-11.03408	-0.61201	-10.13893	0.27374
9986.858	-10.98403	-0.53267	-10.42713	0.20519
9990.867	-10.99944	-0.56292	-10.35745	0.12393
9994.860	-10.98721	-0.58467	-10.22803	0.19106
9998.866	-10.98683	-0.58682	-10.18808	0.32349
10002.886	-11.01687	-0.62095	-10.20202	0.10922
10006.866	-10.98903	-0.61196	-10.25266	0.13613
10010.870	-11.02368	-0.66040	-10.27318	0.19668
10014.868	-11.06798	-0.70036	-10.23360	0.17915
10018.892	-11.11819	-0.68880	-10.18654	0.24653
10022.856	-11.16796	-0.67925	-10.17096	0.30451
10026.871	-11.23633	-0.67322	-10.17538	0.34163
10030.824	-11.22258	-0.69728	-10.16112	0.38741
10034.888	-11.22437	-0.71636	-10.14561	0.39780
10038.867	-11.21926	-0.72734	-10.17923	0.39942
10042.867	-11.15124	-0.70035	-10.16514	0.28297
10046.865	-11.24008	-0.72144	-10.18829	0.36739
10050.887	-11.24127	-0.71934	-10.16105	0.34884
10054.867	-11.24144	-0.58714	-10.25968	0.25532
10058.869	-11.20221	-0.65253	-10.25459	0.30817
10062.870	-11.16349	-0.70371	-10.21346	0.28923
10066.858	-11.21142	-0.69989	-10.29017	0.16276
10070.872	-11.17539	-0.59017	-10.44415	0.14772
10074.868	-11.18929	-0.70170	-10.26588	0.26600
10078.870	-11.16848	-0.73171	-10.31804	0.20318
10082.890	-11.15905	-0.73314	-10.34523	0.08135
10086.867	-11.21694	-0.58426	-10.46426	0.20389
10090.869	-11.16688	-0.58390	-10.45224	0.15505
10094.870	-11.13391	-0.56739	-10.45149	0.05916
10098.868	-11.00611	-0.77328	-10.37650	0.12483
10102.871	-11.07183	-0.76160	-10.35207	0.10775
10106.850	-11.07142	-0.60799	-10.49054	0.05854
10110.871	-11.01873	-0.59305	-10.40956	0.09185
10114.890	-11.03973	-0.65753	-10.38651	0.00328
10118.874	-11.01512	-0.72126	-10.40994	-0.10551
10122.869	-11.06203	-0.87174	-10.43172	-0.08292
10126.871	-11.11542	-0.73472	-10.44674	0.01102
10130.854	-11.08218	-0.76611	-10.34689	-0.01061
10134.869	-11.09384	-0.83037	-10.21988	-0.03910
10138.868	-11.14058	-0.71805	-9.94931	-0.06457
10142.872	-11.09489	-0.74403	-10.16968	-0.20487
10146.891	-11.12935	-0.73527	-10.41246	-0.17785
10150.862	-11.12706	-0.72750	-10.47811	-0.14683
10154.869	-11.17061	-0.71669	-10.41314	-0.17316
10158.871	-11.14479	-0.73718	-10.44528	-0.14658
10162.887	-11.16896	-0.74774	-10.41316	-0.07569
10166.871	-11.13031	-0.71491	-10.48502	-0.06822
10170.825	-11.06569	-0.73184	-10.55999	-0.08130
10174.870	-11.10429	-0.76939	-10.42329	-0.09221
10178.888	-11.09571	-0.72726	-10.50901	-0.09529
10182.869	-11.10402	-0.74972	-10.49570	-0.10020
10186.872	-11.10837	-0.69919	-10.50400	-0.07134
10190.871	-11.06569	-0.67054	-10.43203	-0.05758
10194.892	-11.07114	-0.70352	-10.30170	-0.05137
10198.871	-11.11337	-0.75713	-10.41400	-0.12403
10202.871	-11.14039	-0.79674	-10.36619	-0.13021
10206.874	-11.10168	-0.71847	-10.29166	-0.11814
10210.893	-11.13004	-0.73722	-10.17502	-0.11239
10214.870	-11.14407	-0.74449	-10.26739	-0.27789
10218.870	-11.07824	-0.67534	-10.30425	-0.12359
10222.872	-11.11573	-0.76219	-10.29642	-0.02313
10226.887	-11.08904	-0.76282	-10.28179	-0.01736
10230.826	-11.07711	-0.82829	-10.40010	-0.31653
10234.866	-11.09922	-0.80787	-10.34492	-0.16914
10238.874	-11.08627	-0.80991	-10.35260	-0.02919
10242.867	-11.08772	-0.81207	-10.33807	-0.06923
10246.870	-10.97373	-0.85649	-10.35544	-0.11117
10250.870	-11.02789	-0.81056	-10.40735	-0.07061
10254.873	-10.96595	-0.85373	-10.44201	0.01821
10258.892	-11.02598	-0.81505	-10.40939	0.05257
10262.868	-11.01809	-0.84916	-10.44240	-0.10777
10266.870	-10.94330	-0.82038	-10.42401	-0.10123
10270.874	-10.89106	-0.84955	-10.42730	-0.12879
10274.860	-10.94112	-0.76374	-10.38195	-0.07264
10278.870	-10.96736	-0.79602	-10.36764	-0.01129
10282.871	-10.92849	-0.74255	-10.52965	-0.09460
10286.873	-10.96050	-0.68766	-10.63902	-0.11527
10290.869	-10.97547	-0.63648	-10.51168	-0.15246
10294.829	-10.96200	-0.67488	-10.43073	-0.12495
10298.872	-11.00852	-0.70192	-10.54349	-0.14846
10302.838	-10.96337	-0.71683	-10.52933	-0.13901
10306.869	-11.01017	-0.78127	-10.40579	-0.07303
10310.872	-11.00764	-0.77008	-10.34360	0.01276
10314.872	-11.04900	-0.73408	-10.45848	0.09672
10318.874	-10.99482	-0.72746	-10.50486	0.08441
10322.894	-10.96775	-0.70304	-10.46563	0.10539
10326.875	-10.96923	-0.73989	-10.74992	-0.00347
10330.880	-10.99719	-0.63665	-10.47751	0.01666
10334.876	-10.93880	-0.67513	-10.44086	0.48674
10338.892	-11.04513	-0.11275	-10.60279	0.78787
10342.871	-11.07986	1.76082	-10.89858	3.37842
10346.871	-11.23716	4.30215	-10.93260	5.68519
10350.874	-11.99343	5.66778	-10.88039	8.54683
10354.889	-12.15514	6.73550	-10.70735	9.63487
10358.865	-11.87553	8.28061	-10.72460	11.57511
10362.873	-11.78830	9.07986	-10.72158	11.50275
10366.860	-12.18042	9.39250	-10.89310	13.97328
10370.895	-12.58368	10.82041	-11.01720	14.44930
10374.873	-13.10259	12.13416	-11.07929	14.49242
10378.873	-12.85996	11.13635	-11.13862	14.66964
10382.875	-13.47012	11.19808	-11.06165	14.14611
10386.895	-13.01432	10.52433	-11.01615	14.08903
10390.873	-12.65193	10.13865	-11.09649	14.12711
10394.872	-12.92184	10.45545	-11.11444	14.43378
10398.843	-13.00836	10.39051	-11.23108	14.53711
10402.839	-13.20124	10.79972	NaN	NaN
10406.872	-13.21521	10.48606	-11.18317	14.53519
10410.873	-13.30863	11.35722	-11.11915	14.58262
10414.829	-13.26904	10.93926	-11.09203	14.65387
10418.876	-13.10318	10.82811	NaN	NaN
10422.875	-12.87768	10.08288	-11.08627	14.53510
10426.878	-12.91465	10.43391	-11.25452	14.45511
10430.830	-12.79588	10.09626	-11.26185	14.35453
10434.877	-12.97757	10.67025	-11.45651	14.42535
10438.861	-12.78779	10.70466	NaN	NaN
10442.873	-12.73748	10.20594	-11.03657	14.37472
10446.873	-12.70005	10.30478	-11.03922	14.37267
10450.876	-12.65304	9.98647	-11.21995	14.10274
10454.874	-12.63941	10.08588	-11.30736	14.22041
10458.873	-12.62058	10.39017	-11.35609	14.00823
10462.874	-12.72617	10.96294	-11.23714	13.85528
10466.877	-12.78538	10.47640	-11.34411	13.76698
10470.872	-12.89079	10.80248	-11.25326	13.85525
10474.873	-12.88409	10.89748	-11.29006	13.97490
10478.875	-12.93601	11.36946	-11.40109	13.96062
10482.865	-12.92041	10.74240	-11.36692	13.80159
10486.829	-12.97059	11.07302	-11.59701	13.87885
10490.875	-13.00297	11.11815	-11.48063	13.82479
10494.874	-13.00749	11.07734	-11.61813	14.00217
10498.874	-13.05618	11.17771	-11.10895	13.77635
10502.874	-13.03044	11.10566	-11.48997	13.96228
10506.874	-13.03998	11.31109	-11.56283	14.08353
10510.876	-13.06864	11.37965	NaN	NaN
10514.878	-12.97448	11.46489	-11.46311	14.14701
10518.873	-12.98803	11.12668	-11.41585	14.09987
10522.856	-12.97403	10.93465	-11.38581	14.03575
10526.876	-12.90664	9.26835	-11.22759	13.93661
10530.835	-12.92741	10.86504	-11.12402	14.06813
10534.871	-12.88072	10.27929	-11.17467	13.94382
10538.874	-12.82049	10.16212	-11.10691	14.03609
10542.874	-12.84392	11.45192	-11.10706	14.11784
10546.876	-12.92041	10.91299	-11.12861	14.17012
10550.872	-12.86480	10.13943	-11.11638	14.21758
10554.874	-12.78321	10.61027	-11.12182	14.31539
10558.872	-12.77917	10.48361	-11.13372	14.32163
10562.833	-12.80034	10.38947	-11.14720	14.19139
10566.864	-12.74303	10.41152	-11.16275	14.38098
10570.874	-12.78351	10.56270	-11.17503	14.46763
10574.873	-12.74253	10.59457	-11.21133	14.27497
10578.833	-12.77126	11.01634	-11.24929	14.48447
10582.876	-12.85657	11.25721	NaN	NaN
10586.872	-12.90902	10.72188	NaN	NaN
10590.875	-12.91057	11.23837	-11.27598	14.41015
10594.833	-12.88011	10.67804	-11.18754	14.33874
10598.874	-12.89006	10.81763	-11.15838	14.10032
10602.878	-12.91630	10.78065	-11.22396	13.78179
10606.856	-12.90168	10.77568	-11.25388	13.64438
10610.834	-12.95694	11.02551	-11.17247	14.09386
10614.873	-13.04938	11.05858	-11.10378	14.33860
10618.874	-12.91536	10.96998	-11.16017	14.11874
10622.873	-12.92128	10.84365	-11.03138	13.61576
10626.834	-12.94165	10.84995	-11.17605	14.14150
10630.830	-12.88777	10.89751	-11.10914	13.95024
10634.872	-12.94714	10.86838	-11.10656	13.85041
10638.875	-12.96437	10.81647	-11.02091	14.23951
10642.835	-12.86904	10.91545	-10.96186	14.17007
10646.849	-12.93601	10.89179	-11.02132	14.13543
10650.868	-12.90871	10.94188	-11.10295	13.84584
10654.873	-12.94539	11.00993	-11.05144	13.67751
10658.833	-12.94799	10.96265	-11.10154	13.65029
10662.874	-12.93323	10.80527	-11.01933	13.99008
10666.875	-13.00177	10.70624	-11.16626	13.81244
10670.832	-12.87728	10.32218	-11.03874	13.96912
10674.880	-12.80964	10.06784	-11.14070	13.72579
10678.873	-12.79052	10.30887	-11.01316	13.60226
10682.873	-12.59155	9.35956	-11.01821	13.82660
10686.875	-12.63043	10.05092	-11.03683	13.45345
10690.835	-12.67872	10.58880	-11.10426	13.33748
10694.874	-12.74404	10.77090	-11.10436	13.40157
10698.877	-12.72907	10.91840	-11.12159	13.39523
10702.875	-12.68848	10.09319	-11.05804	13.41883
10706.834	-12.78000	10.44723	-10.90834	13.65960
10710.876	-12.75115	10.03027	-10.79674	13.39093
10714.877	-12.73703	9.72025	-10.88927	13.30105
10718.876	-12.63419	9.70721	-11.11220	13.04748
10722.836	-12.67305	10.21244	-11.15867	13.15571
10726.876	-12.72756	11.01768	-10.87244	13.30112
10730.832	-12.75233	11.00901	-11.10914	13.35172
10734.877	-12.46114	11.00760	NaN	NaN
10738.834	-11.41330	11.31202	NaN	NaN
10742.874	-10.70711	12.37596	NaN	NaN
10746.875	NaN	NaN	NaN	NaN
10750.875	NaN	NaN	NaN	NaN
10754.834	-10.98401	14.80711	NaN	NaN
10758.874	-10.97021	13.24107	NaN	NaN
10762.875	-11.28314	14.37844	NaN	NaN
10766.876	NaN	NaN	NaN	NaN
10770.746	-11.04809	14.57763	NaN	NaN
10774.866	-10.98896	14.58059	NaN	NaN
10778.876	-10.90468	14.63351	NaN	NaN
10782.877	-10.88068	14.00474	NaN	NaN
10786.835	-10.84054	14.52442	NaN	NaN
10790.876	-10.87675	14.66826	NaN	NaN
10794.875	NaN	NaN	NaN	NaN
10798.877	-10.83536	14.47909	NaN	NaN
10802.837	NaN	NaN	NaN	NaN
10806.875	NaN	NaN	NaN	NaN
10810.876	-10.78034	14.32944	NaN	NaN
10814.848	-10.92110	14.56857	NaN	NaN
10818.741	NaN	NaN	NaN	NaN
10822.876	-10.83644	14.67506	NaN	NaN
10826.877	-10.84944	14.69537	NaN	NaN
10830.880	-10.67581	14.79975	NaN	NaN
10834.838	-10.66927	13.67080	NaN	NaN
10838.877	NaN	NaN	NaN	NaN
10842.877	NaN	NaN	NaN	NaN
10846.877	-10.67703	14.11772	NaN	NaN
10850.842	-10.77648	14.25019	NaN	NaN
10854.866	NaN	NaN	NaN	NaN
10858.832	-10.74487	14.58268	NaN	NaN
10862.875	NaN	NaN	NaN	NaN
10866.740	NaN	NaN	NaN	NaN
10870.876	-10.69345	13.93814	NaN	NaN
10874.877	-10.78853	13.82009	NaN	NaN
10878.877	-10.70790	14.16725	NaN	NaN
10882.740	-10.72479	14.12298	NaN	NaN
10886.874	NaN	NaN	NaN	NaN
10890.878	-10.75426	14.24493	NaN	NaN
10894.879	-10.73480	13.83176	NaN	NaN
10898.740	-10.71614	14.31201	NaN	NaN
10902.834	-10.68796	14.27183	NaN	NaN
10906.879	-10.77179	14.29396	NaN	NaN
10910.878	-10.85064	14.41041	NaN	NaN
10914.837	-11.71818	14.20676	NaN	NaN
10918.879	-12.39475	14.29095	NaN	NaN
10922.881	-12.63747	14.27786	NaN	NaN
10926.878	-12.49767	14.27964	NaN	NaN
10930.851	-12.47110	13.41204	NaN	NaN
10934.879	-12.55202	14.17852	NaN	NaN
10938.878	-12.45326	14.29279	NaN	NaN
10942.878	-12.34787	14.20299	NaN	NaN
10946.738	NaN	NaN	NaN	NaN
10950.878	-12.49469	14.02653	NaN	NaN
10954.880	-12.34005	13.58240	NaN	NaN
10958.880	-12.36996	13.99164	NaN	NaN
10962.740	-12.46446	13.97598	NaN	NaN
10966.878	-12.56016	14.00092	NaN	NaN
10970.754	NaN	NaN	NaN	NaN
10974.753	-12.38138	13.95243	NaN	NaN
10978.833	-12.48748	13.91279	NaN	NaN
10982.754	-12.55677	13.72400	NaN	NaN
10986.756	-12.44463	13.46365	NaN	NaN
10990.753	-12.44732	13.22686	NaN	NaN
10994.744	-12.45412	13.95931	NaN	NaN
10998.755	NaN	NaN	NaN	NaN
11002.755	-12.61164	13.77822	NaN	NaN
11006.755	-12.56153	13.63105	NaN	NaN
11010.713	-12.49228	13.72030	NaN	NaN
11014.755	-12.61902	13.86068	NaN	NaN
11018.755	NaN	NaN	NaN	NaN
11022.754	-12.50633	13.07779	NaN	NaN
11026.742	NaN	NaN	NaN	NaN
11030.714	-12.37861	13.82375	NaN	NaN
11034.753	-12.42302	13.88650	NaN	NaN
11038.755	NaN	NaN	NaN	NaN
11042.713	-12.44138	13.92657	NaN	NaN
11046.755	-12.43871	13.79166	NaN	NaN
11050.750	-12.48329	13.54492	NaN	NaN
11054.755	-12.65290	13.71365	NaN	NaN
11058.739	NaN	NaN	NaN	NaN
11062.753	-12.44962	13.75661	NaN	NaN
11066.764	-12.47792	13.74214	NaN	NaN
11070.719	-12.26687	11.35106	NaN	NaN
11074.739	-12.51610	14.11101	NaN	NaN
11078.754	-12.38266	12.66187	NaN	NaN
11082.755	-12.26168	12.93320	NaN	NaN
11086.753	-12.38474	13.32366	NaN	NaN
11090.740	-12.38907	13.73759	NaN	NaN
11094.755	NaN	NaN	NaN	NaN
11098.755	NaN	NaN	NaN	NaN
11102.754	-12.10696	12.98175	NaN	NaN
11106.741	-11.91942	14.26103	NaN	NaN
11110.711	NaN	NaN	NaN	NaN
11114.754	NaN	NaN	NaN	NaN
11118.756	NaN	NaN	NaN	NaN
11122.775	NaN	NaN	NaN	NaN
11126.754	NaN	NaN	NaN	NaN
11130.716	NaN	NaN	NaN	NaN
11134.756	NaN	NaN	NaN	NaN
11138.754	NaN	NaN	NaN	NaN
11142.715	NaN	NaN	NaN	NaN
11146.754	NaN	NaN	NaN	NaN
11150.746	NaN	NaN	NaN	NaN
11154.747	NaN	NaN	NaN	NaN
11158.711	NaN	NaN	NaN	NaN
11162.752	NaN	NaN	NaN	NaN
11166.753	NaN	NaN	NaN	NaN
11170.754	NaN	NaN	NaN	NaN
11174.709	NaN	NaN	NaN	NaN
11178.755	NaN	NaN	NaN	NaN
11182.755	NaN	NaN	NaN	NaN
11186.758	-4.00262	11.21909	-4.22508	11.15636
11190.760	-3.91210	13.35459	-13.66226	0.62318
11194.726	-2.32367	0.78638	-15.42124	1.42835
11198.725	-3.65804	-0.91650	-10.61986	-2.58955
11202.757	-12.52163	-1.53170	-4.30391	-2.96232
11206.757	-3.33673	-4.76873	-4.19064	-3.41535
11210.756	-2.87606	-4.58933	-4.48895	-3.22665
11214.775	-3.39401	-4.23514	-4.08409	-3.52846
11218.757	-3.79749	-4.73709	-4.08604	-3.94445
11222.760	-8.00233	-4.23737	-11.01326	-3.47139
11226.756	-9.50812	-3.93217	-9.90214	-3.48639
11230.783	-8.79918	-4.19136	-8.79443	-3.33706
11234.714	-9.33321	-3.69670	-8.55872	-3.07535
11238.716	-8.66069	-3.26110	-8.51867	-3.42577
11242.757	-8.22837	-3.64608	-8.67282	-3.37959
11246.780	-8.73405	-3.70895	-8.48665	-3.36745
11250.756	-8.91100	-3.87773	-8.46645	-3.21374
11254.756	-8.73720	-3.69385	-8.42386	-3.28772
11258.757	-8.35595	-3.68890	-8.50374	-3.26031
11262.778	-8.96288	-3.53728	-8.39924	-3.23419
11266.753	-8.67267	-3.45841	-8.46728	-3.18607
11270.760	-8.48010	-3.36264	-8.47653	-3.24408
11274.715	-8.76862	-3.49200	-8.51081	-3.27279
11278.758	-8.73640	-3.54026	-8.33625	-3.28581
11282.759	-8.91374	-4.00383	-8.34533	-3.21202
11286.757	-8.78900	-3.82391	-8.38165	-3.22341
11290.757	-8.64184	-3.68202	-8.36542	-3.27226
11294.778	-8.46172	-3.57244	-8.29484	-3.27998
11298.767	-8.73157	-3.56159	-8.29858	-3.17068
11302.731	-8.80481	-3.78911	-8.31418	-3.22142
11306.758	-8.73410	-3.75393	-8.31001	-3.26179
