time (ms)	lx (deg)	ly (deg)	rx (deg)	ry (deg)
0.000	-0.59583	-3.29342	-1.14399	2.12926
4.001	-0.58786	-3.24523	-0.58513	2.30553
7.995	-1.16362	-2.82533	-0.19584	3.22193
11.991	-0.87468	-2.97822	-0.26790	3.17804
16.001	-0.79712	-2.93025	-0.31486	3.15613
20.000	-1.45472	-3.00010	-0.38042	3.00873
23.996	-1.55588	-3.06261	-0.39306	2.87317
28.001	-1.65267	-3.04493	-0.41296	2.80383
32.003	-0.93559	-0.29763	-0.38834	2.90601
36.002	-0.89771	-0.40494	-0.34729	2.67845
39.993	-0.40259	-0.17854	-0.13980	2.74824
44.001	0.01139	-0.03596	-0.03551	2.87608
48.003	-0.34258	-0.01083	0.00859	2.90263
52.000	-0.40182	-0.00830	0.13732	2.84056
55.994	-0.52840	0.06900	0.05115	2.77351
59.998	-0.63692	-3.03788	0.20623	2.66130
64.002	-0.63622	-2.79877	0.25225	2.63332
68.001	-0.79779	-2.61398	0.42609	2.56999
71.993	-0.98261	-0.00266	0.40095	2.57697
76.002	-1.10083	0.17709	0.34985	2.60550
80.004	-1.39207	0.30113	0.27222	2.76351
84.002	-1.21373	-1.73127	-1.22898	2.63760
88.007	-1.24617	-0.78530	-0.97790	2.74542
92.001	-1.16979	-0.37024	-0.61776	2.62174
96.005	-1.36124	-0.00174	-1.17054	2.51895
100.001	-1.39492	-2.57096	-0.31052	2.46289
103.994	-1.37278	-2.20781	-0.35481	2.73433
108.000	-1.43989	-1.54322	-1.49448	2.74806
112.002	-1.60251	0.32837	-1.10346	2.65919
116.001	-1.48478	0.16887	-0.63960	2.67236
119.963	-1.37719	-2.15219	-1.62262	2.44389
124.000	-1.44746	-1.54145	-1.65215	2.67969
128.004	NaN	NaN	-1.42821	2.72531
132.000	-1.56238	0.00566	-1.70224	2.75687
135.998	NaN	NaN	-1.81924	2.46267
140.003	-1.73574	-1.72883	-0.39730	2.44238
144.005	-1.68548	-0.38643	0.00283	2.83132
148.003	0.19119	-0.31796	-0.19015	3.09296
152.003	0.50108	0.09398	0.00536	3.12746
156.005	0.56927	-2.01156	-0.30133	3.03958
160.006	0.51523	-1.96727	-0.60399	3.11099
164.004	0.37568	-1.62663	-0.18938	3.03337
168.006	0.26101	-1.66806	-0.04348	3.09396
172.009	0.28138	-1.30526	-0.01971	2.92199
176.004	-0.02355	-1.19480	-0.08542	2.85543
179.981	0.13379	-1.27862	0.06956	2.82286
184.000	-0.03256	-1.49508	0.15536	2.98634
188.004	-0.05735	-1.55381	0.22026	2.75720
192.007	-0.02425	-1.61740	-0.13826	2.70049
196.012	0.18407	0.36130	-0.02311	2.54350
200.009	-0.01896	1.07671	-0.10279	2.54533
204.003	0.05333	0.90381	-0.05934	2.39081
208.002	-0.17710	0.71360	0.11468	2.57767
211.999	-0.35784	0.23638	-0.01732	2.66395
215.971	-0.40628	1.04392	-0.03125	2.62591
219.994	-0.07783	0.28360	-0.03708	2.35579
224.008	-0.47634	-1.95994	-0.03777	2.35244
228.004	-0.25890	-2.52505	0.00831	2.20229
232.006	0.30071	0.51967	-0.06850	2.03970
236.002	0.55099	0.45739	-0.10572	2.21159
239.962	0.12401	1.07013	-0.10552	2.50632
244.005	-0.18062	0.66073	-0.03869	2.16083
248.010	-0.04373	0.35415	0.05088	2.16460
252.002	0.38765	0.60308	-0.03695	2.47525
256.003	0.12004	0.80404	0.09835	2.17130
259.963	0.10309	0.91884	0.11116	2.02674
264.006	0.06765	0.80665	-0.06075	2.18395
268.001	0.47279	0.92169	-0.09443	2.18723
272.003	0.60496	0.88237	-0.22192	2.30802
275.961	0.48195	1.74706	-0.16913	2.18109
280.005	0.35834	1.93793	-0.07773	2.20169
284.008	0.79945	2.37483	-0.37114	2.45816
288.005	0.83989	2.57812	-0.12061	2.57160
292.007	1.77541	2.43524	0.13081	2.64646
296.009	1.68101	2.58876	0.35194	2.67203
300.008	1.19728	3.00002	0.35146	2.51268
303.986	1.22462	1.16222	0.02397	2.55221
308.003	1.52300	1.33232	0.29945	2.69180
311.903	-1.17066	2.27920	0.48651	2.79897
316.004	-1.02757	2.64371	0.27592	2.64031
320.005	0.39554	2.96841	0.12838	2.48568
324.009	-0.38775	3.32518	0.29389	2.36315
328.006	0.69320	1.21316	0.48120	2.45775
332.003	0.92341	1.83377	0.50957	2.53616
336.003	1.09882	2.47859	0.34223	2.36346
339.963	1.25607	2.74253	0.26982	2.41435
343.964	1.37942	3.06510	0.43333	2.43262
347.963	0.14144	0.73927	0.38385	2.33505
352.006	0.44728	1.05738	0.36613	2.05001
356.005	0.17960	1.04041	0.33360	2.12136
359.967	0.47304	0.79820	0.43810	2.14898
364.006	0.50168	1.23467	0.53957	2.30151
368.006	0.48373	0.68628	0.49083	2.30589
372.005	0.45597	0.65296	0.10535	2.26270
376.004	0.50483	0.53921	0.30044	2.25077
380.011	0.34715	0.67387	0.62079	2.16983
384.009	0.26341	0.94527	0.71846	2.22303
387.983	0.29759	0.90701	0.62034	2.14772
391.876	0.18112	1.01537	0.53240	2.18135
396.010	-0.52880	0.72051	0.46820	2.20274
400.009	-0.77216	0.67548	0.35310	2.11528
404.007	-0.99090	0.85889	0.22822	2.13041
407.964	-0.32273	0.76609	0.14593	2.11846
412.011	0.06909	0.77139	0.04395	2.07797
416.003	0.10071	0.83259	0.18147	2.09669
420.003	0.19345	0.76193	0.13851	2.18415
424.008	-0.21512	0.65154	0.17745	2.24741
427.996	-0.08185	0.63139	0.05088	2.37400
431.997	-0.47363	0.60846	-0.00866	2.49333
436.004	0.02807	0.58493	0.00742	2.39136
440.010	0.14776	0.59352	0.09255	2.31835
444.010	-0.46669	0.61554	0.58806	2.31568
448.008	-0.60305	0.58500	0.09406	2.26600
452.005	-0.20673	0.60607	0.41695	2.07367
456.008	-0.26570	0.63837	0.42991	2.11168
460.009	-0.09247	0.61243	0.41946	2.08737
464.006	0.36809	0.63369	0.34375	2.10672
468.011	0.36953	0.66470	0.41931	2.24381
472.010	0.39167	0.68127	0.49173	2.04241
476.009	0.06326	0.67219	0.41864	2.15754
480.005	0.04264	0.73376	0.60322	1.96744
484.009	-0.11448	0.74784	0.36844	1.98657
488.008	-0.26505	0.75541	0.74910	1.99702
492.010	0.03420	0.75472	0.35886	1.98707
496.007	-0.12265	0.79592	0.27587	1.92683
500.010	-1.92949	0.89074	0.42579	1.87415
504.011	-1.25538	0.85971	0.14620	1.79816
508.017	-0.91373	0.85762	0.31603	1.70546
511.991	-0.47783	1.03812	0.18467	1.64798
516.013	-0.70392	0.99946	0.13967	1.58755
520.009	-0.74340	1.02232	0.33503	1.55195
524.009	-0.55791	0.93445	0.33670	1.50583
528.006	-0.32010	0.83483	0.54965	1.49189
532.007	-0.30550	0.98012	0.27044	1.44980
536.010	-0.32967	1.15620	0.14233	1.42470
539.964	-0.19566	0.92378	0.12990	1.45574
543.966	-0.36228	0.76924	0.07267	1.42706
548.007	-0.38593	0.91122	0.18060	1.44355
552.006	0.16950	0.91717	0.25460	1.53388
556.003	-0.13950	0.71646	0.01070	1.67465
560.006	-0.00601	0.89954	0.01618	1.60918
564.006	0.09227	1.04191	0.19534	1.66655
568.012	0.22601	1.17472	0.03296	1.71559
572.009	-0.04418	1.05232	0.06073	1.74603
576.009	-0.31871	0.70756	0.08498	1.80705
580.006	0.11952	0.75646	0.08465	1.70251
584.012	0.17896	0.93069	0.23296	1.82476
588.014	0.31054	1.08743	0.30354	1.85935
592.012	-0.59310	0.88722	0.32449	1.96253
595.992	-0.80952	0.77283	0.32789	1.94843
599.917	-0.09148	0.71192	0.36350	2.05395
604.012	0.08758	0.73378	0.36762	1.80463
608.009	0.26937	0.75896	0.46502	1.88635
612.007	0.17422	0.79870	0.50386	1.94400
616.010	0.52724	0.75437	0.50418	2.09772
620.007	0.54873	0.73419	0.52515	1.90428
624.005	0.41025	0.72753	0.46324	1.85969
628.006	0.67878	0.59999	0.43239	1.89386
632.010	0.14910	0.55866	0.20077	1.91390
636.004	0.41333	0.43964	0.09463	1.88085
639.968	1.14585	0.35298	0.09714	1.92421
644.005	0.46098	0.24426	-0.20018	1.85262
648.011	0.53352	0.25879	-0.49108	1.83993
651.966	0.54036	0.31768	-0.36236	1.84465
655.885	-0.00375	0.25932	0.14191	1.92845
659.885	-0.51143	0.19384	0.19400	1.84952
663.906	0.16712	0.06548	1.62411	1.88762
667.887	0.11046	0.06205	0.35372	1.75206
671.882	-0.29563	0.12509	0.54749	1.70459
675.884	-0.22120	0.13192	0.69278	1.96254
679.909	0.05480	0.23666	-0.46415	1.91981
683.842	0.09073	0.22660	0.01065	1.79963
687.884	0.09230	0.22101	0.75677	1.78676
691.883	-0.24448	0.24946	0.44266	1.83001
695.910	-0.32238	0.25018	0.16916	1.63557
699.888	-0.36382	0.30096	0.35931	1.60262
703.888	-0.35650	0.33632	0.62456	1.65698
707.884	-0.13784	0.33414	0.51900	1.87296
711.907	-0.12317	0.40978	0.24319	1.80344
715.887	-0.12267	0.38481	0.23013	1.86642
719.890	-0.14836	0.35675	0.02397	1.77632
723.884	0.00685	0.37060	0.02008	1.79047
727.909	-0.13689	0.30895	-0.04460	1.76527
731.886	-0.10711	0.37527	-0.27810	1.60223
735.886	-0.12719	0.38386	-0.22323	1.62119
739.842	-0.03045	0.42660	-0.16655	1.72572
743.884	-0.17072	0.28718	0.00288	1.77607
747.884	-0.01122	0.19305	0.29391	1.76118
751.888	0.02703	0.30102	0.14250	1.72021
755.885	0.15953	0.09930	-0.19725	1.59467
759.913	0.09766	0.11257	-0.01243	1.62875
763.888	0.18990	0.05934	0.02343	1.71991
767.858	0.02909	-0.00425	0.41169	1.70895
771.883	0.00561	-0.10650	-0.09597	1.74057
775.902	0.09676	-0.19991	-0.08798	1.71326
779.844	0.19678	-0.19223	0.28627	1.82637
783.885	0.01407	-0.19797	0.36596	1.80890
787.886	0.29414	0.08138	0.36591	1.88017
791.910	0.09215	-0.25254	0.14757	1.92508
795.884	-0.06244	-0.25654	0.19015	1.86543
799.886	-0.14027	-0.33146	0.41162	1.92886
803.889	0.14568	-0.42002	0.21837	1.89298
807.894	0.00419	-0.37445	0.10436	1.80596
811.875	1.00149	-0.07160	0.23636	1.72293
815.846	-0.11587	-0.14239	0.24842	1.81577
819.885	-0.36819	-0.23300	0.25649	1.88831
823.880	-0.23492	-0.18577	0.19494	1.84870
827.886	-0.02132	-0.14639	0.20986	1.74227
831.887	-0.16164	-0.26064	0.13915	1.70544
835.886	-0.19256	-0.21330	0.01372	1.63185
839.878	-0.18080	-0.13635	0.21490	1.65379
843.885	-0.20944	-0.11746	0.10272	1.66921
847.845	-0.59439	-0.41227	0.00970	1.45654
851.851	-0.20343	-0.38729	-0.07133	1.55900
855.883	-0.21405	-0.21176	0.05842	1.51338
859.884	-0.01432	-0.16706	0.15268	1.49488
863.886	0.00457	-0.08767	-0.06626	1.54738
867.889	-0.03968	-0.35534	-0.03003	1.25396
871.910	-0.03278	-0.53618	-0.07232	1.49389
875.888	-0.10284	-0.31503	-0.11438	1.44522
879.886	-0.07080	-0.12333	-0.04892	1.26978
883.884	-0.03484	-0.26703	-0.23981	1.14322
887.911	0.02747	-0.21944	0.03834	1.35005
891.864	-0.06137	-0.12534	0.07140	1.27003
895.888	-0.08669	-0.23480	0.01353	1.14057
899.889	-0.16300	-0.41763	0.04341	1.25488
903.884	-0.17859	-0.38781	-0.06145	1.00835
907.890	-0.13662	-0.28345	-0.12568	1.08327
911.890	-0.14690	1.46513	-0.02355	1.45915
915.886	-0.00156	0.85686	-0.00611	1.21132
919.914	0.45899	0.21377	0.12647	1.14919
923.887	-0.03127	0.23154	0.02430	1.12006
927.888	0.36347	0.56012	-0.00417	1.10071
931.884	0.89163	-0.07250	0.00764	1.09152
935.921	0.36620	0.08245	-0.04847	1.17798
939.888	0.00802	-0.03750	-0.01943	1.31322
943.888	0.53610	0.01888	-0.06693	1.14514
947.885	0.80325	0.27396	0.01591	1.30830
951.911	0.71824	0.20727	0.01951	1.27962
955.885	0.41475	0.03561	0.04641	1.25332
959.887	0.50830	0.19859	0.04517	1.19507
963.885	0.42264	-0.20473	0.04626	1.24097
967.912	0.37846	0.01590	-0.00715	1.24189
971.894	-0.03132	0.04127	0.13258	1.25095
975.892	0.52260	0.12625	0.10659	1.24092
979.886	0.81620	0.05687	0.14563	1.25495
983.887	0.38459	0.12044	0.13215	1.33455
987.888	0.12816	0.35574	0.19189	1.04590
991.889	-0.02822	-0.12290	0.16496	1.14276
995.888	-0.23793	-0.07979	0.06654	1.08816
999.882	0.27731	0.27801	0.32349	1.13768
1003.891	0.10580	0.18361	0.10741	1.03386
1007.889	0.04373	0.37060	0.18449	1.12278
1011.889	0.58230	-0.34685	0.16047	1.20657
1015.882	0.30198	0.02825	0.18296	1.02355
1019.887	0.53682	-0.60630	0.20524	1.02732
1023.891	0.27205	-0.26558	0.09967	1.18337
1027.886	0.16136	-0.24707	0.12391	1.11506
1031.894	0.14955	0.37509	0.08632	1.15130
1035.889	-0.12171	-0.89847	-0.05750	1.11658
1039.866	-0.00213	-0.73445	-0.08197	0.89609
1043.888	0.08733	-1.11419	-0.31846	0.90685
1047.883	-0.18698	-0.31347	-0.23552	0.62175
1051.885	-0.18263	-0.49018	-0.10307	0.49553
1055.889	-0.23711	-0.90790	-0.55751	0.38037
1059.853	-0.22296	-0.98636	-0.37812	-0.07730
1063.883	-0.32332	-0.71568	-0.25555	-0.65240
1067.889	-0.38906	-0.74291	-0.57344	0.02477
1071.892	-0.39611	-0.92578	-0.56091	-0.20624
1075.887	-0.40909	-1.14772	-0.45244	-0.16653
1079.882	-0.45914	-1.20405	-0.28436	-0.17993
1083.889	-0.46530	-1.01050	-0.48495	-0.14919
1087.846	-0.43229	-0.86697	-0.49138	-0.12036
1091.890	-0.47371	-0.96166	-0.39916	-0.11714
1095.884	-0.57369	-1.07472	-0.33585	-0.15329
1099.865	-0.59429	-1.05420	-0.57831	-0.28242
1103.848	-0.65486	-1.04008	-0.57781	-0.26791
1107.890	-0.63449	-1.01124	-0.53855	-0.27524
1111.884	-0.54927	-1.04139	-0.45934	-0.38780
1115.888	-0.50657	-0.95942	-0.37248	-0.26844
1119.890	-0.61645	-0.98452	-0.37546	-0.29413
1123.888	-0.60464	-1.15074	-0.35596	-0.25216
1127.888	-0.63163	-1.13618	-0.38928	-0.32802
1131.888	-0.72044	-1.05025	-0.35816	-0.31036
1135.896	-0.74496	-1.10317	-0.39725	-0.34996
1139.848	-0.71369	-1.17715	-0.41080	-0.43487
1143.884	-0.73523	-1.13251	-0.24487	-0.38384
1147.889	-0.66384	-1.27814	-0.17459	-0.32728
1151.847	-0.68089	-1.17219	-0.09671	-0.23328
1155.887	-0.68757	-1.20552	-0.14719	-0.12313
1159.891	-0.61925	-1.22453	-0.16995	-0.22580
1163.887	-0.60511	-1.21249	-0.01119	-0.32100
1167.894	-0.43631	-1.16719	-0.18080	-0.44079
1171.890	-0.40752	-1.12003	-0.01477	-0.82409
1175.887	-0.38343	-1.11745	0.02400	-0.53519
1179.891	-0.30516	-1.19456	-0.03492	-0.35198
1183.862	-0.42507	-1.08697	-0.04437	-0.75182
1187.887	-0.32531	-1.09691	-0.03504	-0.75112
1191.892	-0.30362	-1.04632	-0.03470	-0.76513
1195.890	-0.18395	-1.12460	0.03249	-0.69818
1199.894	-0.19308	-1.17221	-0.15288	-0.76153
1203.892	-0.31007	-1.09123	-0.07617	-0.87112
1207.885	-0.28158	-1.05546	-0.10193	-0.68821
1211.890	-0.20926	-1.04729	0.05656	-0.71413
1215.892	-0.20000	-1.17298	-0.05462	-0.62625
1219.890	-0.16226	-1.27067	0.28004	-0.65486
1223.883	-0.31578	-1.30871	-0.05341	-0.53899
1227.888	-0.25118	-1.29607	0.04628	-0.58637
1231.895	-0.33580	-1.28037	0.40738	-0.13567
1235.891	0.04043	-0.56870	0.93830	0.88298
1239.887	0.10098	1.23079	1.34829	2.36183
1243.890	0.29709	1.72766	1.20360	3.27185
1247.896	0.84312	1.90932	1.47997	3.07500
1251.892	0.92894	1.98149	1.76229	3.12683
1255.884	0.94735	1.15264	2.02103	2.97865
1259.888	0.78885	1.26440	1.72478	2.97447
1263.892	0.95316	1.76317	1.76264	3.10902
1267.855	1.13769	1.76897	1.92017	3.19192
1271.884	1.24089	1.78347	1.99967	3.11464
1275.891	1.26803	1.65687	1.99563	3.30985
1279.849	1.20643	1.81946	2.00333	3.54618
1283.890	1.22521	1.90333	2.26106	3.48822
1287.896	1.41596	1.83308	2.23226	3.52750
1291.892	1.20549	1.90997	2.28814	3.42910
1295.890	1.25297	1.77451	2.44578	3.44309
1299.894	0.96827	1.79947	2.23662	3.42514
1303.887	1.27266	1.82326	2.14166	3.53471
1307.891	1.14265	1.84464	2.31904	3.53332
1311.891	1.15848	1.87873	2.37602	3.53605
1315.894	1.22715	1.81158	2.26864	3.69892
1319.887	1.21998	1.94135	2.25152	3.51219
1323.893	1.07490	1.71261	2.25669	3.50758
1327.892	1.14885	1.73295	2.09103	3.47904
1331.893	1.14340	1.86065	2.28502	3.56818
1335.790	1.05848	1.91277	2.28172	3.43909
1339.891	1.11261	1.86079	2.22220	3.45971
1343.892	1.22402	1.76043	2.45106	3.47585
1347.870	1.14848	1.97532	2.28140	3.38864
1351.794	1.12194	1.99487	2.12117	3.33813
1355.891	1.06676	2.09225	2.10848	3.44389
1359.905	1.03399	2.08882	2.05997	3.33932
1363.893	1.09906	1.92153	2.20946	3.34043
1367.784	1.10616	2.01237	2.30447	3.44698
1371.890	1.11422	2.08286	2.37087	3.37732
1375.888	1.11045	2.08927	2.69965	3.25119
1379.894	1.11380	2.13457	2.58477	3.19586
1383.890	1.18088	1.99058	2.34795	3.13247
1387.892	1.08175	1.95695	2.21494	3.19828
1391.863	1.11767	2.02356	2.19033	3.26541
1395.891	1.10512	2.01756	2.28460	3.23818
1399.885	1.07078	1.91914	2.27791	3.15604
1403.850	1.10966	1.90380	2.43679	3.14548
1407.896	1.16932	1.94563	2.47638	3.23414
1411.897	1.16014	1.85672	2.35543	3.09856
1415.790	1.21100	1.86232	2.26903	3.12348
1419.892	1.32409	1.81265	2.32062	3.18528
1423.894	1.25753	1.77721	2.39599	3.19807
1427.896	1.16285	1.72668	2.48478	3.22741
1431.794	1.10966	1.70934	2.45438	3.21716
1435.890	1.11117	1.77095	2.41566	3.26608
1439.894	1.02868	1.70966	2.39604	3.33510
1443.895	1.04848	1.78769	2.29371	3.35551
1447.796	0.89163	1.88105	2.20642	3.47370
1451.894	0.92713	1.84022	2.26373	3.37371
1455.892	0.97276	1.82516	2.23392	3.43156
1459.895	0.97264	1.82727	2.39188	3.28364
1463.791	0.85766	1.91052	2.46731	3.29741
1467.889	0.70444	1.94497	1.54105	3.24923
1471.892	0.15861	1.97360	0.43678	3.48155
1475.894	-2.13437	2.08501	-2.23479	3.64146
1479.774	-2.76525	2.08938	-2.90812	3.06564
1483.892	-3.59627	2.07111	-4.53265	3.23031
1487.893	-5.78091	2.05719	-5.47432	3.16134
1491.895	-6.45836	2.03574	-6.84184	3.10580
1495.792	-7.74832	2.02289	-8.25729	3.07456
1499.894	-9.09050	2.06797	-8.91541	2.97890
1503.893	-10.17606	2.03676	-9.49393	2.91687
1507.899	-11.26037	2.02875	-9.96145	2.88643
1511.796	-10.94916	2.00947	-10.08130	2.84127
1515.870	-10.76017	2.01026	-9.67360	2.73391
1519.891	-10.85732	1.96495	-9.56851	2.69574
1523.893	-10.69019	1.89994	-9.69470	2.65876
1527.759	-10.82253	1.88258	-9.74950	2.66328
1531.896	-10.83520	1.89225	-9.80995	2.65027
1535.897	-10.84635	1.83021	-9.74514	2.57482
1539.873	-10.87651	1.81025	-9.79137	2.48815
1543.792	-11.02505	1.75240	-9.84753	2.43755
1547.894	-10.94863	1.83226	-9.87235	2.41447
1551.892	-10.95947	1.86293	-9.86601	2.38700
1555.886	-11.07675	1.95984	-9.90094	2.30979
1559.796	-11.16779	1.98813	-9.80749	2.33536
1563.895	-11.15898	1.87057	-9.83443	2.28943
1567.895	-11.15018	1.80146	-9.79660	2.27705
1571.894	-11.18742	1.85580	-9.78864	2.25161
1575.800	-11.07888	1.82312	-9.73677	2.22533
1579.894	-11.14483	1.80612	-9.77592	2.20900
1583.891	-11.13585	1.79354	-9.72682	2.29553
1587.855	-11.12436	1.80510	-9.70145	2.30084
1591.798	-11.05452	1.75354	-9.68365	2.33649
1595.900	-11.11896	1.79157	-9.62700	2.35968
1599.869	-11.05648	1.72003	-9.60741	2.46877
1603.895	-11.00771	1.71595	-9.62430	2.52775
1607.800	-11.01020	1.75266	-9.65746	2.64605
1611.895	-11.01885	1.80108	-9.69682	2.66248
1615.892	-11.04695	1.83389	-9.75596	2.75723
1619.898	-11.08311	1.84088	-9.81925	2.80881
1623.792	-11.10285	1.89707	-9.86129	2.81967
1627.893	-11.11822	1.95866	-9.91139	2.86241
1631.892	-11.14445	2.01461	-9.96070	2.86879
1635.899	-11.16105	2.04676	-9.95439	2.89611
1639.761	-11.14944	2.12266	-10.02793	2.91518
1643.896	-11.17434	2.15028	-10.08986	2.90179
1647.894	-11.16715	2.19092	-10.10675	2.86906
1651.852	-11.16117	2.21389	-10.09821	2.86308
1655.899	-11.16208	2.22287	-10.04023	2.86528
1659.898	-11.13704	2.22194	-9.98172	2.85086
1663.895	-11.12139	2.23759	-9.86637	2.84353
1667.855	-11.09341	2.23077	-9.88938	2.83234
1671.793	-11.06875	2.20892	-9.79971	2.79107
1675.770	-11.02878	2.23223	-9.79411	2.79256
1679.767	-10.98724	2.27629	-9.74229	2.76341
1683.771	-10.97363	2.22622	-9.72944	2.76134
1687.730	-10.92366	2.24747	-9.73091	2.76365
1691.768	-10.88118	2.25223	-9.72672	2.74868
1695.769	-10.89520	2.23098	-9.73332	2.74586
1699.773	-10.83295	2.27913	-9.74309	2.70781
1703.764	-10.86931	2.28353	-9.79026	2.70156
1707.774	-10.86517	2.31857	-9.83154	2.71645
1711.771	-10.87663	2.36823	-9.82378	2.71883
1715.771	-10.85894	2.40660	-9.83621	2.72332
1719.902	-10.94004	2.48784	-9.80240	2.72277
1723.771	-10.85478	2.49028	-9.79079	2.77011
1727.760	-10.85590	2.48033	-9.78445	2.79032
1731.762	-10.85744	2.51420	-9.76295	2.76934
1735.765	-10.83967	2.51747	-9.80831	2.72128
1739.731	-10.89252	2.45375	-9.83431	2.67372
1743.771	-10.95834	2.28333	-9.83667	2.57463
1747.771	-10.98664	2.19570	-9.83303	2.52026
1751.745	-11.07687	2.27757	-9.88297	2.45105
1755.772	-10.99506	2.15628	-9.96549	2.39568
1759.772	-11.00771	2.17513	-9.93783	2.28600
1763.773	-10.98312	2.07022	-9.96434	2.21348
1767.739	-11.09786	1.98917	-9.94951	2.23751
1771.770	-11.15783	1.98908	-9.90850	2.19995
1775.737	-11.26464	1.94078	-9.93523	2.18257
1779.730	-11.35890	1.94849	-9.94970	2.19325
1783.764	-11.42740	1.94858	-9.95018	2.14221
1787.773	-11.54258	1.97684	-9.86934	2.28327
1791.771	-11.55545	2.00391	-9.88179	2.33901
1795.774	-11.47879	2.06200	-9.85014	2.43700
1799.741	-11.28598	2.13677	-9.80797	2.43843
1803.772	-11.24535	2.16672	-9.80918	2.44556
1807.775	-11.21811	2.11890	-9.77570	2.51175
1811.754	-11.17653	2.20711	-9.82450	2.51297
1815.768	-11.21353	2.31447	-9.84958	2.53279
1819.772	-10.92646	2.32387	-9.90966	2.44071
1823.774	-11.02158	2.35677	-9.91861	2.46999
1827.770	-11.01168	2.41597	-9.90836	2.46977
1831.741	-11.04685	2.38060	-9.92331	2.37803
1835.773	-11.10777	2.36606	-9.84064	2.49049
1839.770	-11.00632	2.35039	-9.82175	2.43865
1843.773	-10.98681	2.33477	-9.75509	2.39655
1847.763	-11.03492	2.29151	-9.75003	2.45638
1851.768	-11.05438	2.30037	-9.74977	2.40573
1855.763	-11.11568	2.22994	-9.78455	2.42379
1859.772	-11.12484	2.20886	-9.75866	2.46681
1863.767	-11.16211	2.14037	-9.69574	2.50179
1867.758	-11.15542	2.19144	-9.68532	2.46488
1871.776	-11.16839	2.19018	-9.70731	2.49721
1875.773	-11.12916	2.23188	-9.74195	2.52457
1879.742	-11.09119	2.27999	-9.82727	2.42282
1883.770	-11.05063	2.29272	-9.91312	2.43382
1887.779	-11.01287	2.29343	-9.96831	2.46895
1891.771	-11.01943	2.31296	-10.02391	2.42928
1895.753	-11.00568	2.40925	-10.05861	2.44570
1899.747	-10.99654	2.39779	-10.03202	2.40650
1903.731	-10.99415	2.40243	-10.08674	2.37618
1907.777	-10.99358	2.42438	-10.11858	2.32610
1911.734	-11.18752	2.34456	-10.17084	2.37404
1915.773	-11.77085	2.12855	-10.24730	2.29679
1919.775	-11.99006	1.90176	-10.45173	2.12908
1923.772	-12.51395	1.57487	-10.62351	2.08519
1927.750	-12.49772	1.15636	-10.79816	1.89392
1931.773	-12.36146	0.99709	-10.95167	1.80092
1935.763	-12.50266	1.01796	-10.95524	1.73317
1939.766	-12.32793	0.83701	-10.99642	1.64239
1943.732	-12.22691	0.81198	-11.04145	1.57977
1947.734	-12.30758	0.79739	-11.12388	1.51681
1951.774	-12.36750	0.81943	-11.07781	1.41937
1955.772	-12.42453	0.83219	-11.16308	1.42607
1959.733	-12.36928	0.77128	-11.19394	1.42424
1963.770	-12.33911	0.74426	-11.21914	1.39727
1967.777	-12.27171	0.75210	-11.21541	1.33836
1971.775	-12.19206	0.80721	-11.15575	1.30479
1975.734	-12.33904	0.94252	-11.16898	1.18353
1979.740	-12.31634	1.03963	-11.14655	1.19966
1983.772	-12.34335	1.05661	-11.17094	1.17875
1987.774	-12.30725	1.07229	-11.18210	1.18085
1991.749	-12.32516	1.03329	-11.15594	1.15339
1995.781	-12.29228	1.06752	-11.16299	1.14449
1999.773	-12.29363	1.01018	-11.11903	1.11588
2003.774	-12.26244	1.01916	-11.12476	1.12088
2007.765	-12.32591	1.02782	-11.12049	1.16143
2011.778	-12.38808	1.05405	-11.12154	1.21156
2015.776	-12.47004	1.02813	-11.13578	1.29019
2019.756	-12.41253	0.96710	-11.13826	1.32990
2023.769	-12.39591	0.88301	-11.11939	1.39680
2027.775	-12.39956	0.89200	-11.07733	1.43517
2031.777	-12.38763	0.87884	-11.03344	1.51165
2035.775	-12.40361	0.91196	-11.00513	1.51881
2039.735	-12.43088	0.92926	-11.04176	1.54551
2043.772	-12.40882	0.94372	-11.03884	1.53061
2047.773	-12.41682	0.95223	-10.99444	1.56677
2051.776	-12.36783	0.97299	-11.01527	1.55864
2055.746	-12.28289	0.96673	-10.98698	1.56907
2059.773	-12.21385	0.98381	-10.96433	1.54774
2063.770	-12.21743	0.91326	-10.90564	1.56399
2067.775	-12.21390	0.94668	-10.93622	1.60189
2071.769	-12.18884	0.94922	-10.95959	1.62192
2075.775	-12.23391	0.95307	-10.98595	1.58110
2079.776	-12.27102	0.93713	-11.01928	1.53746
2083.773	-12.26941	0.93539	-11.00118	1.47603
2087.746	-12.31642	0.94782	-11.02275	1.50120
2091.776	-12.34197	0.95074	-11.09437	1.55130
2095.782	-12.33894	0.94713	-11.12453	1.54534
2099.774	-12.35675	0.92615	-11.11664	1.50362
2103.747	-12.39535	0.88100	-11.18998	1.46241
2107.774	-12.42032	0.92711	-11.20448	1.40338
2111.778	-12.45293	0.94458	-11.15678	1.29906
2115.776	-12.44283	0.91662	-11.15697	1.24216
2119.734	-12.44616	0.89036	-11.03609	1.23985
2123.774	-12.44202	0.83465	-11.02593	1.26520
2127.772	-12.43398	0.87604	-10.98554	1.22043
2131.775	-12.41537	0.91733	-10.93045	1.21090
2135.735	-12.39430	0.92720	-11.11141	1.18706
2139.759	-12.39490	0.91085	-11.11583	1.15876
2143.766	-12.40006	0.92844	-11.01940	1.13850
2147.768	-12.43187	0.95288	-11.00209	1.10962
2151.735	-12.44389	0.91005	-11.06669	1.12681
2155.776	-12.44448	0.84197	-11.15427	1.20733
2159.778	-12.47035	0.87822	-11.08493	1.26014
2163.775	-12.45258	0.83649	-11.15346	1.25631
2167.773	-12.46725	0.89417	-11.17429	1.27635
2171.780	-12.45367	0.84262	-11.21649	1.41777
2175.777	-12.42013	0.78656	-11.26985	1.48879
2179.777	-12.42770	0.72523	-11.28877	1.46946
2183.751	-12.48024	0.74788	-11.24079	1.48135
2187.744	-12.53216	0.71637	-11.20732	1.54351
2191.774	-12.53225	0.69483	-11.13583	1.59128
2195.777	-12.56030	0.70950	-11.14412	1.52170
2199.746	-12.56826	0.71807	-11.03389	1.48520
2203.776	-12.55405	0.70375	-11.00857	1.31720
2207.775	-12.56448	0.72385	-10.98279	1.23329
2211.783	-12.56595	0.69394	-10.92559	1.13939
2215.746	-12.56434	0.67835	-10.92074	1.16039
2219.777	-12.55327	0.66694	-10.88676	1.17618
2223.777	-12.58635	0.65722	-10.82596	1.01578
2227.756	-12.58082	0.64172	-10.72654	1.15355
2231.770	-12.55573	0.67367	-10.70284	1.21934
2235.780	-12.44730	0.70831	-10.81882	1.29589
2239.736	-12.42619	0.68350	-10.88015	1.19696
2243.774	-12.45913	0.67448	-10.83438	1.52381
2247.772	-12.42595	0.69772	-10.80347	1.20193
2251.780	-12.43417	0.63755	-10.69745	1.13506
2255.778	-12.42278	0.71728	-10.90102	1.49945
2259.778	-12.39677	0.66693	-10.86467	1.57065
2263.777	-12.42725	0.70999	-10.77627	1.37466
2267.778	-12.43454	0.75556	-10.94818	1.46735
2271.774	-12.37513	0.79953	-10.91248	1.36596
2275.777	-12.34787	0.78440	-11.06557	1.54460
2279.771	-12.43407	0.83201	-11.00130	1.33661
2283.779	-12.46995	0.84012	-11.10063	1.31354
2287.780	-12.48159	0.82562	-10.95808	1.18207
2291.779	-12.44955	0.80530	-11.00446	1.31161
2295.779	-12.46254	0.86845	-11.04608	1.44239
2299.781	-12.48516	0.91696	-11.08230	1.28660
2303.783	-12.50250	0.84945	-11.10577	1.48147
2307.780	-12.52099	0.85552	-11.05299	1.45788
2311.773	-12.53377	0.79504	-11.07974	1.39302
2315.780	-12.59963	0.75561	-11.01476	1.46660
2319.779	-12.59453	0.71176	-11.02363	1.46419
2323.778	-12.57732	0.70422	-11.02234	1.43651
2327.781	-12.59136	0.75074	-11.05995	1.51641
2331.780	-13.37298	0.92033	-11.07307	1.49285
2335.777	-14.22559	1.13510	-11.21587	1.52232
2339.779	-16.01257	3.55064	-14.42660	2.15882
2343.782	-14.05262	0.91082	-12.17260	3.23153
2347.738	NaN	NaN	-14.95941	5.19902
2351.765	NaN	NaN	-13.95257	6.70461
2355.768	NaN	NaN	NaN	NaN
2359.779	NaN	NaN	NaN	NaN
2363.780	NaN	NaN	NaN	NaN
2367.756	NaN	NaN	NaN	NaN
2371.777	NaN	NaN	NaN	NaN
2375.774	NaN	NaN	NaN	NaN
2379.734	NaN	NaN	NaN	NaN
2383.775	NaN	NaN	NaN	NaN
2387.775	NaN	NaN	NaN	NaN
2391.774	NaN	NaN	NaN	NaN
2395.735	NaN	NaN	NaN	NaN
2399.776	NaN	NaN	NaN	NaN
2403.778	NaN	NaN	NaN	NaN
2407.777	NaN	NaN	NaN	NaN
2411.739	NaN	NaN	NaN	NaN
2415.777	NaN	NaN	NaN	NaN
2419.777	NaN	NaN	NaN	NaN
2423.777	NaN	NaN	NaN	NaN
2427.735	NaN	NaN	NaN	NaN
2431.776	-13.82204	0.38310	NaN	NaN
2435.764	-16.23281	5.49824	-8.49299	0.57773
2439.784	-17.04067	5.30138	-11.28388	6.90849
2443.782	-12.40479	2.74622	-12.36876	5.79509
2447.781	-13.37070	2.97171	-16.06247	9.06961
2451.678	-16.42183	3.11532	-2.41762	1.50425
2455.780	-15.19059	3.57381	-2.54816	0.41310
2459.781	-14.81433	2.85282	-3.58287	0.59916
2463.779	-14.40530	2.63408	-3.93722	1.00634
2467.783	-13.58805	2.56782	-6.39974	0.97812
2471.778	-12.15806	2.19197	-8.71045	1.25193
2475.780	-12.45449	1.59604	-9.33367	2.24152
2479.774	-12.34657	1.51420	-8.92103	1.58992
2483.688	-11.82530	1.95802	-9.08619	1.79373
2487.778	-10.52005	1.73254	-8.94627	1.88069
2491.782	-11.55280	1.80953	-8.95574	2.26346
2495.781	-10.96535	1.48586	-8.93803	1.74444
2499.680	-11.10615	2.05925	-8.99595	2.09952
2503.780	-11.04606	1.61601	-8.91476	2.34687
2507.780	-11.12505	1.52689	-9.02493	2.27501
2511.785	-10.89027	1.39740	-8.98731	2.14391
2515.678	-10.72180	1.53877	-9.07668	2.48314
2519.759	-10.71741	1.47926	-8.98973	2.40931
2523.739	-10.81676	1.48653	-9.04645	2.23920
2527.780	-10.80572	1.37108	-9.03408	2.14696
2531.680	-10.92279	1.52433	-9.02459	2.35449
2535.779	-10.70131	1.61617	-9.10833	2.43102
2539.779	-10.57793	1.59530	-9.07177	2.40220
2543.780	-10.65091	1.48029	-9.03311	2.25793
2547.679	-10.61742	1.47853	-9.10869	2.39066
2551.782	-10.56534	1.45561	-9.11627	2.38710
2555.783	-10.62473	1.58095	-9.23879	2.39198
2559.771	-10.64039	1.71603	-9.11939	2.19072
2563.785	-10.71147	1.86688	-9.13637	2.26379
2567.781	-10.68178	1.89348	-9.01530	2.21660
2571.790	-10.55999	1.64780	-8.99862	2.34209
2575.780	-10.58414	1.70524	-8.99961	2.37482
2579.678	-10.44350	1.44564	-9.06860	2.51910
2583.780	-10.44576	1.42858	-9.09287	2.54743
2587.781	-10.45850	1.66702	-9.07278	2.49705
2591.784	-10.48428	1.68321	-9.16712	2.49480
2595.679	-10.61970	1.61900	-9.11767	2.26896
2599.787	-10.62701	1.59341	-9.06848	2.25111
2603.749	-10.80606	1.45356	-8.98540	2.37984
2607.787	-10.62063	1.55959	-9.09084	2.30641
2611.685	-10.55243	1.39442	-9.13296	2.27099
2615.782	-10.68909	1.38416	-9.07627	2.10738
2619.784	-10.63895	1.34418	-9.05487	2.04938
2623.781	-10.32834	1.51560	-9.08566	2.04072
2627.679	-10.45934	1.66975	-9.11990	1.95873
2631.779	-10.60152	1.69345	-9.11339	2.00410
2635.785	-10.56934	1.69614	-9.00559	1.95751
2639.741	-10.63099	1.60615	-9.01116	1.96420
2643.686	-10.76772	1.57752	-8.95184	1.95837
2647.779	-10.51866	1.53967	-9.03885	1.95530
2651.739	-10.49227	1.47205	-9.05792	1.97725
2655.782	-10.51458	1.84261	-9.02527	2.10202
2659.680	-10.43776	1.56398	-9.08638	2.17497
2663.780	-10.37304	1.65165	-9.12483	2.32403
2667.787	-10.52336	1.62932	-9.08268	2.24105
2671.782	-10.60658	1.68986	-9.10410	2.23621
2675.682	-10.66781	1.73056	-9.07002	2.18978
2679.782	-10.73528	1.59613	-9.08353	2.05093
2683.780	-10.69652	1.63386	-9.02638	2.26537
2687.774	-10.64470	1.52628	-9.05979	2.34792
2691.681	-10.47583	1.71509	-9.05834	2.25049
2695.779	-10.52717	1.57859	-9.00932	2.28059
2699.787	-10.33051	1.55104	-8.96901	2.19281
2703.782	-10.55174	1.47645	-8.98542	1.94306
2707.682	-10.70615	1.55076	-8.88855	2.20700
2711.659	-10.72378	1.54657	-8.87893	2.21017
2715.662	-10.79813	1.72725	-8.87328	2.19780
2719.660	-10.79246	1.54014	-8.91987	2.31103
2723.618	-10.72261	1.49207	-8.93137	2.36566
2727.658	-10.65254	1.52251	-8.98346	2.33957
2731.646	-10.58536	1.47148	-8.91745	2.39650
2735.658	-10.77701	1.62040	-8.83738	2.40940
2739.744	-10.58817	1.84085	-8.88508	2.40917
2743.657	-10.59826	1.65474	-8.86328	2.32744
2747.658	-10.47031	1.49840	-8.79451	2.09731
2751.663	-9.96583	1.25657	-8.73974	1.98302
2755.651	-9.82763	1.12531	-8.75063	1.94805
2759.656	-9.76845	1.06240	-8.67483	1.94393
2763.660	-9.65059	1.15066	-8.53663	1.98882
2767.659	-9.67902	0.98854	-8.51729	1.89096
2771.662	-9.90330	0.90848	-8.37346	1.75715
2775.626	-9.88933	0.91662	-8.35036	1.66485
2779.622	-9.75656	0.76345	-8.32512	1.62938
2783.657	-9.71650	0.77745	-8.30182	1.57201
2787.659	-9.73752	0.64656	-8.22017	1.59000
2791.655	-9.74229	0.68936	-8.18334	1.65314
2795.659	-9.73542	0.63934	-8.16299	1.66942
2799.660	-9.89863	0.67643	-8.12019	1.69863
2803.658	-9.95110	0.68148	-8.07543	1.69210
2807.658	-10.08933	0.63501	-8.10109	1.68669
2811.657	-9.99539	0.59930	-8.09112	1.64890
2815.640	-9.95074	0.58768	-8.11123	1.65243
2819.680	-10.00331	0.54905	-8.11683	1.64508
2823.660	-9.92025	0.56314	-8.13310	1.63931
2827.659	-9.94850	0.51615	-8.14171	1.57967
2831.661	-9.98494	0.54565	-8.13694	1.52905
2835.651	-9.90530	0.47811	-8.15545	1.52554
2839.662	-9.91519	0.40075	-8.17610	1.47392
2843.619	-9.89277	0.34597	-8.19949	1.44852
2847.659	-9.91358	0.23156	-8.20500	1.38221
2851.622	-9.80149	0.25231	-8.29414	1.33677
2855.649	-9.83257	0.25064	-8.43251	1.34350
2859.649	-9.80216	0.19790	-8.42357	1.31697
2863.659	-9.76997	0.31637	-8.47757	1.27672
2867.639	-9.73856	0.35551	-8.47439	1.28874
2871.660	-9.72756	0.43325	-8.55292	1.30631
2875.660	-9.70020	0.49048	-8.57770	1.29110
2879.658	-9.69747	0.64409	-8.60342	1.28305
2883.655	-9.70056	0.46123	-8.65266	1.27864
2887.661	-9.67943	0.48980	-8.68907	1.28247
2891.663	-9.65785	0.49179	-8.71334	1.24858
2895.658	-9.73137	0.39120	-8.69047	1.26822
2899.661	-9.70046	0.40022	-8.63913	1.26400
2903.656	-9.72527	0.48312	-8.62200	1.29320
2907.659	-9.75155	0.53864	-8.60720	1.31541
2911.659	-9.78937	0.59955	-8.60269	1.35014
2915.620	-9.85924	0.61536	-8.60075	1.35266
2919.660	-9.98649	0.70573	-8.58442	1.45450
2923.660	-9.97852	0.55455	-8.53435	1.42495
2927.660	-10.01691	0.63863	-8.53496	1.49617
2931.633	-9.95584	0.48009	-8.48714	1.49726
2935.619	-9.90385	0.48722	-8.49182	1.52401
2939.644	-9.90917	0.68764	-8.56612	1.46582
2943.657	-9.91987	0.71300	-8.58427	1.46538
2947.642	-9.76131	0.95999	-8.51637	1.49872
2951.661	-9.61491	0.75965	-8.39146	1.33865
2955.660	-6.69268	0.72293	-7.04186	1.08358
2959.661	-5.36132	0.44957	-5.55760	0.87153
2963.640	-3.73512	0.02618	-4.24858	1.09508
2967.662	-2.57286	-0.20343	-2.71528	0.80175
2971.621	-1.76172	-0.63171	-2.40796	0.61301
2975.662	-1.48126	-0.89251	-1.41033	0.45310
2979.622	-1.00320	-0.72520	-0.85972	0.55711
2983.627	-0.68409	-1.04906	-0.23175	0.37442
2987.662	0.62121	-1.08283	1.64900	0.32929
2991.658	0.47232	-1.20978	1.80752	0.35198
2995.656	0.00010	-1.29984	1.14508	0.40100
2999.662	0.10126	-1.32298	0.44209	0.42957
3003.657	0.14667	-1.28530	0.52694	0.32921
3007.660	0.18998	-1.39942	0.56558	0.18792
3011.685	0.20182	-1.43592	0.94110	0.15911
3015.665	0.26738	-1.43182	1.30298	0.08650
3019.661	0.31354	-1.48433	1.49044	0.05706
3023.640	0.25155	-1.59054	1.37627	0.10431
3027.687	0.25684	-1.62126	1.47459	-0.03999
3031.666	0.27763	-1.60663	1.21583	-0.33496
3035.662	0.22917	-1.58086	1.16151	-0.40187
3039.619	0.19464	-1.61108	1.20217	-0.31323
3043.683	0.26634	-1.59779	1.26438	-0.22130
3047.664	0.31684	-1.57303	1.41926	-0.25008
3051.661	0.28585	-1.46678	1.44835	-0.29203
3055.660	0.17730	-1.48780	1.31012	-0.42147
3059.689	0.03782	-1.55361	1.40065	-0.45996
3063.657	0.10438	-1.51000	1.32805	-0.35957
3067.652	0.29726	-1.54487	1.26066	-0.33009
3071.621	0.18643	-1.55467	1.30528	-0.46783
3075.656	0.17951	-1.45480	1.37615	-0.38574
3079.661	0.21018	-1.38139	1.42952	-0.29094
3083.664	0.02792	-1.49029	1.36652	-0.22984
3087.664	0.06569	-1.43523	1.34137	-0.23610
3091.651	0.12297	-1.36572	1.14476	-0.21440
3095.666	0.20973	-1.42139	1.13625	-0.27483
3099.666	0.18571	-1.53319	1.29613	-0.22475
3103.671	0.29570	-1.45297	1.40442	-0.14398
3107.685	0.13089	-1.53699	1.37568	-0.20629
3111.658	0.07085	-1.54497	1.57394	-0.20411
3115.666	0.13801	-1.40493	1.32513	-0.23841
3119.659	0.35102	-1.34176	1.11276	-0.30285
3123.665	0.24919	-1.37880	1.22620	-0.31924
3127.660	0.09451	-1.45930	1.37843	-0.36572
3131.665	0.09664	-1.43980	1.48610	-0.42333
3135.663	0.12295	-1.53223	1.49190	-0.36478
3139.658	0.19387	-1.55303	1.40614	-0.47494
3143.663	0.20671	-1.53535	1.35653	-0.65792
3147.647	0.01727	-1.64459	1.14623	-0.61601
3151.662	0.12851	-1.54521	1.19390	-0.57015
3155.689	0.24440	-1.52224	1.30642	-0.57951
3159.662	0.09657	-1.51393	1.28311	-0.53038
3163.667	0.10140	-1.52510	1.35901	-0.48044
3167.662	-0.01219	-1.61576	1.54425	-0.47610
3171.688	0.19807	-1.62407	1.36352	-0.34386
3175.663	0.10979	-1.62291	1.02369	-0.33069
3179.666	0.13074	-1.59018	1.08304	-0.41102
3183.665	0.15288	-1.51082	1.23047	-0.37898
3187.668	0.12193	-1.53263	1.44193	-0.33816
3191.630	0.02866	-1.45838	1.61309	-0.31950
3195.664	0.01298	-1.51679	1.33579	-0.25898
3199.664	0.09669	-1.55910	1.38032	-0.19210
3203.672	0.14273	-1.53064	1.39168	-0.24325
3207.661	0.08272	-1.50251	1.20102	-0.32145
3211.665	0.18348	-1.42485	1.24471	-0.30895
3215.624	0.14412	-1.37518	1.25657	-0.55791
3219.633	0.08160	-1.47887	1.41234	-0.52752
3223.663	-0.01295	-1.51209	1.34160	-0.49500
3227.664	0.00342	-1.57330	1.31106	-0.53492
3231.641	-0.00097	-1.65035	1.20107	-0.61503
3235.668	0.03559	-1.76636	0.91356	-0.75391
3239.666	-0.31729	-1.92630	0.65903	-0.71040
3243.665	-1.02037	-2.14853	-0.34863	-1.28474
3247.666	-2.02473	-2.37998	-0.45120	-1.49648
3251.668	-2.54346	-2.31186	-1.28921	-1.99254
3255.663	-2.80389	-2.51039	-1.72870	-2.38023
3259.669	-2.85336	-2.60057	-1.91655	-2.46236
3263.664	-2.78726	-2.54870	-2.30900	-2.52952
3267.669	-2.92512	-2.50093	-2.09913	-2.56150
3271.654	-3.08738	-2.57357	-2.09757	-2.65166
3275.620	-3.30106	-2.67998	-2.13633	-2.76707
3279.665	-3.33337	-2.73801	-2.23586	-2.76617
3283.675	-3.50744	-2.76575	-2.31465	-2.65385
3287.665	-3.57281	-2.81207	-2.37510	-2.71098
3291.669	-3.56398	-2.88268	-2.38997	-2.73592
3295.662	-3.46286	-2.97272	-2.49449	-2.67862
3299.668	-3.49992	-2.98430	-2.47125	-2.68617
3303.663	-3.50764	-3.02539	-2.41294	-2.70469
3307.664	-3.55310	-3.11258	-2.36780	-2.69125
3311.668	-3.58974	-3.25104	-2.31733	-2.76780
3315.673	-3.62798	-3.39497	-2.36933	-2.67822
3319.662	-3.63821	-3.28132	-2.33388	-2.71193
3323.664	-3.69639	-3.34003	-2.32216	-2.68830
3327.665	-3.69953	-3.35954	-2.31946	-2.80309
3331.667	-3.70013	-3.38743	-2.29339	-2.89157
3335.666	-3.75694	-3.32252	-2.29240	-2.92671
3339.667	-3.79161	-3.25297	-2.31136	-2.88677
3343.667	-3.83855	-3.25529	-2.39540	-2.84591
3347.667	-3.84416	-3.17133	-2.43615	-2.85833
3351.669	-3.86015	-3.19780	-2.46414	-2.76515
3355.652	-3.80898	-3.16383	-2.49231	-2.79927
3359.664	-3.69051	-3.16885	-2.52614	-2.82954
3363.673	-3.68846	-3.18997	-2.55056	-2.85514
3367.666	-3.65272	-3.14078	-2.53593	-2.97306
3371.666	-3.61258	-3.18846	-2.54123	-2.93236
3375.664	-3.52195	-3.22925	-2.57177	-2.77528
3379.671	-3.47658	-3.34053	-2.51955	-2.68357
3383.667	-3.53122	-3.32686	-2.34510	-2.77369
3387.672	-3.51760	-3.34859	-2.34981	-2.79610
3391.667	-3.52519	-3.30795	-2.28353	-2.84961
3395.671	-3.54556	-3.23132	-2.23214	-2.87826
3399.631	-3.45484	-3.10940	-2.13450	-2.85730
3403.664	-3.46377	-3.02389	-2.31772	-2.71285
3407.666	-4.47654	-3.31787	-3.98677	-2.77403
3411.628	-5.54157	-3.22926	-5.30695	-3.10384
3415.673	-6.43278	-3.76252	-6.70739	-3.63584
3419.670	-7.13803	-3.88153	-7.82014	-3.60508
3423.666	-8.19105	-4.10110	-7.99094	-3.84388
3427.666	-8.34917	-4.40450	-8.20651	-4.19518
3431.665	-8.63151	-4.23770	-8.20053	-4.41115
3435.666	-8.95128	-4.36496	-8.22854	-4.50329
3439.642	-8.96574	-4.38414	-8.35192	-4.33586
3443.576	-9.07039	-4.41061	-8.30250	-4.36124
3447.671	-9.07557	-4.46950	-8.29280	-4.35656
3451.667	-9.10654	-4.53786	-8.32488	-4.39414
3455.666	-9.16107	-4.56410	-8.37844	-4.42118
3459.663	-9.13402	-4.55948	-8.39183	-4.44586
3463.622	-9.13494	-4.57499	-8.39353	-4.48247
3467.665	-9.17116	-4.60266	-8.41952	-4.45930
3471.670	-9.21050	-4.64153	-8.43960	-4.46029
3475.566	-9.23333	-4.68899	-8.43860	-4.40039
3479.658	-9.19645	-4.72982	-8.46937	-4.38980
3483.660	-9.19597	-4.77261	-8.46330	-4.40429
3487.667	-9.24278	-4.76102	-8.47680	-4.36565
3491.568	-9.26026	-4.76877	-8.49459	-4.36225
3495.625	-9.34391	-4.75010	-8.52178	-4.34496
3499.670	-9.36923	-4.74679	-8.53877	-4.35764
3503.665	-9.44853	-4.72029	-8.54729	-4.39485
3507.568	-9.56043	-4.71067	-8.55770	-4.38989
3511.668	-9.57353	-4.69129	-8.54724	-4.49482
3515.670	-9.54930	-4.65647	-8.50566	-4.49067
3519.670	-9.53171	-4.60334	-8.47131	-4.54283
3523.580	-9.55215	-4.56486	-8.41136	-4.57629
3527.664	-9.57022	-4.51960	-8.31499	-4.58501
3531.624	-9.51870	-4.49235	-8.24468	-4.70437
3535.668	-9.54056	-4.44471	-8.29822	-4.66291
3539.566	-9.45513	-4.41465	-8.19278	-4.71607
3543.667	-9.40571	-4.38097	-8.17573	-4.70833
3547.669	-9.37269	-4.37270	-8.16715	-4.67620
3551.669	-9.33577	-4.34613	-8.14200	-4.65548
3555.567	-9.31078	-4.32062	-8.11637	-4.58023
3559.667	-9.29379	-4.29606	-8.17517	-4.44905
3563.668	-9.26976	-4.30942	-8.19166	-4.34319
3567.667	-9.23705	-4.32021	-8.14935	-4.36515
3571.565	-9.20799	-4.37205	-8.17948	-4.27428
3575.670	-9.23386	-4.40367	-8.20167	-4.31892
3579.666	-9.24738	-4.46501	-8.17006	-4.37231
3583.669	-9.27257	-4.53762	-8.25311	-4.35428
3587.569	-9.32833	-4.50668	-8.29368	-4.32267
3591.677	-9.33729	-4.49787	-8.29929	-4.37292
3595.672	-9.34017	-4.47923	-8.35165	-4.35148
3599.676	-9.35633	-4.45627	-8.40953	-4.38884
3603.570	-9.37051	-4.46827	-8.39285	-4.37153
3607.635	-9.43148	-4.41459	-8.39982	-4.33790
3611.668	-9.54433	-4.41523	-8.52705	-4.25050
3615.671	-10.15781	-4.44281	-8.94523	-4.41731
3619.572	-11.45066	-4.38130	-11.05084	-4.45634
3623.676	-12.20050	-4.41514	-11.39942	-4.69926
3627.667	-12.28960	-4.49585	-11.43207	-4.56840
3631.666	-12.38045	-4.46144	-11.59215	-4.74343
3635.567	-12.52248	-4.51256	-11.77177	-4.93869
3639.669	-12.43783	-4.70102	-11.79451	-5.06398
3643.665	-12.72480	-4.65544	-11.81841	-5.11677
3647.670	-12.69897	-4.69709	-11.74111	-5.19439
3651.564	-12.80681	-4.62295	-11.74306	-5.18828
3655.671	-12.91145	-4.62113	-11.77648	-5.19004
3659.670	-12.77327	-4.54630	-11.81372	-5.09078
3663.671	-12.75738	-4.51337	-11.85977	-5.14927
3667.566	-12.80341	-4.54783	-11.81092	-5.07534
3671.669	-12.80291	-4.57993	-11.79793	-5.15132
3675.669	-12.84973	-4.72188	-11.76618	-5.25084
3679.670	-12.90303	-4.81060	-11.79996	-5.32908
3683.565	-12.87169	-4.61286	-11.92681	-5.28053
3687.663	-12.90183	-4.38896	-11.84282	-5.09376
3691.668	-12.84866	-4.30105	-11.86926	-5.18154
3695.668	-12.90869	-4.35222	-11.90923	-5.05757
3699.568	-12.84163	-4.46684	-11.90554	-5.24499
3703.670	-12.77518	-4.82396	-11.91213	-5.43128
3707.667	-12.85718	-4.67864	-11.92465	-5.36850
3711.668	-12.74301	-4.57810	-11.82618	-5.18464
3715.571	-12.72870	-4.28019	-11.91360	-5.28546
3719.672	-12.66438	-4.40098	-11.95686	-5.12024
3723.669	-12.64463	-4.54647	-11.97880	-5.30466
3727.673	-12.62086	-4.78529	-11.93006	-5.27265
3731.589	-12.55997	-4.57040	-11.87479	-5.28455
3735.668	-12.54966	-4.27054	-11.86980	-5.20646
3739.670	-12.42503	-4.43109	-11.86003	-5.29720
3743.546	-12.38649	-4.51412	-11.83422	-5.24004
3747.539	-12.41239	-4.48483	-11.73987	-5.28745
3751.547	-12.38010	-4.45178	-11.78243	-5.14449
3755.545	-12.39596	-4.40239	-11.80405	-5.20308
3759.543	-12.34235	-4.52072	-11.81422	-5.31738
3763.675	-12.28107	-4.46825	-11.79365	-5.30967
3767.543	-12.21352	-4.49106	-11.77506	-5.29131
3771.545	-12.28799	-4.43478	-11.78754	-5.23364
3775.543	-12.38943	-4.39239	-11.82487	-5.16889
3779.630	-12.52107	-4.42750	-11.85038	-5.08498
3783.546	-12.45740	-4.27416	-11.88879	-5.10666
3787.547	-12.35519	-4.33034	-11.79665	-5.12977
3791.546	-12.06983	-4.35364	-11.80421	-5.13178
3795.505	-11.51838	-4.91308	-10.99814	-5.55281
3799.545	-11.16237	-5.31357	-10.88441	-6.35950
3803.545	-10.73672	-5.79761	-10.11815	-6.83483
3807.545	-10.51811	-6.16371	-9.75369	-6.79725
3811.504	-10.11505	-6.26869	-9.31902	-6.74329
3815.547	-9.91206	-6.41966	-9.05311	-6.78809
3819.519	-9.99765	-6.21722	-8.89749	-6.87028
3823.544	-10.06730	-6.14661	-9.02290	-6.81998
3827.528	-9.93569	-5.89154	-9.03781	-6.89506
3831.545	-9.87724	-5.98212	-9.15384	-6.87009
3835.544	-9.76659	-6.10214	-9.12711	-6.90255
3839.548	-9.73627	-6.14993	-8.85821	-6.95372
3843.538	-9.66436	-6.24353	-8.75584	-6.93442
3847.544	-9.69757	-6.22801	-8.64970	-6.93405
3851.545	-9.62560	-6.20901	-8.57614	-6.93640
3855.544	-9.60249	-6.21866	-8.51180	-6.95667
3859.505	-9.67857	-6.25104	-8.55020	-6.91173
3863.537	-9.69687	-6.22202	-8.56466	-6.89440
3867.547	-9.64707	-6.32897	-8.59873	-6.88994
3871.548	-9.63045	-6.29978	-8.58248	-6.86385
3875.539	-9.62261	-6.32466	-8.54236	-6.87542
3879.548	-9.64608	-6.36139	-8.52265	-6.90850
3883.544	-9.63937	-6.40972	-8.53909	-6.91796
3887.548	-9.68308	-6.43497	-8.64056	-6.95552
3891.540	-9.67357	-6.47106	-8.65252	-6.95542
3895.548	-9.69323	-6.53329	-8.71734	-6.98257
3899.548	-9.75615	-6.60052	-8.77882	-7.00318
3903.505	-9.74010	-6.64755	-8.73936	-6.99956
3907.547	-9.71167	-6.71769	-8.66935	-6.99693
3911.550	-9.81086	-6.76905	-8.59963	-7.02893
3915.544	-9.84710	-6.80974	-8.53882	-7.04657
3919.552	-9.87505	-6.89812	-8.44402	-7.05365
3923.540	-9.84973	-6.90972	-8.48151	-7.04909
3927.548	-9.87820	-6.94349	-8.43829	-7.06063
3931.545	-9.91293	-6.91762	-8.46762	-7.02763
3935.546	-9.95779	-6.93207	-8.53481	-7.02302
3939.542	-9.98403	-6.89281	-8.47418	-7.00698
3943.544	-9.91517	-6.88742	-8.47527	-6.98435
3947.547	-9.92309	-6.90154	-8.59488	-7.00636
3951.547	-9.92902	-6.82961	-8.68380	-7.00862
3955.539	-9.92430	-6.80572	-8.61040	-7.01951
3959.548	-9.92468	-6.79835	-8.66884	-7.01313
3963.542	-9.89971	-6.76901	-8.60441	-7.01185
3967.545	-9.93338	-6.76965	-8.58784	-6.97454
3971.544	-9.93087	-6.74433	-8.59165	-6.89193
3975.551	-9.86866	-6.70583	-8.49272	-6.86058
3979.548	-9.83768	-6.66631	-8.50508	-6.80394
3983.547	-9.79274	-6.63515	-8.43350	-6.75400
3987.541	-9.71281	-6.57821	-8.48889	-6.74589
3991.547	-9.60458	-6.55690	-8.37684	-6.73988
3995.547	-9.67087	-6.53926	-8.49306	-6.81033
3999.547	-9.68194	-6.49182	-8.38627	-6.89396
4003.507	-9.69612	-6.47063	-8.40164	-6.88000
4007.549	-9.74328	-6.45205	-8.50967	-6.96172
4011.549	-9.72715	-6.41009	-8.54612	-6.93353
4015.548	-9.74842	-6.40078	-8.57944	-6.97733
4019.542	-9.76370	-6.42042	-8.62540	-7.01732
4023.554	-9.79655	-6.44266	-8.64194	-7.05387
4027.525	-9.87396	-6.46863	-8.71346	-7.06798
4031.552	-9.92646	-6.51139	-8.61746	-7.12171
4035.541	-9.97387	-6.53852	-8.71945	-7.14427
4039.554	-10.02045	-6.56370	-8.63340	-7.15317
4043.547	-10.00422	-6.58661	-8.62384	-7.12761
4047.549	-9.45167	-6.57631	-8.50991	-7.11726
4051.543	-7.54815	-6.59804	-7.48641	-7.06189
4055.544	-5.27986	-6.56280	-5.92869	-6.93963
4059.549	-3.18893	-6.60983	-3.73040	-6.35676
4063.546	-2.80436	-6.50734	-2.23786	-6.35350
4067.507	-0.36695	-6.38962	-1.84017	-6.07515
4071.539	0.62337	-6.46959	0.11659	-5.82648
4075.548	1.77546	-6.45310	2.74034	-5.69945
4079.547	4.40298	-6.42006	2.92787	-5.59925
4083.541	5.77607	-6.44296	4.44117	-5.57907
4087.548	6.24337	-6.39850	5.78792	-5.27511
4091.507	7.91714	-6.46196	6.57977	-5.17076
4095.550	8.74030	-6.54338	7.79486	-5.11370
4099.546	9.32216	-6.46092	8.61164	-5.02215
4103.547	9.56508	-6.55275	9.38305	-4.96851
4107.547	9.96595	-6.54286	9.77387	-4.75807
4111.517	9.91180	-6.59701	10.50270	-4.80677
4115.541	9.76939	-6.58279	10.36740	-4.63974
4119.547	9.86375	-6.53625	10.34917	-4.59087
4123.550	9.86700	-6.50842	10.49766	-4.54805
4127.551	10.00129	-6.48067	10.61581	-4.54226
4131.544	10.14872	-6.44579	10.73418	-4.53943
4135.550	10.26939	-6.34235	10.64122	-4.54259
4139.552	10.22125	-6.29750	10.50779	-4.57281
4143.552	10.23668	-6.31495	10.54864	-4.61289
4147.543	10.14210	-6.30200	10.57769	-4.65015
4151.532	10.02170	-6.34258	10.59884	-4.70612
4155.550	10.20406	-6.30861	10.61838	-4.72629
4159.567	10.11291	-6.31473	10.64995	-4.79638
4163.545	10.14732	-6.33343	10.65544	-4.80022
4167.550	10.13251	-6.32836	10.63231	-4.80982
4171.548	10.01448	-6.28429	10.67672	-4.81870
4175.551	9.97601	-6.28150	10.65815	-4.83544
4179.545	9.99306	-6.31023	10.63094	-4.82677
4183.548	9.96128	-6.34648	10.67921	-4.82536
4187.548	9.93720	-6.37714	10.72812	-4.85561
4191.552	9.94067	-6.32819	10.71010	-4.89715
4195.541	9.95712	-6.29757	10.72479	-4.87219
4199.552	10.03508	-6.27628	10.70529	-4.90404
4203.552	10.11185	-6.29870	10.68631	-4.90714
4207.551	9.92988	-6.23971	10.73651	-4.92579
4211.551	9.89383	-6.24661	10.76923	-4.95986
4215.550	9.91729	-6.31630	10.72829	-4.80826
4219.553	9.98827	-6.32845	10.77560	-4.81217
4223.556	9.86505	-6.35865	10.71228	-4.86117
4227.546	9.86170	-6.33611	10.61509	-4.88052
4231.549	9.91426	-6.25600	10.69043	-4.93160
4235.551	9.94631	-6.25399	10.73813	-4.90390
4239.509	10.01674	-6.17407	10.73581	-4.95774
4243.547	9.94301	-6.20050	10.85708	-4.90873
4247.555	9.91377	-6.18230	10.87594	-4.84393
4251.550	9.94120	-6.26204	10.75792	-4.95086
4255.551	9.98557	-6.28934	10.67272	-4.90786
4259.511	10.00728	-6.23677	10.75265	-5.08060
4263.550	9.97910	-6.27114	10.66591	-5.16526
4267.549	9.98533	-6.21588	10.74434	-5.13383
4271.549	9.97589	-6.24634	10.83129	-5.08369
4275.509	9.96699	-6.24863	10.74075	-5.23920
4279.549	9.85982	-6.31745	10.73212	-5.29377
4283.554	9.88039	-6.32699	10.89410	-5.28754
4287.550	9.84582	-6.35309	10.76422	-5.28273
4291.511	9.95541	-6.29865	10.77442	-5.28062
4295.554	9.91500	-6.27816	10.82701	-5.28580
4299.550	9.86813	-6.24390	10.74319	-5.30241
4303.551	9.93229	-6.19610	10.82433	-5.24976
4307.511	9.94879	-6.20116	10.77102	-5.24713
4311.552	9.96273	-6.23670	10.90236	-5.24457
4315.552	9.94318	-6.22495	10.78403	-5.19878
4319.516	9.91245	-6.27277	10.72824	-5.18336
4323.551	9.94895	-6.24854	10.71755	-5.17526
4327.551	9.90445	-6.25212	10.54708	-5.13510
4331.550	9.64586	-6.23169	10.21613	-5.10715
4335.550	8.74256	-6.30653	9.61896	-5.05162
4339.513	8.04107	-6.43335	8.75921	-5.08556
4343.509	7.68074	-6.52371	8.57532	-5.19151
4347.511	7.53281	-6.62577	8.36095	-5.40082
4351.553	7.32248	-6.80855	8.21502	-5.47903
4355.546	7.22842	-6.92886	8.10853	-5.44911
4359.537	6.90595	-6.85908	7.97198	-5.68610
4363.554	6.88883	-6.84564	7.97347	-5.86042
4367.553	6.82219	-6.96720	7.88843	-6.04509
4371.552	7.09944	-6.95578	7.87755	-5.96835
4375.555	6.80715	-7.04361	7.84304	-5.94351
4379.551	6.62784	-7.07045	7.82382	-5.90966
4383.552	6.67363	-7.06831	7.70548	-5.97451
4387.553	6.62574	-7.07191	7.67031	-5.98881
4391.553	6.61310	-7.04807	7.55401	-5.97912
4395.554	6.57845	-7.07046	7.40833	-5.91658
4399.550	6.54394	-7.07260	7.37438	-5.90181
4403.546	6.59520	-7.11440	7.27836	-5.91042
4407.553	6.55146	-7.09234	7.40357	-5.84427
4411.554	6.56757	-7.10803	7.31184	-5.79312
4415.552	6.53642	-7.10514	7.37165	-5.76759
4419.553	6.48605	-7.11231	7.37668	-5.75462
4423.559	6.50401	-7.13418	7.34194	-5.78202
4427.552	6.51976	-7.12667	7.40203	-5.80102
4431.551	6.55435	-7.11079	7.49788	-5.78967
4435.558	6.56253	-7.08540	7.52205	-5.78013
4439.511	6.58207	-7.05614	7.56001	-5.81869
4443.554	6.60994	-6.99151	7.59224	-5.85085
4447.553	6.58516	-6.96449	7.58098	-5.84559
4451.558	6.60228	-6.95324	7.57686	-5.92656
4455.553	6.53154	-6.96908	7.60534	-6.00969
4459.557	6.62885	-7.03530	7.59168	-6.09767
4463.552	6.64327	-7.06366	7.60100	-6.07299
4467.547	6.62476	-7.10997	7.52315	-6.07059
4471.554	6.56106	-7.19943	7.47185	-6.07654
4475.556	6.55234	-7.29129	7.46338	-6.06248
4479.570	6.56770	-7.27987	7.48959	-6.03848
4483.512	6.55535	-7.27135	7.49664	-5.92772
4487.542	6.51814	-7.25879	7.53547	-5.87613
4491.552	6.51334	-7.26732	7.59871	-5.94598
4495.553	6.52255	-7.32487	7.64830	-5.91084
4499.452	6.52356	-7.32828	7.69005	-5.91767
4503.554	6.49661	-7.34944	7.66743	-5.86684
4507.556	6.49090	-7.37050	7.61446	-5.85922
4511.554	6.46841	-7.30214	7.63367	-5.85377
4515.454	6.51660	-7.26188	7.57498	-5.86846
4519.555	6.49487	-7.19977	7.62253	-5.87552
4523.556	6.51349	-7.14278	7.57483	-5.95410
4527.522	6.50550	-7.10129	7.44918	-5.97821
4531.456	6.52490	-7.00909	7.49176	-6.01915
4535.553	6.51234	-6.98941	7.51586	-6.02699
4539.527	6.45630	-6.98529	7.56837	-6.07590
4543.555	6.49881	-6.96214	7.53971	-6.08695
4547.455	6.51709	-6.96823	7.62011	-6.09473
4551.554	6.49795	-6.89877	7.74038	-6.10266
4555.553	6.52468	-6.85100	7.68371	-6.10627
4559.556	6.53894	-6.87782	7.69005	-6.14197
4563.456	6.50609	-6.91138	7.60697	-6.16439
4567.553	6.46490	-6.97948	7.65490	-6.22818
4571.556	6.43900	-6.96300	7.67033	-6.26066
4575.557	6.39726	-6.96529	7.72675	-6.19822
4579.458	6.58979	-6.92760	7.65454	-6.17344
4583.562	6.69914	-6.61477	7.68749	-5.78501
4587.554	8.25999	-4.92329	8.14541	-3.49315
4591.559	8.74469	-3.08934	8.31589	-2.14537
4595.425	9.46411	-2.25277	10.01404	-0.59102
4599.558	9.95151	-0.60268	10.69220	-0.21380
4603.553	10.58742	-0.48126	11.02698	0.00639
4607.551	10.79389	0.26738	11.33290	1.45526
4611.427	10.61085	0.33312	11.53093	1.89835
4615.555	10.68341	0.10847	11.50780	1.56004
4619.514	10.82660	0.00815	11.65125	1.61266
4623.559	10.95861	0.33049	11.72629	1.52687
4627.554	10.92330	0.51510	11.74347	1.61891
4631.556	10.95691	0.62632	11.93581	1.62248
4635.556	10.97777	0.78682	11.90687	1.64761
4639.559	11.03375	0.82481	11.93006	1.60146
4643.550	11.05572	0.88946	12.21324	1.64524
4647.556	11.11994	0.98635	12.18898	1.58598
4651.535	11.12077	0.98815	12.19930	1.53786
4655.558	11.15981	1.00432	12.26069	1.50412
4659.517	11.20032	1.03421	12.25017	1.52988
4663.555	11.20204	1.03235	12.26010	1.54006
4667.554	11.20555	1.06372	12.18739	1.57543
4671.554	11.22795	1.07026	12.20250	1.56767
4675.417	11.23222	1.06672	12.08478	1.58900
4679.559	11.22167	1.01851	12.06358	1.60972
4683.555	11.21634	1.02033	12.12670	1.52602
4687.574	11.21895	1.01511	12.08202	1.48133
4691.418	11.20822	1.00869	12.06344	1.46296
4695.556	11.17773	1.02052	12.04635	1.50084
4699.560	11.14756	1.02737	12.07130	1.45713
4703.555	11.13614	1.03448	12.09887	1.49129
4707.421	11.09446	1.04367	12.09031	1.48699
4711.558	11.05261	1.04314	12.19818	1.43654
4715.556	11.05165	1.04034	12.22556	1.46808
4719.559	11.10961	0.98278	12.24460	1.41345
4723.456	11.09953	0.91984	12.27273	1.41803
4727.557	11.07671	0.71226	12.33184	1.47361
4731.561	11.09215	0.65671	12.29292	1.52402
4735.558	11.00561	0.58322	12.28543	1.58506
4739.417	11.01747	0.52435	12.27460	1.63460
4743.556	11.05247	0.51755	12.17245	1.70275
4747.556	11.11908	0.37339	12.09920	1.71848
4751.559	11.19430	0.32345	11.99892	1.77214
4755.457	11.21921	0.32169	11.99512	1.82918
4759.557	11.19289	0.36750	11.98712	1.85266
4763.562	11.19636	0.49877	11.93289	1.87958
4767.558	11.16791	0.38447	11.91750	1.86822
4771.454	11.18496	0.43044	11.87399	1.85523
4775.540	11.17899	0.52708	11.90143	1.82121
4779.430	11.24320	0.51570	11.89468	1.77994
4783.422	11.24449	0.49818	11.89568	1.73939
4787.425	11.21993	0.54994	11.87589	1.66577
4791.443	11.20139	0.61425	11.86754	1.60838
4795.432	11.15960	0.68542	11.90901	1.59942
4799.432	11.12849	0.67145	11.89430	1.53701
4803.458	11.13181	0.71291	11.94752	1.52454
4807.430	11.11891	0.66182	11.94173	1.51376
4811.431	11.09317	0.65400	11.98211	1.50054
4815.430	11.08003	0.68682	12.02893	1.48459
4819.390	11.06461	0.67993	12.08067	1.46667
4823.407	11.02167	0.69147	12.16117	1.48398
4827.434	11.02210	0.74022	12.22324	1.49674
4831.430	11.06385	0.77474	12.35003	1.54703
4835.428	11.11306	0.79404	12.32068	1.54237
4839.394	11.16643	0.66822	12.45461	1.55455
4843.390	11.21587	0.69294	12.47177	1.54735
4847.433	11.24913	0.66642	12.44011	1.47792
4851.458	11.34108	0.55075	12.35576	1.40737
4855.432	11.37734	0.54550	12.37614	1.47762
4859.435	11.36353	0.57305	12.42716	1.43072
4863.433	11.28297	0.48454	12.33205	1.54582
4867.449	11.30553	0.45789	12.27960	1.51617
4871.432	11.33850	0.41167	12.33011	1.52917
4875.435	11.21088	0.44800	12.15770	1.54624
4879.431	11.14701	0.50958	12.03501	1.66227
4883.456	11.07381	0.60986	11.97064	1.67005
4887.434	11.04448	0.60699	11.97358	1.70955
4891.436	10.95330	0.63433	11.93845	1.76595
4895.434	10.68938	0.85020	11.88530	1.92905
4899.450	9.87847	1.72222	10.93294	2.73753
4903.433	9.54756	4.00934	10.60205	4.58469
4907.391	9.30457	4.62626	10.07545	5.30401
4911.392	9.34249	4.72830	10.00863	6.07907
4915.433	9.05313	4.92971	9.64738	5.68714
4919.433	8.95244	4.90961	9.63831	5.57432
4923.432	8.90960	4.91369	9.74364	5.63061
4927.439	8.93602	4.91780	9.81472	5.64758
4931.459	8.99976	4.94970	9.72134	5.61524
4935.434	9.01048	4.96792	9.66349	5.81200
4939.435	8.98392	5.05193	9.74261	5.74659
4943.435	8.98378	5.09384	9.69412	5.78621
4947.434	9.01566	5.12936	9.65568	5.84348
4951.433	9.00344	5.13778	9.70755	5.88731
4955.434	8.99256	5.18870	9.77269	5.86247
4959.437	9.03236	5.19689	9.82400	5.94384
4963.434	8.98642	5.10827	9.84301	5.92819
4967.437	9.00293	5.08900	9.92218	6.02503
4971.431	8.95489	5.08239	9.96169	6.07796
4975.438	8.94895	5.06605	10.00873	6.08783
4979.434	8.88734	4.98885	10.06451	6.11802
4983.436	8.83263	4.89502	10.00764	6.12361
4987.428	8.74006	4.79028	10.04574	6.07069
4991.427	8.67890	4.74115	10.05765	6.12555
4995.434	8.61477	4.67013	10.06641	6.09082
4999.435	8.54120	4.59521	10.05098	6.02612
5003.435	8.50122	4.59190	10.08014	6.01813
5007.438	8.47410	4.59152	10.11541	5.95287
5011.427	8.38525	4.57049	10.11709	5.95526
5015.435	8.34859	4.59278	10.09015	5.85583
5019.433	8.29406	4.57665	10.06956	5.80300
5023.436	8.24587	4.57188	10.06082	5.79490
5027.428	8.21646	4.59920	10.06268	5.82645
5031.407	8.19071	4.63078	10.06893	5.80379
5035.434	8.15423	4.68449	10.08111	5.71662
5039.409	8.12408	4.75785	10.01679	5.67511
5043.395	8.11352	4.89662	10.00868	5.77277
5047.433	8.08817	4.91482	9.95009	5.78686
5051.435	8.07338	5.09690	9.88066	5.87685
5055.435	8.11043	5.31931	9.84606	5.98481
5059.423	8.16250	5.38519	9.75473	5.92990
5063.439	8.22703	5.40684	9.78356	5.94640
5067.434	8.31751	5.40161	9.81600	5.90486
5071.417	8.37395	5.47229	9.78573	5.88141
5075.414	8.38714	5.60491	9.80833	5.86771
5079.435	8.43858	5.52268	9.77035	5.88781
5083.434	8.58425	5.54474	9.86351	5.91593
5087.435	8.61465	5.39796	9.81166	5.87298
5091.432	8.68184	5.49715	9.78074	5.89191
5095.439	8.66569	5.32203	9.70393	5.89769
5099.435	8.62137	5.24110	9.69593	5.89779
5103.435	8.58129	5.24284	9.67864	5.98419
5107.432	8.59534	5.25354	9.77074	6.15644
5111.437	8.55433	5.23793	9.76317	6.06363
5115.413	8.49959	5.23706	9.78826	6.14220
5119.433	8.47665	5.18494	9.79657	6.13507
5123.430	8.48156	5.22673	9.72190	6.16907
5127.439	8.46043	5.23099	9.56798	6.11538
5131.435	8.14964	5.33081	9.16533	6.56507
5135.438	7.19752	5.58306	6.85451	6.82935
5139.430	5.43059	6.37922	5.60934	7.99936
5143.436	3.07478	6.94282	3.30327	8.51310
5147.437	1.97644	7.22993	2.12922	8.28969
5151.434	0.52431	7.20383	1.24922	8.57496
5155.426	-0.69052	7.49016	-0.94467	8.91048
5159.396	-2.19098	7.47767	-2.81301	8.91477
5163.436	-2.74848	8.08363	-4.25875	9.53892
5167.438	-5.88672	8.22034	-5.21939	9.32564
5171.432	-6.30252	8.55570	-6.08968	10.42042
5175.439	-6.86386	8.91998	-7.40101	10.03459
5179.436	-7.76116	8.15087	-7.66095	10.15782
5183.436	-9.58929	8.61796	-7.88643	10.21385
5187.442	-10.05594	8.82970	-7.86084	10.41328
5191.440	-9.94782	8.67212	-7.70248	10.41634
5195.434	-9.84522	8.83428	-7.50069	10.45871
5199.428	-9.85977	8.75619	-7.55466	10.57447
5203.430	-9.85763	8.77459	-7.62545	10.54292
5207.440	-9.86425	8.81353	-7.70750	10.58846
5211.438	-9.94243	8.70022	-7.62299	10.58975
5215.396	-9.95769	8.67688	-7.64727	10.50881
5219.397	-9.97387	8.55978	-7.67465	10.52717
5223.439	-9.95326	8.63446	-7.69205	10.52613
5227.439	-10.03270	8.69095	-7.65639	10.40758
5231.436	-10.03965	8.67709	-7.67102	10.57983
5235.432	-10.03450	8.64903	-7.63579	10.71861
5239.394	-10.05305	8.67267	-7.70928	10.83564
5243.435	-9.99862	8.68776	-7.75799	10.85727
5247.440	-10.01185	8.60153	-7.77115	10.90677
5251.462	-10.00829	8.57643	-7.76625	10.90953
5255.437	-9.95923	8.58983	-7.79831	10.86114
5259.441	-9.91982	8.60349	-7.82482	10.89959
5263.439	-9.91356	8.63822	-7.87233	10.91344
5267.441	-9.88658	8.58668	-7.91553	10.81823
5271.438	-9.83460	8.53456	-7.97775	10.85535
5275.395	-9.84599	8.48376	-7.97989	10.88169
5279.421	-9.80183	8.47546	-8.04487	10.75591
5283.418	-9.76326	8.44390	-8.07385	10.69322
5287.440	-9.79219	8.39168	-8.12019	10.65284
5291.442	-9.76293	8.37963	-8.17315	10.65665
5295.439	-9.76777	8.38056	-8.19246	10.62882
5299.442	-9.79125	8.34836	-8.19431	10.62412
5303.441	-9.82226	8.33748	-8.15881	10.59633
5307.439	-9.81501	8.35166	-8.11170	10.55329
5311.436	-9.89679	8.30571	-8.12016	10.57000
5315.442	-9.93138	8.30741	-8.02686	10.58261
5319.439	-9.97108	8.31214	-8.05866	10.55964
5323.407	-10.05447	8.32434	-8.05331	10.56363
5327.454	-10.07444	8.30850	-7.97860	10.50706
5331.441	-10.14689	8.31372	-7.96600	10.48403
5335.437	-10.21868	8.33263	-7.93917	10.43829
5339.395	-10.23858	8.34071	-7.95046	10.43685
5343.438	-10.25723	8.39542	-7.96570	10.42447
5347.398	-10.27636	8.50221	-7.99927	10.40549
5351.437	-10.23192	8.49535	-7.97846	10.31626
5355.438	-10.22635	8.55519	-7.95816	10.32165
5359.439	-10.21197	8.60098	-7.96940	10.26970
5363.441	-10.21644	8.64832	-7.92683	10.19874
5367.407	-10.21558	8.66165	-7.92322	10.16108
5371.438	-10.23827	8.72255	-7.93759	10.16398
5375.442	-10.23106	8.74979	-7.83120	10.40815
5379.439	-10.24807	8.76476	-7.76440	10.34152
5383.438	-10.27604	8.79728	-7.74781	10.50475
5387.438	-10.35738	8.83009	-7.65059	10.62542
5391.441	-10.32095	8.86136	-7.66414	10.72887
5395.431	-10.38730	8.87336	-7.65449	10.77140
5399.439	-10.43138	8.92942	-7.65912	10.82099
5403.398	-10.46597	8.93061	-7.65702	10.77635
5407.431	-10.49951	8.96661	-7.69807	10.94942
5411.441	-10.52509	8.99735	-7.67111	10.97901
5415.439	-10.54627	9.01544	-7.66258	10.95734
5419.439	-10.50928	9.01756	-7.73399	10.93551
5423.442	-10.42118	9.02468	-7.74479	10.97518
5427.443	-10.37974	9.02648	-7.78562	10.97359
5431.447	-10.34251	9.01907	-7.80345	10.93040
5435.437	-10.32904	9.00883	-7.82635	10.93475
5439.397	-10.33291	8.99876	-7.84586	10.93283
5443.432	-10.31556	8.97530	-7.83485	10.93766
5447.439	-10.32301	8.98885	-7.79758	10.90047
5451.436	-10.29361	8.99056	-7.78189	10.84655
5455.440	-10.26857	8.92501	-7.73338	10.81810
5459.400	-10.24690	8.87272	-7.70212	10.80182
5463.397	-10.23101	8.83407	-7.64169	10.83718
5467.439	-10.24858	8.83965	-7.63957	10.83388
5471.443	-10.24694	8.81921	-7.54827	10.83340
5475.402	-10.26461	8.80132	-7.52359	10.85926
5479.441	-10.23344	8.80671	-7.47846	10.86518
5483.440	-10.19923	8.85440	-7.42258	10.87293
5487.424	-10.12628	8.87841	-7.39654	10.87686
5491.399	-10.26059	8.86916	-7.38053	10.91027
5495.440	-10.28731	8.82255	-7.35476	10.93475
5499.438	-10.53787	8.89261	-7.37248	10.94558
5503.438	-10.43685	8.92995	-7.41441	10.82789
5507.419	-10.22940	8.93795	-7.42478	10.81602
5511.443	-10.09816	8.83360	-7.33352	10.96728
5515.440	-7.26136	9.11405	-6.83059	10.98222
5519.439	-5.54658	9.02553	-4.05026	11.24637
5523.400	-2.39733	8.92375	-3.07426	11.34578
5527.444	-0.75856	9.11738	-0.81057	10.94064
5531.412	1.01380	8.98187	0.80357	11.13939
5535.441	2.97643	8.82307	1.81448	10.48822
5539.402	4.66583	8.90785	3.53486	9.90335
5543.443	5.10620	8.52792	4.54548	9.16103
5547.440	6.56027	8.62307	5.61736	8.70539
5551.439	7.67521	7.65651	7.28197	9.36230
5555.340	8.06976	8.08091	7.72020	8.36592
5559.442	8.46796	8.13269	8.36608	8.75418
5563.441	8.28587	7.81541	8.94702	8.76530
5567.441	8.37147	7.53924	9.39291	8.58148
5571.347	8.24210	7.39661	9.35425	8.43167
5575.446	8.08988	7.50152	9.12069	8.37677
5579.441	8.30670	7.34482	9.36068	8.67551
5583.443	8.40113	7.27769	9.21679	8.49741
5587.444	8.45732	7.32532	9.31673	8.50777
5591.444	8.39707	7.32053	9.29050	8.57540
5595.447	8.40448	7.35586	9.39059	8.53543
5599.448	8.32893	7.32866	9.32572	8.55036
5603.449	8.31394	7.27458	9.41141	8.59668
5607.446	8.29589	7.24752	9.46679	8.60706
5611.431	8.29042	7.27901	9.44228	8.67657
5615.434	8.27941	7.28136	9.40726	8.62743
5619.343	8.35865	7.30155	9.49335	8.74699
5623.445	8.33515	7.32572	9.45930	8.75821
5627.441	8.31440	7.34235	9.55075	8.76943
5631.439	8.23544	7.38029	9.55731	8.77812
5635.444	8.23272	7.34018	9.62104	8.77688
5639.400	8.20384	7.42121	9.52294	8.69017
5643.438	8.24064	7.44203	9.57030	8.76891
5647.438	8.28094	7.41149	9.49900	8.68457
5651.344	8.26264	7.48115	9.55000	8.63453
5655.400	8.26395	7.52584	9.53702	8.49144
5659.401	8.26298	7.58033	9.56660	8.52654
5663.440	8.24565	7.57510	9.59877	8.46605
5667.448	8.24745	7.63320	9.67521	8.40244
5671.442	8.24623	7.67651	9.69810	8.40468
5675.444	8.26808	7.63662	9.65565	8.35705
5679.442	8.28519	7.64149	9.65295	8.32201
5683.446	8.24320	7.58950	9.73229	8.31479
5687.444	8.22528	7.58184	9.77001	8.29586
5691.446	8.18986	7.60315	9.81566	8.29895
5695.429	8.17619	7.52727	9.85156	8.26294
5699.340	8.13925	7.49967	9.85387	8.30512
5703.442	8.12756	7.47607	9.87772	8.30096
5707.444	8.11476	7.48844	9.89675	8.31079
5711.443	8.11929	7.36487	9.87533	8.28680
5715.446	8.09589	7.34253	9.85729	8.22681
5719.445	8.09233	7.33514	9.85409	8.18796
5723.445	8.05796	7.37973	9.86090	8.15051
5727.440	8.04115	7.37729	9.89482	8.17691
5731.451	8.04261	7.37753	9.86719	8.13875
5735.448	8.04504	7.37234	9.85879	8.10244
5739.402	8.01204	7.36499	9.82662	8.10777
5743.442	8.02455	7.37345	9.85050	8.06916
5747.454	8.00584	7.37502	9.72105	8.02856
5751.444	7.98963	7.38020	9.61064	7.97614
5755.442	7.94959	7.41618	9.49844	7.96833
5759.444	7.92145	7.41046	9.57394	7.95671
5763.447	7.91424	7.42872	9.49844	7.98275
5767.442	7.94835	7.47091	9.50023	7.97197
5771.441	8.02764	7.57647	9.42375	7.90639
5775.445	8.11301	7.49870	9.39182	7.89393
5779.345	8.11603	7.46989	9.42982	7.93800
5783.448	8.17053	7.54144	9.35036	7.90800
5787.440	8.27154	7.54460	9.34957	7.98803
5791.446	8.27593	7.55430	9.39347	8.13693
5795.341	8.34837	7.57851	9.40649	8.06507
5799.443	8.36270	7.61664	9.45996	8.06160
5803.441	8.42806	7.63515	9.52058	8.19769
5807.446	8.42034	7.65486	9.48693	8.08777
5811.342	8.41918	7.60890	9.57814	8.32586
5815.319	8.35053	7.59359	9.66986	8.35805
5819.317	8.38398	7.57159	9.63242	8.19309
5823.323	8.37038	7.57439	9.70369	8.34496
5827.348	8.33751	7.49791	9.83445	8.28000
5831.321	8.29088	7.44953	9.75548	8.17246
5835.317	8.23133	7.40910	9.79460	8.00604
5839.319	8.21692	7.52044	9.69752	7.97913
5843.345	8.15854	7.49203	9.67750	7.98902
5847.278	8.01263	7.49982	9.69012	8.05391
5851.319	8.18709	7.62193	9.81144	8.14083
5855.319	8.15645	7.67474	9.75415	8.17753
5859.316	8.17556	7.66525	9.65792	8.12947
5863.318	8.12284	7.61654	9.72592	8.06197
5867.304	8.13709	7.66784	9.67152	8.32554
5871.319	8.05896	7.80433	9.47242	8.12008
5875.342	6.59500	7.64576	8.87549	8.21822
5879.317	5.92984	6.18382	5.45895	7.42079
5883.320	4.27797	5.24182	4.96657	5.92434
5887.322	3.88695	4.46638	4.44553	4.89271
5891.346	3.86711	4.35487	3.91146	4.66761
5895.319	3.06239	4.38471	4.04826	4.75801
5899.318	2.56860	4.14559	3.99877	4.89746
5903.320	2.65912	4.15835	3.76144	4.92120
5907.340	2.59916	4.15858	3.43195	4.73986
5911.316	2.48017	4.25203	3.50667	4.54389
5915.321	2.81944	4.00670	3.71802	4.54400
5919.320	2.67350	3.94926	3.53372	4.41126
5923.343	2.59326	3.89296	3.30665	4.29320
5927.321	2.51656	3.83052	3.26505	4.29937
5931.325	2.37949	3.75082	3.31076	4.20826
5935.321	2.33209	3.80046	3.53216	4.31394
5939.322	2.23132	3.74152	3.51382	4.26924
5943.319	2.17249	3.79336	3.46498	4.56263
5947.329	2.20248	3.65621	3.39693	4.44901
5951.323	2.17735	3.58717	3.35798	4.41148
5955.288	2.18617	3.55469	3.66214	4.31621
5959.334	2.14711	3.61449	3.53162	4.13303
5963.277	2.14131	3.68333	3.42277	4.26348
5967.318	2.07460	3.68285	3.47707	4.05858
5971.280	2.04309	3.67409	3.50108	4.01770
5975.320	1.99486	3.70920	3.56319	4.02240
5979.323	2.01280	3.59328	3.59219	4.15682
5983.319	1.97099	3.51213	3.65361	4.55388
5987.314	1.98792	3.47367	3.63278	4.47899
5991.312	1.96757	3.45364	3.62996	4.49301
5995.313	1.92840	3.42715	3.60620	4.50096
5999.322	1.89518	3.56444	3.58005	4.64932
6003.318	1.88529	3.52831	3.54878	4.70781
6007.322	1.88224	3.50043	3.67956	4.67058
6011.322	1.88926	3.48711	3.72338	4.71383
6015.321	1.89739	3.43753	3.70742	4.72706
6019.316	1.95445	3.41210	3.70638	4.71495
6023.320	1.98150	3.41415	3.69002	4.75816
6027.322	2.03744	3.47059	3.65799	4.68378
6031.325	2.10862	3.48778	3.63678	4.61909
6035.315	2.08689	3.59279	3.63463	4.53473
6039.300	2.07474	3.63663	3.66483	4.48643
6043.324	2.12144	3.58950	3.58568	4.47666
6047.321	1.77219	3.53712	3.36525	4.61947
6051.316	1.47384	3.63493	2.21873	4.31838
6055.320	-0.37276	3.59284	-0.55185	4.44934
6059.333	-2.26321	3.52176	-2.06518	4.33878
6063.321	-3.72155	3.39370	-3.63663	4.23204
6067.313	-4.26422	3.25729	-5.23315	3.46453
6071.318	-5.61581	2.42288	-5.89456	2.60484
6075.302	-7.49188	2.12493	-7.52501	2.47036
6079.322	-8.31608	1.85984	-8.62256	2.31972
6083.348	-9.07641	1.88779	-10.01953	2.29241
6087.322	-10.40913	2.20052	-10.24709	2.10517
6091.323	-10.77603	2.14350	-10.50285	2.07908
6095.326	-10.94899	1.88802	-10.41918	2.02960
6099.281	-11.01876	1.84496	-10.36953	1.99662
6103.323	-10.98025	1.82151	-10.25634	1.86850
6107.322	-10.97992	1.78328	-10.24610	1.77867
6111.323	-10.96566	1.75851	-10.30194	1.73168
6115.316	-11.00467	1.76683	-10.38769	1.73824
6119.312	-11.02201	1.79241	-10.37013	1.68107
6123.321	-11.05469	1.84900	-10.41133	1.67437
6127.326	-11.05345	1.87863	-10.41897	1.63482
6131.317	-11.18107	1.81479	-10.39537	1.60537
6135.326	-11.26693	1.78184	-10.35990	1.59439
6139.328	-11.38542	1.82654	-10.32899	1.58700
6143.325	-11.69624	1.83565	-10.32294	1.58723
6147.320	-11.64397	1.81040	-10.35402	1.58717
6151.329	-11.56560	1.82236	-10.32618	1.59984
6155.281	-11.47476	1.82572	-10.27234	1.60842
6159.303	-11.54847	1.77580	-10.27681	1.61499
6163.289	-11.53432	1.79629	-10.22260	1.62595
6167.323	-11.44716	1.76364	-10.17687	1.61374
6171.324	-11.47524	1.75735	-10.12828	1.62572
6175.326	-11.61559	1.80817	-10.13390	1.65426
6179.323	-11.57481	1.79686	-10.16783	1.65983
6183.323	-11.67215	1.80805	-10.24899	1.67859
6187.322	-11.64416	1.81280	-10.30956	1.73085
6191.325	-11.66020	1.80285	-10.33673	1.77279
6195.320	-11.63378	1.81562	-10.34912	1.83594
6199.313	-11.56767	1.81556	-10.38255	1.87452
6203.315	-11.76759	1.86580	-10.40454	1.87285
6207.325	-11.66603	1.89247	-10.47645	1.90283
6211.294	-11.71437	1.91878	-10.49812	1.96183
6215.284	-11.64856	1.95251	-10.53828	2.06484
6219.325	-11.59968	1.98801	-10.55068	2.14128
6223.327	-11.52765	1.99251	-10.54754	2.21088
6227.323	-11.58053	1.93483	-10.50172	2.25695
6231.325	-11.52114	1.92916	-10.43877	2.30554
6235.323	-11.45398	1.96314	-10.38447	2.32752
6239.282	-11.43369	1.96756	-10.40536	2.31980
6243.318	-11.48506	2.05184	-10.39892	2.25293
6247.325	-11.47481	2.05989	-10.37923	2.22735
6251.326	-11.46199	2.01910	-10.31189	2.15176
6255.324	-11.50839	2.00206	-10.22120	2.09274
6259.316	-11.51973	1.94106	-10.19906	2.02943
6263.326	-11.51666	1.91019	-10.16560	1.99403
6267.326	-11.54775	1.82744	-10.16370	1.94364
6271.334	-11.58656	1.91944	-10.18976	1.87422
6275.283	-11.57546	1.89732	-10.26598	1.87604
6279.321	-11.57503	1.91330	-10.27979	1.85637
6283.305	-11.56331	1.93721	-10.23214	1.84143
6287.324	-11.51842	1.92776	-10.26535	1.89918
6291.284	-11.49555	1.96022	-10.32971	1.95227
6295.324	-11.44692	2.00198	-10.32522	2.01366
6299.323	-11.45951	1.98886	-10.37289	2.09755
6303.325	-11.41910	1.98970	-10.34554	2.17719
6307.318	-11.45639	1.99238	-10.38404	2.20377
6311.326	-11.43333	2.02930	-10.35171	2.25625
6315.324	-11.37591	2.01329	-10.42533	2.19918
6319.326	-11.40169	2.03296	-10.37390	2.11238
6323.290	-11.44351	1.96708	-10.34960	2.16891
6327.327	-11.50646	1.92792	-10.29032	2.16197
6331.324	-11.53346	1.89497	-10.22221	2.11901
6335.329	-11.53587	1.84631	-10.16653	1.96505
6339.284	-11.62028	1.87338	-10.15184	1.97652
6343.281	-11.61561	1.89704	-10.11736	1.99091
6347.283	-11.70314	1.83799	-10.10280	1.92304
6351.326	-11.71708	1.81867	-10.15841	1.89498
6355.318	-11.73897	1.78056	-10.18286	1.88997
6359.330	-11.67584	1.74576	-10.15944	1.94635
6363.326	-11.54601	1.67251	-10.12799	1.94254
6367.299	-11.49993	1.63215	-10.16803	1.96914
6371.318	-11.47536	1.66789	-10.24887	2.01627
6375.327	-11.34585	1.76621	-10.25471	2.05079
6379.324	-11.39589	1.79970	-10.28561	2.12201
6383.325	-11.41857	1.79357	-10.29231	2.14762
6387.320	-11.34549	1.74346	-10.33255	2.13788
6391.326	-11.28066	1.76462	-10.36250	2.17258
6395.323	-11.31884	1.72577	-10.33922	2.15480
6399.321	-11.29264	1.71281	-10.35054	2.14471
6403.320	-11.27137	1.67692	-10.36600	2.07946
6407.287	-11.39081	1.65047	-10.33255	2.15685
6411.322	-11.44180	1.67617	-10.29250	2.14113
6415.325	-11.56910	1.67208	-10.30053	2.15404
6419.327	-11.63728	1.62731	-10.23947	2.13375
6423.328	-11.61918	1.61003	-10.18894	2.19856
6427.330	-11.70773	1.60242	-10.14023	2.24677
6431.327	-11.63949	1.62078	-10.15898	2.24324
6435.327	-11.67382	1.61706	-10.21995	2.29987
6439.328	-11.67610	1.59436	-10.14626	2.42474
6443.330	-11.66665	1.56598	-10.15588	2.55472
6447.330	-11.71377	1.59078	-10.12628	2.54258
6451.330	-11.72329	1.62080	-10.12878	2.57803
6455.324	-11.74261	1.62796	-10.14819	2.57292
6459.330	-11.75498	1.63574	-10.10355	2.53199
6463.327	-11.69433	1.63145	-10.16877	2.61306
6467.331	-11.71799	1.66579	-10.15285	2.51505
6471.328	-11.67810	1.68093	-10.21820	2.57116
6475.329	-11.70566	1.73009	-10.16240	2.49013
6479.328	-11.71028	1.75410	-10.15045	2.51090
6483.334	-11.68831	1.75840	-10.19529	2.46892
6487.328	-11.71539	1.81204	-10.20108	2.45387
6491.310	-11.65437	1.80773	-10.21841	2.41216
6495.325	-11.61428	1.82066	-10.29111	2.37883
6499.330	-11.57024	1.84302	-10.32311	2.39387
6503.326	-11.51869	1.82016	-10.36619	2.44500
6507.330	-11.49297	1.84915	-10.38752	2.42683
6511.328	-11.45343	1.81272	-10.39811	2.46273
6515.228	-11.38542	1.77950	-10.43764	2.48100
6519.326	-11.37538	1.78788	-10.45905	2.50439
6523.330	-11.35570	1.78080	-10.46745	2.41025
6527.326	-11.34129	1.80292	-10.46325	2.33281
6531.324	-11.37734	1.80907	-10.47417	2.31792
6535.325	-11.40694	1.83857	-10.53226	2.24541
6539.305	-11.47076	1.89252	-10.49886	2.11478
6543.327	-11.56803	1.90240	-10.51336	2.09811
6547.327	-11.73519	1.88869	-10.50119	2.03873
6551.328	-11.81774	1.92350	-10.48036	2.04824
6555.328	-11.77525	1.85909	-10.45481	2.07799
6559.331	-11.75174	1.84967	-10.44336	2.02102
6563.328	-11.76659	1.79564	-10.40812	1.99198
6567.331	-11.78657	1.84086	-10.40185	2.02925
6571.328	-11.80911	1.80061	-10.29269	2.06063
6575.308	-11.82342	1.75661	-10.21615	2.04080
6579.213	-11.79037	1.74144	-10.21171	2.10951
6583.328	-11.74059	1.72377	-10.18738	2.16516
6587.328	-11.60635	1.72470	-10.14648	2.22916
6591.292	-11.57572	1.74340	-10.07257	2.27318
6595.237	-11.52662	1.79075	-10.08012	2.32545
6599.332	-11.43665	1.90263	-10.04882	2.30999
6603.327	-11.36381	1.95205	-10.08880	2.28750
6607.330	-11.40419	2.03092	-10.09374	2.24233
6611.332	-11.38903	2.04358	-10.08082	2.25253
6615.317	-11.38905	2.01424	-10.11608	2.23157
6619.320	-11.37438	2.05393	-10.15026	2.24555
6623.331	-11.37576	1.98701	-10.12541	2.23886
6627.225	-11.39485	1.94559	-10.11642	2.20875
6631.327	-11.41943	1.88236	-10.13056	2.20030
6635.332	-11.49457	1.86142	-10.16834	2.22339
6639.286	-11.54523	1.84350	-10.16877	2.15268
6643.231	-11.62192	1.86714	-10.16033	2.11449
6647.330	-11.60392	1.84825	-10.11733	2.10955
6651.327	-11.62649	1.82636	-10.08613	2.16868
6655.335	-11.61349	1.82526	-10.04858	2.22002
6659.226	-11.54575	1.83890	-10.01515	2.37482
6663.329	-11.56219	1.84016	-9.97659	2.41515
6667.330	-11.57512	1.86048	-9.92967	2.41588
6671.330	-11.47805	1.94147	-9.94874	2.31285
6675.194	-11.50029	1.93309	-9.94209	2.26253
6679.332	-11.18382	1.92759	-9.88032	2.23517
6683.328	-10.85224	1.95104	-9.68717	2.25650
6687.328	-8.90953	1.92740	-8.54870	2.15193
6691.302	-6.77078	1.64156	-7.36306	1.49158
6695.336	-5.57149	-0.09885	-6.10706	0.98131
6699.312	-4.90558	-1.21005	-5.18205	0.14564
6703.325	-4.77907	-0.97192	-4.57529	-0.05615
6707.193	-4.67471	-1.24417	-3.84130	-0.37537
6711.331	-3.21706	-1.57102	-2.04974	-0.59876
6715.332	-1.28874	-2.07814	-2.06399	-0.88240
6719.332	-1.65798	-2.11175	-0.23400	-1.32794
6723.291	-1.03203	-2.22920	0.06731	-1.28749
6727.328	-0.05661	-2.56932	0.75692	-1.90747
6731.288	0.56992	-2.95322	1.47665	-2.18048
6735.331	0.70709	-3.45863	1.82976	-2.33795
6739.191	0.78476	-3.70458	1.94585	-2.67552
6743.328	0.87778	-3.75883	1.88008	-3.01697
6747.331	0.86061	-3.89702	1.75701	-2.83928
6751.332	0.79702	-3.64934	1.74707	-2.87487
6755.230	0.91721	-3.67395	1.89605	-2.89215
6759.334	0.83511	-3.60476	1.93755	-2.98843
6763.328	0.83406	-3.73012	1.97153	-3.03669
6767.329	0.86865	-3.81343	2.00100	-3.04805
6771.233	0.85868	-3.87686	2.07958	-3.12598
6775.287	0.87468	-3.92421	2.08238	-3.12503
6779.331	0.84868	-3.90428	2.00738	-3.15375
6783.303	0.82885	-3.85958	1.96501	-3.14487
6787.221	0.83369	-3.83135	1.97805	-3.14192
6791.335	0.83352	-3.86630	2.05710	-3.16541
6795.331	0.80531	-3.90927	2.03744	-3.17493
6799.331	0.75332	-3.92178	2.11214	-3.24080
6803.225	0.74590	-3.98452	2.16910	-3.23125
6807.331	0.71920	-4.00153	2.16706	-3.20395
6811.330	0.73903	-4.04239	2.25692	-3.19963
6815.328	0.74645	-4.03736	2.31844	-3.15563
6819.229	0.75655	-4.03263	2.27288	-3.19565
6823.321	0.71623	-4.08419	2.44752	-3.23644
6827.331	0.72005	-4.09758	2.58933	-3.26004
6831.329	0.67191	-4.13040	2.57969	-3.26407
6835.231	0.64789	-4.11883	2.64564	-3.26204
6839.330	0.64397	-4.12039	2.70619	-3.26062
6843.331	0.64704	-4.13668	2.73702	-3.26244
6847.333	0.71521	-4.12011	2.75943	-3.25850
6851.228	0.70930	-4.09186	2.80506	-3.24368
6855.331	0.71429	-4.07685	2.79775	-3.23274
6859.206	0.76126	-4.06041	2.75653	-3.23794
6863.206	0.74402	-4.07739	2.76980	-3.25726
6867.206	0.77000	-4.09052	2.71280	-3.25887
6871.186	0.81039	-4.09987	2.68098	-3.26472
6875.204	0.79464	-4.05858	2.68613	-3.27928
6879.208	0.82290	-4.02530	2.65495	-3.34373
6883.199	0.82808	-3.99406	2.66399	-3.37995
6887.209	0.82404	-3.97676	2.63559	-3.36984
6891.208	0.78828	-4.00812	2.60976	-3.42314
6895.207	0.76709	-4.01665	2.59222	-3.45123
6899.200	0.75690	-4.01663	2.59619	-3.46970
6903.205	0.68526	-4.02589	2.60547	-3.47850
6907.223	0.70861	-4.01208	2.62103	-3.47146
6911.209	0.73868	-4.00152	2.67927	-3.46435
6915.202	0.73025	-3.93693	2.69492	-3.47830
6919.207	0.74538	-3.91741	2.70589	-3.44914
6923.204	0.76670	-3.90515	2.67571	-3.45728
6927.204	0.79012	-3.88012	2.64215	-3.45515
6931.206	0.74364	-3.86144	2.65968	-3.44086
6935.207	0.77029	-3.77427	2.65141	-3.42305
6939.211	0.80148	-3.75719	2.66900	-3.43542
6943.209	0.75836	-3.80191	2.67712	-3.43374
6947.205	0.80240	-3.81142	2.71399	-3.48176
6951.208	0.81580	-3.82605	2.64646	-3.48400
6955.179	0.78508	-3.80919	2.55668	-3.46503
6959.207	0.77384	-3.83782	2.54546	-3.47533
6963.200	0.78005	-3.84817	2.50969	-3.49303
6967.166	0.77337	-3.90410	2.50313	-3.45437
6971.208	0.77670	-3.97866	2.33541	-3.29689
6975.212	0.80374	-4.05560	2.21883	-3.24401
6979.201	0.84292	-4.10592	2.19601	-3.18582
6983.204	0.80662	-4.15695	2.11834	-3.11406
6987.208	0.79801	-4.16365	2.11965	-3.07021
6991.210	0.76647	-4.20587	2.13574	-3.04799
6995.204	0.77464	-4.19195	2.16496	-3.01795
6999.206	0.73111	-4.21710	2.20696	-2.97079
7003.206	0.73297	-4.23736	2.23330	-2.93186
7007.208	0.71791	-4.23896	2.23823	-2.95458
7011.168	0.70193	-4.25252	2.30011	-2.94975
7015.206	0.69866	-4.24006	2.35618	-2.97761
7019.207	0.66662	-4.22401	2.36958	-3.13987
7023.209	0.59692	-4.18731	2.43704	-3.18535
7027.233	0.59573	-4.15790	2.44224	-3.18445
7031.209	0.59064	-4.00962	2.12035	-3.10911
7035.208	0.37685	-1.93040	1.46824	-1.77129
7039.184	-0.60888	-0.23282	-0.30920	1.02629
7043.209	-1.44857	1.73944	-0.25703	2.92114
7047.207	-1.79745	3.42899	-1.01940	4.91095
7051.207	-2.78037	4.90545	-1.37225	7.63453
7055.211	-2.70364	7.68203	-1.31077	8.97973
7059.235	-2.85356	9.14733	-1.00298	11.84390
7063.208	-3.49174	10.86771	-1.34720	14.09652
7067.207	-4.24564	13.17105	NaN	NaN
7071.211	NaN	NaN	NaN	NaN
7075.237	NaN	NaN	NaN	NaN
7079.189	NaN	NaN	NaN	NaN
7083.207	NaN	NaN	NaN	NaN
7087.166	NaN	NaN	NaN	NaN
7091.233	NaN	NaN	NaN	NaN
7095.213	NaN	NaN	NaN	NaN
7099.210	NaN	NaN	NaN	NaN
7103.212	NaN	NaN	NaN	NaN
7107.234	NaN	NaN	NaN	NaN
7111.210	NaN	NaN	NaN	NaN
7115.209	NaN	NaN	NaN	NaN
7119.203	NaN	NaN	NaN	NaN
7123.236	NaN	NaN	NaN	NaN
7127.206	NaN	NaN	NaN	NaN
7131.207	NaN	NaN	NaN	NaN
7135.170	NaN	NaN	NaN	NaN
7139.179	NaN	NaN	NaN	NaN
7143.210	NaN	NaN	NaN	NaN
7147.208	NaN	NaN	NaN	NaN
7151.212	NaN	NaN	NaN	NaN
7155.234	NaN	NaN	NaN	NaN
7159.214	NaN	NaN	NaN	NaN
7163.182	NaN	NaN	NaN	NaN
7167.214	NaN	NaN	NaN	NaN
7171.236	NaN	NaN	NaN	NaN
7175.209	NaN	NaN	NaN	NaN
7179.210	NaN	NaN	NaN	NaN
7183.213	NaN	NaN	NaN	NaN
7187.234	NaN	NaN	NaN	NaN
7191.208	NaN	NaN	NaN	NaN
7195.208	NaN	NaN	NaN	NaN
7199.215	NaN	NaN	NaN	NaN
7203.209	NaN	NaN	NaN	NaN
7207.212	NaN	NaN	NaN	NaN
7211.211	NaN	NaN	NaN	NaN
7215.167	NaN	NaN	NaN	NaN
7219.204	NaN	NaN	NaN	NaN
7223.220	NaN	NaN	NaN	NaN
7227.207	NaN	NaN	NaN	NaN
7231.213	NaN	NaN	NaN	NaN
7235.235	NaN	NaN	NaN	NaN
7239.216	NaN	NaN	NaN	NaN
7243.211	-2.27221	15.13634	NaN	NaN
7247.181	NaN	NaN	NaN	NaN
7251.237	NaN	NaN	NaN	NaN
7255.208	NaN	NaN	NaN	NaN
7259.208	NaN	NaN	NaN	NaN
7263.215	NaN	NaN	NaN	NaN
7267.235	NaN	NaN	NaN	NaN
7271.210	NaN	NaN	NaN	NaN
7275.211	NaN	NaN	NaN	NaN
7279.211	NaN	NaN	NaN	NaN
7283.216	NaN	NaN	NaN	NaN
7287.213	NaN	NaN	NaN	NaN
7291.211	NaN	NaN	NaN	NaN
7295.170	NaN	NaN	NaN	NaN
7299.171	NaN	NaN	NaN	NaN
7303.210	NaN	NaN	NaN	NaN
7307.212	NaN	NaN	NaN	NaN
7311.211	NaN	NaN	NaN	NaN
7315.220	NaN	NaN	NaN	NaN
7319.211	NaN	NaN	NaN	NaN
7323.211	NaN	NaN	NaN	NaN
7327.209	NaN	NaN	NaN	NaN
7331.201	NaN	NaN	NaN	NaN
7335.208	NaN	NaN	NaN	NaN
7339.217	NaN	NaN	NaN	NaN
7343.211	NaN	NaN	NaN	NaN
7347.217	NaN	NaN	NaN	NaN
7351.213	NaN	NaN	NaN	NaN
7355.211	NaN	NaN	NaN	NaN
7359.212	NaN	NaN	NaN	NaN
7363.224	NaN	NaN	NaN	NaN
7367.218	NaN	NaN	NaN	NaN
7371.211	NaN	NaN	NaN	NaN
7375.209	NaN	NaN	NaN	NaN
7379.215	NaN	NaN	NaN	NaN
7383.212	NaN	NaN	NaN	NaN
7387.214	NaN	NaN	NaN	NaN
7391.211	NaN	NaN	NaN	NaN
7395.192	NaN	NaN	NaN	NaN
7399.211	NaN	NaN	NaN	NaN
7403.171	NaN	NaN	NaN	NaN
7407.215	NaN	NaN	NaN	NaN
7411.173	NaN	NaN	NaN	NaN
7415.211	NaN	NaN	NaN	NaN
7419.211	NaN	NaN	NaN	NaN
7423.211	NaN	NaN	NaN	NaN
7427.172	NaN	NaN	NaN	NaN
7431.210	NaN	NaN	NaN	NaN
7435.211	-2.18795	15.17115	NaN	NaN
7439.215	NaN	NaN	NaN	NaN
7443.175	NaN	NaN	NaN	NaN
7447.209	NaN	NaN	NaN	NaN
7451.214	NaN	NaN	NaN	NaN
7455.212	NaN	NaN	NaN	NaN
7459.183	NaN	NaN	NaN	NaN
7463.210	NaN	NaN	NaN	NaN
7467.213	NaN	NaN	NaN	NaN
7471.215	NaN	NaN	NaN	NaN
7475.174	-2.25345	14.40467	NaN	NaN
7479.211	-2.21026	14.71615	NaN	NaN
7483.213	NaN	NaN	NaN	NaN
7487.212	NaN	NaN	NaN	NaN
7491.198	NaN	NaN	NaN	NaN
7495.193	NaN	NaN	NaN	NaN
7499.212	NaN	NaN	NaN	NaN
7503.214	NaN	NaN	NaN	NaN
7507.215	NaN	NaN	NaN	NaN
7511.216	NaN	NaN	NaN	NaN
7515.213	NaN	NaN	NaN	NaN
7519.213	NaN	NaN	NaN	NaN
7523.170	NaN	NaN	NaN	NaN
7527.213	NaN	NaN	NaN	NaN
7531.213	NaN	NaN	NaN	NaN
7535.203	NaN	NaN	NaN	NaN
7539.172	NaN	NaN	NaN	NaN
7543.216	NaN	NaN	NaN	NaN
7547.217	NaN	NaN	NaN	NaN
7551.216	NaN	NaN	NaN	NaN
7555.170	NaN	NaN	NaN	NaN
7559.221	NaN	NaN	NaN	NaN
7563.210	NaN	NaN	NaN	NaN
7567.211	NaN	NaN	NaN	NaN
7571.170	NaN	NaN	NaN	NaN
7575.217	NaN	NaN	NaN	NaN
7579.180	NaN	NaN	NaN	NaN
7583.209	NaN	NaN	NaN	NaN
7587.175	NaN	NaN	NaN	NaN
7591.220	NaN	NaN	NaN	NaN
7595.180	NaN	NaN	NaN	NaN
7599.218	NaN	NaN	NaN	NaN
7603.219	NaN	NaN	NaN	NaN
7607.214	NaN	NaN	NaN	NaN
7611.216	NaN	NaN	NaN	NaN
7615.216	NaN	NaN	NaN	NaN
7619.203	NaN	NaN	NaN	NaN
7623.215	NaN	NaN	NaN	NaN
7627.215	NaN	NaN	NaN	NaN
7631.216	NaN	NaN	NaN	NaN
7635.220	NaN	NaN	NaN	NaN
7639.173	NaN	NaN	NaN	NaN
7643.219	NaN	NaN	NaN	NaN
7647.215	NaN	NaN	NaN	NaN
7651.118	NaN	NaN	NaN	NaN
7655.177	NaN	NaN	NaN	NaN
7659.214	NaN	NaN	NaN	NaN
7663.181	NaN	NaN	NaN	NaN
7667.095	NaN	NaN	NaN	NaN
7671.214	NaN	NaN	NaN	NaN
7675.216	NaN	NaN	NaN	NaN
7679.214	NaN	NaN	NaN	NaN
7683.219	NaN	NaN	NaN	NaN
7687.215	NaN	NaN	NaN	NaN
7691.218	NaN	NaN	NaN	NaN
7695.214	NaN	NaN	NaN	NaN
7699.222	NaN	NaN	NaN	NaN
7703.216	NaN	NaN	NaN	NaN
7707.219	NaN	NaN	NaN	NaN
7711.215	NaN	NaN	NaN	NaN
7715.098	NaN	NaN	NaN	NaN
7719.177	NaN	NaN	NaN	NaN
7723.216	NaN	NaN	NaN	NaN
7727.217	NaN	NaN	NaN	NaN
7731.219	NaN	NaN	NaN	NaN
7735.219	NaN	NaN	NaN	NaN
7739.174	NaN	NaN	NaN	NaN
7743.209	NaN	NaN	NaN	NaN
7747.118	NaN	NaN	NaN	NaN
7751.220	NaN	NaN	NaN	NaN
7755.217	NaN	NaN	NaN	NaN
7759.221	NaN	NaN	NaN	NaN
7763.221	NaN	NaN	NaN	NaN
7767.214	NaN	NaN	NaN	NaN
7771.216	NaN	NaN	NaN	NaN
7775.219	NaN	NaN	NaN	NaN
7779.114	NaN	NaN	NaN	NaN
7783.218	NaN	NaN	NaN	NaN
7787.214	NaN	NaN	NaN	NaN
7791.218	NaN	NaN	NaN	NaN
7795.221	NaN	NaN	NaN	NaN
7799.217	NaN	NaN	NaN	NaN
7803.217	NaN	NaN	NaN	NaN
7807.220	NaN	NaN	NaN	NaN
7811.115	NaN	NaN	NaN	NaN
7815.218	NaN	NaN	NaN	NaN
7819.215	NaN	NaN	NaN	NaN
7823.222	NaN	NaN	NaN	NaN
7827.123	NaN	NaN	NaN	NaN
7831.215	NaN	NaN	NaN	NaN
7835.218	NaN	NaN	NaN	NaN
7839.176	NaN	NaN	NaN	NaN
7843.085	NaN	NaN	NaN	NaN
7847.178	NaN	NaN	NaN	NaN
7851.218	NaN	NaN	NaN	NaN
7855.218	NaN	NaN	NaN	NaN
7859.080	NaN	NaN	NaN	NaN
7863.222	NaN	NaN	NaN	NaN
7867.219	NaN	NaN	NaN	NaN
7871.219	NaN	NaN	NaN	NaN
7875.085	NaN	NaN	NaN	NaN
7879.219	NaN	NaN	NaN	NaN
7883.218	NaN	NaN	NaN	NaN
7887.219	NaN	NaN	NaN	NaN
7891.080	NaN	NaN	NaN	NaN
7895.221	NaN	NaN	NaN	NaN
7899.095	NaN	NaN	NaN	NaN
7903.195	NaN	NaN	NaN	NaN
7907.083	NaN	NaN	NaN	NaN
7911.096	NaN	NaN	NaN	NaN
7915.082	NaN	NaN	NaN	NaN
7919.085	NaN	NaN	NaN	NaN
7923.078	NaN	NaN	NaN	NaN
7927.093	NaN	NaN	NaN	NaN
7931.093	NaN	NaN	NaN	NaN
7935.094	NaN	NaN	NaN	NaN
7939.055	NaN	NaN	NaN	NaN
7943.098	NaN	NaN	NaN	NaN
7947.095	NaN	NaN	NaN	NaN
7951.095	NaN	NaN	NaN	NaN
7955.117	NaN	NaN	NaN	NaN
7959.062	NaN	NaN	NaN	NaN
7963.090	NaN	NaN	NaN	NaN
7967.097	NaN	NaN	NaN	NaN
