time (ms)	lx (deg)	ly (deg)	rx (deg)	ry (deg)
0.000	NaN	NaN	NaN	NaN
4.040	NaN	NaN	NaN	NaN
8.018	NaN	NaN	NaN	NaN
12.040	NaN	NaN	NaN	NaN
16.002	NaN	NaN	NaN	NaN
20.042	NaN	NaN	NaN	NaN
24.040	NaN	NaN	NaN	NaN
28.042	NaN	NaN	NaN	NaN
31.999	NaN	NaN	NaN	NaN
36.040	NaN	NaN	NaN	NaN
39.997	NaN	NaN	NaN	NaN
44.040	-1.97064	11.23972	-0.38452	13.85921
48.001	-2.20290	9.21551	-0.92651	10.77208
52.029	-2.29939	7.44084	-1.01928	8.43775
56.042	-2.43469	6.55944	-1.11851	7.52775
60.042	-2.33033	5.35404	-1.01558	6.38073
64.043	-2.12149	4.43046	-1.01122	4.40556
68.043	-2.24963	3.05573	-1.07917	3.83336
72.042	-2.03003	3.04040	-0.99362	3.16088
76.042	-1.93023	2.86777	-0.95135	2.95828
80.044	-2.06971	2.37624	-0.95115	2.19809
84.045	-1.96796	1.00939	-0.84575	1.79477
88.043	-2.03152	0.84453	-0.82307	1.35498
92.005	-1.97099	0.78427	-0.70417	1.34779
95.938	-1.88898	0.89977	-0.68682	1.66604
99.997	-1.86746	0.86058	-0.64488	1.49678
104.040	-1.92099	0.80289	-0.61292	1.62031
108.044	-1.92684	0.70046	-0.60469	1.46299
111.938	-1.89154	0.60351	-0.55344	1.36814
116.041	-1.96144	0.68049	-0.45160	1.18266
120.042	-2.06176	0.73484	-0.47232	1.37971
124.044	-2.07861	0.64992	-0.43954	1.42139
128.045	-2.11651	0.54850	-0.44951	1.45983
132.044	-2.06701	0.53136	-0.46810	1.37482
136.042	-2.11995	0.48240	-0.47110	1.34983
140.043	-2.15393	0.45411	-0.53612	1.30318
144.047	-2.17958	0.53952	-0.56334	1.27225
147.998	-2.18446	0.48047	-0.63558	1.25657
152.043	-2.16800	0.46692	-0.59818	1.17223
156.043	-2.18339	0.45996	-0.65925	1.16151
160.046	-2.16141	0.41346	-0.71846	1.21810
164.043	-2.11274	0.38085	-0.72057	1.22401
168.003	-2.11167	0.40153	-0.75811	1.18610
172.043	-2.07792	0.39824	-0.74580	1.13693
176.048	-2.10818	0.37005	-0.71444	1.11371
180.052	-2.10887	0.36970	-0.56994	0.98778
184.041	-2.09182	0.40278	-0.61007	1.02190
188.046	-2.07363	0.38803	-0.56486	1.09268
192.045	-2.03737	0.38556	-0.55756	1.09502
196.043	-2.04527	0.37885	-0.57712	1.13788
200.044	-2.03236	0.39616	-0.54203	1.13104
204.044	-2.04711	0.42288	-0.46279	1.15117
207.938	-2.04659	0.46137	-0.44033	1.09715
212.043	-2.03784	0.47985	-0.38494	1.17915
216.017	-2.03087	0.57637	-0.44219	1.17581
220.046	-1.02322	0.52872	-0.38067	1.13377
224.049	-0.63305	0.34284	-0.14297	0.61067
228.042	-0.27818	0.02959	0.43038	0.13060
232.046	-0.35241	-0.09815	0.25974	0.16353
236.047	-0.30962	0.04316	0.83493	0.47950
240.048	-0.28019	0.17859	1.22479	0.42094
244.043	-0.26259	0.07907	1.16208	0.43951
248.044	-0.32129	0.01367	1.20544	0.19525
252.045	-0.29930	-0.09706	1.32277	0.34518
256.032	-0.30898	-0.16547	1.30122	0.40664
260.039	-0.27873	-0.19409	1.23498	0.34440
264.045	-0.29483	-0.25172	1.20112	0.36545
268.046	-0.28210	-0.25331	1.24079	0.43038
272.005	-0.32340	-0.23999	1.18473	0.56021
276.044	-0.31940	-0.22495	1.14600	0.54971
280.045	-0.31992	-0.25457	1.08227	0.57499
284.044	-0.33002	-0.29878	0.83714	0.53975
288.049	-0.32737	-0.33250	0.72541	0.51581
291.998	-0.31635	-0.33190	0.68513	0.54357
296.044	-0.31347	-0.34562	0.69330	0.53885
300.035	-0.28870	-0.34542	0.61704	0.49023
304.046	-0.29654	-0.33563	0.59466	0.43689
308.044	-0.30359	-0.29160	0.53014	0.45707
312.044	-0.30905	-0.29647	0.52446	0.44800
316.046	-0.29409	-0.21213	0.53572	0.41423
320.047	-0.30248	-0.21772	0.57915	0.41485
324.045	-0.33384	-0.20140	0.60263	0.40061
328.046	-0.33585	-0.15374	0.60610	0.38220
332.046	-0.34960	-0.10352	0.70523	0.41099
336.048	-0.34136	-0.15821	0.75950	0.45084
340.002	-0.37474	-0.11092	0.78307	0.44813
344.046	-0.41075	-0.08468	0.80553	0.48770
348.001	-0.42864	-0.02743	0.78898	0.50624
352.004	-0.43797	-0.00229	0.81868	0.62810
356.001	-0.47143	0.04632	0.77012	0.65501
360.045	-0.47592	0.19491	0.68002	0.76232
364.045	-0.45115	0.21538	0.65134	0.90688
368.005	-0.34531	0.26938	0.62565	1.02232
372.045	-0.37291	0.15165	0.65831	1.27941
376.046	-0.36680	0.16194	0.65533	1.41423
380.040	-0.32627	0.26248	0.68268	1.28184
384.005	-0.29865	0.35412	0.45448	1.48190
387.897	-0.29731	0.20803	0.52141	1.51936
391.938	-0.29190	0.12767	0.52773	1.63235
395.920	-0.29582	0.13543	0.28850	1.53147
399.907	-0.26061	0.10563	0.36164	1.55316
403.921	-0.21820	0.07229	0.36142	1.56654
407.920	-0.26403	0.04622	0.57354	1.62045
411.919	-0.18755	0.07485	0.63010	1.67632
415.929	-0.24798	0.23276	0.63268	1.69647
419.921	-0.27118	0.22538	0.55962	1.67202
423.922	-0.28950	0.03255	0.58416	1.70478
427.923	-0.34717	0.23927	0.70613	1.71435
431.943	-0.36566	0.38870	1.09780	1.67417
435.921	-0.36628	0.25887	0.82712	1.67743
439.923	-0.31913	0.43179	0.80367	1.66985
443.921	-0.34682	0.50702	0.53463	1.65422
447.944	-0.34007	0.67444	0.85813	1.65689
451.926	0.12530	0.74446	0.64136	1.64131
455.922	0.20685	0.96420	0.73285	1.58906
459.922	-0.78818	1.02614	0.45222	1.45724
463.949	-0.72729	1.24706	1.07555	1.43180
467.922	-3.31863	1.13698	1.09609	1.48115
471.886	-1.29824	2.86499	1.15709	1.50746
475.920	-1.29338	1.32585	1.03632	1.43964
479.942	-1.38669	1.28113	0.99040	1.43897
483.916	-1.59641	1.32053	1.28157	1.46303
487.923	-2.23479	1.28450	1.27889	1.48898
491.921	-2.12198	1.28127	1.39706	1.37758
495.945	-2.80347	2.23671	2.07893	1.53629
499.923	-2.09016	2.32457	1.37044	1.83540
503.920	-2.00214	2.32986	1.32942	1.85225
507.879	-1.65885	1.24403	2.33422	1.71871
511.918	-1.80682	1.14490	1.92438	1.72741
515.923	-1.28849	1.01093	1.92971	1.68388
519.922	-1.06671	1.06905	1.96672	1.60496
523.922	-0.88096	0.97656	1.69237	1.73731
527.944	-0.67953	0.94578	2.29022	1.68617
531.925	-0.66915	0.96811	2.24188	1.68640
535.921	-1.14223	0.90570	2.37711	1.61132
539.923	-0.98827	0.93001	2.08441	1.71570
543.945	-0.68248	0.91923	1.45095	1.67836
547.877	-0.49001	0.88609	1.83836	1.62453
551.915	-0.43519	0.86926	2.02217	1.64103
555.923	-0.52992	0.87170	2.16994	1.63852
559.946	-0.41524	0.91512	2.19621	1.59770
563.922	-0.03462	0.89422	2.19509	1.59401
567.925	-0.46602	0.96549	2.05551	1.55561
571.924	-0.37261	0.96796	2.18064	1.51152
575.945	0.24162	0.97287	2.19110	1.49337
579.921	-0.10724	1.02477	2.30437	1.49325
583.925	0.62196	1.04488	2.57199	1.34569
587.923	0.13682	1.09144	2.56458	1.13909
591.945	0.21576	1.05117	2.27233	1.15348
595.892	-0.22557	1.04928	2.43711	1.03588
599.924	-0.30952	1.09495	2.45839	0.84103
603.924	-0.24497	1.49852	2.29404	0.73831
607.942	-0.21425	1.53873	2.14012	0.69940
611.922	-0.42656	2.37646	2.05588	0.71789
615.887	-0.52654	2.48705	1.60166	0.67779
619.923	-0.49272	2.88378	2.43186	0.59406
623.946	0.00764	2.83474	3.45739	0.57823
627.920	-0.07785	3.28357	2.82496	0.56439
631.927	-0.11297	2.47735	2.08577	0.68071
635.904	0.38772	2.30604	2.78587	0.68827
639.957	0.39124	2.65813	3.60828	0.68665
643.923	0.61545	2.15470	2.85371	0.72850
647.879	0.67794	1.98893	1.87490	0.70041
651.922	0.93783	1.98841	3.09874	0.78007
655.946	0.71355	2.77847	3.80812	0.74148
659.923	0.59712	1.50878	2.91002	0.74720
663.926	0.81024	1.57309	3.85745	0.71194
667.880	0.84094	1.30908	3.62252	0.72178
671.908	0.83069	1.52291	3.10938	0.71655
675.924	0.74255	1.40507	3.15716	0.68198
679.888	0.78265	1.37868	2.91510	0.63668
683.924	0.59302	1.28710	3.02648	0.65550
687.911	0.48914	1.29341	2.52290	0.76715
691.928	0.37350	1.32847	0.68290	1.01536
695.923	0.34608	1.26104	0.74042	1.17538
699.925	-0.04393	1.30227	2.67051	1.07356
703.913	0.02837	1.22865	0.34834	1.65384
707.925	-0.64702	1.28031	1.74003	1.70381
711.932	-0.27180	1.33201	2.59175	1.55683
715.922	-0.26195	1.33136	2.54591	1.67469
719.911	-1.24329	1.38825	2.16682	1.84126
723.925	-0.64077	1.39238	1.97104	1.94282
728.381	-0.40472	1.33644	2.05898	1.91893
731.924	-0.82148	1.07039	2.32920	1.96375
735.884	-1.09812	1.36150	2.40808	1.90528
739.923	-0.79449	1.52598	2.35932	1.96844
743.924	-0.76451	1.43610	2.10486	2.01935
747.925	-0.77541	1.28191	2.44279	1.98218
751.909	-1.44061	0.68988	2.40654	1.97718
755.925	-0.91331	1.44859	1.33450	1.98677
759.913	-0.91381	1.44640	2.54821	1.97600
763.915	-0.66000	1.38247	2.62430	1.95198
767.909	-0.74369	1.34184	2.52656	1.95905
771.924	-0.76871	1.36528	2.60193	1.91177
775.924	-0.80920	1.51467	2.56394	1.92993
779.925	-1.29405	1.38765	2.20210	1.99026
783.912	-1.29107	0.98507	1.48329	1.98779
787.925	-1.54775	1.13651	2.17289	1.96574
791.930	-1.03759	0.74670	1.94488	1.90150
795.926	-0.73742	1.13626	1.50026	1.96164
799.884	-0.84456	1.15019	2.49008	1.78593
803.894	-0.42135	0.93238	1.65366	1.69624
807.928	-0.59709	1.15345	1.58775	1.44017
811.927	-0.52292	1.56546	2.19499	1.45542
815.911	-0.52222	1.93670	1.86987	1.29904
819.924	-0.40345	1.94308	1.54656	1.17661
823.924	-0.32129	1.54845	1.56082	0.97691
827.924	-0.29940	2.14122	1.71645	1.00323
831.911	-0.20859	1.92726	1.55965	0.80494
835.923	-0.27289	1.13994	1.74613	0.83655
839.925	-0.28860	1.76522	1.87810	0.79484
843.906	-0.29831	0.98384	1.57071	0.66285
847.884	-0.25046	1.17539	1.65860	0.59430
851.881	-0.23271	1.69651	1.57213	0.67089
855.881	-0.43219	1.96938	1.38165	0.66712
859.926	-0.34166	1.92078	1.62651	0.70716
863.947	-0.40618	1.87376	1.71196	0.67760
867.882	-0.34543	1.72825	1.49584	0.68234
871.925	0.00665	1.44231	1.35477	0.70995
875.927	-0.59307	1.47355	1.25349	0.58335
879.931	-0.43214	1.56633	1.22075	0.58296
883.929	-0.41107	1.57728	1.33862	0.57280
887.927	-0.60992	1.44692	1.26220	0.54631
891.930	-0.23155	1.38389	1.21410	0.62859
895.930	-0.45373	1.79781	0.92750	0.71235
899.929	-0.35179	1.26191	1.18746	0.67505
903.926	-0.34260	0.27301	1.46874	0.69611
907.927	-0.19797	1.33298	1.06857	0.64847
911.930	-0.28595	1.56563	1.10214	0.58770
915.916	-0.36854	0.64544	1.23498	0.44432
919.926	-0.56545	1.28189	1.10899	0.57617
923.938	-0.09654	1.13916	1.18693	0.52754
927.905	0.01134	1.36125	1.34594	0.40251
931.927	-0.30784	1.44262	1.34405	0.26201
935.928	-0.10495	1.83470	0.96368	0.38498
939.927	0.11572	2.15405	1.77199	0.36592
943.930	-0.98365	1.48808	1.52992	0.31865
947.929	-1.42952	1.46235	1.93494	0.32484
951.930	-0.26927	4.33910	NaN	NaN
955.928	3.24746	11.31517	2.31824	14.98429
959.926	NaN	NaN	0.70578	6.99493
963.932	NaN	NaN	-4.83136	6.76065
967.916	NaN	NaN	NaN	NaN
971.926	NaN	NaN	NaN	NaN
975.919	NaN	NaN	NaN	NaN
979.884	NaN	NaN	NaN	NaN
983.930	NaN	NaN	NaN	NaN
987.928	NaN	NaN	NaN	NaN
991.931	NaN	NaN	NaN	NaN
995.927	NaN	NaN	NaN	NaN
999.886	NaN	NaN	NaN	NaN
1003.927	NaN	NaN	NaN	NaN
1007.927	-7.38842	8.12407	NaN	NaN
1011.893	-8.41034	10.43278	-8.63871	3.77217
1015.894	-3.01942	11.44843	-13.08552	4.44292
1019.930	-3.99694	11.76246	-1.81994	4.75707
1023.929	-13.00664	2.72376	-2.15437	0.49779
1027.927	-2.48933	11.64689	-2.43100	-2.64978
1031.928	-10.51496	-2.45432	-2.67987	-2.59683
1035.931	-10.97176	-2.22862	-3.46021	-2.56452
1039.927	-2.57048	-2.37624	-3.36057	-4.29883
1043.930	-2.68737	-2.44800	-2.00730	-4.92240
1047.917	-4.45202	-2.51401	-2.31911	-4.94449
1051.929	-10.23928	-2.47739	-6.08669	-4.23801
1055.924	-10.12356	-2.54563	-5.43098	-4.49618
1059.926	-8.41014	-2.72945	-7.73879	-4.38747
1063.929	-8.61021	-2.67716	-7.38327	-4.57611
1067.930	-8.15265	-2.53588	-7.29108	-4.45982
1071.884	-7.78168	-2.49625	-6.92965	-2.72212
1075.929	-7.75405	-2.74976	-7.06562	-2.69795
1079.823	-7.72885	-2.79461	-7.30715	-3.28042
1083.929	-7.79449	-2.77369	-7.00820	-2.93503
1087.930	-7.79948	-2.48344	-7.31467	-2.41508
1091.933	-7.73499	-2.47630	-7.28542	-2.40404
1095.929	-7.86176	-2.39955	-7.41304	-2.66249
1099.884	-7.76945	-2.29712	-7.40465	-2.46386
1103.929	-7.79230	-2.29328	-7.33593	-2.68076
1107.928	-7.78645	-2.26364	-7.24420	-2.89091
1111.933	-7.73555	-2.54105	-7.37082	-2.45086
1115.900	-7.76776	-2.59745	-7.14941	-2.85032
1119.928	-7.79198	-2.59275	-7.36813	-2.97102
1123.929	-7.76433	-2.59887	-7.37892	-2.69518
1127.930	-7.77037	-2.31493	-7.35827	-2.53712
1131.931	-7.86116	-2.65712	-7.27648	-2.58804
1135.928	-7.80672	-2.64018	-7.48619	-2.62151
1139.930	-8.09878	-2.56995	-7.49149	-2.41654
1143.933	-8.32954	-2.72227	-7.47385	-2.25730
1147.886	-8.17332	-2.74361	-7.67845	-2.20777
1151.930	-8.15049	-2.89547	-7.74710	-2.25282
1155.929	-8.01835	-2.87332	-7.88889	-2.37935
1159.934	-8.03647	-2.85881	-7.74320	-2.98478
1163.928	-8.13475	-2.81674	-7.93391	-2.55559
1167.930	-8.02166	-2.83476	-7.96035	-2.48631
1171.929	-8.17196	-2.89374	-8.05270	-2.25521
1175.932	-8.21385	-2.84589	-7.85499	-2.40141
1179.918	-8.22409	-2.85811	-7.97130	-2.46215
1183.932	-8.21410	-2.84704	-8.01241	-2.72057
1187.930	-8.08097	-2.84708	-8.03883	-2.60773
1191.827	-8.00372	-2.81053	-7.98887	-2.44679
1195.932	-8.01409	-2.76598	-7.95027	-2.49968
1199.930	-8.09372	-2.71286	-7.98135	-2.49994
1203.931	-8.05475	-2.73760	-7.93128	-2.30023
1207.934	-8.05317	-2.70798	-7.87080	-2.26424
1211.887	-8.11715	-2.67122	-7.59149	-2.23537
1215.931	-8.18001	-2.60298	-7.44994	-2.71257
1219.902	-8.12167	-2.53786	-7.28737	-2.72529
1223.814	-8.10732	-2.53341	-7.06322	-2.93805
1227.932	-7.96461	-2.31088	-7.20292	-2.67690
1231.885	-8.02445	-2.42648	-7.06271	-3.30497
1235.932	-8.11094	-2.39060	-7.01365	-3.38577
1239.934	-7.98483	-2.29774	-7.02325	-3.38430
1243.932	-7.96809	-1.94589	-7.06637	-3.42669
1247.885	-8.05786	-2.22378	-6.99788	-3.19856
1251.929	-8.07594	-2.19722	-6.99768	-3.40493
1255.936	-8.09226	-2.26309	-6.93802	-3.53019
1259.895	-7.92744	-2.30372	-6.90004	-3.24290
1263.929	-7.98050	-2.27760	-6.90918	-3.16161
1267.932	-7.84477	-2.40565	-6.91153	-3.46491
1271.796	-7.94808	-2.43730	-6.79709	-3.42835
1275.932	-7.95942	-2.63088	-6.75527	-3.33173
1279.932	-7.95341	-2.67141	-6.69618	-3.35046
1283.931	-8.03699	-2.69640	-6.70369	-3.35216
1287.935	-8.08703	-2.79371	-6.66442	-3.38597
1291.887	-7.99304	-2.84640	-6.76630	-3.39341
1295.931	-7.96707	-2.87734	-6.65561	-3.36896
1299.927	-7.96402	-2.89317	-6.73392	-3.31378
1303.832	-7.97610	-2.88672	-6.69858	-3.35113
1307.929	-8.00221	-2.91008	-6.72026	-3.37363
1311.932	-8.03309	-2.97334	-6.67032	-3.33583
1315.932	-8.03397	-2.93250	-6.79356	-3.31883
1319.829	-8.04842	-2.89703	-6.85583	-3.35865
1323.931	-8.08693	-2.84245	-6.90163	-3.37480
1327.932	-7.97870	-2.90315	-6.91439	-3.35612
1331.934	-8.01691	-2.87144	-7.00450	-3.35867
1335.827	-8.07842	-2.73390	-7.01274	-3.37899
1339.931	-8.11783	-2.68079	-6.96284	-3.37551
1343.910	-8.12121	-2.69468	-6.98688	-3.38161
1347.887	-8.17682	-2.68589	-7.00763	-3.36841
1351.909	-8.16515	-2.70884	-7.03697	-3.36441
1355.889	-8.10853	-2.68171	-7.09020	-3.32736
1359.932	-8.13891	-2.57487	-7.11970	-3.31481
1363.932	-8.14937	-2.50418	-7.12168	-3.30661
1367.791	-8.16751	-2.49503	-7.12713	-3.26111
1371.931	-8.22450	-2.52425	-7.11963	-3.22904
1375.932	-8.09102	-2.55171	-6.83915	-3.28694
1379.934	-7.21762	-2.54476	-6.45875	-3.18999
1383.875	-4.14522	-2.52273	-3.95063	-3.23249
1387.922	-3.03774	-2.50615	-3.30003	-3.10309
1391.930	-1.94729	-2.43272	-1.33567	-3.11168
1395.931	0.14002	-2.37709	-1.00653	-3.01042
1399.796	0.29118	-2.25141	0.66955	-2.37877
1403.932	1.76299	-2.13805	1.27212	-2.32485
1407.933	2.94641	-1.68967	3.11774	-1.64880
1411.931	3.65458	-1.42704	3.56141	-1.53629
1415.805	5.04208	-1.47513	4.61726	-1.16532
1419.807	5.73546	-1.45632	5.42518	-1.04780
1423.805	6.26174	-1.27505	6.02556	-0.78030
1427.809	6.14707	-1.08290	6.51226	-0.57150
1431.768	6.00504	-1.08857	6.62390	-0.63925
1435.808	5.78966	-1.12314	6.69640	-0.64989
1439.809	5.78740	-1.17018	6.67990	-0.63147
1443.809	6.08716	-0.98192	6.64770	-0.58976
1447.806	6.22831	-0.91443	6.76256	-0.55031
1451.808	6.17357	-0.87513	6.77673	-0.52533
1455.807	6.20283	-0.81722	6.87876	-0.46004
1459.808	6.21007	-0.79574	6.91087	-0.46832
1463.806	6.19371	-0.77210	6.95377	-0.49524
1467.811	6.20739	-0.73904	7.04540	-0.52192
1471.798	6.15573	-0.76574	7.08021	-0.53520
1475.804	6.16481	-0.80189	7.07354	-0.56778
1479.768	6.19088	-0.79209	7.06034	-0.56294
1483.763	6.21365	-0.80196	7.05413	-0.57416
1487.807	6.12644	-0.84451	7.10071	-0.53288
1491.765	6.10723	-0.94090	7.13964	-0.45251
1495.809	6.07876	-1.02842	7.21242	-0.42372
1499.807	6.07035	-1.04321	7.19241	-0.39337
1503.811	6.03628	-1.15587	7.21594	-0.37456
1507.808	6.00597	-1.19852	7.24256	-0.33086
1511.803	5.96716	-1.26085	7.25626	-0.32908
1515.788	5.95685	-1.28002	7.27729	-0.36862
1519.809	5.94619	-1.27790	7.33669	-0.37796
1523.810	5.96065	-1.30709	7.39432	-0.39445
1527.828	5.95606	-1.29949	7.43169	-0.44869
1531.809	5.98746	-1.28795	7.44972	-0.45178
1535.812	6.00995	-1.28032	7.47404	-0.52295
1539.809	6.05231	-1.28691	7.48732	-0.60904
1543.766	6.04971	-1.28025	7.51720	-0.61715
1547.786	6.08294	-1.26051	7.55313	-0.65155
1551.813	6.09822	-1.24230	7.55174	-0.67528
1555.797	6.15971	-1.20544	7.53820	-0.70025
1559.799	6.16672	-1.17332	7.51954	-0.68183
1563.811	6.08632	-1.17964	7.49263	-0.67017
1567.811	6.07452	-1.14850	7.45548	-0.62748
1571.810	6.07415	-1.14339	7.40789	-0.57450
1575.807	6.05609	-1.16504	7.39945	-0.56232
1579.810	5.95361	-1.18176	7.37111	-0.55765
1583.811	5.93770	-1.17013	7.36530	-0.52126
1587.813	5.94470	-1.13570	7.37089	-0.50767
1591.806	5.90865	-1.14316	7.37580	-0.48295
1595.812	5.94423	-1.11097	7.43186	-0.44963
1599.775	5.90001	-1.14588	7.43805	-0.44117
1603.809	5.92859	-1.15034	7.50156	-0.38659
1607.807	5.94850	-1.12638	7.56566	-0.38587
1611.810	5.97514	-1.12810	7.61670	-0.44417
1615.810	5.95312	-1.04986	7.70489	-0.47916
1619.809	5.93380	-1.07752	7.70738	-0.51011
1623.807	5.96088	-1.07983	7.68467	-0.51809
1627.810	6.02705	-1.05386	7.63325	-0.53626
1631.812	5.96407	-1.04539	7.59956	-0.52315
1635.811	5.94119	-1.00353	7.56598	-0.54811
1639.801	5.94050	-1.00042	7.57254	-0.54458
1643.810	5.98101	-0.98122	7.52081	-0.58650
1647.765	5.95609	-0.98060	7.52547	-0.60482
1651.810	5.95874	-1.00051	7.52164	-0.60911
1655.807	5.97104	-1.02299	7.49668	-0.59614
1659.810	6.00023	-1.07459	7.45255	-0.60827
1663.810	6.04288	-1.09519	7.45104	-0.59349
1667.813	6.07076	-1.08468	7.50493	-0.58997
1671.835	6.09820	-1.09283	7.49410	-0.59745
1675.812	6.12430	-1.09900	7.52410	-0.62943
1679.807	6.14803	-1.10981	7.55225	-0.63890
1683.801	6.15237	-1.10615	7.54432	-0.66814
1687.797	6.12266	-1.09991	7.56166	-0.66620
1691.807	6.12303	-1.04765	7.52949	-0.67206
1695.814	6.12852	-0.97633	7.52703	-0.64657
1699.809	6.12779	-0.91816	7.54215	-0.58460
1703.769	6.13162	-0.86142	7.55564	-0.55221
1707.812	6.08217	-0.80811	7.57181	-0.45313
1711.812	6.01783	-0.81817	7.53732	-0.45881
1715.812	5.97263	-0.78628	7.53808	-0.40774
1719.770	5.90998	-0.78435	7.55032	-0.41623
1723.782	5.87079	-0.77039	7.54993	-0.43914
1728.341	5.90836	-0.79977	7.57210	-0.43318
1731.813	5.95191	-0.81298	7.57420	-0.55936
1735.770	5.95869	-0.90370	7.59722	-0.61849
1739.811	5.94715	-0.99689	7.60590	-0.89436
1743.812	5.99514	-1.16260	7.62109	-1.04293
1747.811	6.03609	-1.15194	7.54096	-0.78209
1751.798	6.11778	-1.09012	7.52286	-0.77889
1755.811	6.18858	-1.16344	7.53857	-0.61180
1759.814	6.14509	-1.16773	7.53001	-0.70186
1763.801	6.19945	-1.13161	7.55964	-0.48364
1767.771	6.19724	-1.21696	7.55825	-0.58197
1771.768	6.23364	-1.15514	7.56532	-0.69700
1775.810	6.23780	-1.20111	7.55908	-0.77036
1779.811	6.23982	-1.22609	7.53315	-0.79296
1783.770	6.24678	-1.29493	7.50451	-0.87703
1787.813	6.26672	-1.14455	7.49778	-0.80493
1791.774	6.19265	-1.08028	7.48734	-0.78416
1795.812	6.14901	-1.13537	7.49590	-0.73032
1799.769	6.09842	-1.15020	7.49351	-0.78956
1803.810	6.03179	-1.19505	7.46995	-0.76906
1807.775	6.06934	-1.16155	7.45592	-0.78705
1811.814	6.05150	-1.03507	7.43781	-0.75444
1815.800	5.98717	-0.40498	7.46165	-0.26531
1819.811	6.00703	1.49352	7.44850	2.15073
1823.810	5.91489	2.41420	7.48380	3.92108
1827.810	5.90838	3.96590	7.50478	5.38913
1831.802	5.95272	5.21391	7.84691	6.58850
1835.812	6.15495	6.50623	7.85536	5.78829
1839.812	6.20384	6.13951	8.19584	6.01464
1843.813	6.24018	5.57055	8.29171	6.03136
1847.801	6.28908	5.42241	8.08803	5.86959
1851.768	6.29099	5.60030	8.26592	5.87378
1855.768	6.38903	5.82636	8.28077	5.92122
1859.813	6.53196	5.88605	8.28327	5.97521
1863.811	6.56561	6.05517	8.16491	6.00365
1867.816	6.60073	6.14705	8.31443	6.03075
1871.812	6.64028	6.19423	8.28211	6.04537
1875.814	6.67564	6.29890	8.21417	5.99573
1879.810	6.66004	6.22625	8.22419	6.07553
1883.814	6.70656	6.23613	8.17940	6.09109
1887.807	6.66597	6.30034	8.10384	6.07662
1891.813	6.67135	6.18306	8.08954	6.09950
1895.811	6.70829	6.24979	8.06246	6.15495
1899.816	6.73806	6.23526	8.02492	6.16347
1903.811	6.73622	6.20432	8.04222	6.14991
1907.812	6.76547	6.13511	8.06202	6.19180
1911.815	6.75318	6.14398	8.05674	6.25901
1915.769	6.66418	6.00488	8.12736	6.24096
1919.812	6.69331	6.01925	8.17969	6.25352
1923.815	6.67598	5.97611	8.26850	6.26571
1927.818	6.69038	5.94988	8.31836	6.29429
1931.815	6.63516	6.03231	8.33778	6.37889
1935.813	6.67402	6.08150	8.35114	6.39616
1939.813	6.60590	6.10476	8.37900	6.46559
1943.814	6.62799	6.16289	8.42413	6.47222
1947.769	6.50156	6.15348	8.42126	6.51683
1951.810	6.48673	6.18610	8.43982	6.42888
1955.813	6.41261	6.27933	8.47415	6.41997
1959.804	6.47365	6.29361	8.41699	6.29371
1963.814	6.45361	6.26695	8.39860	6.17332
1967.817	6.38604	6.26611	8.33374	6.33068
1971.815	6.33576	6.32314	8.29540	6.34467
1975.774	6.35734	6.20652	8.26867	6.38617
1979.770	6.39168	6.13476	8.20678	6.42449
1983.817	6.50795	6.18515	8.19367	6.42937
1987.815	6.46691	6.13181	8.18964	6.52586
1991.811	6.50842	6.08303	8.18057	6.61805
1995.815	6.59848	6.08584	8.16333	6.65627
1999.817	6.75593	6.09210	8.22669	6.75279
2003.815	6.73177	6.06749	8.25566	6.91509
2007.816	6.73035	6.11467	8.26446	6.93910
2011.814	6.81480	6.09155	8.23197	6.91695
2015.816	6.73586	6.01956	8.11710	6.84599
2019.812	6.77188	6.03095	8.13551	6.91495
2023.810	6.67987	6.10815	8.18660	6.89626
2027.814	6.60654	6.11047	8.22035	6.85937
2031.815	6.62258	6.16066	8.16668	6.86428
2035.813	6.66925	6.17125	8.29562	6.82309
2039.818	6.73050	6.18246	8.22642	6.60757
2043.813	6.62255	6.18882	8.22370	6.41072
2047.770	6.62721	6.20049	8.24584	6.49938
2051.818	6.66920	6.19643	8.21315	6.44229
2055.799	6.49457	6.14903	8.29423	6.47429
2059.815	6.48475	6.18256	8.38719	6.35043
2063.815	6.53507	6.22281	8.40079	6.59548
2067.819	6.62248	6.23675	8.33328	6.40616
2071.814	6.72452	6.22385	8.40873	6.41876
2075.816	6.69038	6.21297	8.43768	6.37496
2079.815	6.57823	6.19727	8.39205	6.30157
2083.815	6.50109	6.19656	8.39448	6.29373
2087.817	6.45726	6.20498	8.36409	6.49411
2091.817	6.53012	6.19264	8.34924	6.49885
2095.810	6.57754	6.23751	8.40582	6.55062
2099.771	6.60191	6.29084	8.39826	6.32944
2103.711	6.64182	6.23924	8.44492	6.30579
2107.818	6.64594	6.31525	8.43601	6.30702
2111.816	6.60042	6.23547	8.36295	6.56963
2115.822	6.45718	6.31206	8.39887	6.73734
2119.819	6.49207	6.31682	8.41879	6.78902
2123.815	6.53776	6.35439	8.43421	6.69445
2127.816	6.54109	6.38595	8.45196	6.81197
2131.816	6.54276	6.45168	8.52574	6.84026
2135.711	6.54617	6.45936	8.34431	6.42812
2139.786	6.50261	6.40546	8.34310	6.42530
2143.815	6.44371	6.49346	8.34854	6.51337
2147.771	6.40726	6.57976	8.33059	6.66558
2151.821	6.45875	6.56407	8.24499	6.70222
2155.816	6.44108	6.60606	8.30121	6.57941
2159.816	6.35621	6.58992	8.37274	6.57262
2163.813	6.35383	6.60372	8.26531	6.51584
2167.774	6.22414	6.57120	8.21213	6.50369
2171.818	6.30232	6.56649	8.24684	6.55452
2175.818	6.36797	6.55031	8.25017	6.59958
2179.804	6.41719	6.54193	8.31049	6.62031
2183.714	6.47732	6.60160	8.35843	6.71948
2187.817	6.40067	6.66808	8.44307	6.96320
2191.816	6.45390	6.61920	8.49896	7.09764
2195.773	6.34290	6.60159	8.56282	7.22683
2199.824	6.31308	6.62761	8.54896	7.19251
2203.818	6.29984	6.61006	8.48491	7.04511
2207.817	6.39513	6.64802	8.54331	7.18874
2211.818	6.41092	6.74469	8.52324	7.27047
2215.717	6.37486	6.68848	8.59250	7.26039
2219.823	6.35047	6.68734	8.57071	7.31617
2223.781	6.34226	6.70340	8.56920	7.27309
2227.814	6.28454	6.69790	8.59706	7.19214
2231.716	6.26289	6.67776	8.51171	7.12156
2235.821	6.28351	6.64280	8.53217	6.99235
2239.816	6.32365	6.60978	8.39977	6.89985
2243.819	6.35003	6.59480	8.36061	6.85268
2247.823	6.38658	6.54712	8.33931	6.80794
2251.819	6.34486	6.52983	8.17894	6.80270
2255.818	6.24779	6.48805	8.22722	6.60881
2259.819	6.26096	6.45826	8.13349	6.54896
2263.821	6.27883	6.43243	8.11313	6.58491
2267.818	6.23035	6.35986	8.08231	6.54590
2271.774	6.25853	6.33751	7.97481	6.59044
2275.819	6.32323	6.33005	8.01275	6.63249
2279.820	6.28403	6.34257	8.01017	6.62399
2283.822	6.25747	6.36090	8.08511	6.72337
2287.818	6.22743	6.39010	8.37657	6.80776
2291.817	6.30830	6.36153	8.38248	6.77932
2295.822	6.40501	6.34037	8.40978	6.71121
2299.824	6.25985	6.34343	8.26651	6.80711
2303.814	6.22782	6.67128	7.90949	7.23663
2307.809	5.92923	9.18501	7.41041	10.10149
2311.821	4.91262	11.72295	7.43435	11.69749
2315.820	4.95157	11.92002	7.10005	12.29263
2319.817	5.15601	12.29303	7.28884	13.15567
2323.819	5.08190	12.14835	7.34692	12.00080
2327.821	4.95768	11.78874	7.38612	11.84667
2331.818	4.73409	11.46084	7.37650	11.14428
2335.777	4.65008	11.51524	7.22883	11.13794
2339.816	4.57911	11.40738	7.20785	11.94405
2343.822	4.55835	11.57421	7.19869	12.04217
2347.773	4.55043	11.34004	7.16393	12.15150
2351.774	4.52688	11.42122	7.22788	12.22994
2355.774	4.70197	11.34798	7.21388	12.16147
2359.716	4.84738	11.49302	7.25138	11.95928
2363.819	4.69216	11.36357	7.23841	11.78676
2367.823	4.58183	11.34370	7.28600	11.91235
2371.818	4.54666	11.33824	7.21071	11.89713
2375.820	4.44551	11.38623	7.16073	12.11270
2379.819	4.44117	11.44157	7.19762	12.08099
2383.823	4.47888	11.53906	7.20196	12.13470
2387.806	4.69936	11.49538	7.24989	12.16973
2391.718	4.56972	11.52136	7.32651	12.30088
2395.819	4.41309	11.55407	7.29160	12.31701
2399.822	4.37075	11.52229	7.27983	12.13564
2403.818	4.37453	11.50534	7.26698	12.05941
2407.822	4.44909	11.48443	7.24634	12.30718
2411.820	4.48475	11.45745	7.25472	12.36744
2415.776	4.46487	11.33660	7.29272	12.29992
2419.803	4.45172	11.38540	7.34895	12.19067
2423.820	4.52084	11.23455	7.28957	12.27264
2427.823	4.42476	11.31071	7.31020	12.24064
2431.782	4.45782	11.32401	7.27621	12.30984
2435.821	4.38136	11.34937	7.17719	12.12144
2439.822	4.45525	11.27233	7.09548	12.03128
2443.819	4.51354	11.01290	7.10751	11.99207
2447.819	4.56513	11.18333	7.20177	12.04811
2451.821	4.56326	11.27294	7.11992	12.04780
2455.694	4.51568	11.37441	7.09424	12.02206
2459.696	4.56967	11.42758	7.14739	12.11611
2463.697	4.64009	11.62813	7.11921	12.24923
2467.698	4.60589	11.66500	7.08329	12.16656
2471.722	4.61659	11.65010	7.18022	12.06458
2475.687	4.59132	11.44947	7.11359	11.87092
2479.673	4.59169	11.37186	7.08485	12.02454
2483.652	4.59778	10.98873	7.04560	11.94801
2487.696	4.63945	11.31947	6.88423	12.07952
2491.696	4.66763	11.39573	7.04200	12.34351
2495.694	4.69475	11.53926	7.11743	12.33127
2499.696	4.72270	11.44140	6.99947	12.29583
2503.682	4.67742	11.29761	7.12679	12.27487
2507.692	4.64066	11.26757	6.92821	12.07440
2511.697	4.67017	11.15149	7.03609	12.18815
2515.697	4.77017	11.19427	6.97653	12.22733
2519.683	4.69512	11.23153	7.09719	12.38392
2523.694	4.74456	11.12715	7.08475	12.19550
2527.695	4.70964	11.14949	7.10008	12.19798
2531.696	4.75519	11.09370	7.10005	12.01559
2535.687	4.66226	11.16236	7.01352	11.88431
2539.695	4.67138	11.04811	6.92139	11.03129
2543.696	4.70116	10.75505	6.75585	10.88340
2547.652	4.66904	10.58091	6.83176	11.35087
2551.655	4.75886	10.72912	6.82386	10.73771
2555.696	4.74141	10.63383	6.77083	10.76894
2559.678	4.67508	10.59984	6.73250	10.54753
2563.695	4.58826	10.61035	6.64109	10.55180
2567.680	4.53043	10.46077	6.66807	10.62895
2571.695	4.49361	10.46918	6.63088	10.50751
2575.696	4.38640	10.42192	6.63894	10.53729
2579.695	4.48290	10.19405	6.63159	10.50650
2583.684	4.49356	10.11583	6.66411	10.54995
2587.693	4.38048	10.00358	6.73162	10.66147
2591.697	4.42952	9.79261	6.67520	10.62057
2595.696	4.39264	9.83562	6.73894	10.80871
2599.683	4.34566	9.77752	6.73524	11.05172
2603.662	4.32873	9.77771	6.62836	10.85941
2607.696	4.34036	9.80328	6.60673	10.86542
2611.697	4.32691	9.91145	6.62655	10.88104
2615.682	4.33093	9.83403	6.60764	10.88088
2619.699	4.37199	9.76414	6.60076	10.97564
2623.695	4.36108	9.84478	6.59966	11.00904
2627.693	4.34842	9.84939	6.58734	10.92061
2631.681	4.35709	9.92022	6.59170	10.97289
2635.696	4.32205	9.96515	6.63416	10.87419
2639.697	4.30156	9.95644	6.61599	10.83987
2643.698	4.31506	10.02604	6.62980	10.82238
2647.654	4.30941	10.02013	6.67329	10.82873
2651.696	4.32765	10.03707	6.74242	10.83480
2655.696	4.33665	10.03885	6.76067	10.89138
2659.695	4.34189	9.96638	6.76422	10.87198
2663.719	4.35504	9.99647	6.75695	10.87302
2667.697	4.36807	10.02897	6.73010	10.81798
2671.696	4.37848	10.05255	6.75443	10.85777
2675.698	4.36093	10.05624	6.75644	10.90213
2679.719	4.36819	10.12116	6.75431	10.95606
2683.686	4.36138	10.15726	6.73072	10.95247
2687.685	4.35817	10.26160	6.74939	10.98034
2691.697	4.37206	10.21160	6.74834	11.00806
2695.717	4.36851	10.12298	6.71459	11.04440
2699.701	4.41827	10.03528	6.67596	11.05914
2703.701	4.55527	10.03824	6.69936	11.19486
2707.699	4.59401	10.06926	6.71270	11.04007
2711.725	4.60942	10.20866	6.69192	11.09484
2715.700	4.54996	10.18039	6.69591	11.17511
2719.700	4.68854	10.18708	6.65113	11.11343
2723.697	4.61630	10.10600	6.65221	11.10753
2727.689	4.64187	10.18558	6.68075	11.16143
2731.697	4.59391	10.12297	6.63144	11.15464
2735.698	4.58175	10.11020	6.62730	11.13071
2739.698	4.50047	10.15059	6.61817	11.14901
2743.701	4.52898	10.21955	6.73209	11.16086
2747.653	4.46692	10.22482	6.70448	11.16889
2751.699	4.45666	10.19204	6.65201	10.94568
2755.697	4.58708	9.01362	6.81527	10.40240
2759.717	4.85275	7.77393	6.58981	7.07976
2763.699	5.03834	4.93539	6.73674	5.98940
2767.682	5.34639	2.88953	6.51192	3.61468
2771.693	5.08178	2.26880	6.20087	2.59642
2775.722	5.49780	1.66330	6.59713	2.10438
2779.697	5.65172	0.46923	6.68203	0.96607
2783.701	5.56822	0.02011	6.68702	0.77883
2787.699	5.57645	-0.19530	6.79021	0.56792
2791.700	5.56878	-0.44091	6.96599	0.33737
2795.699	5.63641	-0.55849	7.18049	0.36244
2799.701	5.68485	-0.55448	7.24476	0.34296
2803.703	5.69927	-0.61025	7.16891	0.25486
2807.719	5.68735	-0.61043	7.27621	0.20784
2811.699	5.63724	-0.62394	7.28649	0.16298
2815.700	5.63963	-0.66110	7.23914	0.14123
2819.697	5.60838	-0.64427	7.32902	0.10366
2823.719	5.56682	-0.71899	7.25526	-0.00937
2827.699	5.54899	-0.72809	7.31384	-0.01691
2831.702	5.54503	-0.74568	7.27255	-0.12061
2835.699	5.51799	-0.52093	7.25162	-0.14457
2839.697	5.52576	-0.65138	7.18271	-0.16614
2843.700	5.53154	-0.61589	7.13099	-0.22702
2847.655	5.50778	-0.62412	7.10362	-0.25277
2851.654	5.53269	-0.63285	7.19498	-0.18515
2855.656	5.52886	-0.62227	7.08434	-0.16561
2859.699	5.57242	-0.58998	7.23391	-0.19166
2863.700	5.58739	-0.61489	7.30549	-0.19269
2867.688	5.62493	-0.41221	7.34289	-0.17846
2871.697	5.65228	-0.15702	7.35092	-0.19016
2875.700	5.72401	-0.53598	7.39947	-0.19162
2879.700	5.76593	-0.50328	7.44647	-0.16400
2883.701	5.77492	-0.30389	7.46951	-0.17663
2887.697	5.74898	-0.38102	7.50027	-0.18657
2891.688	5.77983	-0.36829	7.46697	-0.15887
2895.689	5.75760	-0.38025	7.31787	-0.21102
2899.701	5.77067	-0.39969	7.44140	-0.21619
2903.698	5.75345	-0.37179	7.32490	-0.24171
2907.699	5.78796	-0.34905	7.38905	-0.23226
2911.698	5.76379	-0.36781	7.31081	-0.23713
2915.700	5.77411	-0.40249	7.32297	-0.22315
2919.722	5.75846	-0.35849	7.35590	-0.25537
2923.701	5.72618	-0.20717	7.36584	-0.29191
2927.700	5.72871	-0.47548	7.41260	-0.35345
2931.702	5.72650	-0.55706	7.50037	-0.33855
2935.659	5.71087	-0.56071	7.54286	-0.41725
2939.699	5.67819	-0.52633	7.56274	-0.47312
2943.700	5.67396	-0.47008	7.56181	-0.48898
2947.701	5.66779	-0.34411	7.60514	-0.47822
2951.690	5.64385	-0.26435	7.59354	-0.48207
2955.701	5.59504	-0.44020	7.61373	-0.42380
2959.703	5.54289	-0.11318	7.60839	-0.35664
2963.699	5.51415	-0.36401	7.54071	-0.43658
2967.659	5.50166	-0.67164	7.51398	-0.37389
2971.701	5.50272	-0.62475	7.53340	-0.34488
2975.682	5.50493	-0.58953	7.45980	-0.29505
2979.697	5.50154	-0.57946	7.42668	-0.26151
2983.660	5.47899	-0.60318	7.44264	-0.20547
2987.702	5.46568	-0.56125	7.47341	-0.20713
2991.702	5.38447	-0.67949	7.42900	-0.19974
2995.700	5.29792	-0.58198	7.47178	-0.14366
2999.660	5.33025	-0.35318	7.40743	-0.20122
3003.705	5.23787	-0.62670	7.48380	-0.23263
3007.700	5.36191	-0.57403	7.51788	-0.27542
3011.700	5.35298	-0.62317	7.53737	-0.30362
3015.660	5.44025	-0.55662	7.47853	-0.32923
3019.702	5.49455	-0.53453	7.48207	-0.30772
3023.702	5.35497	-0.48545	7.43100	-0.31732
3027.702	5.65159	-0.50751	7.43122	-0.22920
3031.660	5.65961	-0.62337	7.46458	-0.23616
3035.701	5.70686	-0.59197	7.53552	-0.26977
3039.658	5.73772	-0.64951	7.53086	-0.25662
3043.703	5.75313	-0.67385	7.51078	-0.21140
3047.702	5.76558	-0.54195	7.51315	-0.22037
3051.700	5.70514	-0.64599	7.59746	-0.29692
3055.701	5.69671	-0.56713	7.61614	-0.31482
3059.679	5.62596	-0.37526	7.69444	-0.31508
3063.670	5.63729	-0.51457	7.69137	-0.26881
3067.700	5.68986	-0.61152	7.74842	-0.31304
3071.699	5.55757	-0.62244	7.78830	-0.17744
3075.700	5.54019	-0.50781	7.73874	-0.22175
3079.699	5.54053	-0.52282	7.64015	-0.19321
3083.703	5.52416	-0.41196	7.64783	-0.30361
3087.703	5.62348	-0.29660	7.67443	-0.31950
3091.703	5.62999	-0.32487	7.62367	-0.38463
3095.694	5.64616	-0.23776	7.54062	-0.31839
3099.699	5.68615	-0.25822	7.49107	-0.43146
3103.698	5.74433	-0.28265	7.43508	-0.41424
3107.704	5.68993	-0.37537	7.25743	-0.36442
3111.699	5.71826	-0.27843	7.01854	-0.25514
3115.704	5.73202	-0.13653	7.00651	-0.36368
3119.701	5.75760	-0.01293	7.22238	-0.27731
3123.700	5.76379	-0.07368	7.13402	-0.32399
3127.705	5.78806	-0.05624	7.21056	-0.27091
3131.704	5.78308	-0.19662	7.22241	-0.30169
3135.705	5.76482	-0.31245	7.17788	-0.46204
3139.704	5.75645	-0.13509	7.05980	-0.63494
3143.707	5.76097	-0.13447	6.97355	-0.48358
3147.657	5.77463	-0.02356	6.83107	-0.39952
3151.701	5.73519	-0.00386	7.07855	-0.27989
3155.703	5.63151	-0.00430	7.16586	-0.31620
3159.704	5.70932	-0.02149	7.25011	-0.30490
3163.702	5.71367	-0.04898	7.27733	-0.40291
3167.704	5.72355	-0.06471	7.36149	-0.42161
3171.703	5.75379	-0.05219	7.36872	-0.51408
3175.706	5.74944	-0.12738	7.30832	-0.58639
3179.701	5.88169	-0.08093	7.17196	-0.65211
3183.684	5.89451	-0.21794	7.09333	-0.52009
3187.705	5.91447	-0.12835	7.07461	-0.56585
3191.707	5.84173	-0.16567	7.06691	-0.56315
3195.702	5.84620	-0.36105	6.99663	-0.58551
3199.703	5.87209	-0.21176	7.10531	-0.63663
3203.707	5.78273	-0.07681	7.15831	-0.60547
3207.600	5.62210	-0.41604	7.14357	-0.58949
3211.701	5.71895	-0.05704	7.10299	-0.52417
3215.702	5.74234	-0.29058	7.15369	-0.57554
3219.706	5.80037	-0.08267	7.15667	-0.51134
3223.605	5.79160	-0.03706	7.29299	-0.44504
3227.705	5.71099	-0.27942	7.15579	-0.39286
3231.704	5.63255	-0.35103	7.25167	-0.40781
3235.706	5.67349	-0.01229	7.30004	-0.37782
3239.695	5.69249	-0.29204	7.32102	-0.20673
3243.704	5.63292	0.08391	7.33723	-0.13932
3247.703	5.64845	-0.31108	7.31340	-0.06815
3251.708	5.71595	0.35745	7.30974	-0.08671
3255.600	5.73932	0.25610	7.23347	0.44532
3259.711	5.73971	2.44119	7.21867	2.92186
3263.702	5.63719	5.18826	7.01201	4.72618
3267.683	5.70996	6.16735	7.14553	6.82668
3271.572	5.76409	9.08300	7.33974	8.17835
3275.705	5.83770	9.15833	7.78416	9.06353
3279.702	5.91017	9.39324	7.85548	9.58977
3283.706	6.04146	9.43847	7.70655	9.65736
3287.708	6.16017	9.42709	8.14249	9.60689
3291.662	6.14133	9.17752	8.15003	9.42892
3295.705	6.10423	9.07000	8.10489	9.43351
3299.706	6.15877	9.45854	8.09676	9.42591
3303.708	6.28687	9.37454	8.18356	9.55001
3307.691	6.36959	9.41136	8.21616	9.74606
3311.692	6.39604	9.69346	8.42500	9.73762
3315.706	6.43907	9.62098	8.46456	9.99892
3319.601	6.44635	9.58620	8.47206	9.72719
3323.704	6.43773	9.31955	8.47944	9.88261
3327.706	6.43697	9.28643	8.42738	9.65091
3331.706	6.50156	9.49057	8.53336	9.92081
3335.710	6.49423	9.41652	8.50622	9.88511
3339.706	6.59623	9.46690	8.55282	9.96976
3343.705	6.63423	9.36587	8.57719	10.03378
3347.660	6.63739	9.41285	8.62557	10.12205
3351.602	6.65022	9.34555	8.66831	10.28363
3355.660	6.63149	9.41774	8.63081	10.21272
3359.704	6.62309	9.28275	8.63549	10.30922
3363.706	6.61697	9.35937	8.66991	10.32644
3367.666	6.60735	9.38084	8.66181	10.15530
3371.707	6.62368	9.41333	8.67638	10.19578
3375.705	6.59339	9.32267	8.68281	10.35949
3379.705	6.58648	9.28895	8.72163	10.29970
3383.577	6.55146	9.17460	8.74193	10.23954
3387.705	6.50898	9.12363	8.75056	10.31456
3391.687	6.50592	9.15581	8.75427	10.26727
3395.705	6.49100	9.21270	8.70907	10.32101
3399.568	6.51376	9.21936	8.71994	10.17813
3403.705	6.53502	9.22066	8.64905	10.25475
3407.708	6.51111	9.10958	8.58294	10.12262
3411.706	6.51253	9.12070	8.55144	10.13406
3415.665	6.52549	9.19427	8.51792	10.24273
3419.707	6.55724	9.30764	8.51651	10.34561
3423.708	6.56047	9.45335	8.47624	10.34693
3427.705	6.62510	9.41301	8.48945	10.31095
3431.566	6.65982	9.51000	8.48090	10.27868
3435.671	6.63235	9.45842	8.43780	10.37313
3439.708	6.63191	9.47852	8.42029	10.38746
3443.705	6.61876	9.49637	8.39435	10.33502
3447.567	6.58856	9.49382	8.43853	10.30546
3451.706	6.61717	9.44878	8.46893	10.30062
3455.707	6.64200	9.39864	8.45189	10.27770
3459.663	6.64045	9.36116	8.48323	10.26922
3463.709	6.66393	9.40685	8.49772	10.31102
3467.715	6.65096	9.34155	8.56238	10.12377
3471.708	6.61866	9.11773	8.47838	8.58611
3475.683	6.53651	7.89720	8.46390	7.09013
3479.610	6.49891	7.17181	8.52268	7.64196
3483.700	6.51726	6.43265	8.58367	7.13765
3487.707	6.51013	6.10910	8.56224	7.20050
3491.580	6.59324	6.05410	8.54523	6.89824
3495.605	6.48999	6.73593	8.51855	6.74421
3499.583	6.30279	6.52587	8.52001	7.11197
3503.582	6.29948	6.44357	8.51294	6.86744
3507.586	6.28871	6.35964	8.55086	6.95553
3511.608	6.30465	6.51488	8.44329	6.93149
3515.585	6.38386	6.43509	8.46789	6.78731
3519.581	6.31215	6.36275	8.47087	6.78561
3523.547	6.39003	6.38680	8.44822	6.74766
3527.578	6.33130	6.37386	8.42282	6.73804
3531.582	6.29126	6.39769	8.40609	6.67189
3535.580	6.25460	6.36779	8.38163	6.79681
3539.581	6.41535	6.33360	8.36972	6.85271
3543.605	6.40143	6.32475	8.45815	6.82742
3547.540	6.40903	6.32624	8.50479	6.89259
3551.580	6.34652	6.33411	8.44788	6.87649
3555.583	6.42741	6.31455	8.43938	6.88694
3559.604	6.37665	6.29107	8.42758	6.88756
3563.587	6.34765	6.28398	8.46347	6.88450
3567.584	6.37378	6.29703	8.45992	6.93464
3571.581	6.45385	6.26370	8.40844	6.94936
3575.603	6.49144	6.21732	8.41157	6.94690
3579.585	6.48539	6.23396	8.46694	6.93473
3583.583	6.44968	6.25041	8.50969	6.96397
3587.582	6.49592	6.25255	8.45040	6.89450
3591.581	6.47590	6.22437	8.30415	6.79950
3595.593	6.50239	6.19518	8.29649	6.71409
3599.585	6.53823	6.18493	8.22338	6.70637
3603.579	6.52809	6.16260	8.34966	6.64409
3607.578	6.50361	6.15636	8.23252	6.62268
3611.540	6.51091	6.16664	8.13013	6.51937
3615.584	6.42241	6.17443	8.18055	6.45318
3619.584	6.27998	6.21933	8.20525	6.41859
3623.607	6.17739	6.20037	8.20522	6.33192
3627.586	6.19471	6.17868	8.21512	6.24536
3631.582	6.12779	6.11405	8.23649	6.24429
3635.581	6.03569	6.05202	8.22667	6.22853
3639.573	6.12583	6.10767	8.20938	6.21706
3643.585	6.13922	6.15651	8.28444	6.26565
3647.541	6.24293	6.17717	8.21043	6.21947
3651.583	6.18718	6.20326	8.27071	6.23664
3655.602	6.32806	6.07659	8.26731	6.28359
3659.586	6.31335	6.04453	8.22674	6.30077
3663.583	6.26625	5.90617	8.18869	6.20182
3667.584	6.39116	5.77730	8.18067	6.24001
3671.607	6.57519	5.95620	8.12807	6.21270
3675.575	6.61193	6.02937	8.09528	6.12228
3679.585	6.62855	5.87258	8.16017	6.00041
3683.584	6.70394	5.88137	8.24407	6.10499
3687.595	6.77093	5.87869	8.23267	6.14594
3691.585	6.72604	5.80950	8.25226	6.20443
3695.585	6.67103	5.82185	8.28806	6.28285
3699.585	6.53916	5.76384	8.20773	6.15327
3703.609	6.24266	5.74904	8.24183	6.08710
3707.589	6.58190	5.85295	8.24288	6.14697
3711.583	6.49176	5.84210	8.13767	6.07638
3715.584	6.23052	5.83155	8.24672	6.08676
3719.605	6.50200	5.94163	8.28821	6.12546
3723.587	6.48333	5.84860	8.23111	6.10387
3727.585	6.49568	5.96080	8.18108	6.16115
3731.587	6.53840	5.89474	8.17318	6.15711
3735.604	6.55310	6.03039	8.21721	6.10897
3739.586	6.46608	6.04606	8.17566	6.15595
3743.542	6.39518	6.10596	8.22552	6.18455
3747.584	6.47056	6.15608	8.24879	6.28388
3751.607	6.48960	6.16283	8.27081	6.27549
3755.589	6.43111	6.10153	8.34652	6.24698
3759.587	6.52816	6.12812	8.34378	6.33722
3763.585	6.50660	6.10936	8.32113	6.32376
3767.543	6.50927	6.08028	8.29302	6.34593
3771.566	6.52512	6.05820	8.34057	6.38074
3775.587	6.43711	6.00425	8.26016	6.34174
3779.585	6.36743	5.90473	8.21133	6.38277
3783.604	6.30982	5.92828	8.20522	6.34779
3787.541	6.30355	5.85125	8.18942	6.30194
3791.586	6.27059	5.79512	8.23124	6.26367
3795.587	6.28938	5.66331	8.14850	6.28358
3799.605	6.27819	5.58747	8.11914	6.28737
3803.574	6.23128	5.50665	8.16197	6.31683
3807.586	6.20604	5.62814	8.13940	6.27607
3811.581	6.14702	5.61276	8.16741	6.25432
3815.575	6.14033	5.62282	8.18614	6.28287
3819.588	6.23788	5.74447	8.19766	6.42624
3823.587	6.18532	5.71936	8.17719	6.39813
3827.584	6.09682	5.70639	8.16236	6.36535
3831.544	6.07258	5.80048	8.14536	6.38024
3835.584	5.98275	5.90056	8.12323	6.28947
3839.583	5.97607	5.72150	8.10116	6.26604
3843.586	5.96623	5.77149	8.07874	6.24511
3847.584	5.97364	5.75108	8.06555	6.26080
3851.589	6.03361	5.79351	8.10605	6.26319
3855.563	6.08838	5.72671	8.05738	6.31555
3859.589	6.03866	5.76070	8.04592	6.26176
3863.605	6.05763	5.67715	8.09012	6.26966
3867.578	6.07680	5.69060	8.04813	6.26102
3871.585	6.04284	5.76114	7.91351	6.38959
3875.586	5.96969	6.11854	7.75190	6.37364
3879.583	5.34230	8.67146	7.12740	9.19560
3883.590	4.18697	9.53754	6.31635	10.22812
3887.587	4.03416	10.10400	7.14377	11.67498
3891.588	4.57948	10.25850	7.08715	11.40277
3895.609	4.69573	10.36134	7.09822	11.64179
3899.588	4.98359	10.24769	7.34782	11.44310
3903.587	4.53549	9.99527	7.10377	11.39377
3907.585	4.69041	10.18782	7.21520	11.67518
3911.608	4.49864	9.93807	7.04220	11.71433
3915.584	4.61590	10.35446	6.97526	11.76661
3919.587	4.43798	10.36983	6.81556	11.77236
3923.583	4.59652	10.59595	6.86403	11.63823
3927.586	4.62646	10.76453	6.86579	11.73644
3931.588	4.60476	10.62662	7.06242	11.76229
3935.588	4.63617	10.81157	6.89700	11.61375
3939.551	4.61470	10.56047	6.91344	11.33718
3943.582	4.55741	10.56271	6.98934	11.50964
3947.588	4.57078	10.80267	6.79582	9.81423
3951.589	4.49531	10.95406	6.78067	11.65116
3955.587	4.48150	11.15087	6.91999	11.55823
3959.606	4.53164	11.12608	6.91114	11.69668
3963.586	4.50148	11.14506	6.87310	10.69156
3967.589	4.47311	11.19162	6.83903	11.83109
3971.588	4.48530	11.11051	6.88115	12.19040
3975.580	4.43616	11.22948	6.86026	11.58276
3979.569	4.45903	11.02337	6.86606	11.68785
3983.589	4.48803	10.93636	6.90390	11.28031
3987.590	4.47346	10.74365	6.94599	11.57205
3991.590	4.49805	10.77320	6.89079	11.40820
3995.588	4.57795	10.50582	6.93726	11.53364
3999.590	4.66001	10.55617	6.92770	11.62691
4003.589	4.68570	10.73563	6.92474	11.56345
4007.592	4.75203	10.80903	6.99947	11.96125
4011.590	4.74715	10.76953	7.02130	11.60269
4015.589	4.80431	10.78180	7.05552	11.61762
4019.594	4.79346	10.76225	7.09443	11.63214
4023.589	4.79314	10.92699	7.08422	11.76374
4027.588	4.71067	10.74946	7.08231	11.90366
4031.589	4.74688	10.90276	7.06012	11.85717
4035.588	4.74794	10.95157	7.10079	12.00305
4039.592	4.64579	10.98156	7.11357	12.15937
4043.588	4.67135	11.08840	7.11352	12.10825
4047.545	4.63043	11.09919	7.07632	12.10562
4051.590	4.56666	11.10681	7.06828	12.25128
4055.592	4.57874	11.15177	7.04486	12.06367
4059.588	4.55221	11.09124	7.03699	12.28790
4063.591	4.55504	11.11433	7.05469	12.43670
4067.553	4.61778	11.12609	7.11210	12.37202
4071.586	4.66297	11.21326	7.12332	12.24743
4075.587	4.70562	11.20726	7.15193	12.51104
4079.590	4.71213	11.18601	7.15779	12.31005
4083.587	4.75691	11.02216	7.12662	12.18599
4087.594	3.73033	11.23353	7.16757	12.56106
4091.588	NaN	NaN	NaN	NaN
4095.579	4.84536	14.53280	6.63935	11.71031
4099.592	4.58848	13.01941	NaN	NaN
4103.583	NaN	NaN	NaN	NaN
4107.544	NaN	NaN	NaN	NaN
4111.592	NaN	NaN	NaN	NaN
4115.587	NaN	NaN	NaN	NaN
4119.589	NaN	NaN	NaN	NaN
4123.588	NaN	NaN	NaN	NaN
4127.542	NaN	NaN	NaN	NaN
4131.588	NaN	NaN	NaN	NaN
4135.593	NaN	NaN	NaN	NaN
4139.587	NaN	NaN	NaN	NaN
4143.543	NaN	NaN	NaN	NaN
4147.543	NaN	NaN	NaN	NaN
4151.593	NaN	NaN	NaN	NaN
4155.586	NaN	NaN	NaN	NaN
4159.542	NaN	NaN	NaN	NaN
4163.589	NaN	NaN	NaN	NaN
4167.590	NaN	NaN	NaN	NaN
4171.586	NaN	NaN	NaN	NaN
4175.586	NaN	NaN	NaN	NaN
4179.546	NaN	NaN	NaN	NaN
4183.587	NaN	NaN	NaN	NaN
4187.566	NaN	NaN	NaN	NaN
4191.589	NaN	NaN	NaN	NaN
4195.544	NaN	NaN	NaN	NaN
4199.594	NaN	NaN	3.29659	11.06484
4203.590	NaN	NaN	5.47759	14.25403
4207.588	7.09028	14.41165	NaN	NaN
4211.592	5.35515	14.54730	6.65194	12.81576
4215.549	5.21407	13.30161	7.06623	12.30301
4219.590	5.23288	13.35877	7.03633	12.87602
4223.594	6.60612	14.15990	6.46547	12.61772
4227.588	5.59523	13.66091	6.26667	13.92723
4231.549	1.75835	9.69364	5.41942	13.30216
4235.548	1.91977	8.91654	5.33199	13.69352
4239.592	2.20406	9.75397	4.50172	11.61004
4243.591	5.16113	11.27071	4.28004	11.25490
4247.550	3.42532	11.15415	3.89718	10.34106
4251.591	3.93023	11.02373	4.35326	11.59787
4255.591	3.87233	10.68047	4.22044	12.13509
4259.591	1.90086	9.46263	5.71581	11.51214
4263.596	2.25984	9.83836	7.43574	10.17102
4267.594	2.97564	10.26396	6.31612	10.69183
4271.546	2.54370	9.78981	7.06371	10.47602
4275.590	3.13736	9.68559	6.55305	10.20978
4279.594	4.23952	9.85448	6.93425	10.05993
4283.593	4.20923	9.94208	6.82897	10.16011
4287.590	4.47346	9.74274	7.03836	10.27841
4291.592	4.18363	10.01795	7.12933	10.17790
4295.487	4.48251	9.62426	7.06110	9.97190
4299.592	3.88520	9.84086	7.10538	10.11663
4303.591	4.18124	9.79310	7.02347	10.28623
4307.549	3.95782	9.78469	7.10409	10.17451
4311.493	4.36242	9.83488	7.13945	10.33091
4315.594	4.32042	9.83173	7.20590	10.37448
4319.591	4.44203	9.99571	7.23281	10.31072
4323.593	4.40401	9.88369	7.19527	10.38640
4327.594	4.37732	9.98406	7.13947	10.33950
4331.594	4.34055	9.92767	7.20468	10.23965
4335.592	4.46292	9.94066	7.20331	10.25856
4339.593	4.33322	9.95805	7.19271	10.37320
4343.594	4.39804	9.92909	7.14042	10.34659
4347.547	4.42940	9.94577	7.07642	10.28021
4351.591	4.45797	9.96094	7.14103	10.21116
4355.548	4.43956	9.90583	7.22871	10.29304
4359.594	4.48276	9.91665	7.20240	10.23889
4363.592	4.49156	9.81316	7.23120	10.70843
4367.592	4.47957	9.80033	7.21545	10.29519
4371.592	4.46542	9.70147	7.18325	10.34130
4375.596	4.49743	9.65406	7.20702	9.51413
4379.592	4.47755	9.53023	7.18311	9.87995
4383.593	4.43956	9.50392	7.15836	10.49878
4387.592	4.42454	9.35559	7.11655	10.73625
4391.597	4.50754	9.28643	7.16715	10.42214
4395.574	4.45002	9.21521	7.14753	10.71491
4399.591	4.56979	9.25785	7.14150	10.75858
4403.594	4.63874	9.30244	7.28075	10.76441
4407.594	4.69583	9.32434	7.23929	10.75810
4411.594	4.57847	9.41687	7.24388	10.81068
4415.549	4.53512	9.46113	7.34411	10.72643
4419.592	4.70254	9.45696	7.39520	10.96045
4423.597	4.68065	9.50869	7.37384	11.07833
4427.593	4.68284	9.47966	7.39091	11.15405
4431.586	4.79287	9.51228	7.45106	10.91802
4435.592	4.75640	9.44879	7.41741	11.04161
4439.597	4.83841	9.39315	7.45814	10.83773
4443.594	4.85021	9.43655	7.43742	10.77111
4447.549	4.82377	9.35868	7.36742	10.65760
4451.595	4.84625	9.39106	7.35105	10.78392
4455.598	4.89038	9.33032	7.34235	10.88455
4459.593	4.93130	9.28026	7.37209	10.85280
4463.594	4.91442	9.27721	7.32702	10.51695
4467.592	4.82875	9.24735	7.29238	10.75502
4471.594	4.77818	9.28841	7.29516	10.76961
4475.593	4.70074	9.27563	7.32461	10.81889
4479.571	4.64825	9.33068	7.31655	10.63468
4483.593	4.55751	9.36952	7.20595	10.63557
4487.594	4.73532	9.44753	7.18181	10.61905
4491.594	4.68910	9.42162	7.16798	10.49548
4495.593	4.65530	9.47284	7.21210	10.68455
4499.595	4.66356	9.47389	7.25548	10.60028
4503.594	4.73685	9.49597	7.17016	10.59411
4507.595	4.75635	9.42378	7.04570	10.58910
4511.591	4.68821	9.45113	7.00311	10.56638
4515.599	4.62426	9.50233	6.91581	10.46152
4519.600	4.63474	9.51793	6.95098	10.56911
4523.552	4.74252	9.58854	6.94039	10.53701
4527.597	4.78035	9.61359	6.94580	10.46113
4531.596	4.69324	9.48566	6.93447	10.58739
4535.462	4.65806	9.61436	7.01927	10.54147
4539.471	4.66366	9.60169	6.98595	10.61428
4543.427	4.71316	9.61530	7.08485	10.56647
4547.470	4.67673	9.58863	7.24175	10.73056
4551.468	4.63945	9.57165	7.33401	10.57491
4555.470	4.62387	9.57492	7.31662	10.74744
4559.469	4.64833	9.52119	7.33183	10.79929
4563.470	4.68624	9.39131	7.31660	10.57243
4567.429	4.67882	9.38215	7.20890	10.64967
4571.470	4.69024	9.45573	7.00416	10.61578
4575.476	4.73907	9.54478	6.99177	10.57290
4579.470	4.80992	9.50367	6.90884	10.65251
4583.454	4.87503	9.88804	7.25953	10.63843
4587.468	4.90429	9.69377	6.82241	10.74112
4591.467	4.89284	9.67969	6.96416	10.72841
4595.470	4.94947	9.78852	6.90972	10.80043
4599.457	4.99322	9.78298	6.99966	10.80195
4603.469	5.03940	9.76335	6.96585	10.76363
4607.464	5.00987	9.92059	7.10966	10.85637
4611.457	5.08224	9.85722	7.02790	9.81346
4615.429	5.15116	9.04609	6.96885	9.15372
4619.469	5.14862	7.35741	7.21398	7.34760
4623.471	5.31721	5.83122	7.12693	6.20640
4627.470	5.45238	4.72388	7.10565	5.89281
4631.461	5.80722	3.87978	7.17221	5.44147
4635.470	5.72119	4.38418	7.29912	5.18454
4639.471	5.73686	4.80591	7.40945	5.13413
4643.470	5.83881	4.86518	7.56622	5.47003
4647.431	5.68770	5.19587	7.62726	5.45466
4651.444	5.71809	5.30789	7.57608	5.34091
4655.469	5.73669	5.17692	7.52364	5.20627
4659.470	5.79892	5.15647	7.61860	5.17384
4663.491	5.89912	5.15989	7.62518	5.12431
4667.428	5.86961	4.99989	7.66931	5.17650
4671.468	5.86629	4.97725	7.75176	5.19469
4675.471	5.83965	4.92319	7.71762	5.04859
4679.469	5.82547	4.89845	7.65225	5.19576
4683.471	5.88503	4.70187	7.65147	5.18299
4687.473	5.87521	4.63528	7.60778	5.11567
4691.451	5.86212	4.41843	7.60275	5.18617
4695.450	5.86543	4.34758	7.54462	5.08812
4699.470	5.87697	4.44596	7.49778	5.03824
4703.472	5.84726	4.41459	7.51191	4.96639
4707.471	5.81810	4.36004	7.45862	5.05394
4711.490	5.77671	4.37007	7.48380	5.05962
4715.472	5.75345	4.33964	7.51825	5.13630
4719.473	5.76222	4.37964	7.53981	5.12852
4723.468	5.77666	4.37363	7.61441	4.94502
4727.433	5.75662	4.38008	7.57332	5.08588
4731.473	5.74763	4.37199	7.56815	4.92443
4735.436	5.84694	4.39813	7.56605	4.83456
4739.473	5.93910	4.46005	7.66136	4.80952
4743.496	5.86789	4.46487	7.67372	4.83264
4747.473	5.90593	4.45899	7.71759	4.70437
4751.475	6.00717	4.46139	7.74279	4.72006
4755.474	6.14656	4.44037	7.69887	4.68897
4759.490	6.18021	4.46141	7.65259	4.77932
4763.471	6.31198	4.56039	7.56830	4.65403
4767.471	6.36672	4.61622	7.50966	4.71528
4771.473	6.37920	4.67065	7.57549	4.76976
4775.476	6.42655	4.67642	7.53249	4.71104
4779.473	6.42172	4.74337	7.47726	4.72324
4783.479	6.44152	4.71611	7.49500	4.80288
4787.471	6.44481	4.86092	7.46365	4.74952
4791.431	6.40420	4.97725	7.51244	4.86827
4795.472	6.35197	5.11783	7.43539	4.82996
4799.468	6.36726	5.08835	7.45943	4.85406
4803.470	6.25617	5.15844	7.49942	4.82206
4807.451	6.25259	5.04751	7.52601	4.85631
4811.473	6.18978	5.01063	7.48568	4.81201
4815.467	6.17840	5.00270	7.45477	4.76819
4819.459	6.17097	4.94216	7.51803	4.78056
4823.463	6.19172	4.92853	7.56474	4.83076
4827.473	6.20663	4.78510	7.55244	4.76331
4831.471	6.16177	4.78433	7.61702	4.73177
4835.474	6.18652	4.51540	7.54452	4.71358
4839.470	6.16030	4.68146	7.59317	4.70194
4843.472	6.08188	4.42669	7.61202	4.63502
4847.427	6.05103	4.69063	7.59202	4.68136
4851.427	6.04774	4.50716	7.61982	4.61225
4855.432	6.03974	4.54693	7.65407	4.65700
4859.442	5.93510	4.52449	7.66007	4.73873
4863.473	5.90676	4.51185	7.66970	4.68875
4867.429	5.88473	4.46840	7.64598	4.70479
4871.471	5.89544	4.31842	7.68976	4.72808
4875.473	5.97632	4.25822	7.70309	4.72446
4879.473	6.03950	4.36579	7.71659	4.72573
4883.475	6.01476	4.33793	7.56752	4.65536
4887.496	6.08944	4.14957	7.61165	4.13092
4891.474	6.11842	1.44783	7.49124	1.58866
4895.476	6.12524	0.85310	7.26205	0.85447
4899.456	6.14023	0.43549	7.33662	-0.78696
4903.452	6.29166	-0.67259	7.30761	-1.05597
4907.473	6.36028	-1.44131	7.22527	-0.86898
4911.472	6.41447	-1.04887	7.28574	-0.67174
4915.476	6.41217	-0.17177	7.30888	-0.34415
4919.497	6.30342	0.26682	7.22451	-0.59096
4923.472	6.16643	-0.81070	7.20387	-0.54881
4927.473	6.20592	-0.10269	7.22805	-0.59051
4931.474	6.18502	-0.30470	7.20682	-0.65788
4935.457	6.21509	-0.58638	7.20477	-0.70945
4939.474	6.29173	-0.56654	7.27890	-0.71914
4943.472	6.37878	-0.58155	7.31362	-0.73449
4947.474	6.31176	-0.47929	7.29653	-0.73444
4951.464	6.21676	-0.47001	7.30876	-0.72496
4955.474	6.23803	-0.41597	7.28310	-0.83593
4959.473	6.21360	-0.47849	7.25621	-0.88960
4963.473	6.25573	-0.53380	7.27694	-0.94523
4967.459	6.22927	-0.37480	7.30314	-0.92120
4971.474	6.33432	-0.51389	7.35905	-0.93685
4975.475	6.27069	-0.62149	7.38895	-0.87815
4979.476	6.25308	-0.66357	7.44535	-0.85020
4983.459	6.22017	-0.70074	7.39339	-0.84220
4987.476	6.14101	-0.75039	7.40875	-0.86966
4991.474	6.12691	-0.80827	7.42803	-0.84583
4995.478	6.04607	-0.92448	7.44530	-0.79280
4999.474	6.02644	-0.91384	7.38090	-0.79080
5003.476	5.94455	-0.99418	7.39774	-0.73191
5007.430	5.94217	-0.96977	7.38017	-0.69890
5011.475	5.95322	-0.94974	7.35507	-0.70276
5015.473	5.97563	-0.99991	7.38807	-0.77477
5019.478	6.00651	-0.98599	7.35339	-0.79267
5023.462	6.01650	-0.97352	7.29953	-0.84090
5027.462	5.99831	-1.00481	7.30764	-0.83186
5031.473	6.10345	-0.99016	7.29501	-0.79798
5035.476	6.01044	-1.03665	7.31560	-0.77404
5039.474	6.08480	-1.00754	7.30275	-0.75099
5043.476	6.10475	-1.01076	7.34770	-0.66043
5047.461	6.21085	-1.05503	7.37570	-0.62444
5051.479	6.17911	-1.15282	7.38307	-0.55561
5055.475	6.18806	-1.19147	7.43230	-0.62005
5059.472	6.16979	-1.12543	7.45289	-0.54229
5063.472	6.16964	-1.13096	7.46175	-0.58200
5067.454	6.14327	-1.15188	7.51503	-0.62205
5071.476	6.14820	-1.14799	7.55981	-0.64322
5075.475	6.08728	-1.14375	7.57566	-0.62322
5079.478	6.05292	-1.09094	7.56479	-0.64166
5083.478	6.07459	-1.03678	7.55105	-0.64392
5087.475	6.02791	-0.99260	7.48014	-0.63334
5091.475	6.01324	-0.92088	7.40413	-0.64315
5095.478	6.09685	-0.90982	7.31274	-0.63900
5099.477	6.06112	-0.87796	7.18508	-0.66592
5103.478	6.06092	-0.85447	7.08290	-0.75276
5107.471	6.00035	-0.85609	7.04029	-0.69183
5111.472	5.96051	-0.87802	7.31789	-0.75984
5115.480	6.05253	-0.97879	7.27345	-0.80913
5119.474	6.11618	-0.91389	7.22627	-0.88601
5123.477	6.12396	-1.03058	7.27675	-0.93867
5127.472	6.08566	-1.00669	7.27389	-0.96566
5131.477	6.08129	-1.02016	7.23157	-0.90542
5135.477	6.04279	-1.03390	7.28798	-0.93178
5139.477	5.94703	-1.01288	7.24366	-0.90846
5143.479	5.89382	-1.04505	7.19908	-0.87123
5147.432	5.89328	-1.08990	7.27526	-0.97855
5151.440	5.95906	-1.09876	7.32644	-1.00517
5155.477	5.99100	-1.08679	7.34514	-1.02851
5159.479	6.01363	-1.02089	7.33969	-1.00585
5163.477	5.98501	-1.02608	7.29328	-1.04533
5167.433	5.95987	-1.01617	7.26232	-0.90879
5171.476	5.81196	-0.96254	6.69948	-0.89769
5175.481	4.44255	-0.95953	4.43522	-0.62036
5179.477	2.70282	-0.75617	2.90225	-0.36605
5183.476	1.40395	-0.76905	0.52907	-0.47593
5187.479	0.24701	-0.95891	-0.64685	-0.41356
5191.473	-0.82153	-0.86012	-0.92646	-0.77912
5195.477	-1.67506	-1.07263	-3.25825	-1.10560
5199.478	-2.88579	-0.88890	-3.44320	-0.47998
5203.480	-4.02243	-0.81946	-4.31965	-0.81548
5207.480	-5.19130	-0.61079	-6.21004	-0.53251
5211.481	-6.12244	-0.58535	-6.08873	-0.55248
5215.477	-7.03276	-0.48904	-6.66582	-0.72776
5219.479	-7.64427	-0.46817	-7.05032	-0.71985
5223.481	-7.79583	-0.48312	-6.92848	-0.92829
5227.433	-7.60678	-0.44445	-6.42474	-0.94465
5231.466	-7.15789	-0.45836	-6.40268	-1.02329
5235.481	-7.09551	-0.61051	-6.50592	-1.07291
5239.481	-7.10074	-0.55606	-6.65238	-1.03623
5243.477	-7.12087	-0.56969	-6.67505	-1.10724
5247.477	-7.44230	-0.48692	-6.78179	-1.06434
5251.480	-7.42253	-0.59875	-6.73679	-1.15922
5255.483	-7.63484	-0.58184	-6.72707	-1.25998
5259.479	-7.51125	-0.56705	-6.59576	-1.29479
5263.478	-7.51596	-0.61983	-6.55910	-1.33592
5267.481	-7.47239	-0.58477	-6.58753	-1.32903
5271.438	-7.54693	-0.57661	-6.56294	-1.30038
5275.448	-7.49322	-0.61418	-6.52047	-1.24432
5279.477	-7.62987	-0.58731	-6.49073	-1.06700
5283.480	-7.68128	-0.51578	-6.44324	-1.05167
5287.375	-7.70882	-0.48965	-6.40271	-1.02030
5291.479	-7.66490	-0.45842	-6.43751	-0.99261
5295.478	-7.66965	-0.42904	-6.41770	-0.87838
5299.481	-7.63611	-0.38364	-6.43334	-0.80962
5303.483	-7.65134	-0.37212	-6.49264	-0.82616
5307.479	-7.64132	-0.41762	-6.55650	-0.70314
5311.479	-7.65685	-0.45077	-6.61435	-0.66031
5315.481	-7.66080	-0.39952	-6.58513	-0.62932
5319.482	-7.69568	-0.44906	-6.61651	-0.44195
5323.478	-7.66736	-0.42170	-6.59206	-0.41314
5327.478	-7.55640	-0.39415	-6.54795	-0.42745
5331.480	-7.58778	-0.37572	-6.53357	-0.32536
5335.375	-7.57856	-0.34837	-6.59314	-0.36706
5339.478	-7.56993	-0.34212	-6.59508	-0.32677
5343.478	-7.49237	-0.39813	-6.60904	-0.41656
5347.433	-7.57700	-0.40495	-6.60414	-0.42713
5351.375	-7.56047	-0.35018	-6.61457	-0.43230
5355.434	-7.54827	-0.34366	-6.58817	-0.45257
5359.472	-7.57339	-0.33778	-6.56179	-0.34040
5363.479	-7.49524	-0.30071	-6.58298	-0.40281
5367.344	-7.44669	-0.29498	-6.61347	-0.44699
5371.479	-7.38637	-0.32006	-6.69863	-0.50639
5375.479	-7.47007	-0.34153	-6.73882	-0.54550
5379.480	-7.52762	-0.41238	-6.76457	-0.55320
5383.341	-7.60102	-0.38781	-6.80954	-0.58954
5387.479	-7.56978	-0.41170	-6.86873	-0.54373
5391.484	-7.63055	-0.45511	-6.83218	-0.51658
5395.477	-7.60978	-0.43156	-6.82090	-0.47559
5399.439	-7.67684	-0.40956	-6.80291	-0.29451
5403.483	-7.64354	-0.43508	-6.77570	-0.25223
5407.479	-7.66165	-0.41560	-6.70078	-0.27231
5411.478	-7.74725	-0.43573	-6.64809	-0.19124
5415.438	-7.78319	-0.39722	-6.57747	-0.19568
5419.493	-7.80496	-0.29117	-6.59922	-0.13887
5423.480	-7.67036	-0.29362	-6.44954	-0.12595
5427.478	-7.69680	-0.26413	-6.38707	-0.09478
5431.440	-7.69225	-0.22614	-6.34746	-0.12625
5435.478	-7.67038	-0.17495	-6.30129	-0.08674
5439.479	-7.69473	-0.18870	-6.28290	-0.04520
5443.468	-7.56922	-0.25605	-6.27243	-0.12249
5447.439	-7.82138	-0.18894	-6.54166	-0.24586
5451.480	-8.16686	-0.16335	-8.95854	-0.16561
5455.480	-9.93542	-0.01380	-9.28770	-0.12115
5459.476	-11.17216	-0.09759	-11.61994	-0.16264
5463.373	-11.90923	-0.02018	-11.65085	-0.43047
5467.483	-11.97615	0.01857	-11.84903	-0.27291
5471.480	-12.36570	0.08054	-11.91236	-0.25087
5475.477	-12.52147	0.10591	-12.25593	-0.33911
5479.382	-13.28759	0.09439	-12.40721	-0.35930
5483.482	-13.29309	0.07485	-12.28941	-0.38378
5487.480	-13.02255	0.16840	-12.21366	-0.40830
5491.480	-13.19745	0.23658	-12.29957	-0.32810
5495.484	-13.03991	0.33947	-12.39419	-0.38018
5499.481	-13.32414	0.22086	-12.50087	-0.32671
5503.480	-13.20618	0.27063	-12.57751	-0.28579
5507.482	-13.40243	0.26983	-12.60890	-0.36391
5511.487	-13.55733	0.26488	-12.64607	-0.34960
5515.483	-13.54865	0.22271	-12.69604	-0.32532
5519.477	-13.56854	0.17332	-12.59212	-0.26133
5523.482	-13.50715	0.25331	-12.43684	-0.26321
5527.483	-13.45428	0.31417	-12.45087	-0.24153
5531.483	-13.58317	0.28915	-12.35194	-0.28684
5535.480	-13.57175	0.26520	-12.34962	-0.34333
5539.478	-13.62673	0.23983	-12.36724	-0.38202
5543.375	-13.68267	0.24552	-12.26164	-0.42253
5547.436	-13.62287	0.24604	-12.24415	-0.45578
5551.480	-13.63435	0.22137	-12.19719	-0.40257
5555.481	-13.58761	0.24550	-12.10635	-0.40793
5559.354	-13.54558	0.28354	-12.04194	-0.36837
5563.481	-13.53868	0.26504	-11.98085	-0.39038
5567.358	-13.53205	0.27249	-11.92671	-0.38914
5571.334	-13.53315	0.27285	-11.91845	-0.43177
5575.325	-13.44782	0.25581	-11.89523	-0.48978
5579.357	-13.42146	0.23155	-11.88568	-0.47854
5583.359	-13.36180	0.17081	-11.85485	-0.46130
5587.356	-13.30432	0.06747	-11.85364	-0.45386
5591.353	-13.26803	0.08859	-11.86115	-0.51301
5595.356	-13.25677	0.14021	-11.88582	-0.56137
5599.358	-13.23572	0.13829	-11.85305	-0.51898
5603.359	-13.20023	0.17128	-11.88844	-0.54554
5607.352	-13.15212	0.23873	-12.01188	-0.57149
5611.343	-13.12514	0.32658	-12.00125	-0.54437
5615.348	-13.16892	0.18727	-12.01744	-0.51930
5619.358	-13.19870	0.13620	-12.05751	-0.49031
5623.377	-13.16350	0.11982	-12.06714	-0.47753
5627.356	-13.21486	0.15514	-12.06074	-0.45359
5631.361	-13.20409	0.21768	-12.09932	-0.43717
5635.358	-13.23847	0.20556	-12.09254	-0.40696
5639.375	-13.22989	0.16294	-12.07747	-0.36992
5643.356	-13.24052	0.13594	-12.13870	-0.39727
5647.311	-13.24649	0.08171	-12.16335	-0.40699
5651.357	-13.23899	0.02762	-12.14257	-0.43227
5655.357	-13.22596	0.00387	-12.15780	-0.45673
5659.357	-13.19275	0.01587	-12.24057	-0.45020
5663.354	-13.14849	0.03330	-12.19986	-0.45444
5667.357	-13.13646	0.06800	-12.27173	-0.44453
5671.379	-13.07945	0.10205	-12.23706	-0.44437
5675.355	-13.03197	0.07326	-12.20814	-0.42419
5679.356	-13.06115	0.05858	-12.19142	-0.46578
5683.358	-13.06706	0.06918	-12.19733	-0.44675
5687.379	-13.06838	0.10203	-12.22931	-0.40995
5691.356	-13.05413	0.10704	-12.17217	-0.41762
5695.336	-13.04476	0.13590	-12.09069	-0.35657
5699.359	-13.03079	0.19341	-12.07025	-0.30856
5703.350	-13.04594	0.17865	-12.06854	-0.34581
5707.359	-12.63657	0.25539	-11.76587	0.10288
5711.314	-10.54123	0.42097	-9.19024	0.38303
5715.361	-8.02066	2.27440	-7.61390	2.97164
5719.382	-5.84962	3.00591	-5.61699	4.49603
5723.359	-4.16924	4.45060	-4.63681	4.87544
5727.361	-2.84073	4.33758	-2.79384	5.48883
5731.361	-1.73842	4.85051	-0.71598	5.08030
5735.319	0.06023	4.74266	0.43976	5.39802
5739.348	1.69810	5.31349	1.68590	5.55217
5743.357	3.44421	5.16950	3.05806	5.56388
5747.312	4.50939	5.23681	4.30995	5.68765
5751.349	5.23376	5.51752	5.16039	6.79394
5755.357	6.44231	5.94516	6.79728	6.31825
5759.358	6.54519	6.39992	7.09592	6.88563
5763.359	6.02065	6.73571	7.08947	6.88150
5767.342	5.83596	6.77034	7.10580	6.68261
5771.358	5.68607	6.88362	7.08769	6.94522
5775.358	5.59777	6.81371	6.95575	6.87026
5779.334	5.77735	6.83598	7.11237	7.09047
5783.317	6.22024	6.91030	7.25433	7.16133
5787.357	6.15053	6.94129	7.31318	7.28834
5791.358	5.97597	6.99210	7.34060	7.20322
5795.360	6.10679	7.04419	7.41704	7.42255
5799.343	5.95078	7.05301	7.44308	7.29606
5803.359	5.93510	6.99682	7.53813	7.37610
5807.359	5.95867	6.99373	7.49256	7.47757
5811.359	5.87977	6.95117	7.58000	7.40224
5815.318	5.90372	6.97479	7.63847	7.37120
5819.349	5.96463	6.93935	7.64098	7.44755
5823.349	5.90006	6.90276	7.64310	7.40503
5827.359	5.84264	6.90756	7.61129	7.39671
5831.349	5.87265	6.94249	7.54727	7.34164
5835.359	5.86160	6.83986	7.42056	7.31442
5839.359	5.80469	6.81091	7.37504	7.29044
5843.360	5.80189	6.77580	7.31923	7.26913
5847.343	5.82243	6.85106	7.34123	7.22599
5851.357	5.79590	6.76309	7.30144	7.23012
5855.357	5.79602	6.76580	7.25624	7.17763
5859.360	5.80649	6.72537	7.26386	7.15507
5863.318	5.80241	6.67914	7.25714	7.11025
5867.364	5.81523	6.67667	7.28810	7.11139
5871.360	5.80673	6.66304	7.25428	7.02763
5875.360	5.78895	6.60131	7.28840	7.01207
5879.357	5.77777	6.58488	7.34375	6.94810
5883.362	5.78757	6.57874	7.36357	6.92917
5887.360	5.81066	6.59867	7.39403	6.83383
5891.359	5.81557	6.58612	7.39632	6.89697
5895.357	5.82560	6.61704	7.40899	6.83880
5899.362	5.87602	6.64452	7.45431	6.89454
5903.338	5.86330	6.61347	7.46477	6.82611
5907.360	5.87685	6.69143	7.47975	6.68488
5911.356	5.85514	6.69819	7.45148	6.70657
5915.322	5.94597	6.67572	7.47668	6.64076
5919.360	5.99402	6.72256	7.46729	6.69705
5923.363	6.01024	6.72602	7.44079	6.68931
5927.357	6.01908	6.71599	7.46436	6.67111
5931.360	6.14376	6.70511	7.40662	6.69204
5935.362	6.07867	6.75912	7.23799	6.54058
5939.360	6.15693	6.78830	6.97832	6.48939
5943.349	6.23562	6.75819	7.17905	6.56770
5947.352	6.27631	6.85827	7.30586	6.53514
5951.362	6.31502	6.85321	7.09179	6.55784
5955.369	6.38820	6.90893	7.29973	6.53540
5959.378	6.38136	6.82334	7.33281	6.53903
5963.360	6.45672	6.87380	7.48292	6.77899
5967.362	6.48894	6.86475	7.51215	7.01887
5971.359	6.48992	6.77533	7.60541	6.83331
5975.383	6.43969	6.69870	7.72061	7.14728
5979.359	6.43253	6.56830	7.75115	6.76182
5983.362	6.34976	6.51897	7.69463	6.81521
5987.332	6.43057	6.39295	7.75439	6.82237
5991.329	6.38123	6.25958	7.69488	6.91806
5995.317	6.38050	6.52607	7.74647	6.78156
5999.361	6.31836	6.33067	7.78311	6.87348
6003.365	6.33262	6.43275	7.67443	6.82517
6007.366	6.24840	6.53455	7.63316	6.82801
6011.359	6.21907	6.56938	7.63657	6.81016
6015.361	6.23459	6.74536	7.56505	6.77476
6019.365	6.19395	6.79879	7.43137	6.52049
6023.383	6.18897	6.79995	7.45584	6.54591
6027.350	6.23945	6.76057	7.45023	6.65589
6031.361	6.24229	6.73666	7.42617	6.59669
6035.364	6.27339	6.84338	7.50691	6.54654
6039.358	6.31350	6.82131	7.50781	6.69908
6043.365	6.30465	6.88035	7.47114	6.86603
6047.319	6.26738	6.83279	7.51576	6.79874
6051.362	6.22939	6.87485	7.59888	6.82144
6055.349	6.26250	6.81941	7.64971	6.89264
6059.366	6.17129	6.75279	7.73443	6.87487
6063.360	6.19319	6.70396	7.77193	6.89982
6067.364	6.22022	6.71183	7.81322	6.92139
6071.349	6.17941	6.69677	7.86763	6.95603
6075.360	6.12700	6.67500	7.87104	6.94540
6079.361	6.11226	6.66246	7.86778	6.96110
6083.361	6.18384	6.50137	7.88551	6.81801
6087.322	6.07803	6.52828	7.54859	6.94462
6091.362	5.33869	6.81578	7.20885	7.13496
6095.364	4.59460	8.99755	5.41950	8.19747
6099.363	3.78892	9.12845	6.15904	9.18695
6103.322	4.02821	9.67445	6.19444	10.90822
6107.319	4.49129	10.23516	6.32385	11.02856
6111.363	4.66553	9.34401	6.39307	10.76057
6115.364	4.79787	9.75882	6.33275	10.53949
6119.364	4.41534	9.42403	6.21043	10.28820
6123.367	4.28577	9.53798	6.25048	10.24991
6127.364	4.20506	9.69293	6.21213	9.87956
6131.363	4.20570	9.80283	6.00982	10.37433
6135.364	4.12303	9.95214	6.05550	10.12558
6139.365	4.11034	9.86574	6.11037	10.08994
6143.362	4.10634	9.81646	5.98037	10.16737
6147.362	4.11310	9.94012	6.14347	10.16056
6151.358	4.04895	9.85834	6.14052	10.11321
6155.366	3.99899	10.04461	6.09842	10.10845
6159.362	3.98538	9.88316	6.05727	10.13476
6163.363	3.96187	9.90819	5.80499	10.07126
6167.334	3.94883	9.96244	5.98400	10.08508
6171.363	3.94396	9.84317	5.95960	10.09410
6175.362	3.91758	9.87810	6.04485	10.10736
6179.362	3.94290	9.80318	5.95000	10.09051
6183.365	3.94999	9.80782	6.07403	10.16067
6187.365	4.02322	9.84556	6.12347	10.24388
6191.364	4.03102	9.86712	6.13326	10.35484
6195.335	4.08960	9.83252	6.11510	10.27236
6199.366	4.14680	9.81686	6.18306	10.33763
6203.366	4.15320	9.84707	6.23256	10.38637
6207.364	4.19879	9.92047	6.28987	10.55572
6211.363	4.24112	9.88515	6.24136	10.52058
6215.366	4.30433	9.94920	6.26637	10.26197
6219.366	4.35153	9.95616	6.29832	10.42963
6223.365	4.38620	10.01699	6.33557	10.50408
6227.365	4.44462	10.08131	6.33201	10.35279
6231.362	4.43211	10.14100	6.27493	10.54085
6235.320	4.48540	10.13807	6.28271	10.38093
6239.351	4.51978	10.20675	6.35876	10.30848
6243.364	4.51951	10.29589	6.31247	10.23252
6247.362	4.50900	10.36213	6.35601	10.21259
6251.365	4.50690	10.35581	6.35604	10.19994
6255.364	4.50540	10.49303	6.40883	10.09064
6259.366	4.52880	10.48911	6.47005	10.13364
6263.261	4.56728	10.58151	6.45868	10.28420
6267.365	4.53578	10.59783	6.46392	10.15802
6271.333	4.54202	10.64923	6.49619	10.13504
6275.368	4.58765	10.64592	6.55954	10.08057
6279.369	4.54284	10.66071	6.55187	10.13329
6283.366	4.53635	10.67008	6.54933	10.00851
6287.366	4.56054	10.65961	6.51312	10.06249
6291.363	4.60646	10.63523	6.44500	10.07849
6295.269	4.63422	10.64593	6.42030	10.14888
6299.362	4.60303	10.57960	6.37623	10.28949
6303.370	4.58106	10.55313	6.35020	10.18536
6307.366	4.54414	10.51387	6.30882	10.25264
6311.367	4.55850	10.46720	6.33194	10.16435
6315.365	4.56631	10.46043	6.25495	10.18104
6319.368	4.57901	10.40738	6.15890	10.22060
6323.368	4.57278	10.34837	5.81462	10.06711
6327.262	4.54143	10.25673	5.78865	9.75550
6331.365	4.53132	10.00614	5.89895	9.73885
6335.369	4.47282	9.86865	6.19626	9.86134
6339.364	4.38867	9.90411	6.31000	9.67763
6343.366	4.40766	9.78382	6.26086	9.55998
6347.366	4.43549	9.93040	6.36077	9.70919
6351.323	4.45126	9.83822	6.01316	9.61134
6355.364	4.34085	9.63287	5.85281	9.53006
6359.276	4.39141	9.89429	6.09641	9.38135
6363.356	4.33103	9.79746	6.39516	9.39006
6367.368	4.26208	9.79826	5.76512	9.47170
6371.366	4.22977	9.88007	6.36307	9.46279
6375.260	4.31400	9.80752	6.40146	9.35889
6379.365	4.30744	9.84376	6.30879	9.46874
6383.368	4.33466	9.83470	6.37408	9.56011
6387.368	4.33670	10.03991	6.22086	9.42685
6391.263	4.22937	9.82941	6.24386	9.41353
6395.366	4.29525	9.89572	6.15701	9.18634
6399.368	4.31405	9.82950	6.08892	9.37085
6403.368	4.12251	9.77975	5.99205	9.07033
6407.369	4.28357	9.85633	6.03498	8.96342
6411.367	4.22540	9.67334	6.10804	8.94123
6415.324	4.21814	9.49190	6.05950	9.55287
6419.366	4.21832	9.55476	6.08843	9.41189
6423.370	4.15910	9.49776	6.05938	9.08530
6427.366	4.08127	9.57571	5.94698	9.27034
6431.367	4.08135	9.47183	5.91339	8.77954
6435.368	4.14473	9.51842	5.86310	9.45235
6439.231	4.13777	9.42497	5.94691	9.29543
6443.349	4.15421	9.36789	5.84854	9.38098
6447.363	4.11026	9.01365	5.95555	9.36623
6451.368	4.09967	9.55528	5.99652	9.47497
6455.231	4.11448	9.18375	5.47778	8.97574
6459.367	4.16823	9.44154	5.96716	9.26221
6463.368	4.15860	9.27502	5.89743	9.14219
6467.367	4.14515	9.47712	5.80113	9.07994
6471.326	4.18825	9.33659	5.79578	9.31076
6475.367	4.10320	9.30108	5.89019	9.36534
6479.365	4.13330	9.27143	5.87427	9.40396
6483.366	4.26610	9.36423	5.84328	9.10891
6487.228	4.08058	9.35135	5.95690	9.39767
6491.368	4.14885	9.17174	5.98658	9.27809
6495.366	4.26879	9.19520	6.04244	9.46938
6499.367	4.30564	9.12050	6.00977	9.35054
6503.227	4.26561	9.07141	5.94484	9.24103
6507.365	4.20743	8.99807	5.83483	9.24266
6511.368	4.17332	8.89379	5.90517	9.18687
6515.369	4.33246	8.86308	5.56613	8.88302
6519.227	4.40641	8.82934	5.72357	8.94484
6523.371	4.37719	8.78739	5.71654	9.01522
6527.348	4.39503	8.86366	5.61551	9.04200
6531.369	4.36407	8.73708	5.61126	9.20800
6535.327	4.39859	8.86405	5.57970	9.24458
6539.369	4.34949	8.85410	5.46473	9.08863
6543.368	4.40498	8.88635	5.53935	8.88443
6547.324	4.39007	8.81606	5.59831	8.95391
6551.229	4.41672	8.88123	5.62144	9.11143
6555.327	4.52252	8.71681	5.64552	8.90194
6559.370	4.73199	8.67229	5.70310	8.42405
6563.369	5.53594	7.31809	6.06161	6.90437
6567.317	6.07879	4.89949	7.22910	5.96115
6571.361	5.93502	4.14410	6.99626	5.42936
6575.368	6.06159	4.19938	7.19446	5.24376
6579.368	5.76667	4.30749	7.18843	5.23036
6583.228	5.93497	4.42618	7.38544	5.20700
6587.369	5.87516	4.63833	7.39659	5.62394
6591.374	5.89110	4.85327	7.21369	5.13710
6595.368	5.93588	4.57201	7.27042	5.12350
6599.327	5.96159	4.60274	7.33007	5.09878
6603.367	6.02163	4.40502	7.43825	5.06222
6607.370	5.99122	4.47889	7.32204	5.09161
6611.243	6.05709	4.46418	7.39713	4.84330
6615.249	6.11334	4.52186	7.42903	4.89488
6619.237	6.05246	4.58135	7.40499	4.99897
6623.241	6.05307	4.51387	7.40926	4.91073
6627.244	6.11147	4.61615	7.40255	4.89513
6631.240	6.10715	4.62073	7.46824	4.83708
6635.245	6.18777	4.57759	7.49573	4.89700
6639.242	6.10485	4.58451	7.56252	4.94806
6643.246	6.24283	4.64323	7.64574	4.94400
6647.264	6.27903	4.72265	7.52093	4.96458
6651.247	6.32049	4.64151	7.54840	4.80455
6655.244	6.29899	4.73778	7.52974	4.89972
6659.239	6.27545	4.77746	7.48636	4.88867
6663.258	6.20766	4.60972	7.48019	4.84855
6667.201	6.22336	4.60917	7.35498	4.84410
6671.242	6.30409	4.61280	7.48878	4.73168
6675.245	6.33199	4.50241	7.37184	4.79855
6679.266	6.23731	4.47627	7.30459	4.74434
6683.244	6.25328	4.49698	7.18139	4.67459
6687.245	6.35032	4.55104	7.17517	4.78216
6691.245	6.33993	4.33508	7.15384	4.69875
6695.267	6.26728	4.44307	7.18792	4.81059
6699.242	6.35356	4.41010	7.09827	4.71252
6703.245	6.42346	4.74407	7.13136	4.69742
6707.241	6.35731	4.69444	7.13839	4.92469
6711.266	6.33961	4.69541	7.28735	4.76619
6715.241	6.31723	4.67385	7.13935	4.81894
6719.247	6.35653	4.63967	7.20866	4.93757
6723.242	6.29033	4.60384	7.32741	4.85585
6727.265	6.30043	4.77279	7.29831	4.98586
6731.244	6.23704	4.55719	7.45655	5.23905
6735.244	6.30198	4.63196	7.39059	4.82431
6739.211	6.28825	4.58946	7.35019	4.88454
6743.237	6.22196	4.51649	7.35786	4.84047
6747.245	6.20685	4.51645	7.41919	4.86404
6751.247	6.19395	4.61119	7.38588	4.93936
6755.247	6.22701	4.74272	7.30615	4.93291
6759.266	6.16214	4.65506	7.29372	4.94112
6763.247	6.22177	4.69679	7.21853	4.94461
6767.246	6.17560	4.65214	7.31960	4.88307
6771.246	6.24372	4.42728	7.33557	4.84218
6775.242	6.29921	4.40673	7.34450	4.87343
6779.247	6.34991	4.63617	7.31709	4.88474
6783.246	6.42096	4.63283	7.30385	4.88412
6787.211	6.45478	4.69404	7.32080	4.91016
6791.203	6.45280	4.76256	7.38197	4.89834
6795.247	6.41665	4.45313	7.22600	4.86409
6799.257	6.46647	4.58787	7.32673	4.87785
6803.244	6.47637	4.53508	7.30795	4.91914
6807.265	6.41927	4.37470	7.31342	4.87580
6811.245	6.51510	4.30904	7.43281	4.96320
6815.249	6.50450	4.32136	7.36728	4.99304
6819.247	6.51682	4.35928	7.33591	5.09723
6823.285	6.50430	4.46892	7.31511	5.13331
6827.242	6.49448	4.47451	7.34199	5.08232
6831.246	6.48830	4.48531	7.38280	5.20865
6835.246	6.47098	4.36012	7.34787	5.20182
6839.269	6.44113	4.38865	7.44457	5.19125
6843.243	6.32993	4.35216	7.46299	5.16525
6847.201	6.29028	4.36425	7.48451	5.17979
6851.202	6.26400	4.41331	7.51039	5.25622
6855.204	6.26829	4.47478	7.47680	5.16634
6859.247	6.27138	4.50983	7.49561	5.12049
6863.248	6.24801	4.50922	7.57210	5.12497
6867.248	6.24717	4.55482	7.62204	5.15296
6871.270	6.26797	4.54963	7.57715	5.15630
6875.246	6.22772	4.58716	7.52071	5.13085
6879.245	6.22763	4.59659	7.50047	5.14817
6883.249	6.27086	4.57695	7.45016	5.29911
6887.270	6.36025	4.66299	7.43291	5.22475
6891.248	6.42008	4.65830	7.36908	5.35207
6895.247	6.46870	4.66968	7.34001	5.25998
6899.254	6.55751	4.63506	7.42724	5.43018
6903.269	6.62716	4.68282	7.40487	5.27791
6907.223	6.62143	4.60710	7.44728	5.38613
6911.223	6.41594	4.66960	7.26605	5.18052
6915.202	6.54183	4.74428	7.24253	5.37401
6919.243	6.63321	4.72770	7.17165	5.33596
6923.243	6.58014	4.75373	7.28119	5.39615
6927.245	6.69331	4.67746	7.26002	5.22022
6931.246	6.65794	4.66465	7.31872	5.44973
6935.233	6.58805	4.61808	7.51732	5.43776
6939.246	6.60088	4.68201	7.35978	5.37803
6943.247	6.59603	4.74289	7.40552	5.42271
6947.240	6.59206	4.71880	7.33393	5.36661
6951.207	6.53421	4.66419	7.39305	5.38891
6955.245	6.53612	4.73147	7.50825	5.36782
6959.245	6.55420	4.87433	7.50932	5.44138
6963.248	6.46703	4.74222	7.53886	5.44594
6967.206	6.53458	4.79420	7.46072	5.39021
6971.248	6.55898	4.75633	7.46607	5.39701
6975.247	6.58793	4.65386	7.51120	5.29854
6979.248	6.48592	4.30259	7.37033	4.97520
6983.236	6.45838	2.12309	7.24461	2.04527
6987.246	6.41511	0.39709	7.27631	0.29786
6991.247	6.27116	-0.18256	7.19703	-0.35160
6995.247	6.26559	-0.72320	7.30485	-0.75237
6999.246	6.33829	-1.10161	7.23777	-0.63287
7003.250	6.32642	-0.54605	7.18161	-0.42049
7007.248	6.28606	-0.34196	7.19082	-0.12608
7011.248	6.22123	-0.06746	7.22324	-0.00454
7015.251	6.10811	-0.26223	7.19820	-0.05056
7019.249	6.08806	-0.26209	7.15034	-0.21081
7023.248	6.02107	-0.24092	7.19166	-0.18584
7027.251	5.95999	-0.24861	7.25487	-0.33958
7031.260	5.95024	-0.24787	7.25997	-0.39530
7035.249	5.96436	-0.42340	7.30944	-0.34311
7039.247	6.06274	-0.45285	7.30124	-0.31048
7043.204	6.08141	-0.43703	7.33872	-0.27317
7047.249	6.11937	-0.37651	7.27992	-0.33968
7051.252	6.16608	-0.49921	7.18990	-0.43863
7055.248	6.14670	-0.50931	7.31428	-0.52018
7059.250	6.24764	-0.49649	7.21804	-0.53277
7063.268	6.25166	-0.53311	7.34873	-0.55602
7067.256	6.28741	-0.48316	7.30478	-0.59103
7071.249	6.32495	-0.40911	7.38290	-0.54529
7075.248	6.27981	-0.54714	7.34079	-0.45056
7079.272	6.28964	-0.42122	7.39474	-0.43636
7083.250	6.23140	-0.37196	7.35942	-0.42161
7087.246	6.24536	-0.30240	7.31936	-0.29812
7091.250	6.25831	-0.27648	7.41507	-0.27581
7095.246	6.20602	-0.12011	7.35146	-0.21076
7099.248	6.12649	-0.16030	7.35495	-0.19664
7103.250	6.11689	-0.15321	7.36564	-0.18382
7107.256	6.12808	-0.07993	7.31858	-0.18850
7111.251	6.09584	-0.14882	7.31508	-0.14386
7115.241	6.03989	-0.19255	7.25751	-0.16414
7119.250	6.07940	-0.38591	7.25606	-0.20469
7123.260	6.13400	-0.42994	7.21173	-0.23459
7127.248	6.14820	-0.35006	7.24039	-0.26330
7131.251	6.13608	-0.60576	7.25196	-0.31111
7135.247	6.12629	-0.45977	7.23985	-0.32872
7139.246	6.12725	-0.36240	7.21269	-0.34178
7143.252	6.15892	-0.45492	7.24107	-0.30402
7147.205	6.18122	-0.47602	7.26825	-0.23427
7151.251	6.18370	-0.42768	7.23814	-0.17110
7155.237	6.15666	-0.44316	7.22949	-0.26734
7159.248	6.18161	-0.42985	7.19747	-0.22356
7163.249	6.16927	-0.39078	7.21911	-0.18001
7167.247	6.21637	-0.40396	7.24507	-0.27761
7171.251	6.20862	-0.45876	7.24188	-0.30431
7175.252	6.23072	-0.49705	7.24507	-0.38016
7179.251	6.26042	-0.53646	7.20761	-0.36037
7183.251	6.22410	-0.57854	7.24691	-0.28592
7187.251	6.22782	-0.48811	7.25472	-0.25111
7191.250	6.09908	-0.52413	7.21525	-0.28355
7195.250	6.11236	-0.48962	7.18765	-0.36709
7199.215	6.12006	-0.40922	7.15670	-0.40326
7203.251	6.17133	-0.47714	7.13659	-0.51371
7207.248	6.20075	-0.64200	7.16659	-0.62555
7211.251	6.16160	-0.70444	7.05061	-0.65300
7215.249	6.15325	-0.67264	7.05423	-0.59204
7219.253	6.18247	-0.84269	7.00705	-0.60224
7223.254	6.21711	-0.76990	7.02741	-0.53316
7227.255	6.20962	-0.70979	7.01438	-0.53488
7231.249	6.23197	-0.53489	6.93208	-0.68886
7235.249	6.25556	-0.68115	6.94078	-0.69296
7239.242	6.23341	-0.83307	6.84800	-0.70319
7243.244	6.22427	-0.88270	6.93587	-0.67464
7247.249	6.18561	-0.87753	6.97128	-0.60260
7251.253	6.10762	-0.77818	6.96827	-0.58362
7255.253	6.09844	-0.80989	7.02303	-0.55361
7259.209	6.07773	-0.78094	7.00394	-0.47563
7263.252	6.04293	-0.71189	7.00937	-0.45940
7267.253	6.01984	-0.64444	7.01653	-0.54361
7271.230	6.00113	-0.60873	7.07334	-0.54751
7275.250	6.01594	-0.57872	7.15266	-0.56179
7279.250	5.92388	-0.63309	7.18687	-0.50455
7283.252	5.94801	-0.58176	7.19825	-0.56134
7287.245	5.96785	-0.53466	7.16889	-0.53798
7291.252	5.97946	-0.51772	7.19561	-0.61311
7295.253	6.03663	-0.49471	7.18384	-0.68200
7299.256	6.02892	-0.48859	7.19354	-0.71166
7303.146	6.06122	-0.48218	7.19964	-0.76926
7307.253	6.06024	-0.49101	7.20617	-0.78897
7311.252	6.07628	-0.51464	7.21972	-0.77881
7315.256	6.11964	-0.52465	7.23457	-0.79380
7319.148	6.11574	-0.53928	7.20617	-0.80718
7323.230	6.17504	-0.54562	7.21445	-0.84263
7327.251	6.20283	-0.58563	7.22087	-0.80723
7331.256	6.24440	-0.59339	7.20778	-0.78970
7335.255	6.28572	-0.62305	7.21569	-0.73551
7339.253	6.27682	-0.55630	7.21222	-0.69960
7343.251	6.33508	-0.62707	7.16957	-0.67729
7347.207	6.21973	-0.56807	7.07356	-0.59305
7351.256	5.22946	-0.70893	5.05518	-0.55305
7355.221	3.88628	-0.80866	3.73650	-0.49785
7359.254	2.28130	-0.78340	1.54277	-0.49272
7363.242	1.57545	-1.13066	-0.21566	-0.57168
7367.211	0.00948	-1.16837	-0.17055	-0.71353
7371.252	-0.36918	-1.32300	-1.03637	-0.90923
7375.250	-0.77158	-1.27247	-1.39430	-0.87007
7379.253	-1.68880	-1.31012	-1.41782	-0.73333
7383.212	-1.61453	-1.43154	-1.59174	-0.98159
7387.253	-1.48828	-1.60566	-1.51340	-1.10298
7391.254	-1.79579	-1.60258	-1.60890	-1.20237
7395.252	-1.69817	-1.61542	-1.64273	-1.23726
7399.211	-1.89419	-1.53668	-1.67382	-1.30129
7403.250	-1.93941	-1.51818	-1.71176	-1.33605
7407.223	-2.04959	-1.47333	-1.75957	-1.41413
7411.252	-2.04398	-1.44323	-1.82715	-1.42071
7415.148	-2.02406	-1.45539	-1.94826	-1.45955
7419.252	-2.04711	-1.51098	-1.98945	-1.51289
7423.251	-2.08339	-1.51678	-2.00988	-1.56943
7427.253	-2.07745	-1.45933	-1.98462	-1.62288
7431.153	-2.13247	-1.39349	-1.96464	-1.50691
7435.256	-2.15083	-1.36657	-1.94927	-1.37797
7439.259	-2.22639	-1.26451	-1.93603	-1.33667
7443.253	-2.22716	-1.27560	-1.95847	-1.34428
7447.152	-2.17893	-1.33431	-1.91043	-1.40051
7451.255	-2.24904	-1.31139	-1.85889	-1.34952
7455.253	-2.28318	-1.34079	-1.86570	-1.46250
7459.251	-2.36123	-1.37729	-1.78486	-1.50126
7463.256	-2.40317	-1.38857	-1.79562	-1.36999
7467.256	-2.36081	-1.39620	-1.80238	-1.33064
7471.253	-2.33130	-1.42296	-1.80705	-1.26890
7475.254	-2.32949	-1.49784	-1.80739	-1.29224
7479.256	-2.16270	-1.53630	-1.82110	-1.33460
7483.256	-2.28450	-1.55927	-1.85556	-1.34287
7487.254	-2.29741	-1.61054	-1.89768	-1.35651
7491.252	-2.38011	-1.66465	-1.93066	-1.33092
7495.256	-2.32974	-1.67662	-1.99092	-1.31258
7499.253	-2.31465	-1.70626	-2.06129	-1.28567
7503.254	-2.23913	-1.72649	-2.09222	-1.26519
7507.253	-2.28068	-1.72706	-2.14719	-1.27400
7511.259	-2.26646	-1.73006	-2.14652	-1.28406
7515.254	-2.28422	-1.74169	-2.20121	-1.30250
7519.254	-2.32897	-1.72926	-2.20446	-1.30198
7523.259	-2.36200	-1.71796	-2.22413	-1.28250
7527.258	-2.39379	-1.73317	-2.22830	-1.29404
7531.260	-2.43855	-1.74016	-2.18872	-1.28357
7535.252	-2.42567	-1.72797	-2.21100	-1.30721
7539.259	-2.44678	-1.72271	-2.18047	-1.32155
7543.214	-2.37731	-1.73441	-2.18206	-1.34548
7547.255	-2.40895	-1.71951	-2.17787	-1.37489
7551.254	-2.38571	-1.71260	-2.16592	-1.38820
7555.252	-2.37312	-1.69378	-2.16689	-1.41699
7559.148	-2.38514	-1.66130	-2.14347	-1.42775
7563.255	-2.41735	-1.60867	-2.17586	-1.41559
7567.259	-2.39532	-1.55677	-2.16932	-1.41867
7571.253	-2.38935	-1.51760	-2.14486	-1.41507
7575.259	-2.37226	-1.45033	-2.16637	-1.39771
7579.255	-2.38769	-1.41109	-2.14223	-1.35795
7583.253	-2.40528	-1.35638	-2.11524	-1.30121
7587.255	-2.38189	-1.29268	-2.08783	-1.21533
7591.153	-2.39483	-1.21592	-2.01032	-1.15596
7595.254	-2.42012	-1.25356	-2.03838	-1.21147
7599.257	-2.49560	-1.26039	-2.04369	-1.28997
7603.256	-2.56156	-1.26427	-2.05050	-1.34413
7607.255	-2.54241	-1.23280	-2.02205	-1.30210
7611.255	-2.75720	-1.24532	-2.17318	-0.98382
7615.259	-3.20840	-1.22301	-4.25759	-1.07260
7619.255	-5.94941	-1.04245	-6.51907	-0.98061
7623.260	-6.20070	-1.02065	-6.46537	-1.00275
7627.255	-6.85287	-0.97259	-6.66136	-0.63641
7631.258	-6.84316	-0.60462	-6.69353	-0.82864
7635.256	-6.91217	-0.46349	-6.67622	-0.69120
7639.150	-6.68283	-0.38970	-6.66259	-0.63628
7643.132	-6.56547	-0.58312	-6.50251	-0.62612
7647.086	-6.82293	-0.46288	-6.56383	-0.53308
7651.132	-6.74291	-0.43369	-6.59454	-0.56450
7655.119	-6.87318	-0.37469	-6.58731	-0.65403
7659.123	-6.88017	-0.28644	-6.70898	-0.62897
7663.090	-6.92873	-0.23671	-6.63281	-0.55673
7667.086	-6.89441	-0.24492	-6.67331	-0.56394
7671.128	-6.90373	-0.17142	-6.57945	-0.54171
7675.130	-6.91185	-0.20909	-6.53906	-0.54471
7679.131	-6.85405	-0.21615	-6.48882	-0.51475
7683.130	-6.85759	-0.21679	-6.45419	-0.48755
7687.089	-6.92824	-0.26710	-6.40322	-0.45170
7691.130	-7.03641	-0.32398	-6.43863	-0.37110
7695.130	-7.07549	-0.33853	-6.40920	-0.23913
7699.133	-7.02675	-0.50337	-6.37474	-0.27930
7703.117	-7.10174	-0.52553	-6.48181	-0.24935
7707.131	-7.02233	-0.51388	-6.44861	-0.14590
7711.130	-7.04345	-0.58204	-6.44260	-0.16010
7715.133	-7.05608	-0.55187	-6.54977	-0.19972
7719.118	-7.11623	-0.60491	-6.57142	-0.17840
7723.132	-7.07456	-0.58834	-6.55290	-0.21124
7727.126	-7.23286	-0.66295	-6.69077	-0.27745
7731.087	-7.27814	-0.60538	-6.70668	-0.28929
7735.124	-7.38461	-0.59417	-6.86090	-0.44587
7739.134	-7.35439	-0.56696	-6.87460	-0.49641
7743.118	-7.41470	-0.50814	-6.88140	-0.55849
7747.126	-7.48824	-0.41097	-6.88313	-0.59070
7751.118	-7.56210	-0.38757	-6.92445	-0.60148
7755.128	-7.54581	-0.32356	-6.92714	-0.61926
7759.132	-7.55293	-0.27385	-6.90556	-0.66837
7763.130	-7.62777	-0.23417	-6.95020	-0.69213
7767.118	-7.64315	-0.21042	-6.88656	-0.72878
7771.132	-7.59061	-0.15052	-6.87169	-0.74198
7775.135	-7.53071	-0.13443	-6.85865	-0.74634
7779.130	-7.47197	-0.11969	-6.81338	-0.74673
7783.117	-7.47500	-0.07189	-6.81064	-0.73684
7787.131	-7.43976	-0.07170	-6.82227	-0.76556
7791.134	-7.44071	-0.05327	-6.75145	-0.78801
7795.132	-7.43788	-0.04307	-6.72210	-0.78818
7799.118	-7.40901	-0.02858	-6.70075	-0.70883
7803.133	-7.41729	-0.03726	-6.70213	-0.71075
7807.131	-7.44489	-0.04869	-6.56564	-0.60780
7811.132	-7.45914	-0.04782	-6.60010	-0.52263
7815.118	-7.49278	-0.07746	-6.55175	-0.52293
7819.132	-7.58605	-0.11247	-6.46262	-0.55909
7823.091	-7.54901	-0.10083	-6.42234	-0.53805
7827.112	-7.63801	-0.11122	-6.42158	-0.52366
7831.094	-7.67743	-0.11838	-6.36927	-0.59801
7835.129	-7.72634	-0.14432	-6.43893	-0.52403
7839.133	-7.70896	-0.15435	-6.34753	-0.55551
7843.134	-7.75329	-0.16905	-6.35564	-0.60329
7847.117	-7.76114	-0.16708	-6.40714	-0.65444
7851.088	-7.70894	-0.13637	-6.36074	-0.66329
7855.089	-7.69956	-0.09023	-6.34974	-0.56040
7859.132	-7.76031	-0.05720	-7.00639	-0.52936
7863.135	-8.22049	-0.15034	-7.96524	-0.53566
7867.099	-9.22995	-0.13973	-8.64044	-0.50148
7871.126	-9.73889	-0.11435	-9.62446	-0.67409
7875.131	-9.88774	-0.41588	-10.08873	-0.87140
7879.156	-10.28537	-0.59418	-10.32954	-0.94467
7883.138	-10.68763	-0.61929	-10.40490	-0.89465
7887.133	-10.44302	-0.80441	-10.47316	-0.99431
7891.130	-10.50261	-0.89871	-10.44513	-1.13167
7895.153	-10.50314	-0.95922	-10.37434	-1.19973
7899.134	-10.53857	-1.02246	-9.99226	-1.24263
7903.133	-10.61054	-0.95561	-9.77223	-1.28798
7907.134	-10.69891	-1.03771	-10.00995	-1.33010
7911.091	-10.73162	-1.09169	-10.14706	-1.34063
7915.134	-10.76027	-1.15061	-10.19067	-1.35550
7919.134	-10.79171	-1.15071	-10.17264	-1.33307
7923.133	-10.80982	-1.14140	-10.17062	-1.29597
7927.092	-10.79571	-1.11112	-10.09958	-1.26911
7931.135	-10.83264	-1.10406	-10.10740	-1.25563
7935.135	-10.89114	-1.15228	-10.12568	-1.25593
7939.136	-10.89542	-1.15385	-10.20878	-1.21874
7943.156	-10.93832	-1.15993	-10.26304	-1.19944
7947.136	-10.96662	-1.20712	-10.29716	-1.17277
7951.121	-11.02067	-1.12055	-10.39974	-1.16465
7955.122	-10.95808	-1.13222	-10.37349	-1.14097
7959.095	-10.99764	-1.03541	-10.38408	-1.10462
7963.133	-10.97889	-0.96361	-10.25043	-1.11340
7967.140	-10.94481	-0.92006	-10.21690	-1.16036
7971.136	-10.94323	-0.92414	-10.16189	-1.19053
7975.134	-10.91748	-0.91058	-10.08873	-1.18924
7979.091	-10.86557	-0.85270	-10.02692	-1.17643
7983.098	-10.88029	-0.84861	-9.97012	-1.18823
7987.133	-10.89305	-0.80771	-9.90373	-1.18358
7991.157	-10.90112	-0.78163	-9.91972	-1.18947
7995.134	-10.89607	-0.80841	-9.83089	-1.17621
7999.137	-10.93428	-0.80108	-9.79443	-1.18113
8003.133	-10.93708	-0.80420	-9.76625	-1.16929
8007.155	-10.94454	-0.82454	-9.75700	-1.14291
8011.134	-10.97198	-0.82686	-9.75054	-1.13938
8015.136	-10.99121	-0.81783	-9.73243	-1.12989
8019.135	-10.88312	-0.79715	-9.71548	-1.14540
8023.160	-11.07420	-0.82357	-9.68035	-1.15289
8027.136	-11.06538	-0.86327	-9.66718	-1.15727
8031.139	-11.07326	-0.84891	-9.67046	-1.17467
8035.116	-11.05665	-0.85683	-9.64617	-1.19243
8039.133	-11.00424	-0.92658	-9.63609	-1.21686
8043.134	-10.95564	-0.98573	-9.64794	-1.20354
8047.090	-10.94533	-0.95094	-9.63580	-1.23571
8051.135	-10.87584	-0.90290	-9.64984	-1.28490
8055.157	-10.63873	-0.96116	-9.66354	-1.29268
8059.136	-10.66622	-1.06629	-9.70729	-1.32630
8063.134	-10.69386	-1.06873	-9.71840	-1.29573
8067.135	-10.67210	-1.05543	-9.70565	-1.29208
8071.157	-10.59296	-1.01908	-9.75369	-1.27931
8075.139	-10.54056	-1.04035	-9.83826	-1.26964
8079.126	-10.51321	-1.02970	-9.86221	-1.23710
8083.139	-10.51184	-0.89532	-9.83127	-1.20185
8087.156	-10.46556	-0.83345	-9.78052	-1.26524
8091.135	-10.03852	-1.02689	-9.68182	-1.55651
8095.135	-9.59329	-1.29322	-8.86885	-2.07897
8099.125	-8.21378	-2.02688	-8.43316	-2.53772
8103.140	-8.38962	-2.96793	-8.04168	-3.68281
8107.093	-7.59219	-2.94091	-7.67782	-2.84231
8111.135	-7.06161	-3.11709	-6.07121	-3.04156
8115.132	-6.73564	-3.05464	-6.81079	-3.22112
8119.133	-7.07068	-3.15870	-6.76831	-3.27557
8123.138	-7.25834	-3.22682	-6.58156	-3.41569
8127.136	-7.25118	-3.16072	-6.56368	-3.35042
8131.136	-7.43130	-3.06970	-6.54171	-3.52463
8135.142	-7.28051	-3.17334	-6.45417	-3.60216
8139.137	-7.19483	-3.21811	-6.37003	-3.59889
8143.136	-7.12388	-3.22945	-6.39699	-3.68768
8147.091	-7.14240	-3.21167	-6.30879	-3.67965
8151.136	-7.25443	-3.20363	-6.28624	-3.75284
8155.138	-7.20096	-3.16817	-6.35339	-3.74569
8159.118	-7.23457	-3.17391	-6.36827	-3.81236
8163.137	-7.21823	-3.14930	-6.44760	-3.80395
8167.141	-7.21989	-3.13444	-6.53083	-3.82029
8171.137	-7.20714	-3.14768	-6.72325	-3.79352
8175.136	-7.15792	-3.18698	-6.68024	-3.78801
8179.134	-7.15276	-3.21165	-6.80450	-3.71110
8183.140	-7.17668	-3.29597	-6.92288	-3.70344
8187.140	-7.17827	-3.30365	-6.86361	-3.73670
8191.136	-7.24212	-3.34089	-6.98196	-3.75529
8195.134	-7.15770	-3.35535	-7.02191	-3.69967
8199.136	-7.19038	-3.38150	-7.04369	-3.74122
8203.140	-7.22165	-3.42686	-7.00846	-3.69540
8207.138	-7.22182	-3.44975	-7.02345	-3.73040
8211.136	-7.22221	-3.46338	-7.00805	-3.73011
8215.139	-7.18877	-3.48284	-6.97497	-3.72101
8219.138	-7.17998	-3.50091	-6.91897	-3.69141
8223.138	-7.24481	-3.49034	-6.86577	-3.66475
8227.137	-7.17797	-3.41736	-6.76356	-3.70207
8231.137	-7.25743	-3.35410	-6.61513	-3.68633
8235.133	-7.24903	-3.30841	-6.66793	-3.72047
8239.140	-7.23484	-3.28690	-6.57240	-3.76688
8243.124	-7.22659	-3.23752	-6.58418	-3.72754
8247.128	-7.19434	-3.28026	-6.42452	-3.65696
8251.139	-7.05843	-3.16896	-6.37810	-3.57182
8255.138	-7.01274	-3.14038	-6.37641	-3.62189
8259.138	-7.03157	-3.22208	-6.34275	-3.71107
8263.138	-7.05344	-3.10913	-6.35341	-3.72584
8267.142	-7.10184	-3.09353	-6.29286	-3.76787
8271.134	-7.06928	-3.12653	-6.32917	-3.80926
8275.139	-7.17597	-3.21060	-6.35148	-3.78401
8279.136	-7.01216	-3.18678	-6.40168	-3.78881
8283.141	-7.10575	-3.14366	-6.44040	-3.75789
8287.130	-7.15428	-3.22250	-6.52914	-3.79710
8291.144	-7.07055	-3.17652	-6.52032	-3.87972
8295.141	-7.15858	-3.22367	-6.55775	-3.97032
8299.108	-7.31933	-3.25537	-6.52115	-3.93287
8303.137	-7.31162	-3.22391	-6.55452	-3.88019
8307.135	-7.27157	-3.27110	-6.54298	-3.88200
8311.136	-7.22268	-3.34062	-6.55258	-3.90159
8315.143	-7.15210	-3.41925	-6.67466	-3.92151
8319.138	-7.22302	-3.38489	-6.64114	-4.01937
8323.139	-7.16400	-3.42378	-6.54225	-4.03161
8327.140	-7.25011	-3.48753	-6.54092	-4.07604
8331.141	-7.33969	-3.48872	-6.51723	-4.10042
8335.140	-7.36979	-3.42418	-6.50288	-4.07536
8339.140	-7.21093	-3.36547	-6.49568	-4.02508
8343.034	-7.29892	-3.34131	-6.49869	-3.97980
8347.095	-7.27003	-3.33548	-6.46875	-3.90017
8351.130	-7.30053	-3.26947	-6.36067	-3.82218
8355.098	-7.33891	-3.36758	-6.35385	-3.78260
8359.141	-7.40604	-3.23258	-6.37567	-3.64691
8363.139	-7.36154	-3.25541	-6.30186	-3.65985
8367.129	-7.41670	-3.28038	-6.32326	-3.65909
8371.135	-7.42620	-3.33075	-6.39947	-3.57256
8375.137	-7.36147	-3.21220	-6.35430	-3.58534
8379.136	-7.34211	-3.29780	-6.36790	-3.56026
8383.096	-7.34807	-3.26138	-6.32194	-3.54301
8387.140	-7.34484	-3.36530	-6.36962	-3.51616
8391.143	-7.33918	-3.33664	-6.36074	-3.54724
8395.136	-7.29816	-3.35917	-6.46816	-3.59598
8399.141	-7.36342	-3.42229	-6.73649	-3.69734
8403.139	-7.50378	-4.10127	-8.15888	-3.89378
8407.039	-9.26918	-4.93456	-9.12069	-5.28277
8411.104	-9.29783	-6.07521	-9.09597	-6.98433
8415.096	-9.16629	-6.47507	-8.61965	-8.41711
8419.139	-9.07954	-6.78715	-8.51314	-8.53729
8423.145	-8.91735	-7.16351	-8.29380	-9.16171
8427.139	-9.18373	-7.85047	-8.39989	-8.82704
8431.130	-8.97501	-7.85937	-7.91899	-8.85872
8435.144	-9.26355	-8.47332	-7.97651	-8.79106
8439.143	-9.12052	-8.71364	-7.96911	-8.86434
8443.140	-9.03842	-8.62614	-7.96731	-8.80649
8447.096	-9.12638	-8.72462	-8.20321	-8.75078
8451.121	-9.11699	-8.72863	-8.25763	-8.72293
8455.030	-9.09759	-8.71982	-8.04497	-8.76480
8459.140	-9.03113	-8.71266	-7.81785	-8.83667
8463.141	-8.98472	-8.74378	-7.85687	-8.77847
8467.143	-8.91701	-8.80396	-8.00976	-8.75618
8471.036	-8.68916	-8.82607	-7.66109	-8.75428
8475.141	-8.60596	-8.87514	-7.67153	-8.71569
8479.141	-7.94285	-8.93946	-8.10382	-8.67639
8483.138	-8.28420	-8.93540	-7.73446	-8.70667
8487.035	-8.58883	-8.89420	-8.20552	-8.62580
8491.137	-8.44803	-8.95988	-7.82289	-8.66476
8495.142	-8.44234	-8.91041	-7.70163	-8.72969
8499.142	-8.18709	-9.04486	-7.97442	-8.65959
8503.038	-8.34932	-8.95064	-7.91073	-8.65822
8507.140	-8.10909	-9.14088	-7.68603	-8.59000
8511.140	-8.24509	-8.98894	-7.67119	-8.69568
8515.143	-8.35503	-9.07425	-7.74705	-8.64826
8519.144	-8.25306	-8.95726	-7.77615	-8.75701
8523.141	-8.29234	-8.78748	-7.66794	-8.64636
8527.143	-8.40968	-8.67516	-7.61248	-8.62291
8531.146	-8.40135	-8.55692	-7.61716	-8.71279
8535.149	-8.43770	-8.44045	-7.62560	-8.55311
8539.139	-8.34256	-8.44453	-7.61238	-8.57641
8543.142	-8.44278	-8.27921	-7.59088	-8.60891
8547.097	-8.35984	-8.28252	-7.63733	-8.55013
8551.035	-8.42537	-8.24443	-7.67036	-8.75784
8555.142	-8.52858	-8.22099	-7.69544	-8.71776
8559.138	-8.50622	-8.22958	-7.73353	-8.74624
8563.142	-8.54040	-8.20240	-7.84070	-8.71891
8567.002	-8.55838	-8.23711	-7.84077	-8.66428
8571.140	-8.57554	-8.25985	-7.80718	-8.71024
8575.141	-8.55345	-8.30159	-7.84601	-8.68544
8579.137	-8.56246	-8.42103	-7.88366	-8.78291
8583.003	-8.51010	-8.37934	-7.84947	-8.75283
8587.139	-8.44686	-8.41057	-7.80565	-8.79730
8591.143	-8.43831	-8.42259	-7.85572	-8.82939
8595.141	-8.46988	-8.39930	-7.82552	-8.79675
8599.003	-8.30758	-8.36091	-7.81476	-8.79836
8603.142	-8.29715	-8.28527	-7.85210	-8.77347
8607.144	-8.21539	-8.32790	-7.85568	-8.77806
8611.151	-8.23041	-8.42758	-7.55944	-8.84625
8615.103	-8.14285	-8.58164	-7.55835	-8.91240
8619.106	-5.62915	-8.85596	-7.13221	-9.20615
8623.140	-5.61247	-9.38433	-4.95960	-9.33595
8627.141	-4.33616	-9.88199	-4.82018	-9.57406
8631.102	-3.85533	-10.94092	-2.63130	-9.75079
8635.143	-3.31499	-11.12240	-2.37040	-9.99783
8639.143	-1.63965	-11.43509	-1.62495	-10.32575
8643.143	-1.53669	-11.53083	-0.97797	-10.30674
8647.100	-0.96184	-11.48953	0.24386	-10.08581
8651.142	-0.90135	-11.53595	-0.08731	-10.26954
8655.143	-0.27418	-11.52393	0.83391	-10.34379
8659.120	-0.33968	-11.60137	1.92555	-10.44055
8663.031	-0.37596	-11.65065	2.18035	-10.50538
8667.099	-0.17903	-11.67117	1.10477	-10.52746
8671.142	-0.25167	-11.72115	1.40217	-10.54987
8675.143	-0.25403	-11.66346	1.48820	-10.61918
8679.017	-0.31684	-11.68294	1.67152	-10.65788
8683.147	-0.26597	-11.72055	2.35090	-10.64217
8687.018	-0.24674	-11.68821	1.76157	-10.62452
8691.016	-0.23467	-11.68993	1.74479	-10.71180
8695.040	-0.13168	-11.62259	1.62346	-10.73054
8699.022	-0.20457	-11.73460	1.75533	-10.78379
8703.019	-0.23279	-11.72210	1.59618	-10.74859
8706.991	-0.24406	-11.68068	1.71456	-10.78478
8711.155	-0.20745	-11.72171	1.52094	-10.77694
8714.974	-0.21137	-11.67001	1.71533	-10.81186
8719.018	-0.14384	-11.70241	1.71764	-10.82653
8723.018	-0.15104	-11.70610	1.52588	-10.82754
8727.006	-0.18412	-11.70512	1.46001	-10.86691
8730.993	-0.19646	-11.79360	1.63611	-10.88660
8735.010	-0.24195	-11.83575	1.53451	-10.90643
8739.020	-0.26974	-11.86255	1.69059	-10.94946
8743.044	-0.23053	-11.83569	1.78582	-10.94423
8747.016	-0.13471	-11.83413	1.67553	-11.01080
8751.018	-0.26855	-11.88678	1.30895	-11.03554
8755.019	-0.30625	-11.90528	1.71573	-11.09113
8759.042	-0.26535	-11.86822	1.84654	-11.11598
8763.019	-0.38844	-11.88474	1.81587	-11.14911
8767.022	-0.33732	-11.89177	1.80000	-11.15198
8771.019	-0.39368	-11.89553	1.90063	-11.17395
8775.041	-0.32436	-11.92767	2.00202	-11.19077
8779.020	-0.24681	-11.90122	1.86273	-11.17515
8783.023	-0.46378	-11.87182	1.68384	-11.14048
8787.020	-0.41202	-11.81871	1.76413	-11.12405
8791.038	-0.39358	-11.85489	1.92205	-11.12096
8795.018	-0.45264	-11.79900	2.04374	-11.10180
8799.019	-0.42919	-11.81820	1.76470	-11.08621
8803.018	-0.40015	-11.82955	2.08411	-11.08954
8807.006	-0.36638	-11.82024	2.01218	-11.07807
8811.025	-0.37923	-11.82011	2.11931	-11.09753
8815.023	-0.31575	-11.78133	2.07792	-11.10742
8819.017	-0.32449	-11.76572	1.93586	-11.11972
8823.037	-0.32518	-11.76474	1.91943	-11.15220
8827.019	-0.16370	-11.76971	2.21239	-11.17589
8831.021	-0.25996	-11.82584	1.98036	-11.19094
8835.020	-0.18010	-11.79276	2.04627	-11.21281
8839.042	-0.25435	-11.78803	1.99273	-11.23124
8843.019	-0.17990	-11.76918	2.09970	-11.22621
8846.974	-0.12468	-11.76185	2.17705	-11.19667
8850.975	-0.26220	-11.74804	2.12830	-11.19721
8854.978	-0.23046	-11.76069	2.21821	-11.21797
8859.021	-0.18452	-11.77642	2.20344	-11.18893
8863.020	-0.21715	-11.79766	2.07968	-11.17303
8867.014	-0.37988	-11.80613	2.24991	-11.21339
8871.030	-0.26962	-11.78538	2.18315	-11.14252
8875.007	1.46095	-11.67923	2.39376	-11.03862
8879.019	2.56617	-10.80473	4.43715	-10.16467
8883.022	3.47915	-9.24284	4.52511	-8.59389
8887.014	4.83775	-7.94690	5.45464	-7.28235
8891.017	5.16401	-6.71346	5.26649	-6.24373
8895.020	5.13690	-5.30869	5.72627	-4.36359
8899.023	5.39239	-4.10577	5.85477	-3.23260
8903.044	5.43204	-3.16916	6.47617	-1.77935
8907.021	5.89475	-1.82620	6.53477	-0.85912
8911.023	6.62209	-1.45973	7.10714	-0.08473
8914.976	7.77605	-1.27302	7.79071	-0.11532
8919.028	7.73679	-1.23504	7.91015	-0.04696
8923.020	7.77812	-1.16319	7.74023	-0.15461
8927.020	6.57367	-1.10307	7.65897	-0.29646
8931.020	6.87866	-1.17404	7.63996	-0.25252
8934.978	7.24131	-1.24815	7.81610	-0.23732
8939.021	7.13373	-1.19046	7.84554	-0.23304
8943.019	7.04980	-1.15934	7.96466	-0.04543
8947.023	7.12014	-1.01842	7.93508	-0.10359
8951.010	7.20187	-0.92766	7.99859	-0.06693
8955.002	7.39344	-0.91835	8.04051	-0.12138
8959.014	7.40003	-0.89690	8.00978	-0.07990
8963.021	7.34587	-0.89696	7.98481	-0.10867
8966.980	7.29611	-0.90554	8.05876	-0.07858
8971.020	7.29931	-0.79169	8.00070	-0.12156
8975.019	7.29626	-0.79250	8.06735	-0.06909
8979.022	7.28737	-0.73921	8.17201	-0.02091
8983.044	7.33938	-0.70567	8.09448	-0.07506
8987.022	7.42729	-0.72770	8.09421	-0.13762
8991.022	7.42246	-0.73303	8.07287	-0.18526
8995.022	7.42846	-0.77226	8.07769	-0.22083
8999.006	7.36127	-0.85372	8.01411	-0.23251
9003.022	7.28444	-0.83545	7.93364	-0.22313
9007.021	7.31272	-0.78836	8.05935	-0.22812
9011.022	7.30822	-0.80325	8.00601	-0.22872
9014.981	7.32619	-0.79913	8.06071	-0.19129
9019.023	7.37755	-0.85630	8.02358	-0.21975
9023.024	7.35624	-0.87063	7.95665	-0.26052
9027.021	7.43366	-0.85868	7.93949	-0.20513
9030.980	7.45460	-0.81557	7.96529	-0.17003
9035.017	7.40487	-0.92333	8.03192	-0.16705
9039.002	7.42312	-0.88138	8.05932	-0.20714
9043.027	7.44110	-0.83506	8.13962	-0.19573
9046.981	7.42393	-0.88626	8.13570	-0.17920
9051.022	7.35703	-0.86513	8.15042	-0.18960
9055.023	7.46265	-0.88845	8.15898	-0.11672
9059.020	7.38578	-0.87225	8.20250	-0.17804
9063.020	7.38241	-0.97208	8.22462	-0.07631
9067.026	7.27072	-0.90303	8.28303	-0.07822
9071.022	7.38449	-0.89839	8.31798	-0.09584
9075.024	7.23416	-0.82229	8.29241	-0.05464
9079.045	7.01108	-0.85203	7.93635	-0.00352
9083.020	6.42518	-0.72653	7.33923	0.02021
9087.023	5.75124	-0.48760	6.82183	0.12065
9091.022	5.96988	-0.41245	7.68969	0.16837
9095.041	5.99897	-0.44282	7.60031	0.40694
9099.025	6.26618	-0.52762	7.85419	0.49174
9103.023	6.17428	-0.40209	7.77025	0.58409
9107.026	6.25281	-0.32746	7.61334	0.59738
9111.046	6.03807	-0.33508	7.54584	0.69652
9114.981	6.05157	-0.35338	7.39818	0.59790
9119.023	6.00528	-0.37926	7.44684	0.59781
9123.009	5.97371	-0.25300	7.48612	0.62212
9126.990	6.06647	-0.18268	7.54532	0.69230
9131.023	6.00364	-0.25817	7.48278	0.59130
9135.034	6.01414	-0.35306	7.48536	0.67678
9139.027	6.12448	-0.28129	7.52230	0.56861
9143.043	5.98766	-0.30425	7.45523	0.55476
9146.976	5.96421	-0.32462	7.40182	0.57749
9151.023	5.92149	-0.20962	7.37218	0.47381
9155.022	5.88179	-0.22293	7.40052	0.49207
9159.018	5.86570	-0.34873	7.37948	0.51190
9163.004	5.84141	0.04052	7.37546	0.51166
9166.980	5.99814	-0.21075	7.36122	0.52378
9171.024	5.82869	0.32216	7.30449	0.49094
9175.021	5.92353	-0.19286	7.37402	0.52911
9179.020	5.95889	0.38179	7.46070	0.59505
9183.023	5.91766	-0.06683	7.31443	0.55087
9187.024	6.16120	0.02668	7.38202	0.57227
9191.027	6.02089	0.43663	7.43198	0.57711
9195.024	6.02747	0.33378	7.35075	0.50922
9199.023	6.13868	0.35587	7.30085	0.43786
9203.025	6.10917	0.35260	7.36486	0.55778
9207.026	6.03140	0.04710	7.31489	0.56624
9211.022	6.17158	0.20513	7.37179	0.52645
9215.024	6.14010	0.30782	7.47468	0.52514
9219.028	6.09079	0.52359	7.44274	0.58508
9223.026	6.10519	0.37880	7.34458	0.57599
9227.024	6.12337	0.21438	7.33835	0.39073
9231.025	6.15571	0.16321	7.33103	0.32155
9234.982	6.12509	0.32519	7.33708	0.33195
9239.022	6.10296	0.07410	7.39410	0.56368
9243.026	6.04993	0.13838	7.37714	0.60544
9247.001	6.09555	0.18018	7.39139	0.42875
9251.023	6.15367	0.08948	7.37113	0.29843
9254.982	6.16079	0.04121	7.28542	0.38774
9259.024	6.20501	-0.00002	7.31518	0.39846
9263.023	6.24369	0.05432	7.32282	0.40252
9267.024	6.25637	0.11763	7.21086	0.25579
9271.030	6.18647	0.07169	7.37087	0.43735
9275.027	6.09673	-0.03444	7.28232	0.32233
9279.026	5.92100	0.08905	7.12307	0.14215
9283.020	5.85463	-0.17328	7.06310	-0.01485
9286.984	5.78767	-0.38940	7.15046	-0.08045
9291.027	6.01964	-0.22026	7.09086	-0.11933
9295.030	5.87336	-0.31588	7.16024	-0.01738
9299.028	5.73777	-0.09487	7.16446	-0.06593
9302.983	5.63606	-0.25896	7.14831	-0.10079
9307.026	5.72423	-0.18583	7.06762	-0.17627
9311.026	5.65410	-0.20401	7.02885	-0.25410
9315.024	5.62040	-0.20278	6.99868	-0.26366
9318.984	5.57739	-0.08787	6.93660	-0.28858
9323.024	5.58835	-0.12417	6.97176	-0.29270
9327.027	5.54621	0.02011	6.97800	-0.34106
9331.025	5.52086	0.02689	6.94303	-0.33941
9334.985	5.40511	0.00426	6.96066	-0.38015
9339.027	5.41246	-0.03891	6.95792	-0.39379
9343.027	5.48248	-0.17325	6.95301	-0.43957
9347.028	5.46030	-0.29738	6.90803	-0.40690
9350.984	5.44043	-0.30088	6.93393	-0.37346
9355.024	5.37785	-0.51809	6.90045	-0.28690
9359.024	5.43083	-0.54362	6.92085	-0.26720
9363.026	5.42742	-0.51102	6.93596	-0.35614
9366.986	5.47518	-0.77492	6.92987	-0.33809
9371.007	5.42791	-0.60684	6.83959	-0.33502
9375.020	5.35591	-0.73060	6.89656	-0.32058
9379.026	5.41576	-0.77052	6.88590	-0.33958
9382.985	5.49930	-0.78647	6.91063	-0.31354
9387.025	5.40840	-0.70852	6.86009	-0.32275
9391.025	5.34080	-0.64827	6.93770	-0.26872
9395.026	5.33554	-0.74537	6.99062	-0.22198
9398.986	5.34343	-0.70009	6.94465	-0.15996
9403.026	5.28721	-0.54013	7.05129	-0.09038
9407.027	2.35006	0.30434	6.97890	0.10300
9411.026	10.27362	3.29986	4.01492	1.13111
9415.029	11.87831	6.15950	10.71092	2.38599
9419.027	15.49416	8.98119	3.50383	3.07407
9423.027	NaN	NaN	12.04894	6.17986
9427.027	NaN	NaN	NaN	NaN
9430.923	NaN	NaN	NaN	NaN
9435.029	NaN	NaN	NaN	NaN
9439.025	NaN	NaN	NaN	NaN
9443.026	NaN	NaN	NaN	NaN
9447.034	NaN	NaN	NaN	NaN
9450.985	NaN	NaN	NaN	NaN
9454.997	NaN	NaN	NaN	NaN
9459.024	NaN	NaN	NaN	NaN
9463.025	NaN	NaN	NaN	NaN
9466.984	NaN	NaN	NaN	NaN
9471.032	NaN	NaN	NaN	NaN
9475.027	NaN	NaN	NaN	NaN
9479.026	NaN	NaN	2.75244	-2.29809
9483.026	0.32958	-1.71408	-1.45033	-0.49087
9487.027	-1.91918	-0.42897	-1.52627	-2.43165
9490.923	-1.75381	-1.32782	-1.55053	-2.48994
9495.017	-1.01769	-1.57740	0.40829	-2.58498
9499.016	-1.24635	-1.65805	0.93212	-2.58728
9503.031	-1.17733	-1.78351	1.19996	-2.34424
9506.898	-0.22917	-1.72732	-1.65885	-1.75448
9511.031	-1.71466	-1.66003	-1.58076	-1.76180
9515.026	-1.92942	-1.39923	-1.59328	-1.29077
9519.029	-2.25930	-1.54451	-1.46511	-1.56095
9523.033	-2.29101	-1.65111	-1.35827	-1.59922
9527.026	-2.26718	-1.63100	-1.37044	-1.71632
9531.029	-2.28410	-1.64844	-1.25622	-1.63074
9535.031	-2.20369	-1.69416	-1.08078	-1.55475
9538.926	-2.24334	-1.70857	-1.03273	-1.51609
9543.036	-2.32622	-1.72289	-0.98509	-1.48257
9546.984	-2.31800	-1.75981	-1.02379	-1.40727
9551.029	-2.28977	-1.73330	-0.86610	-1.40443
9554.924	-2.33239	-1.79901	-0.77144	-1.42450
9559.032	-2.28115	-1.89918	-0.71444	-1.55165
9563.028	-2.20684	-1.90491	-0.73645	-1.81403
9567.032	-2.23328	-1.91341	-0.72069	-1.91101
9571.033	-2.15009	-1.93544	-0.68446	-1.85979
9575.028	-2.15403	-1.92325	-0.62871	-1.73282
9579.011	-2.15918	-1.99599	-0.67960	-1.65939
9583.020	-2.12979	-2.03978	-0.71940	-1.64957
9586.925	-2.13043	-2.05044	-0.86471	-1.87324
9591.028	-2.21197	-2.01428	-1.03932	-1.91234
9595.027	-2.23848	-2.00816	-0.95996	-2.13040
9598.984	-2.22005	-1.98545	-0.99529	-2.07872
9602.927	-2.22337	-2.00809	-0.98884	-1.95833
9607.030	-2.24834	-2.02112	-1.09207	-1.85651
9611.030	-2.27342	-2.11236	-1.17356	-1.82822
9615.031	-2.26547	-2.07258	-1.17235	-1.87741
9618.931	-2.29086	-2.17698	-1.16858	-1.86103
9623.029	-2.29168	-2.11814	-1.17761	-1.85288
9627.028	-2.32736	-2.09232	-1.19807	-1.94397
9631.030	-2.31909	-2.09635	-1.15880	-1.91375
9634.926	-2.29428	-2.15959	-1.08616	-1.89099
9639.029	-2.25665	-2.12265	-1.11482	-1.91477
9643.032	-2.27364	-2.20301	-1.11440	-1.89035
9646.984	-2.27104	-2.15926	-1.14890	-1.89579
9650.928	-2.21288	-2.17962	-1.13886	-1.92875
9655.034	-2.15742	-2.13505	-1.15129	-1.87921
9659.029	-2.15177	-2.10755	-1.14900	-1.83203
9662.999	-2.17715	-2.06613	-1.11730	-1.81264
9666.888	-2.29790	-2.09366	-1.08502	-1.76664
9671.030	-2.24203	-2.07918	-1.04260	-1.74902
9675.030	-2.21913	-2.08194	-1.07589	-1.77102
9679.028	-2.12397	-2.07426	-1.09259	-1.73199
9682.925	-2.16258	-2.12611	-1.12164	-1.72579
9687.029	-2.17413	-2.04768	-1.11226	-1.71348
9691.030	-2.31356	-2.07714	-1.11531	-1.74870
9695.033	-2.26073	-2.07315	-1.12256	-1.76595
9698.923	-2.39312	-2.09094	-1.11410	-1.78338
9703.017	-2.38549	-2.08004	-1.12854	-1.84465
9707.019	-2.29686	-2.10995	-1.17756	-1.88170
9711.026	-2.26576	-2.09058	-1.23950	-1.92295
9714.925	-2.28955	-2.03646	-1.29164	-1.95584
9718.906	-2.38122	-2.09686	-1.28894	-1.98065
9722.906	-2.39567	-2.10960	-1.29685	-2.01834
9727.130	-2.46744	-2.12268	-1.25069	-2.05110
9730.924	-2.46912	-2.17903	-1.25719	-2.06988
9734.907	-2.43835	-2.25763	-1.20881	-2.06580
9738.904	-2.33814	-2.30059	-1.19872	-2.07895
9742.909	-2.38610	-2.33962	-1.19844	-2.10151
9747.033	-2.28636	-2.31299	-1.33133	-2.10403
9750.901	-2.70448	-2.10362	-2.05960	-2.05423
9754.900	-4.50809	-1.87860	-4.41595	-1.74093
9758.906	-5.20501	-1.76801	-5.41049	-1.57228
9762.902	-6.02958	-1.38003	-6.71740	-0.97076
9766.909	-6.69921	-0.81158	-6.60480	-0.79594
9770.907	-7.53015	-0.80331	-7.46407	-0.43927
9774.908	-7.91999	-0.52865	-7.62545	-0.64664
9778.899	-8.63292	-0.27181	-7.95519	-0.44528
9782.910	-9.30285	-0.19270	-8.49862	-0.43782
9786.906	-9.61040	-0.15692	-8.81474	-0.36715
9790.902	-9.54250	-0.22214	-8.46548	-0.24382
9794.925	-9.47121	-0.09579	-8.16146	-0.15469
9798.898	-9.26379	-0.08513	-8.06409	-0.06254
9802.905	-9.34771	-0.20294	-8.21855	0.07073
9806.905	-9.38139	-0.13102	-8.17391	0.15843
9810.927	-9.47082	-0.11667	-8.20209	0.16668
9814.908	-9.47517	-0.03076	-8.15134	0.16023
9818.906	-9.56508	-0.05932	-8.35918	0.10564
9822.907	-9.63450	-0.05385	-8.37849	0.14060
9826.904	-9.66287	-0.00777	-8.40524	-0.02013
9830.910	-9.61547	-0.04202	-8.41099	0.00002
9834.874	-9.58811	0.02830	-8.38835	-0.07712
9838.907	-9.58036	0.12325	-8.46769	0.03475
9842.929	-9.63059	0.13340	-8.49292	-0.03033
9846.861	-9.67625	0.16111	-8.53896	-0.05463
9850.862	-9.68763	0.21546	-8.51311	-0.14146
9854.862	-9.69798	0.27137	-8.51955	-0.14779
9858.904	-9.73019	0.27994	-8.57978	-0.16782
9862.907	-9.72419	0.30581	-8.57440	-0.17185
9866.901	-9.73007	0.30401	-8.59682	-0.20946
9870.908	-9.75598	0.32025	-8.55755	-0.17331
9874.865	-9.80934	0.34938	-8.55520	-0.19226
9878.907	-9.79674	0.34122	-8.57034	-0.15969
9882.907	-9.79395	0.32090	-8.57265	-0.17234
9886.907	-9.74588	0.26521	-8.56928	-0.17090
9890.903	-9.65187	0.24676	-8.51877	-0.15986
9894.904	-9.65319	0.23422	-8.49942	-0.14421
9898.910	-9.55688	0.16675	-8.54243	-0.09262
9902.911	-9.45095	0.13065	-8.56600	-0.05352
9906.925	-9.44728	0.10408	-8.59041	0.00511
9910.910	-9.59537	0.16793	-8.59963	0.04398
9914.906	-9.53417	0.17894	-8.61220	0.01853
9918.871	-9.45049	0.15631	-8.63233	0.04496
9922.899	-9.47019	0.15397	-8.61120	0.07786
9926.907	-9.43467	0.14696	-8.60414	0.05405
9930.901	-9.48963	0.18036	-8.60453	0.07405
9934.910	-9.46865	0.17498	-8.62302	0.12006
9938.928	-9.54785	0.22155	-8.63803	0.19917
9942.907	-9.55871	0.26310	-8.61436	0.19282
9946.909	-9.49905	0.25444	-8.60405	0.17142
9950.910	-9.47700	0.28174	-8.56760	-0.05099
9954.929	-9.47864	0.28007	-8.53013	-0.02684
9958.908	-9.34616	0.18929	-8.54622	-0.05915
9962.909	-9.34780	0.15729	-8.51943	-0.07048
9966.909	-9.31078	0.09470	-8.50705	-0.03286
9970.929	-9.37653	0.05038	-8.48996	-0.01686
9974.907	-9.34432	0.05735	-8.46213	0.06073
9978.907	-9.39197	-0.09728	-8.45084	0.04921
9982.910	-9.34966	-0.08930	-8.41330	0.15474
9986.930	-9.40363	-0.09723	-8.43197	0.01512
9990.907	-9.41796	-0.11509	-8.43387	0.12059
9994.909	-9.43817	-0.13489	-8.46102	0.09497
9998.903	-9.49410	-0.16198	-8.50008	0.12015
10002.928	-9.49958	-0.12507	-8.46847	0.17775
10006.907	-9.52369	-0.12731	-8.50141	0.23991
10010.908	-9.54826	-0.12767	-8.51389	0.24430
10014.909	-9.52673	-0.12498	-8.55377	0.27081
10018.931	-9.50518	-0.13700	-8.55598	0.28666
10022.909	-9.49337	-0.12191	-8.57544	0.33839
10026.910	-9.50252	-0.14308	-8.59864	0.31845
10030.910	-9.46488	-0.14714	-8.57015	0.39186
10034.932	-9.46314	-0.11045	-8.57124	0.41803
10038.909	-9.49069	-0.15696	-8.56530	0.47374
10042.885	-9.48545	-0.18193	-8.53566	0.47471
10046.867	-9.49868	-0.15560	-8.54430	0.42580
10050.907	-9.50549	-0.05250	-8.48488	0.42537
10054.909	-9.47365	-0.08946	-8.43443	0.43841
10058.908	-9.47029	-0.12059	-8.28413	0.37482
10062.911	-9.41801	-0.10597	-8.32680	0.39686
10066.929	-9.37051	-0.10962	-8.24174	0.29993
10070.911	-9.34280	-0.09673	-8.27030	0.28240
10074.906	-9.37999	-0.11373	-8.28852	0.24304
10078.912	-9.42124	-0.13747	-8.28211	0.26014
10082.868	-9.35904	-0.12159	-8.35163	0.23069
10086.909	-9.30486	-0.12418	-8.33780	0.18890
10090.909	-9.27663	-0.11264	-8.34436	0.18811
10094.911	-9.22354	-0.14344	-8.39868	0.19324
10098.929	-9.20460	-0.13942	-8.41437	0.20346
10102.911	-9.18460	-0.09869	-8.46223	0.23101
10106.910	-9.20199	-0.06056	-8.51345	0.23403
10110.914	-9.19948	0.01185	-8.56551	0.24397
10114.942	-9.20148	0.08288	-8.57432	0.22697
10118.907	-9.22745	0.15975	-8.55522	0.20339
10122.910	-9.19921	0.19965	-8.51445	0.19670
10126.910	-9.20622	0.28635	-8.47391	0.19547
10130.905	-9.21723	0.33054	-8.42146	0.20619
10134.908	-9.26300	0.38688	-8.40322	0.25121
10138.909	-9.32487	0.46368	-8.44883	0.30326
10142.912	-9.70861	0.63362	-8.49823	0.37513
10146.897	-9.40489	0.80774	-8.72035	0.52006
10150.911	-3.60200	0.66531	-8.46983	0.98640
10154.911	-14.34753	2.69657	-2.11928	1.49012
10158.912	-9.39919	0.80815	-2.42634	5.60354
10162.936	-12.88522	5.61216	-11.95266	5.22668
10166.865	-11.80098	9.80993	-12.64832	5.47485
10170.910	NaN	NaN	NaN	NaN
10174.910	NaN	NaN	NaN	NaN
10178.929	NaN	NaN	NaN	NaN
10182.910	NaN	NaN	NaN	NaN
10186.906	NaN	NaN	NaN	NaN
10190.910	NaN	NaN	NaN	NaN
10194.909	NaN	NaN	NaN	NaN
10198.910	NaN	NaN	NaN	NaN
10202.910	NaN	NaN	NaN	NaN
10206.864	NaN	NaN	NaN	NaN
10210.903	NaN	NaN	NaN	NaN
10214.906	NaN	NaN	NaN	NaN
10218.909	NaN	NaN	NaN	NaN
10222.868	NaN	NaN	NaN	NaN
10226.912	NaN	NaN	NaN	NaN
10230.912	NaN	NaN	-1.35556	8.07553
10234.909	0.79449	9.64879	2.32627	9.12002
10238.915	0.80280	10.18514	2.27882	7.25680
10242.881	0.99578	8.21044	1.20613	5.08487
10246.915	3.29426	10.05596	1.97542	7.29179
10250.888	2.32426	8.31149	2.02681	6.58376
10254.915	2.04907	7.65824	2.34032	8.30437
10258.913	3.92008	9.97129	2.48054	8.07086
10262.911	2.96183	10.02331	5.61777	9.04032
10266.912	2.35965	9.59244	5.68050	9.24650
10270.912	2.80003	9.49973	5.50198	8.77045
10274.876	2.89250	8.70891	5.64582	7.31595
10278.912	4.22098	7.90171	5.69178	7.90304
10282.915	4.96319	7.72399	5.82670	8.31502
10286.914	4.15981	7.57023	5.91292	8.76185
10290.910	4.81140	7.74537	6.01336	8.13920
10294.905	4.93100	8.02537	6.14850	8.13553
10298.913	5.09204	8.24953	6.29639	8.10263
10302.916	5.55211	8.41417	6.39376	8.18378
10306.912	5.42161	7.69554	6.44576	8.21999
10310.911	5.32360	7.86088	6.54470	8.23424
10314.911	5.27274	7.76466	6.59216	8.46250
10318.916	5.33293	7.92439	6.73828	8.47215
10322.911	5.24969	7.87159	6.87565	8.56421
10326.912	5.23071	7.98187	6.89796	8.61289
10330.913	5.22736	8.11263	6.91354	8.71616
10334.909	5.42041	7.96158	6.93694	8.58653
10338.909	5.41180	7.93051	6.88663	8.62286
10342.913	5.45929	7.73971	6.92709	8.56944
10346.874	5.39332	7.73372	6.90764	8.61050
10350.925	5.35037	7.72646	6.94095	8.67710
10354.913	5.41436	7.62752	6.96568	8.65763
10358.913	5.47427	7.56395	6.95675	8.58348
10362.912	5.53722	7.35503	6.93120	8.52737
10366.912	5.64257	7.32903	6.98438	8.63168
10370.913	5.70559	7.42481	6.92917	8.63259
10374.915	5.77045	7.45791	6.90852	8.56562
10378.913	5.82857	7.48415	6.89355	8.57291
10382.916	5.93650	7.50557	6.90608	8.49886
10386.913	5.97632	7.61364	6.89297	8.47651
10390.915	6.13584	7.63504	6.88252	8.37760
10394.914	6.32412	7.69296	6.83359	8.33229
10398.809	6.40658	7.76661	6.73583	8.18506
10402.913	6.49989	7.79930	6.56270	7.96270
10406.916	6.50741	7.76848	6.51204	8.00270
10410.919	6.49237	7.83904	6.50927	8.10046
10414.913	6.52351	7.84616	6.60095	8.22877
10418.915	6.61234	7.85214	6.70457	8.05023
10422.871	6.60904	7.82361	6.67684	8.05610
10426.914	6.54937	7.86231	6.68237	8.09072
10430.918	6.50489	7.89449	6.78686	7.98239
10434.912	6.45944	7.91806	6.75651	8.02262
10438.913	6.32946	7.90008	6.85938	8.12109
10442.913	6.19692	7.98838	7.06095	8.20177
10446.917	6.26738	7.95931	7.09847	8.17555
10450.911	6.39418	7.79279	7.17861	8.10775
10454.917	6.58802	6.41251	7.11455	6.49648
10458.883	6.70621	6.06036	7.24039	6.08724
10462.802	6.53779	5.72434	7.24600	5.91708
10466.913	6.50646	5.78328	7.37211	5.85939
10470.914	6.62520	5.89037	7.32048	5.84133
10474.915	6.71904	5.77759	7.27455	6.04661
10478.874	6.78241	5.80275	7.28994	6.04811
10482.914	6.88563	5.85524	7.27035	6.26657
10486.915	6.95245	5.83536	7.25130	6.44886
10490.914	6.96206	5.75347	7.27003	6.29899
10494.916	6.98353	5.78488	7.25555	6.18707
10498.914	6.97751	5.78232	7.28200	5.84620
10502.916	6.98196	5.66981	7.34616	6.17691
10506.914	7.00411	5.67172	7.37765	6.21016
10510.816	7.03773	5.58509	7.30048	6.12491
10514.914	7.05696	5.57565	7.40745	6.31941
10518.913	7.10712	5.53890	7.46277	6.17327
10522.914	7.10868	5.41417	7.32846	6.15423
10526.808	7.09306	5.45504	7.44996	5.88240
10530.915	7.12527	5.49605	7.34223	5.90348
10534.918	7.11828	5.48472	7.16923	5.80939
10538.916	7.15814	5.46842	7.21962	5.77195
10542.873	7.11462	5.45579	7.41116	5.85982
10546.921	7.10712	5.40925	7.30366	5.82299
10550.893	7.03993	5.52262	7.26425	5.85731
10554.914	7.01971	5.56344	7.24266	5.83180
10558.919	7.05953	5.56592	7.18381	5.81516
10562.925	7.02098	5.50058	7.19324	5.84463
10566.912	7.09497	5.56418	7.15591	5.85577
10570.914	7.14726	5.59408	7.26412	5.87507
10574.811	7.07085	5.56794	7.17986	5.82523
10578.915	7.06215	5.70996	7.24266	5.93439
10582.895	7.10563	5.68896	7.31145	5.92464
10586.917	7.09719	5.83592	7.25416	5.98674
10590.920	7.10914	5.82698	7.29465	5.96219
10594.914	7.13576	5.93885	7.28398	5.94629
10598.872	7.14783	5.96297	7.32954	5.98247
10602.915	7.10585	6.13113	7.31760	6.08388
10606.815	7.04364	6.12810	7.23259	6.09200
10610.917	7.08165	6.15714	7.20981	6.17383
10614.917	7.04618	6.04672	7.18208	6.16016
10618.915	7.04391	6.05801	7.15841	6.18561
10622.810	7.00093	6.12356	7.19683	6.06493
10626.916	6.98644	6.02907	7.13644	6.01735
10630.919	7.00592	6.14346	7.10902	5.94027
10634.916	6.92821	6.19543	7.08595	5.91190
10638.816	6.98265	6.10817	7.08297	5.91557
10642.914	6.99864	6.11815	7.05501	5.75770
10646.871	7.03946	6.07441	7.06459	6.00582
10650.916	7.04868	6.09555	7.07156	5.85328
10654.918	7.12742	6.17688	7.11188	5.98777
10658.916	7.07337	6.20432	7.11012	5.99180
10662.920	7.05877	6.19135	7.12737	5.83544
10666.872	7.09749	6.18969	7.13439	5.85531
10670.824	7.11980	6.20691	7.15418	5.88724
10674.916	7.11020	6.16773	7.17411	5.98213
10678.912	7.13500	6.17844	7.19388	5.94278
10682.916	7.14167	6.14767	7.20529	5.84992
10686.876	7.14643	6.12620	7.21977	5.85883
10690.917	7.13006	6.08354	7.17934	5.80389
10694.914	7.13576	6.07600	7.20797	5.60254
10698.918	7.12948	6.04032	7.19156	5.50056
10702.875	7.16615	6.04600	7.21059	5.54502
10706.899	7.20206	6.00857	7.19380	5.58906
10710.918	7.20358	5.99775	7.20226	5.66768
10714.917	7.23298	5.97239	7.19175	5.80988
10718.777	7.20590	5.95433	7.19063	5.83818
10722.917	7.20704	5.89271	7.18855	5.81612
10726.917	7.20182	5.92100	7.16512	5.79607
10730.918	7.21875	5.98345	7.22790	5.86168
10734.777	7.23997	6.01321	7.36647	5.87380
10738.916	7.23675	6.06043	7.34624	5.92842
10742.917	7.17998	6.16009	7.08309	5.90037
10746.920	6.78950	6.91896	6.46130	6.28679
10750.763	5.91428	8.43153	5.98513	8.65788
10754.768	5.26846	10.24662	5.47631	9.91057
10758.791	4.94228	11.12322	5.69084	10.59896
10762.795	4.89405	10.59706	6.54070	10.43734
10766.778	4.90272	10.49252	5.84792	10.27960
10770.801	4.94893	10.52352	6.06922	10.30142
10774.794	4.83479	10.42524	5.97737	10.40118
10778.794	4.85233	10.50830	5.88861	10.45743
10782.752	4.73000	10.37179	5.90509	10.52789
10786.789	4.72684	10.57847	5.83535	10.55118
10790.749	4.53800	10.48663	5.93136	10.71203
10794.780	4.51916	10.44654	6.01515	10.83390
10798.751	4.35558	10.32626	6.05501	10.55232
10802.790	4.51810	10.41006	6.11878	10.81516
10806.794	4.39308	10.29671	6.10114	10.76827
10810.793	4.51475	10.29439	6.11842	10.86698
10814.784	4.40636	10.15904	6.10985	10.85259
10818.794	4.41928	10.18133	6.17369	10.82436
10822.793	4.39057	10.16367	6.07057	10.68207
10826.793	4.38746	10.29616	5.89908	10.71515
10830.781	4.40875	10.08090	5.93966	10.83014
10834.794	4.44371	10.10594	5.89900	10.92464
10838.763	4.44225	10.16012	5.90752	10.79739
10842.793	4.46951	10.18665	5.83795	10.80241
10846.777	4.34645	10.15551	5.94320	10.84530
10850.750	4.29011	10.10861	5.84244	10.84847
10854.748	4.25314	10.18456	5.77534	10.79456
10858.792	4.30455	10.12763	5.78018	10.72797
10862.813	4.28012	10.24241	5.80860	10.86332
10866.789	4.38003	10.17711	5.86683	10.84762
10870.795	4.25988	10.16092	5.91376	10.88287
10874.794	4.34961	10.12757	5.92955	10.83851
10878.802	4.30773	10.14356	5.97688	10.79463
10882.794	4.28708	10.12781	5.94939	10.77520
10886.792	4.30243	10.07451	6.00447	10.79429
10890.791	4.37103	10.14566	5.98108	10.84398
10894.792	4.44329	10.16865	6.01567	10.83115
10898.794	4.43063	10.13276	6.07035	10.92923
10902.792	4.39289	10.16064	6.10534	10.93330
10906.794	4.37209	10.14812	6.07714	10.86320
10910.814	4.35148	10.20895	6.03972	10.96740
10914.751	4.36945	10.25572	5.98552	10.98240
10918.794	4.29971	10.31415	6.00607	10.83782
10922.797	3.88421	10.90365	6.01576	11.23620
10926.813	4.17038	13.68014	6.12129	11.15143
10930.771	4.88318	13.89670	2.60054	10.92482
10934.794	5.60713	14.43212	6.03680	11.45586
10938.794	NaN	NaN	2.66969	4.09016
10942.794	NaN	NaN	NaN	NaN
10946.749	NaN	NaN	NaN	NaN
10950.794	NaN	NaN	NaN	NaN
10954.793	NaN	NaN	NaN	NaN
10958.793	NaN	NaN	NaN	NaN
10962.752	NaN	NaN	NaN	NaN
10966.792	NaN	NaN	NaN	NaN
10970.793	NaN	NaN	NaN	NaN
10974.793	NaN	NaN	NaN	NaN
10978.794	NaN	NaN	NaN	NaN
10982.792	NaN	NaN	NaN	NaN
10986.793	NaN	NaN	NaN	NaN
10990.794	NaN	NaN	NaN	NaN
10994.792	NaN	NaN	7.79154	7.19645
10998.749	NaN	NaN	15.28132	5.44966
11002.793	NaN	NaN	18.37900	5.83574
11006.795	15.87836	10.89487	14.74333	2.75740
11010.754	14.28744	8.25789	15.72078	1.80581
11014.797	5.22667	2.29437	3.85130	0.13939
11018.804	13.99814	3.89629	14.03809	0.34003
11022.795	13.09167	1.96838	11.59654	0.00465
11026.822	13.16805	1.94416	3.62746	0.05074
11030.795	2.46008	-0.26442	5.64663	-0.00994
11034.797	2.11995	-0.78710	7.39737	-0.03573
11038.796	2.96517	-0.46779	5.91265	-0.03137
11042.828	5.05858	-0.57166	7.73682	-0.39248
11046.752	5.92451	-0.78287	7.78294	-0.59298
11050.801	6.86158	-0.78232	7.70838	-0.74699
11054.796	5.78249	-1.00339	7.67743	-0.45772
11058.815	6.70213	-0.99265	7.56898	-0.46230
11062.796	6.20805	-1.03284	7.56996	-0.39988
11066.796	6.21141	-1.04750	7.39122	-0.32454
11070.796	6.20577	-1.06262	7.59819	-0.46805
11074.820	6.06941	-1.12210	7.50154	-0.47584
11078.796	5.99851	-1.12675	7.46543	-0.46760
11082.800	5.98314	-1.17058	7.41250	-0.55562
11086.778	5.99122	-1.21678	7.36506	-0.52473
11090.773	5.97357	-1.20131	7.32707	-0.52761
11094.796	5.94123	-1.25323	7.23421	-0.52116
11098.799	5.96183	-1.26378	7.19764	-0.52135
11102.798	5.95486	-1.21135	7.09658	-0.60076
11106.819	5.97276	-1.16776	7.06596	-0.72180
11110.797	5.99753	-1.13577	7.14247	-0.75318
11114.792	5.98727	-0.83146	7.21281	-0.95581
11118.797	6.02426	-0.94137	7.28229	-0.90374
11122.796	6.08119	-0.85905	7.40772	-0.81990
11126.794	6.10725	-0.80141	7.37113	-0.84926
11130.797	6.14322	-0.80809	7.41985	-0.85205
11134.796	6.19025	-0.73847	7.33811	-0.84999
11138.793	6.21110	-0.68761	7.37690	-0.84684
11142.795	6.21500	-0.64300	7.29728	-0.80978
11146.751	6.19574	-0.62877	7.14875	-0.71570
11150.799	6.18919	-0.63544	7.22490	-0.65135
11154.793	6.20972	-0.63068	7.29394	-0.60260
11158.796	6.22260	-0.65892	7.18438	-0.62791
11162.801	6.24987	-0.69262	7.15643	-0.61826
11166.754	6.25720	-0.73576	7.07165	-0.63527
11170.756	6.25990	-0.77038	7.02345	-0.62734
11174.797	6.23133	-0.72490	6.94993	-0.62335
11178.797	6.23052	-0.74856	6.87849	-0.59621
11182.799	6.17308	-0.74168	6.91415	-0.62103
11186.781	6.21038	-0.78902	6.84115	-0.63815
11190.796	6.23197	-0.81828	6.84734	-0.66996
11194.796	6.24421	-0.82350	6.84617	-0.69103
11198.798	6.19562	-0.79023	6.80830	-0.69893
11202.757	6.18645	-0.75851	6.79021	-0.71413
11206.796	6.10485	-0.73061	6.80049	-0.72063
11210.785	6.09812	-0.70994	6.81446	-0.71747
11214.788	6.07678	-0.67637	6.84918	-0.72001
11218.757	6.13922	-0.63701	6.89766	-0.72410
11222.798	6.11967	-0.60670	6.87956	-0.74877
11226.809	6.15090	-0.59142	6.82459	-0.75056
11230.754	6.13348	-0.59292	6.83012	-0.73464
11234.801	6.09832	-0.67066	6.81402	-0.77273
11238.796	6.11564	-0.56001	6.76307	-0.78875
11242.797	6.12987	-0.54942	6.76547	-0.82800
11246.798	6.17680	-0.56928	6.73473	-0.83595
11250.758	6.20607	-0.60198	6.67674	-0.86714
11254.763	6.19486	-0.27246	6.70132	-0.81846
11258.800	6.21588	-0.54397	6.62549	-0.83347
11262.797	6.20531	-0.38777	6.61572	-0.81108
11266.757	6.19697	-0.59287	6.59446	-0.80669
11270.796	6.15720	-0.64245	6.59006	-0.82741
11274.800	6.15527	-0.63022	6.60945	-0.84369
11278.798	6.25289	-0.28562	6.60708	-0.82192
11282.758	6.23148	-0.51943	6.59062	-0.80845
11286.801	6.24053	-0.51018	6.58151	-0.76848
11290.801	6.19366	-0.57880	6.57372	-0.72622
11294.780	6.18765	-0.57542	6.64075	-0.60655
11298.757	6.16294	-0.59383	6.58797	-0.62920
11302.798	6.13696	-0.64581	6.62228	-0.62002
11306.798	6.08168	-0.66369	6.67566	-0.57933
11310.800	6.05479	-0.65885	6.70335	-0.57340
11314.785	6.09027	-0.67519	6.71035	-0.52910
11318.796	6.08154	-0.68308	6.75947	-0.55313
11322.800	5.99289	-0.72787	6.95878	-0.53309
11326.799	5.91872	-0.73830	6.88308	-0.54887
11330.757	5.96527	-0.77416	6.88088	-0.54117
11334.756	6.02536	-0.82885	6.88807	-0.55192
11338.792	5.98785	-0.89154	6.79139	-0.62341
11342.797	6.01756	-0.99121	6.85123	-0.63591
11346.757	6.03964	-1.00352	6.87120	-0.72654
11350.754	6.05609	-1.01073	6.83374	-0.72810
11354.769	6.01336	-1.05530	6.80900	-0.75628
11358.799	6.05376	-1.06280	6.79391	-0.76139
11362.802	6.06517	-1.06740	6.62483	-0.80442
11366.764	6.05830	-1.07226	6.39361	-0.85410
11370.804	6.05184	-1.06829	6.19351	-0.85072
11374.800	5.95513	-1.05756	6.25531	-0.88858
11378.797	5.94840	-1.00658	6.22625	-0.90767
11382.802	5.89736	-0.94146	6.27312	-0.89082
11386.800	5.89092	-0.89113	6.35528	-0.99973
11390.800	5.85524	-0.85815	6.27812	-1.00043
11394.797	5.80501	-0.85674	6.38043	-1.09589
11398.803	5.78160	-0.86926	6.30921	-1.14772
11402.799	5.77399	-0.79900	6.44167	-1.20836
11406.800	5.76043	-0.79321	6.48198	-1.22248
11410.804	5.71192	-0.76621	6.54428	-1.29080
11414.801	5.70480	-0.80582	6.63771	-1.35504
11418.787	5.71704	-0.77540	6.69302	-1.36039
11422.790	5.72170	-0.77522	6.71351	-1.46020
11426.694	5.72389	-0.76607	6.78554	-1.51946
11430.798	5.75706	-0.74303	6.78241	-1.51244
11434.801	5.79646	-0.64972	6.74308	-1.51725
11438.762	5.87933	-0.56640	6.71818	-1.42317
11442.802	6.03749	-0.50672	6.64097	-1.35841
11446.800	6.04031	-0.43508	6.49046	-1.30308
11450.803	6.05842	-0.43993	6.61119	-1.35798
11454.800	6.09327	-0.41542	6.60962	-1.24356
11458.696	6.15826	-0.34205	6.58871	-1.19424
11462.766	6.25259	-0.27841	6.60257	-1.07532
11466.801	6.23827	-0.30023	6.61658	-1.06989
11470.800	6.23557	-0.23726	6.49291	-0.97629
11474.796	6.15323	-0.26210	6.28808	-1.10922
11478.801	4.72588	-0.35183	5.50798	-0.77943
11482.754	3.93436	-0.48365	3.05137	-0.80218
11486.803	2.23742	-0.53110	1.80357	-0.81735
11490.798	1.57369	-0.67819	0.21696	-1.22395
11494.801	0.19105	-0.85822	-0.12679	-1.17430
11498.802	0.16166	-0.92306	-0.75838	-1.28604
11502.785	-0.35270	-0.75441	-0.74766	-1.52599
11506.798	-0.90689	-0.89761	-0.82002	-1.48311
11510.802	-0.79955	-0.96394	-0.84610	-1.53271
11514.801	-1.01680	-1.03020	-0.83007	-1.50292
11518.804	-0.97100	-1.06998	-0.83908	-1.55357
11522.790	-0.95703	-1.13202	-0.83982	-1.50999
11526.802	-1.15406	-1.25485	-1.14747	-1.60906
11530.799	-1.13387	-1.25958	-1.06813	-1.64606
11534.803	-1.17284	-1.28221	-1.19033	-1.63234
11538.703	-1.22164	-1.34389	-1.24007	-1.61809
11542.800	-1.26726	-1.37910	-1.14248	-1.65652
11546.757	-1.34601	-1.33573	-1.17912	-1.68239
11550.803	-1.35735	-1.30970	-1.15749	-1.72532
11554.701	-1.41573	-1.30835	-1.11988	-1.76709
11558.799	-1.42221	-1.29191	-1.11335	-1.77100
11562.803	-1.46839	-1.35338	-1.07180	-1.76400
11566.804	-1.48949	-1.35320	-1.09252	-1.80144
11570.700	-1.49076	-1.27849	-1.03550	-1.78564
11574.803	-1.44969	-1.24455	-1.02211	-1.79299
11578.806	-1.46298	-1.24322	-1.00231	-1.81455
11582.803	-1.43364	-1.21598	-0.90758	-1.80693
11586.699	-1.47092	-1.19284	-0.86411	-1.73578
11590.802	-1.43178	-1.23554	-0.78972	-1.56749
11594.802	-1.43746	-1.27904	-0.76377	-1.46267
11598.803	-1.41591	-1.31555	-0.73206	-1.34979
11602.805	-1.42479	-1.36270	-0.80042	-1.29539
11606.803	-1.43979	-1.36281	-0.78925	-1.33999
11610.803	-1.45371	-1.36178	-0.85548	-1.41643
11614.801	-1.40695	-1.35024	-0.82699	-1.34207
11618.700	-1.43818	-1.46502	-0.79002	-1.37218
11622.803	-1.51633	-1.45742	-0.83255	-1.38301
11626.790	-1.46583	-1.45865	-0.85535	-1.42244
11630.803	-1.41058	-1.42239	-0.85902	-1.41392
11634.696	-1.42761	-1.45122	-0.92775	-1.56629
11638.801	-1.39607	-1.40345	-0.97479	-1.59313
11642.802	-1.42345	-1.40366	-0.97876	-1.62228
11646.758	-1.46968	-1.44611	-0.92428	-1.60810
11650.693	-1.48637	-1.44131	-0.92505	-1.62876
11654.804	-1.52154	-1.52784	-0.90215	-1.56551
11658.802	-1.58222	-1.53376	-0.88011	-1.54896
11662.803	-1.67157	-1.54034	-0.90855	-1.48208
11666.661	-1.61314	-1.53113	-0.88279	-1.48425
11670.758	-1.58802	-1.54319	-0.85600	-1.53854
11674.802	-1.59135	-1.58267	-0.76985	-1.47826
11678.802	-1.57644	-1.64813	-0.73779	-1.47281
11682.698	-1.64360	-1.66521	-0.70451	-1.45613
11686.805	-1.61424	-1.67555	-0.71935	-1.40960
11690.804	-1.54698	-1.66392	-0.72034	-1.43048
11694.802	-1.53783	-1.69646	-0.75131	-1.49356
11698.697	-1.52255	-1.65068	-0.78399	-1.46549
11702.805	-1.42303	-1.62201	-0.75965	-1.49664
11706.802	-1.45815	-1.60320	-0.76563	-1.46046
11710.785	-1.40966	-1.60653	-0.79094	-1.46356
11714.695	-1.39602	-1.56464	-0.83352	-1.47916
11718.802	-1.35447	-1.54943	-0.91579	-1.42202
11722.803	-1.29928	-1.45254	-0.93629	-1.41195
11727.064	-1.25647	-1.42536	-0.94363	-1.38180
11730.804	-1.22987	-1.37658	-0.97665	-1.36456
11734.806	-1.19472	-1.38110	-0.98256	-1.33920
11738.803	-1.20075	-1.38469	-0.95452	-1.33127
11742.802	-1.28336	-1.36265	-0.94907	-1.34155
11746.701	-1.27825	-1.37673	-0.93934	-1.36792
11750.804	-1.23511	-1.39041	-0.93393	-1.36589
11754.795	-1.25920	-1.35715	-0.89282	-1.39171
11758.803	-1.28832	-1.35418	-0.85347	-1.36940
11762.699	-1.37707	-1.40101	-0.80233	-1.36127
11766.806	-1.35221	-1.43595	-0.77660	-1.36917
11770.803	-1.46060	-1.47464	-0.74503	-1.35240
11774.803	-1.45678	-1.52397	-0.68866	-1.37777
11778.700	-1.49262	-1.56326	-0.67605	-1.37050
11782.806	-1.55740	-1.59990	-0.66397	-1.33350
11786.807	-1.55583	-1.62045	-0.61392	-1.33622
11790.680	-1.53235	-1.65269	-0.56463	-1.27752
11794.671	-1.61629	-1.63597	-0.49711	-1.29487
11798.679	-1.28412	-1.32166	-0.38956	-1.03779
11802.676	-1.57448	-0.81576	1.56553	-1.02307
11806.681	-1.78676	-0.44716	-0.45726	-1.12412
11810.678	-1.18185	9.70360	-0.26786	-2.63865
11814.679	NaN	NaN	3.80369	10.56285
11818.678	NaN	NaN	17.17651	12.04794
11822.680	NaN	NaN	NaN	NaN
11826.680	NaN	NaN	NaN	NaN
11830.634	NaN	NaN	NaN	NaN
11834.679	NaN	NaN	NaN	NaN
11838.679	NaN	NaN	NaN	NaN
11842.643	NaN	NaN	NaN	NaN
11846.671	NaN	NaN	NaN	NaN
11850.634	NaN	NaN	NaN	NaN
11854.683	NaN	NaN	NaN	NaN
11858.678	NaN	NaN	NaN	NaN
11862.679	NaN	NaN	NaN	NaN
11866.634	NaN	NaN	NaN	NaN
11870.678	NaN	NaN	NaN	NaN
11874.678	NaN	NaN	NaN	NaN
11878.681	NaN	NaN	NaN	NaN
11882.637	NaN	NaN	NaN	NaN
11886.678	NaN	NaN	NaN	NaN
11890.682	NaN	NaN	NaN	NaN
11894.686	NaN	NaN	NaN	NaN
11898.634	NaN	NaN	NaN	NaN
11902.681	NaN	NaN	NaN	NaN
11906.677	NaN	NaN	NaN	NaN
11910.677	NaN	NaN	NaN	NaN
11914.679	NaN	NaN	NaN	NaN
11918.681	NaN	NaN	NaN	NaN
11922.680	NaN	NaN	NaN	NaN
11926.704	-4.02060	14.84344	NaN	NaN
11930.680	NaN	NaN	NaN	NaN
11934.683	-2.21588	13.74937	NaN	NaN
11938.681	-3.02843	13.50389	NaN	NaN
11942.700	-4.00922	13.09735	NaN	NaN
11946.680	-2.69141	11.23531	NaN	NaN
11950.684	-2.42906	12.14246	NaN	NaN
11954.682	-2.46830	13.45588	NaN	NaN
11958.703	-2.57129	13.39586	NaN	NaN
11962.679	-2.84598	13.44823	NaN	NaN
11966.683	-2.85801	13.37391	NaN	NaN
11970.682	-2.73533	13.45236	NaN	NaN
11974.704	-2.49870	13.26025	NaN	NaN
11978.684	-3.12828	13.28552	NaN	NaN
11982.639	-3.64541	13.59316	NaN	NaN
11986.683	-4.40234	13.57777	NaN	NaN
11990.701	-4.42442	13.60978	NaN	NaN
11994.682	-4.78365	13.71923	NaN	NaN
11998.682	-4.88008	13.64328	NaN	NaN
12002.684	-5.04068	13.30934	NaN	NaN
12006.704	-4.60251	13.53923	-2.97881	14.61228
12010.680	-4.83338	12.70933	NaN	NaN
12014.681	-4.99881	13.37187	-3.15889	14.88094
12018.682	-4.93033	13.16558	NaN	NaN
12022.705	-5.40198	13.32103	NaN	NaN
12026.683	-5.19431	13.26085	NaN	NaN
12030.683	-5.30409	13.40450	NaN	NaN
12034.684	-5.74971	13.33578	NaN	NaN
12038.702	-5.54014	13.33467	NaN	NaN
12042.683	-5.43743	13.25714	-3.32216	15.01030
12046.681	-5.55489	13.34416	-3.24788	13.68188
12050.651	-5.60541	13.24969	-3.34430	14.61453
12054.676	-5.65612	13.32526	-3.29523	15.00337
12058.685	-5.58968	13.42988	NaN	NaN
12062.684	-5.69944	13.60037	NaN	NaN
12066.685	-5.66582	13.57078	-3.31259	14.94944
12070.706	-5.64312	13.50838	-3.27796	14.34666
12074.681	-5.58366	13.50383	-3.24941	14.69948
12078.683	-5.51538	13.65921	NaN	NaN
12082.684	-5.51568	13.70368	NaN	NaN
12086.703	-5.52062	13.94386	NaN	NaN
12090.662	-5.51951	13.98476	-3.03051	14.69175
12094.684	-5.52691	13.81752	-2.93943	14.86138
12098.684	-5.44680	13.82835	NaN	NaN
12102.702	-4.79790	14.09366	NaN	NaN
12106.686	NaN	NaN	NaN	NaN
12110.680	NaN	NaN	NaN	NaN
12114.676	NaN	NaN	NaN	NaN
12118.704	NaN	NaN	NaN	NaN
12122.683	NaN	NaN	NaN	NaN
12126.682	NaN	NaN	NaN	NaN
12130.678	NaN	NaN	NaN	NaN
12134.703	NaN	NaN	NaN	NaN
12138.682	NaN	NaN	NaN	NaN
12142.682	NaN	NaN	NaN	NaN
12146.639	NaN	NaN	NaN	NaN
12150.675	NaN	NaN	NaN	NaN
12154.683	NaN	NaN	NaN	NaN
12158.684	NaN	NaN	NaN	NaN
12162.681	NaN	NaN	NaN	NaN
12166.704	NaN	NaN	NaN	NaN
12170.684	NaN	NaN	NaN	NaN
12174.659	NaN	NaN	NaN	NaN
12178.685	NaN	NaN	NaN	NaN
12182.674	NaN	NaN	NaN	NaN
12186.687	NaN	NaN	NaN	NaN
12190.684	NaN	NaN	NaN	NaN
12194.685	NaN	NaN	NaN	NaN
12198.708	NaN	NaN	NaN	NaN
12202.687	NaN	NaN	NaN	NaN
12206.686	NaN	NaN	NaN	NaN
12210.686	NaN	NaN	NaN	NaN
12214.696	NaN	NaN	NaN	NaN
12218.695	NaN	NaN	NaN	NaN
12222.682	NaN	NaN	NaN	NaN
12226.686	NaN	NaN	NaN	NaN
12230.674	NaN	NaN	NaN	NaN
12234.685	NaN	NaN	NaN	NaN
12238.685	NaN	NaN	NaN	NaN
12242.681	NaN	NaN	NaN	NaN
12246.688	NaN	NaN	NaN	NaN
12250.684	NaN	NaN	NaN	NaN
12254.685	NaN	NaN	NaN	NaN
12258.651	NaN	NaN	NaN	NaN
12262.682	NaN	NaN	NaN	NaN
12266.686	NaN	NaN	NaN	NaN
12270.681	NaN	NaN	NaN	NaN
12274.685	NaN	NaN	NaN	NaN
12278.689	NaN	NaN	NaN	NaN
12282.687	NaN	NaN	NaN	NaN
12286.685	NaN	NaN	NaN	NaN
12290.686	NaN	NaN	NaN	NaN
12294.689	NaN	NaN	NaN	NaN
12298.685	NaN	NaN	NaN	NaN
12302.686	NaN	NaN	NaN	NaN
12306.686	NaN	NaN	NaN	NaN
12310.688	NaN	NaN	NaN	NaN
12314.690	NaN	NaN	NaN	NaN
12318.684	NaN	NaN	NaN	NaN
12322.686	NaN	NaN	NaN	NaN
12326.689	NaN	NaN	NaN	NaN
12330.687	NaN	NaN	NaN	NaN
12334.685	-1.80229	14.38319	NaN	NaN
12338.679	NaN	NaN	NaN	NaN
12342.688	NaN	NaN	NaN	NaN
12346.640	NaN	NaN	NaN	NaN
12350.684	NaN	NaN	NaN	NaN
12354.686	NaN	NaN	NaN	NaN
12358.693	NaN	NaN	NaN	NaN
12362.686	NaN	NaN	NaN	NaN
12366.675	NaN	NaN	NaN	NaN
12370.686	NaN	NaN	NaN	NaN
12374.689	NaN	NaN	NaN	NaN
12378.686	NaN	NaN	NaN	NaN
12382.687	NaN	NaN	NaN	NaN
12386.690	NaN	NaN	NaN	NaN
12390.685	NaN	NaN	NaN	NaN
12394.687	NaN	NaN	NaN	NaN
12398.688	NaN	NaN	NaN	NaN
12402.686	NaN	NaN	NaN	NaN
12406.689	NaN	NaN	NaN	NaN
12410.689	NaN	NaN	NaN	NaN
12414.643	NaN	NaN	NaN	NaN
12418.688	NaN	NaN	NaN	NaN
12422.709	NaN	NaN	NaN	NaN
12426.681	NaN	NaN	NaN	NaN
12430.695	NaN	NaN	NaN	NaN
12434.686	NaN	NaN	NaN	NaN
12438.690	NaN	NaN	NaN	NaN
12442.685	NaN	NaN	NaN	NaN
12446.642	NaN	NaN	NaN	NaN
12450.687	NaN	NaN	NaN	NaN
12454.688	NaN	NaN	NaN	NaN
12458.689	NaN	NaN	NaN	NaN
12462.687	NaN	NaN	NaN	NaN
12466.689	NaN	NaN	NaN	NaN
12470.691	NaN	NaN	NaN	NaN
12474.688	NaN	NaN	NaN	NaN
12478.688	NaN	NaN	NaN	NaN
12482.689	NaN	NaN	NaN	NaN
12486.689	NaN	NaN	NaN	NaN
12490.687	NaN	NaN	NaN	NaN
12494.687	NaN	NaN	NaN	NaN
12498.687	NaN	NaN	NaN	NaN
12502.691	NaN	NaN	NaN	NaN
12506.664	NaN	NaN	NaN	NaN
12510.688	NaN	NaN	NaN	NaN
12514.688	NaN	NaN	NaN	NaN
12518.690	NaN	NaN	NaN	NaN
12522.646	NaN	NaN	NaN	NaN
12526.688	NaN	NaN	NaN	NaN
12530.690	NaN	NaN	NaN	NaN
12534.691	NaN	NaN	NaN	NaN
12538.688	NaN	NaN	NaN	NaN
12542.678	NaN	NaN	NaN	NaN
12546.643	NaN	NaN	NaN	NaN
12550.690	NaN	NaN	NaN	NaN
12554.688	NaN	NaN	NaN	NaN
12558.692	NaN	NaN	NaN	NaN
12562.690	NaN	NaN	NaN	NaN
12566.648	NaN	NaN	NaN	NaN
12570.689	NaN	NaN	NaN	NaN
12574.690	NaN	NaN	NaN	NaN
12578.688	NaN	NaN	NaN	NaN
12582.648	NaN	NaN	NaN	NaN
12586.691	NaN	NaN	NaN	NaN
12590.659	NaN	NaN	NaN	NaN
12594.687	NaN	NaN	NaN	NaN
12598.649	NaN	NaN	NaN	NaN
12602.692	NaN	NaN	NaN	NaN
12606.646	NaN	NaN	NaN	NaN
12610.688	NaN	NaN	NaN	NaN
12614.649	NaN	NaN	NaN	NaN
12618.690	NaN	NaN	NaN	NaN
12622.689	NaN	NaN	NaN	NaN
12626.690	NaN	NaN	NaN	NaN
12630.552	NaN	NaN	NaN	NaN
12634.685	NaN	NaN	NaN	NaN
12638.690	NaN	NaN	NaN	NaN
12642.690	NaN	NaN	NaN	NaN
12646.647	NaN	NaN	NaN	NaN
12650.690	NaN	NaN	NaN	NaN
12654.690	NaN	NaN	NaN	NaN
12658.686	NaN	NaN	NaN	NaN
12662.693	NaN	NaN	NaN	NaN
12666.645	NaN	NaN	NaN	NaN
12670.646	NaN	NaN	NaN	NaN
12674.655	NaN	NaN	NaN	NaN
12678.694	NaN	NaN	NaN	NaN
12682.689	NaN	NaN	NaN	NaN
12686.692	NaN	NaN	NaN	NaN
12690.690	NaN	NaN	NaN	NaN
12694.690	NaN	NaN	NaN	NaN
12698.687	NaN	NaN	NaN	NaN
12702.691	NaN	NaN	NaN	NaN
12706.688	NaN	NaN	NaN	NaN
12710.693	NaN	NaN	NaN	NaN
12714.666	NaN	NaN	NaN	NaN
12718.696	NaN	NaN	NaN	NaN
12722.690	NaN	NaN	NaN	NaN
12727.058	NaN	NaN	NaN	NaN
12730.691	NaN	NaN	NaN	NaN
12734.691	NaN	NaN	NaN	NaN
12738.690	NaN	NaN	NaN	NaN
12742.695	NaN	NaN	NaN	NaN
12746.691	NaN	NaN	NaN	NaN
12750.692	NaN	NaN	NaN	NaN
12754.683	NaN	NaN	NaN	NaN
12758.692	NaN	NaN	NaN	NaN
12762.691	NaN	NaN	NaN	NaN
12766.693	NaN	NaN	NaN	NaN
12770.691	NaN	NaN	NaN	NaN
12774.588	NaN	NaN	NaN	NaN
12778.689	NaN	NaN	NaN	NaN
12782.693	NaN	NaN	NaN	NaN
12786.691	NaN	NaN	NaN	NaN
12790.693	NaN	NaN	NaN	NaN
12794.691	NaN	NaN	NaN	NaN
12798.692	NaN	NaN	NaN	NaN
12802.696	NaN	NaN	NaN	NaN
12806.588	NaN	NaN	NaN	NaN
12810.690	NaN	NaN	NaN	NaN
12814.692	NaN	NaN	NaN	NaN
12818.688	NaN	NaN	NaN	NaN
12822.586	NaN	NaN	NaN	NaN
12826.567	NaN	NaN	NaN	NaN
12830.568	NaN	NaN	NaN	NaN
12834.567	NaN	NaN	NaN	NaN
12838.567	NaN	NaN	NaN	NaN
12842.565	NaN	NaN	NaN	NaN
12846.521	NaN	NaN	NaN	NaN
12850.567	NaN	NaN	NaN	NaN
12854.589	NaN	NaN	NaN	NaN
12858.522	NaN	NaN	NaN	NaN
12862.570	NaN	NaN	NaN	NaN
12866.567	NaN	NaN	NaN	NaN
12870.563	NaN	NaN	NaN	NaN
12874.567	NaN	NaN	NaN	NaN
12878.572	NaN	NaN	NaN	NaN
12882.526	NaN	NaN	NaN	NaN
12886.568	NaN	NaN	NaN	NaN
12890.569	NaN	NaN	NaN	NaN
12894.567	NaN	NaN	NaN	NaN
12898.569	NaN	NaN	NaN	NaN
12902.588	NaN	NaN	NaN	NaN
12906.568	NaN	NaN	NaN	NaN
12910.568	NaN	NaN	NaN	NaN
12914.522	NaN	NaN	NaN	NaN
12918.566	NaN	NaN	NaN	NaN
12922.569	NaN	NaN	NaN	NaN
12926.558	NaN	NaN	NaN	NaN
12930.569	NaN	NaN	NaN	NaN
12934.589	NaN	NaN	NaN	NaN
12938.569	NaN	NaN	NaN	NaN
