time (ms)	lx (deg)	ly (deg)	rx (deg)	ry (deg)
0.000	-2.09921	-1.07398	-0.99144	-1.20197
4.016	-2.11965	-1.09568	-1.10795	-1.11078
8.009	-2.11437	-1.10842	-1.06262	-1.06302
11.972	-2.10478	-1.09175	-1.07723	-1.07756
15.975	-2.18694	-1.08409	-1.07297	-1.07925
20.012	-2.11375	-1.10475	-1.03012	-1.06315
23.996	-2.13504	-1.08939	-1.06118	-1.00075
28.014	-2.13004	-1.09113	-1.08979	-0.97650
32.000	-2.06352	-1.04963	-1.01804	-0.98251
36.016	-2.07229	-1.04051	-1.03816	-1.05061
40.016	-2.13061	-1.04164	-0.84414	-0.95717
44.016	-2.05933	-0.99166	-0.74067	-0.88779
48.040	-1.48496	-0.84160	-0.29359	-0.77278
52.019	-1.31729	-0.60653	0.04867	-0.66737
56.013	-1.16141	-0.36254	0.28709	-0.22553
60.018	-1.09840	-0.37251	0.21142	-0.23047
64.042	-0.96135	-0.44254	0.39100	-0.32837
67.973	-0.84982	-0.39530	0.19966	-0.22101
71.973	-0.77168	-0.31692	0.31940	-0.17941
76.017	-0.89718	-0.32620	0.33243	-0.10618
80.039	-0.77873	-0.30850	0.32119	-0.02800
84.018	-0.67843	-0.27503	0.36591	0.03332
88.019	-0.72320	-0.25013	0.43753	0.07874
92.016	-0.71898	-0.25637	0.40651	0.13095
96.015	-0.72317	-0.24203	0.39497	0.19061
100.020	-0.73531	-0.27530	0.39683	0.22088
104.025	-0.78749	-0.31503	0.40452	0.30188
108.016	-0.79903	-0.32122	0.35839	0.46526
112.035	-0.83719	-0.29992	0.38722	0.51674
116.016	-0.89237	-0.28811	0.35191	0.64919
120.019	-0.90825	-0.24279	0.37876	0.57408
124.017	-0.91230	-0.24545	0.39834	0.60581
128.040	-0.86781	-0.24088	0.50520	0.65450
132.018	-0.81756	-0.24069	0.49175	0.68702
136.017	-0.77474	-0.31915	0.53530	0.71206
140.018	-0.67958	-0.32686	0.56168	0.70530
144.014	-0.69168	-0.38590	0.61488	0.70358
148.004	-0.69489	-0.38724	0.62017	0.69038
152.018	-0.68032	-0.39797	0.67427	0.63145
156.016	-0.80009	-0.41826	0.67268	0.59734
160.038	-0.77724	-0.46805	0.72273	0.53932
164.018	-0.82441	-0.49570	0.73717	0.52868
168.019	-0.94515	-0.51328	0.74967	0.48793
172.014	-0.89944	-0.52024	0.73275	0.48379
176.037	-0.86562	-0.52429	0.75526	0.48078
180.021	-0.95135	-0.50195	0.76739	0.44177
184.020	-0.82645	-0.44067	0.78821	0.42833
188.018	-0.98417	-0.40473	0.76330	0.35655
192.041	-0.82074	-0.39391	0.77610	0.29990
196.034	-0.75975	-0.32711	0.73377	0.26740
200.019	-0.74126	-0.33655	0.74476	0.25821
203.973	-0.58471	-0.33877	0.73707	0.28375
208.018	-0.52270	-0.31378	0.72449	0.21324
212.017	-0.47966	-0.28993	0.72119	0.26137
216.018	-0.46966	-0.29110	0.73129	0.20653
220.017	-0.40586	-0.28568	0.77434	0.21637
224.040	-0.34777	-0.30996	0.76168	0.21545
228.017	-0.36119	-0.34606	0.77027	0.24002
231.973	-0.35385	-0.38306	0.73340	0.19135
236.018	-0.36938	-0.38420	0.69248	0.23379
240.040	-0.35697	-0.41397	0.75650	0.27180
244.018	-0.31578	-0.44864	0.75489	0.27277
248.017	-0.34049	-0.40550	0.75221	0.21050
252.019	-0.36891	-0.37230	0.75007	0.21667
256.038	-0.42768	-0.37613	0.78337	0.09829
260.018	-0.45748	-0.37640	0.77873	0.08811
264.017	-0.55074	-0.33577	0.75824	0.10858
268.021	-0.70397	-0.34840	0.74737	0.03402
272.006	-0.75322	-0.31230	0.78136	0.02743
276.019	-0.85103	-0.27502	0.79962	0.06420
280.024	-0.78402	-0.32397	0.83922	0.04393
284.019	-0.91172	-0.36647	0.87674	0.03583
287.978	-0.88431	-0.35217	0.86873	0.01488
292.020	-0.94626	-0.34071	0.88525	0.00753
296.020	-1.00285	-0.41824	0.89361	-0.00032
300.020	-1.04481	-0.39220	0.79121	0.08204
304.016	-1.05004	-0.34097	0.76608	0.09981
308.022	-1.04148	-0.36957	0.75300	0.07064
312.019	-1.02216	-0.35975	0.66131	0.08766
315.994	-1.04243	-0.34865	0.65275	0.08398
319.977	-1.01950	-0.34353	0.59818	0.09954
324.020	-1.01702	-0.32070	0.52540	0.11723
328.020	-1.01362	-0.30818	0.49170	0.13140
332.021	-1.04004	-0.30323	0.53664	0.08729
335.979	-1.01203	-0.27653	0.45147	0.14273
340.019	-0.95837	-0.28624	0.46512	0.13619
343.979	-0.83153	-0.26832	0.46515	0.09336
348.020	-0.81965	-0.29125	0.50331	0.12591
351.978	-0.77278	-0.31483	0.42631	0.17687
356.005	-0.78188	-0.32835	0.45492	0.20803
360.007	-0.74106	-0.32035	0.44311	0.24523
364.021	-0.73126	-0.34838	0.42599	0.28551
368.006	-0.70111	-0.36108	0.32873	0.26613
372.020	-0.67352	-0.32838	0.31133	0.29875
376.020	-0.64079	-0.27066	0.30858	0.34296
380.021	-0.63330	-0.25675	0.32677	0.36845
383.981	-0.64610	-0.20616	0.25368	0.39618
388.021	-0.69548	-0.15785	0.25875	0.42839
392.022	-0.68394	-0.06672	0.19085	0.41452
396.017	-0.70605	0.00012	0.23999	0.37444
399.979	-0.70896	0.04736	0.19189	0.35715
404.020	-0.71598	0.04440	0.15049	0.36878
408.020	-0.71320	0.12168	0.11724	0.36965
412.021	-0.72275	0.17761	0.14963	0.38727
415.979	-0.74466	0.19843	0.17226	0.39576
420.020	-0.73511	0.20596	0.10046	0.40069
424.020	-0.74183	0.19567	0.12928	0.41328
428.020	-0.76101	0.19053	0.10791	0.39979
431.978	-0.76977	0.19147	0.08488	0.37984
436.020	-0.77560	0.12801	0.06428	0.33158
440.000	-0.77178	0.12053	0.05440	0.35790
444.021	-0.74771	0.09484	0.04236	0.35415
448.021	-0.71610	0.11646	0.10009	0.35859
452.016	-0.66967	0.07817	0.11776	0.29950
456.020	-0.57729	0.04520	0.16779	0.29426
460.021	-0.50810	0.00999	0.18536	0.24568
464.025	-0.55225	-0.04025	0.19057	0.18793
468.022	-0.55533	-0.09420	0.16978	0.10727
472.020	-0.57109	-0.13388	0.23036	0.10779
476.021	-0.56508	-0.14670	0.25296	0.05917
480.013	-0.57101	-0.17677	0.35955	0.07855
483.978	-0.51875	-0.23310	0.34308	0.03958
488.022	-0.54788	-0.25397	0.37496	0.02952
492.021	-0.56548	-0.30019	0.39301	0.05454
496.025	-0.78724	-0.30594	0.47428	0.02860
499.978	-0.81158	-0.32417	0.49386	0.06172
504.019	-0.83724	-0.32481	0.49470	0.09286
508.023	-0.72397	-0.29546	0.53974	0.09845
512.024	-0.66990	-0.32336	0.61034	0.12133
516.025	-0.46942	-0.33048	0.67007	0.06361
520.031	-0.22840	-0.36239	0.71605	0.10905
524.021	-0.30173	-0.36266	0.73064	0.09603
528.025	-0.45450	-0.36119	0.82389	0.19502
531.976	-0.33163	-0.37382	0.76285	0.12168
536.020	-0.20115	-0.40921	0.78158	0.11216
540.019	-0.34399	-0.45552	0.74300	0.02129
544.025	-0.29662	-0.50039	0.77196	-0.05250
548.019	-0.32096	-0.54427	0.78069	-0.04805
552.026	-0.40613	-0.57358	0.79198	-0.15629
556.023	-0.39569	-0.55289	0.77756	-0.15937
560.021	-0.41259	-0.55453	0.78287	-0.01806
564.009	-0.38276	-0.52027	0.82322	-0.03354
567.981	-0.48867	-0.56896	0.85580	-0.06818
572.019	-0.51175	-0.57641	0.76620	-0.04800
576.025	-0.51168	-0.50726	0.75082	0.08783
580.021	-0.53657	-0.42169	0.68873	0.01960
584.026	-0.52672	-0.35498	0.70796	0.06214
588.024	-0.52379	-0.34968	0.64970	0.00644
592.026	-0.52178	-0.37110	0.65699	0.12995
596.024	-0.55461	-0.40735	0.54337	0.13589
600.024	-0.58024	-0.44231	0.52865	0.12225
604.024	-0.56255	-0.42608	0.49046	0.08307
608.026	-0.59647	-0.45075	0.51503	0.01978
612.022	-0.54215	-0.39866	0.46475	-0.00129
616.022	-0.51557	-0.38867	0.53677	-0.00740
620.026	-0.47128	-0.36979	0.60223	-0.08545
623.921	-0.51021	-0.45024	0.67737	-0.05047
628.024	-0.49542	-0.48160	0.70647	-0.11363
632.024	-0.44639	-0.42661	0.83625	-0.04872
635.999	-0.40571	-0.33873	0.85912	-0.02723
639.918	-0.38065	-0.29334	0.86324	-0.02544
644.023	-0.35089	-0.23114	0.97874	0.04991
648.003	-0.32682	-0.23395	1.01005	0.05121
652.021	-0.35228	-0.25552	0.94381	0.15312
655.892	-0.37209	-0.21318	0.95939	0.21501
660.023	-0.37834	-0.22982	0.90954	0.24630
664.024	-0.38380	-0.20028	0.88880	0.27999
668.023	-0.41194	-0.30153	0.90056	0.31221
671.983	-0.39308	-0.37978	0.98204	0.33248
676.022	-0.40549	-0.40107	0.90505	0.29919
680.022	-0.45217	-0.35712	0.86059	0.33085
684.025	-0.49416	-0.38914	0.83208	0.33316
687.981	-0.47974	-0.43302	0.81203	0.34571
692.024	-0.50240	-0.48771	0.79148	0.32087
696.025	-0.48713	-0.53191	0.84399	0.25694
700.024	-0.42621	-0.57950	0.81952	0.15872
703.983	-0.45912	-0.54523	0.82272	0.15360
708.024	-0.49954	-0.59467	0.85964	0.13971
712.024	-0.48282	-0.55425	0.78469	0.03797
716.024	-0.48922	-0.54600	0.78935	0.02683
719.890	-0.52210	-0.50011	0.76714	-0.00718
724.026	-0.52188	-0.54006	0.74618	-0.01200
728.024	-0.51093	-0.52938	0.77732	-0.00236
732.059	-0.49540	-0.56973	0.77350	-0.00591
735.983	-0.49073	-0.55194	0.73270	0.00581
740.022	-0.46646	-0.51579	0.74977	0.07201
744.024	-0.47306	-0.52563	0.72290	0.13194
748.024	-0.45348	-0.54903	0.70379	0.19818
751.919	-0.42281	-0.53810	0.67873	0.22010
756.024	-0.36553	-0.64559	0.67161	0.18847
760.024	-0.31223	-0.69879	0.64640	0.18690
764.024	-0.28021	-0.69228	0.62541	0.23019
767.985	-0.25649	-0.74587	0.63573	0.26286
772.012	-0.22487	-0.76376	0.61171	0.24659
776.022	-0.27448	-0.80224	0.60674	0.25658
780.026	-0.24257	-0.81424	0.60052	0.25481
784.028	-0.25986	-0.85422	0.57096	0.25076
788.026	-0.24465	-0.86823	0.56776	0.20731
792.023	-0.23132	-0.90095	0.56064	0.20191
796.024	-0.26346	-0.95739	0.54768	0.20415
800.030	-0.27674	-0.86594	0.54965	0.23029
804.027	-0.32039	-0.78992	0.57682	0.31040
808.024	-0.29304	-0.70140	0.60074	0.38074
812.025	-0.27905	-0.77086	0.60533	0.38906
815.924	-0.32168	-0.70167	0.63538	0.39877
820.028	-0.30382	-0.55511	0.63297	0.37326
824.028	-0.29161	-0.40098	0.65967	0.39246
828.027	-0.25820	-0.47170	0.67034	0.34933
832.031	-0.24249	-0.32924	0.66062	0.47373
836.031	-0.22730	-0.41097	0.65213	0.47224
840.025	-0.21964	-0.34587	0.63156	0.47160
844.026	-0.16432	-0.38274	0.65980	0.44904
848.028	-0.13037	-0.36344	0.64354	0.43130
852.027	-0.17620	-0.34801	0.64665	0.42764
856.008	-0.52949	-0.27107	0.45951	0.60961
859.897	-1.56704	-0.16042	-1.53225	0.63370
863.890	-2.63804	0.39416	-2.51730	1.71875
867.903	-3.95570	1.07254	-4.23041	2.62257
871.902	-4.61903	1.42080	-4.49427	2.53315
875.902	-5.52047	1.00825	-4.93787	2.95467
879.987	-6.36947	1.50222	-6.17180	3.02758
883.904	-7.14765	2.20622	-6.90414	3.21132
887.900	-7.66144	2.15609	-7.11831	3.30320
891.901	-7.86676	2.59352	-7.19420	3.63479
895.899	-8.26186	2.64095	-7.44347	3.73433
899.904	-8.42275	2.46559	-7.47729	3.78754
903.872	-8.28106	2.67235	-7.05802	3.71556
907.902	-8.18373	2.67286	-7.09678	3.77065
911.923	-8.16002	2.74893	-7.13783	3.81192
915.903	-8.09379	2.78819	-7.16639	3.90021
919.900	-8.08054	2.86490	-7.25768	3.99025
923.902	-8.17135	2.88371	-7.23970	4.02007
927.925	-8.17646	2.93909	-7.19263	4.08949
931.857	-8.18203	2.93648	-7.19911	4.15371
935.901	-8.17490	2.90996	-7.15811	4.23533
939.857	-8.13692	2.91451	-7.16867	4.17633
943.859	-8.10472	2.93079	-7.13883	4.28256
947.899	-8.09472	2.93187	-7.17587	4.28486
951.899	-8.10817	2.92701	-7.23333	4.26557
955.898	-8.12882	2.90686	-7.27958	4.26089
959.920	-8.13179	2.88223	-7.32068	4.24820
963.899	-8.16775	2.84767	-7.38258	4.23097
967.903	-8.16228	2.80033	-7.42190	4.14993
971.901	-8.19319	2.77989	-7.47414	4.04994
975.921	-8.23974	2.74340	-7.45575	4.05399
979.902	-8.25134	2.74408	-7.50656	3.98370
983.911	-8.22423	2.70692	-7.51783	3.97604
987.867	-8.17675	2.65057	-7.56727	3.87899
991.898	-8.13500	2.61933	-7.60375	3.87079
995.902	-8.13529	2.66030	-7.61153	3.79809
999.857	-8.08839	2.70673	-7.63679	3.76724
1003.900	-8.01949	2.72870	-7.65344	3.73174
1007.901	-7.96149	2.72766	-7.66577	3.67517
1011.902	-7.92834	2.69481	-7.66985	3.69500
1015.897	-7.87572	2.60162	-7.70372	3.63995
1019.902	-7.84019	2.68391	-7.69861	3.60622
1023.894	-7.82893	2.69250	-7.70219	3.58490
1027.900	-7.85156	2.74322	-7.72125	3.53136
1031.857	-7.88317	2.76544	-7.76377	3.56152
1035.904	-8.46218	2.79093	-7.84423	3.59558
1039.923	-9.99380	2.74277	-8.57942	3.51338
1043.902	-10.56807	2.67703	-9.30578	3.44439
1047.905	-10.68461	2.63359	-9.79002	3.28150
1051.907	-10.26533	2.48317	-9.67866	3.24204
1055.924	-10.44110	2.47271	-9.59937	3.15704
1059.903	-10.33850	2.54493	-9.68074	3.02004
1063.860	-10.29366	2.51087	-9.71223	2.91819
1067.897	-10.30355	2.49275	-9.76671	3.10906
1071.925	-10.34415	2.47496	-9.76341	3.25623
1075.902	-10.58337	2.50846	-9.83643	2.93022
1079.902	-10.51340	2.43316	-9.85984	2.90740
1083.904	-10.57702	2.39035	-9.88415	2.86946
1087.900	-10.58315	2.38872	-9.89533	2.80470
1091.900	-10.60152	2.35186	-9.88832	2.85951
1095.904	-10.63025	2.39379	-9.89891	2.86989
1099.904	-10.65534	2.39064	-9.89949	2.94226
1103.903	-10.69688	2.36297	-9.92319	2.93821
1107.905	-10.78328	2.31567	-9.95033	2.95247
1111.873	-10.79061	2.26726	-9.92227	2.93939
1115.906	-10.84015	2.22074	-9.95059	2.89986
1119.924	-10.84145	2.15868	-9.95013	2.93177
1123.905	-10.85677	2.10820	-9.93619	2.94063
1127.881	-10.87027	2.11081	-9.93321	2.94840
1131.903	-10.87209	2.10200	-9.92213	2.96847
1135.864	-10.85969	2.07289	-9.89191	2.97523
1139.903	-10.88963	2.08959	-9.84910	2.94608
1143.901	-10.93224	2.10179	-9.86237	2.92401
1147.905	-10.98011	2.16233	-9.86225	2.96762
1151.863	-10.95538	2.20933	-9.83925	2.95342
1155.903	-10.94246	2.30745	-9.85052	2.94711
1159.903	-10.97504	2.45151	-9.84235	2.91588
1163.904	-10.98987	2.53385	-9.83939	2.87483
1167.862	-11.07656	2.60361	-9.90876	2.89942
1171.904	-11.05629	2.57490	-9.95842	2.92994
1175.902	-10.95449	2.71538	-9.99773	2.90659
1179.904	-10.96181	2.77438	-10.03154	3.00615
1183.894	-10.92890	2.80171	-10.06689	2.94175
1187.861	-11.01122	2.91181	-10.12226	2.96818
1191.908	-10.97731	2.91657	-10.14672	2.99539
1195.868	-11.03683	2.93464	-10.17197	2.99052
1199.864	-11.03105	2.91709	-10.14905	3.01567
1203.905	-11.12923	2.85762	-10.16016	3.04212
1207.905	-11.07470	2.72172	-10.09448	3.06490
1211.903	-11.00427	2.75627	-10.04249	3.09311
1215.864	-10.97217	2.86484	-10.05649	3.02168
1219.905	-10.94296	2.90559	-10.03857	3.05184
1223.907	-11.05787	2.82192	-9.97491	2.96962
1227.906	-11.10161	2.87518	-9.98372	3.02067
1231.864	-11.09107	2.69612	-9.88673	3.02496
1235.886	-11.07470	2.63611	-9.83913	3.06368
1239.906	-11.05577	2.58780	-9.84999	3.02923
1243.904	-11.11057	2.59859	-9.83985	2.98547
1247.901	-11.10137	2.64317	-9.82253	2.93757
1251.906	-11.12739	2.63700	-9.83804	2.85818
1255.908	-11.15095	2.65022	-9.81544	2.79627
1259.916	-11.13019	2.59131	-9.79211	2.76314
1263.896	-11.08648	2.68691	-9.72272	2.74949
1267.905	-10.98710	2.67745	-9.73865	2.78428
1271.904	-11.01959	2.63230	-9.72045	2.68233
1275.894	-11.03879	2.61207	-9.74687	2.67718
1279.897	-11.07582	2.59159	-9.79079	2.63673
1283.905	-11.15964	2.61489	-9.75230	2.62042
1287.911	-11.11767	2.59950	-9.73875	2.62488
1291.906	-11.11198	2.59918	-9.74649	2.61267
1295.906	-11.07967	2.54710	-9.74318	2.61964
1299.906	-11.10675	2.54662	-9.75967	2.61530
1303.908	-11.10491	2.49837	-9.76020	2.63791
1307.906	-11.13831	2.48750	-9.80881	2.58330
1311.899	-11.20760	2.45747	-9.84334	2.53164
1315.908	-11.23530	2.39147	-9.89092	2.50787
1319.862	-11.25447	2.33017	-9.86772	2.46165
1323.903	-11.23423	2.27612	-9.79633	2.41058
1327.866	-11.20393	2.23175	-9.82927	2.33716
1331.905	-11.20577	2.18651	-9.81469	2.34078
1335.906	-11.20218	2.08226	-9.79202	2.31931
1339.908	-11.21083	2.16308	-9.74051	2.32521
1343.905	-11.20522	2.19861	-9.74388	2.30610
1347.907	-11.20039	2.28627	-9.81385	2.32419
1351.908	-11.25369	2.17919	-9.84732	2.37545
1355.908	-11.21045	2.19704	-9.89737	2.39581
1359.897	-11.18262	2.27567	-9.85510	2.42479
1363.905	-11.23096	2.27546	-9.85221	2.42747
1367.905	-11.24920	2.29681	-9.89309	2.45085
1371.908	-11.17481	2.28640	-9.80590	2.46301
1375.898	-11.24808	2.34008	-9.93090	2.48091
1379.907	-11.25734	2.37241	-9.89179	2.49926
1383.907	-11.35253	2.35861	-9.90262	2.53866
1387.914	-11.31493	2.26441	-9.93578	2.52439
1391.906	-11.39132	2.31128	-9.91568	2.52664
1395.907	-11.43278	2.26370	-9.92066	2.47693
1399.908	-11.35976	2.24508	-9.88470	2.48129
1403.908	-11.49605	2.24561	-9.85214	2.44136
1407.902	-11.39635	2.20294	-9.84619	2.43444
1411.907	-11.25443	2.21610	-9.83872	2.40150
1415.906	-11.39015	2.16961	-9.86278	2.41178
1419.909	-11.37576	2.16593	-9.85426	2.41199
1423.899	-11.41645	2.15107	-9.86040	2.39445
1427.908	-11.31183	2.27096	-9.80493	2.36138
1431.908	-11.39174	2.20764	-9.78823	2.29667
1435.909	-11.30725	2.14197	-9.75285	2.36598
1439.899	-11.27185	2.20022	-9.82833	2.36452
1443.887	-11.29118	2.20134	-9.77739	2.35718
1447.908	-11.28355	2.19551	-9.79886	2.30537
1451.913	-11.35162	2.15657	-9.70524	2.38735
1455.900	-11.39733	2.13657	-9.75316	2.33921
1459.908	-11.36365	2.15850	-9.70827	2.32001
1463.909	-11.38762	2.06656	-9.78156	2.41768
1467.909	-11.38240	2.06587	-9.78050	2.44037
1471.917	-11.27980	2.03073	-9.79303	2.37462
1475.907	-11.23568	1.99843	-9.76167	2.31717
1479.907	-11.37145	1.94361	-9.73193	2.31356
1483.909	-11.30209	2.03556	-9.61846	2.34029
1487.908	-11.33342	1.99782	-9.69593	2.45412
1491.906	-11.33695	1.96939	-9.76833	2.49181
1495.906	-11.27686	2.05616	-9.76731	2.49180
1499.910	-11.27720	2.06463	-9.75685	2.49896
1503.910	-11.23642	2.10742	-9.67608	2.50991
1507.910	-11.27333	2.08775	-9.65580	2.43788
1511.909	-11.27572	2.10013	-9.66525	2.41169
1515.908	-11.30935	2.11331	-9.65476	2.39587
1519.905	-11.34411	2.10685	-9.65409	2.40615
1523.909	-11.33240	2.20248	-9.68799	2.44654
1527.878	-11.37412	2.18282	-9.73036	2.52974
1531.863	-11.35551	2.17970	-9.71941	2.45399
1535.906	-11.33507	2.24457	-9.66827	2.39042
1539.908	-11.30825	2.16666	-9.64207	2.35052
1543.909	-11.34786	2.15485	-9.63525	2.49476
1547.909	-11.42723	2.16106	-9.68894	2.37837
1551.867	-11.30548	2.19634	-9.66518	2.47412
1555.908	-11.37992	2.19839	-9.73094	2.52375
1559.909	-11.33306	2.14771	-9.71541	2.46607
1563.908	-11.31202	2.19534	-9.73979	2.59799
1567.868	-11.30386	2.23533	-9.69901	2.62626
1571.903	-11.30806	2.19089	-9.79416	2.53300
1575.909	-11.32027	2.15669	-9.68886	2.67665
1579.908	-11.35723	2.15809	-9.76208	2.69488
1583.867	-11.32538	2.18859	-9.63122	2.68732
1587.914	-11.36016	2.20643	-9.71787	2.69074
1591.909	-11.32870	2.17626	-9.62931	2.67467
1595.910	-11.33302	2.08679	-9.70323	2.72678
1599.868	-11.33908	2.10774	-9.56750	2.67976
1603.909	-11.31746	2.12797	-9.57327	2.67793
1607.909	-11.35244	2.13321	-9.47191	2.68408
1611.908	-11.35690	2.09909	-9.42025	2.62577
1615.869	-11.35849	2.10319	-9.42298	2.58001
1619.909	-11.31121	2.12892	-9.42163	2.61779
1623.911	-11.32054	2.09060	-9.32299	2.63375
1627.868	-11.26798	2.05946	-9.43716	2.52689
1631.910	-11.24010	2.11477	-9.48299	2.55717
1635.909	-11.33018	2.10221	-9.37230	2.58569
1639.910	-11.27615	2.17415	-9.40554	2.53810
1643.910	-11.20815	2.14487	-9.54344	2.55120
1647.806	-11.23356	2.20674	-9.39030	2.63713
1651.890	-11.37598	2.19689	-9.45049	2.61735
1655.910	-11.24046	2.17393	-9.60594	2.53339
1659.908	-11.22566	2.18244	-9.59604	2.61196
1663.805	-11.17374	2.15053	-9.44460	2.66631
1667.912	-11.18004	2.24702	-9.45573	2.65158
1671.910	-11.28433	2.21417	-9.44107	2.65321
1675.910	-11.31292	2.20908	-9.49859	2.68827
1679.809	-11.25583	2.22015	-9.57466	2.62542
1683.911	-11.26199	2.20894	-9.50431	2.62838
1687.910	-11.30037	2.24725	-9.60333	2.64581
1691.903	-11.29522	2.20408	-9.59189	2.61832
1695.807	-11.24936	2.22195	-9.57476	2.60371
1699.912	-11.22375	2.28143	-9.56023	2.66248
1703.910	-11.20882	2.26951	-9.61949	2.64742
1707.909	-11.25550	2.31415	-9.66554	2.59277
1711.804	-11.29954	2.26349	-9.63872	2.56293
1715.913	-11.23246	2.25781	-9.56183	2.52196
1719.910	-11.24874	2.25313	-9.62275	2.55625
1723.910	-11.29515	2.23878	-9.58188	2.55998
1727.809	-11.31588	2.23219	-9.59341	2.54698
1731.874	-11.29612	2.25023	-9.62104	2.53553
1735.884	-11.27283	2.25817	-9.67466	2.51471
1739.914	-11.28371	2.27658	-9.71199	2.52233
1743.913	-11.35539	2.27679	-9.69250	2.54687
1747.911	-11.32319	2.29836	-9.67278	2.55411
1751.869	-11.32330	2.23454	-9.65544	2.58365
1755.912	-11.30887	2.25658	-9.62784	2.52411
1759.912	-11.37851	2.28582	-9.55758	2.54581
1763.911	-11.33850	2.32983	-9.62268	2.34300
1767.900	-11.30369	2.32418	-9.65698	2.42660
1771.912	-11.28966	2.36621	-9.61395	2.54106
1775.810	-11.34817	2.36351	-9.62507	2.46123
1779.908	-11.36897	2.37691	-9.63168	2.48571
1783.913	-11.30042	2.35254	-9.63062	2.72551
1787.912	-11.33077	2.34580	-9.66197	2.80236
1791.809	-11.26903	2.25212	-9.74605	2.67604
1795.910	-11.31319	2.25691	-9.74964	2.47342
1799.913	-11.28596	2.31315	-9.71821	2.72531
1803.911	-11.24041	2.24886	-9.75685	2.60523
1807.809	-11.26173	2.16781	-9.73263	2.75369
1811.912	-11.22324	2.20317	-9.77045	2.77918
1815.869	-11.21131	2.15118	-9.81903	2.62796
1819.911	-11.20027	2.10627	-9.76317	2.75820
1823.785	-11.15929	2.11181	-9.57397	2.83010
1827.912	-11.20440	2.14200	-9.59337	2.84937
1831.913	-11.16153	2.15011	-9.74265	2.69745
1835.914	-11.17890	2.13012	-9.73668	2.66493
1839.915	-11.15002	2.16242	-9.60731	2.71421
1843.912	-11.10386	2.13376	-9.29024	2.79118
1847.911	-11.12964	2.15826	-9.62676	2.83010
1851.916	-11.12154	2.17938	-9.69648	2.87821
1855.810	-11.11368	2.19575	-9.61327	2.66994
1859.893	-11.15663	2.21858	-9.65387	2.81511
1863.912	-11.08003	2.22096	-9.40535	2.88519
1867.916	-11.11631	2.20544	-9.52630	2.90163
1871.806	-11.10933	2.21687	-9.42139	2.72395
1875.913	-11.13642	2.19098	-9.50552	2.73125
1879.915	-11.26183	2.20689	-9.43030	2.74337
1883.916	-11.20980	2.21196	-9.46138	2.88475
1887.746	-11.20254	2.16183	-9.46812	2.83479
1891.799	-11.20168	2.18175	-9.58808	2.84465
1895.788	-11.19913	2.15518	-9.40484	2.60715
1899.788	-11.28290	2.11621	-9.45916	2.75275
1903.747	-11.24743	2.13891	-9.45865	2.59882
1907.759	-11.30980	2.13061	-9.61327	2.62023
1911.786	-11.29913	2.15894	-9.45513	2.50542
1915.790	-11.26555	2.09618	-9.47797	2.61494
1919.783	-11.23977	2.12173	-9.35382	2.72083
1923.787	-11.21653	2.14230	-9.42781	2.62366
1927.789	-11.24044	2.14852	-9.42088	2.45798
1931.743	-11.24196	2.13128	-9.44105	2.47271
1935.747	-11.26684	2.11487	-9.54515	2.61753
1939.789	-11.25736	2.15745	-9.54737	2.55523
1943.789	-11.25349	2.17111	-9.50817	2.46959
1947.771	-11.25342	2.12540	-9.44199	2.43331
1951.744	-11.23091	2.09833	-9.43919	2.41838
1955.790	-11.24671	2.15262	-9.53477	2.55848
1959.788	-11.28364	2.22412	-9.54353	2.48340
1963.788	-11.29978	2.14862	-9.59402	2.46481
1967.775	-11.28927	2.19184	-9.63018	2.52915
1971.789	-11.27961	2.00131	-9.63008	2.64658
1975.788	-11.16304	2.08541	-9.58453	2.61517
1979.787	-11.23110	2.10729	-9.47377	2.64833
1983.777	-11.19301	2.11248	-9.58391	2.53143
1987.788	-11.24550	2.05244	-9.54259	2.54433
1991.783	-11.17617	2.17653	-9.54631	2.56795
1995.789	-11.21037	2.24922	-9.51889	2.47477
1999.784	-11.15217	1.92880	-9.49395	2.51666
2003.788	-11.12863	2.13370	-9.44102	2.52774
2007.783	-11.08835	2.26494	-9.41583	2.57954
2011.788	-11.14899	2.11027	-9.44479	2.48891
2015.776	-11.11908	2.18195	-9.41383	2.46329
2019.789	-11.18236	2.22247	-9.46838	2.51054
2023.795	-11.17909	2.29396	-9.49149	2.48108
2027.790	-11.19874	2.26180	-9.47575	2.51995
2031.749	-11.20457	2.20828	-9.49781	2.50748
2035.791	-11.18470	2.24404	-9.51261	2.49593
2039.790	-11.18578	2.15835	-9.51517	2.56726
2043.789	-11.16987	2.19530	-9.51186	2.58898
2047.787	-11.21606	2.27894	-9.52181	2.54128
2051.793	-11.24115	2.18989	-9.49031	2.55201
2055.789	-11.20799	2.12645	-9.56378	2.52610
2059.789	-11.20481	2.14453	-9.57997	2.56941
2063.819	-11.21295	2.14430	-9.53019	2.52850
2067.746	-11.13762	2.09107	-9.54961	2.49879
2071.746	-11.21969	2.12263	-9.56743	2.68438
2075.780	-11.18439	2.10417	-9.51969	2.57202
2079.760	-11.20070	2.15471	-9.39801	2.49093
2083.791	-11.29021	2.10408	-9.43605	2.56900
2087.791	-11.27672	2.14852	-9.49554	2.49331
2091.788	-11.31708	2.18605	-9.58306	2.50287
2095.782	-11.38077	2.19564	-9.56948	2.49373
2099.791	-11.46502	2.23231	-9.60410	2.53015
2103.796	-11.41268	2.27305	-9.65510	2.62142
2107.791	-11.37925	2.31478	-9.53296	2.56057
2111.813	-11.42096	2.34248	-9.56448	2.61044
2115.790	-11.50761	2.35961	-9.58210	2.60798
2119.791	-11.38578	2.32013	-9.62463	2.69859
2123.790	-11.45419	2.39633	-9.65462	2.67575
2127.786	-11.46118	2.34920	-9.68792	2.70271
2131.790	-11.40870	2.38898	-9.60941	2.79222
2135.749	-11.46313	2.42878	-9.50380	2.65199
2139.792	-11.37357	2.50881	-9.68515	2.76854
2143.811	-11.36644	2.40954	-9.61107	2.75595
2147.790	-11.32960	2.44938	-9.62473	2.76229
2151.792	-11.26245	2.38842	-9.64287	2.71876
2155.793	-11.25299	2.33831	-9.76399	2.86214
2159.814	-11.27791	2.35154	-9.68163	2.59394
2163.791	-11.38707	2.37951	-9.65570	2.85684
2167.792	-11.27512	2.40576	-9.62224	2.93187
2171.748	-11.33435	2.37435	-9.71343	2.76956
2175.785	-11.20144	2.34939	-9.74810	2.64482
2179.790	-11.26980	2.51695	-9.74053	2.77393
2183.792	-11.31168	2.26113	-9.72609	2.79987
2187.789	-11.32688	2.33014	-9.71775	2.87317
2191.757	-11.30519	2.28337	-9.69357	2.86091
2195.748	-11.32989	2.33012	-9.66738	2.88024
2199.788	-11.35873	2.32446	-9.64190	2.84283
2203.791	-11.31553	2.24514	-9.64077	2.92035
2207.779	-11.21962	2.31237	-9.66499	2.90282
2211.791	-11.24137	2.28818	-9.71544	2.87678
2215.790	-11.24373	2.27415	-9.76081	2.88545
2219.791	-11.24206	2.25323	-9.87054	2.91421
2223.749	-11.30121	2.30714	-9.80898	2.93046
2227.791	-11.27233	2.34102	-9.86941	2.93554
2231.797	-11.24201	2.38378	-9.96706	2.86134
2235.792	-11.26600	2.36214	-10.01089	2.95070
2239.777	-11.27813	2.31631	-9.96145	3.07421
2243.791	-11.32879	2.31079	-9.95666	2.99596
2247.795	-11.36138	2.50177	-9.94491	2.87430
2251.748	-11.38423	2.44096	-9.85091	2.95646
2255.789	-11.38833	2.33086	-9.80814	2.88360
2259.792	-11.38733	2.40983	-10.00687	2.89433
2263.789	-11.38039	2.50217	-9.87358	2.96253
2267.792	-11.39771	2.37465	-9.80980	2.97016
2271.752	-11.43355	2.35716	-9.76194	2.77502
2275.792	-11.41507	2.39459	-9.73670	2.94639
2279.778	-11.44196	2.48774	-9.66306	2.90635
2283.779	-11.44830	2.32691	-9.75013	2.89783
2287.751	-11.40975	2.36341	-9.66219	2.84884
2291.798	-11.42654	2.48139	-9.60902	2.92617
2295.791	-11.44900	2.30986	-9.76059	2.88247
2299.794	-11.46435	2.39862	-9.67483	2.87930
2303.752	-11.41070	2.35378	-9.63361	2.98250
2307.794	-11.44220	2.38692	-9.63315	3.08164
2311.792	-11.47109	2.52835	-9.66074	2.96552
2315.750	-11.46058	2.43189	-9.66742	2.89185
2319.753	-11.33485	2.36382	-9.72219	2.85097
2323.761	-10.94150	2.27591	-9.60700	2.76395
2327.793	-9.96800	2.17172	-8.50163	2.53725
2331.791	-9.35754	0.92000	-8.63231	2.38358
2335.783	-8.25951	0.40541	-7.49710	1.46397
2339.797	-7.05244	-0.15403	-6.40187	1.91025
2343.793	-6.01422	-0.42023	-6.35447	0.62588
2347.793	-5.80771	-0.85963	-5.08712	-0.05416
2351.782	-5.81666	-1.05716	-5.07789	-0.48467
2355.794	-6.17612	-0.92744	-4.84467	-0.20224
2359.794	-5.90551	-1.20071	-5.07183	-0.19792
2363.794	-5.89114	-1.29870	-5.03824	-0.23013
2367.769	-5.78256	-1.24570	-5.00337	-0.36923
2371.797	-5.95101	-1.33648	-4.88892	-0.33223
2375.795	-5.90016	-1.20426	-4.79854	-0.36905
2379.797	-5.90517	-1.29939	-4.73485	-0.43532
2383.792	-5.78362	-1.28643	-4.52266	-0.37499
2387.789	-5.77291	-1.32510	-4.66879	-0.57833
2391.795	-5.82911	-1.38014	-4.61127	-0.55148
2395.796	-5.81955	-1.35276	-4.52607	-0.51442
2399.793	-5.77907	-1.37781	-4.49960	-0.49509
2403.795	-5.79474	-1.32566	-4.44862	-0.52607
2407.794	-5.83409	-1.30620	-4.45930	-0.63367
2411.794	-5.89063	-1.34540	-4.41349	-0.60284
2415.791	-5.87806	-1.34073	-4.37663	-0.61580
2419.797	-5.92108	-1.31956	-4.40522	-0.52082
2423.795	-5.93898	-1.39515	-4.43902	-0.53688
2427.798	-5.99205	-1.30938	-4.51731	-0.61858
2431.790	-5.98989	-1.33117	-4.45804	-0.64685
2435.795	-5.96674	-1.33163	-4.50589	-0.60871
2439.797	-6.00322	-1.31837	-4.60925	-0.56340
2443.794	-6.00936	-1.34293	-4.53919	-0.54109
2447.794	-5.98614	-1.34440	-4.54597	-0.69591
2451.800	-5.95245	-1.29322	-4.49168	-0.55066
2455.749	-5.92805	-1.27836	-4.48712	-0.54073
2459.793	-5.93291	-1.25755	-4.57103	-0.69145
2463.792	-5.88559	-1.24659	-4.45170	-0.66803
2467.796	-5.89326	-1.27948	-4.53174	-0.83974
2471.796	-5.84623	-1.31052	-4.39538	-0.72602
2475.795	-5.88081	-1.36499	-4.37246	-0.60205
2479.791	-5.89159	-1.37875	-4.43322	-0.62086
2483.797	-5.86042	-1.38023	-4.39138	-0.77077
2487.792	-5.80155	-1.40293	-4.47903	-0.84835
2491.785	-5.88063	-1.43258	-4.58947	-0.90149
2495.792	-5.90497	-1.44901	-4.69810	-0.96807
2499.752	-5.94033	-1.44897	-4.72835	-0.94171
2503.795	-5.99581	-1.45656	-4.88636	-0.94776
2507.798	-5.95476	-1.48739	-4.93827	-0.91073
2511.791	-5.94298	-1.44400	-4.73379	-0.97760
2515.796	-5.88078	-1.48559	-4.81278	-0.96600
2519.796	-5.90246	-1.47926	-4.72164	-1.01013
2523.794	-5.95010	-1.49444	-4.63797	-0.97925
2527.788	-5.92540	-1.48690	-4.88532	-1.00944
2531.750	-5.97121	-1.52308	-4.97940	-0.99153
2535.794	-5.90809	-1.57559	-4.90535	-0.95226
2539.793	-5.87970	-1.58965	-4.85137	-0.93498
2543.789	-5.87120	-1.57244	-4.83570	-0.91409
2547.795	-5.88726	-1.58677	-4.60927	-0.91431
2551.798	-5.88574	-1.53668	-4.51539	-0.97493
2555.793	-5.89898	-1.50619	-4.70525	-0.94100
2559.793	-5.93026	-1.51438	-4.76211	-0.98276
2563.794	-5.91919	-1.53283	-4.80275	-0.97357
2567.795	-5.89377	-1.53080	-4.91403	-0.97118
2571.775	-5.91592	-1.54324	-4.89272	-0.97351
2575.689	-5.90622	-1.62734	-4.77249	-0.98933
2579.796	-5.92569	-1.50612	-4.67887	-1.01549
2583.799	-5.92677	-1.41480	-4.66494	-1.00179
2587.796	-5.89296	-1.39465	-4.66014	-0.93623
2591.690	-5.89242	-1.42882	-4.67816	-0.89699
2595.800	-5.88140	-1.48818	-4.66556	-0.95358
2599.799	-5.91948	-1.41173	-4.58405	-1.02493
2603.795	-5.93858	-1.41417	-4.55287	-0.96040
2607.694	-5.95552	-1.43898	-4.56382	-0.85746
2611.793	-5.96554	-1.48393	-4.40093	-0.73263
2615.789	-5.98832	-1.35464	-4.35627	-0.90606
2619.797	-5.98447	-1.36214	-4.43093	-0.99043
2623.794	-5.96699	-1.38987	-4.46527	-0.87605
2627.796	-5.98496	-1.38476	-4.47874	-0.74155
2631.798	-6.01321	-1.42522	-4.38403	-0.71343
2635.757	-6.03103	-1.42500	-4.26585	-0.83516
2639.695	-6.11520	-1.40823	-4.21027	-0.73435
2643.798	-6.05945	-1.40507	-4.20294	-0.77140
2647.798	-5.98616	-1.38515	-4.31504	-0.87522
2651.793	-5.91872	-1.38962	-4.40063	-0.97632
2655.754	-5.91064	-1.35881	-4.43998	-1.01080
2659.799	-6.11469	-1.36112	-4.43732	-1.04493
2663.798	-5.62756	-1.35042	-4.28900	-1.06877
2667.797	-5.08035	-1.39905	-3.71953	-1.04445
2671.666	-2.81867	-1.41480	-2.21358	-1.19026
2675.797	-1.94469	-1.41153	-1.62894	-1.33121
2679.796	-0.79258	-1.42720	-0.72786	-1.15216
2683.797	-0.01432	-1.47812	-0.02464	-1.41763
2687.667	0.16109	-1.57799	0.26654	-1.23716
2691.796	0.53823	-1.69198	1.22809	-1.26631
2695.787	1.09316	-1.73306	1.78984	-1.37608
2699.795	1.27624	-1.78397	2.14193	-1.33573
2703.758	0.97524	-1.84400	2.23338	-1.32781
2707.796	1.07245	-1.91569	2.23204	-1.31084
2711.797	0.88381	-2.00866	2.07333	-1.27230
2715.798	0.90361	-2.07838	2.18424	-1.32195
2719.666	0.97951	-2.05365	2.20780	-1.24735
2723.798	0.99737	-2.10281	2.18781	-1.30494
2727.798	1.16433	-2.16058	2.22176	-1.25702
2731.851	1.16056	-2.17619	2.18971	-1.25856
2735.754	1.17527	-2.19920	2.27543	-1.20711
2739.809	1.16307	-2.20938	2.29691	-1.14311
2743.796	1.21072	-2.25186	2.26802	-1.09237
2747.797	1.21695	-2.30114	2.22371	-1.09566
2751.658	1.11068	-2.29314	2.19722	-1.11928
2755.798	1.12278	-2.25724	2.23306	-1.17895
2759.800	1.13466	-2.19893	2.32907	-1.23019
2763.798	1.11395	-2.18493	2.51116	-1.09672
2767.758	1.02823	-2.29888	2.38137	-1.04113
2771.799	1.07200	-2.18776	2.40142	-1.08758
2775.798	1.02121	-2.15952	2.54155	-1.21295
2779.798	0.99673	-2.20000	2.77634	-1.17529
2783.661	0.92460	-2.14157	2.53261	-1.20505
2787.798	0.93376	-2.15908	2.59832	-1.36442
2791.798	0.93224	-2.23212	2.62021	-1.04402
2795.798	1.00660	-2.12861	2.50390	-1.23110
2799.758	1.00933	-2.14712	2.49954	-1.40608
2803.795	0.96713	-2.10834	2.43315	-1.05738
2807.797	1.00945	-2.16615	2.52996	-1.09633
2811.799	1.01992	-2.10694	2.54655	-1.23327
2815.659	1.07168	-2.12420	2.50504	-1.44064
2819.754	1.05473	-2.12429	2.26631	-1.30420
2823.791	1.08115	-2.09003	2.22012	-1.33147
2827.800	1.14518	-2.12529	2.23090	-1.24475
2831.697	1.14546	-2.11308	2.26274	-1.18136
2835.798	1.15989	-2.08377	2.29540	-1.18751
2839.796	1.12891	-2.14912	2.32526	-1.32395
2843.800	1.11040	-2.13700	2.28512	-1.28287
2847.708	1.14881	-2.17987	2.27293	-1.19892
2851.801	1.07942	-2.16518	2.21405	-1.11391
2855.800	1.07019	-2.18588	2.04706	-1.24703
2859.799	1.04449	-2.23298	2.09418	-1.25578
2863.698	1.10492	-2.23763	2.14513	-1.32151
2867.801	1.01692	-2.36467	2.22726	-1.47859
2871.799	0.98219	-2.61937	2.17242	-1.62083
2875.798	0.50813	-3.23802	1.39235	-3.37864
2879.699	0.57922	-4.08578	1.36710	-3.79154
2883.802	0.51729	-4.42894	1.24778	-4.09540
2887.676	-0.15908	-4.74844	1.04788	-4.17562
2891.798	-0.33434	-4.93287	0.96951	-4.22784
2895.698	-0.58044	-4.95409	0.96946	-4.05824
2899.801	-0.59952	-5.17924	0.15005	-4.43095
2903.786	-0.63538	-5.18309	0.16434	-4.60093
2907.790	-0.83498	-5.29798	0.31290	-4.61473
2911.697	-0.73062	-5.36765	0.47408	-4.70377
2915.804	-0.78079	-5.37559	0.60868	-4.80124
2919.800	-0.92879	-5.44315	0.59823	-4.92862
2923.802	-0.91564	-5.41825	0.44840	-5.15686
2927.696	-0.96477	-5.51326	0.03457	-5.01693
2931.756	-0.99330	-5.57650	-0.04080	-5.01323
2935.674	-1.03578	-5.61873	0.06132	-4.98687
2939.673	-1.03315	-5.62813	0.08220	-5.03828
2943.696	-1.00975	-5.63900	0.16382	-5.08114
2947.674	-1.00777	-5.60374	0.34933	-5.07629
2951.677	-1.01635	-5.57857	0.25145	-5.10431
2955.675	-1.01501	-5.51749	0.13191	-5.10095
2959.671	-1.06433	-5.55316	-0.04328	-5.07929
2963.675	-1.03449	-5.58482	-0.04966	-4.96549
2967.677	-1.06962	-5.54966	0.12588	-4.79489
2971.675	-1.04240	-5.55822	0.12826	-4.69405
2975.671	-0.90329	-5.52611	0.13330	-4.66458
2979.674	-0.87679	-5.49205	0.27912	-4.79719
2983.675	-1.00300	-5.48861	0.25081	-4.81035
2987.675	-0.99246	-5.45248	0.27739	-4.84394
2991.674	-1.05079	-5.44874	0.27845	-4.85623
2995.670	-1.05066	-5.42853	0.30900	-4.81294
2999.677	-1.01551	-5.35311	0.42370	-4.70842
3003.677	-0.98189	-5.34080	0.38385	-4.60818
3007.672	-0.93835	-5.37273	0.38926	-4.57758
3011.676	-0.96311	-5.36706	0.41323	-4.68167
3015.677	-0.97740	-5.41168	0.40241	-4.65665
3019.676	-0.95963	-5.38280	0.42475	-4.79511
3023.671	-1.06215	-5.39874	0.43760	-4.73008
3027.676	-1.02134	-5.38839	0.41425	-4.69747
3031.631	-1.08688	-5.39170	0.40122	-4.52915
3035.647	-1.06225	-5.38573	0.48401	-4.50668
3039.666	-0.95802	-5.42856	0.48048	-4.55896
3043.677	-0.97427	-5.42914	0.46629	-4.61210
3047.676	-0.95346	-5.47170	0.38449	-4.65584
3051.678	-1.01496	-5.46584	0.36635	-4.69095
3055.674	-1.02915	-5.46672	0.30456	-4.65724
3059.677	-1.03027	-5.43196	0.35749	-4.47154
3063.681	-1.06394	-5.41205	0.76183	-4.58899
3067.675	-1.01633	-5.44513	0.71030	-4.60479
3071.670	-1.00013	-5.48068	0.63675	-4.62140
3075.661	-0.93956	-5.49942	0.53185	-4.64565
3079.673	-0.93929	-5.45882	0.43299	-4.76157
3083.678	-1.01300	-5.42879	0.33987	-4.74465
3087.635	-0.95834	-5.42560	0.43222	-4.79829
3091.677	-0.94686	-5.40218	0.46602	-4.79432
3095.679	-0.83719	-5.36409	0.49815	-4.74497
3099.678	-0.78816	-5.36795	0.39785	-4.72635
3103.663	-0.76816	-5.36605	0.52314	-4.75112
3107.676	-0.78749	-5.32701	0.49957	-4.74687
3111.677	-0.82218	-5.32876	0.47237	-4.77221
3115.679	-0.92262	-5.30409	0.44604	-4.80675
3119.636	-0.99869	-5.27727	0.40792	-4.83352
3123.671	-0.92832	-5.30088	0.34811	-4.85699
3127.632	-0.97335	-5.35280	0.38606	-4.75227
3131.676	-1.06111	-5.35473	0.38328	-4.72952
3135.637	-0.93703	-5.37722	0.35903	-4.66978
3139.679	-0.89183	-5.37650	0.38333	-4.64572
3143.678	-0.81660	-5.36323	0.36097	-4.61599
3147.679	-0.91222	-5.36765	0.31476	-4.63670
3151.635	-0.95485	-5.42918	0.32536	-4.77375
3155.677	-1.06669	-5.38989	0.35916	-4.75088
3159.677	-1.00519	-5.37775	0.42882	-4.79785
3163.679	-0.90066	-5.35863	0.41882	-4.79778
3167.636	-0.96698	-5.35387	0.45783	-4.77256
3171.678	-0.92676	-5.32778	0.47800	-4.72502
3175.677	-0.92976	-5.30908	0.48537	-4.81319
3179.677	-1.03952	-5.28540	0.50498	-4.83765
3183.636	-1.10420	-5.26728	0.49602	-4.84964
3187.675	-1.09207	-5.28719	0.50510	-4.88748
3191.640	-1.12578	-5.27488	0.52798	-4.91987
3195.678	-1.16481	-5.24759	0.51932	-4.89129
3199.666	-1.13598	-5.23961	0.47458	-4.89152
3203.669	-1.14402	-5.20927	0.45572	-4.87812
3207.677	-1.22955	-5.20861	0.43996	-4.89754
3211.679	-1.24791	-5.23627	0.45137	-4.91941
3215.636	-1.21893	-5.27633	0.45150	-4.89911
3219.677	-1.13526	-5.33199	0.35898	-4.90013
3223.679	-1.04739	-5.31763	0.29597	-4.92404
3227.677	-1.05218	-5.33211	0.26905	-4.93653
3231.637	-1.10348	-5.30096	0.29429	-4.98192
3235.679	-1.25376	-5.33609	0.37070	-4.93303
3239.679	-1.03764	-5.40799	0.27969	-4.97744
3243.649	-1.00080	-5.40470	0.24093	-4.94310
3247.702	-0.97668	-5.45347	0.27178	-4.91647
3251.635	-0.86399	-5.48946	0.36722	-4.94302
3255.679	-0.48808	-5.45160	0.69652	-4.97647
3259.680	2.53451	-5.49707	2.04827	-4.99913
3263.675	2.47118	-5.56381	3.32936	-4.99241
3267.702	4.27074	-5.71480	5.15391	-4.97224
3271.677	5.53542	-5.74831	5.53193	-4.95480
3275.679	5.74849	-5.89365	6.11074	-4.81810
3279.702	7.58290	-5.84944	7.75690	-4.89615
3283.667	8.09309	-5.86839	8.45861	-4.78267
3287.677	9.47155	-5.95076	9.08629	-4.75796
3291.679	9.70287	-5.90132	9.70553	-4.74228
3295.639	9.88473	-5.96384	10.19928	-4.64689
3299.685	10.22252	-5.96424	10.45286	-4.77534
3303.680	10.24985	-5.92014	10.52981	-4.73029
3307.679	10.27924	-5.93606	10.47648	-4.65421
3311.675	10.19322	-5.90224	10.56558	-4.65698
3315.636	10.27982	-5.87519	10.73883	-4.57696
3319.637	10.07755	-5.89302	10.87704	-4.66384
3323.681	10.22238	-5.88631	10.90554	-4.58437
3327.679	10.19238	-5.86864	11.06165	-4.63379
3331.679	10.31583	-5.81396	11.19062	-4.74589
3335.682	10.40370	-5.81118	11.12933	-4.76030
3339.677	10.33514	-5.81951	10.99283	-4.43670
3343.677	10.38862	-5.83933	11.01613	-4.35461
3347.680	10.32971	-5.84739	10.98444	-4.55913
3351.683	10.27206	-5.83925	11.00336	-4.68280
3355.680	10.28304	-5.86013	11.11255	-4.65568
3359.676	10.32510	-5.81735	11.17044	-4.58575
3363.680	10.33944	-5.77702	11.30283	-4.66335
3367.681	10.30199	-5.74680	11.19354	-4.43088
3371.681	10.33248	-5.72908	11.16686	-4.41975
3375.670	10.25442	-5.76821	11.01495	-4.53983
3379.680	10.15894	-5.77799	11.01768	-4.56982
3383.644	10.17800	-5.74523	11.14703	-4.61693
3387.679	10.13614	-5.73265	11.16316	-4.67531
3391.670	10.15771	-5.76740	11.19005	-4.58874
3395.681	10.16519	-5.73453	11.22716	-4.56575
3399.685	10.11445	-5.67534	11.17185	-4.57897
3403.683	10.10045	-5.68407	11.11602	-4.61047
3407.679	10.03640	-5.68587	11.15162	-4.62454
3411.665	10.01753	-5.74856	11.13693	-4.75468
3415.684	9.95322	-5.72790	11.08746	-4.70593
3419.680	10.01537	-5.69215	11.14875	-4.66770
3423.682	10.06297	-5.67365	11.17985	-4.70309
3427.680	10.07858	-5.63573	11.20431	-4.68964
3431.636	10.09285	-5.64820	11.27378	-4.67331
3435.681	10.05223	-5.57369	11.38998	-4.70339
3439.678	10.09217	-5.60901	11.37939	-4.66177
3443.676	10.06347	-5.59138	11.36479	-4.58257
3447.682	10.08317	-5.58568	11.34349	-4.71061
3451.682	10.02892	-5.58317	11.34165	-4.80760
3455.679	10.01963	-5.57218	11.49686	-4.72196
3459.681	10.15735	-5.58680	11.42320	-4.61358
3463.681	9.99602	-5.56194	11.44373	-4.64453
3467.683	10.03602	-5.51969	11.48041	-4.63530
3471.677	10.10047	-5.59946	11.45896	-4.74591
3475.681	10.02627	-5.54919	11.43796	-4.53936
3479.682	10.06999	-5.52445	11.34611	-4.63400
3483.684	10.13179	-5.46420	11.34227	-4.77033
3487.671	10.07916	-5.52204	11.24805	-4.72549
3491.682	10.18142	-5.50012	11.18305	-4.77179
3495.680	10.17269	-5.45369	11.26775	-4.70602
3499.684	10.23094	-5.37733	11.08713	-4.66890
3503.674	10.13446	-5.40748	11.23444	-4.73764
3507.683	10.26530	-5.39439	10.99633	-4.72439
3511.681	10.19185	-5.39711	10.96502	-4.70989
3515.646	10.18784	-5.39310	10.76975	-4.79849
3519.679	10.10437	-5.39647	11.06150	-4.69557
3523.679	9.88523	-5.40719	10.58601	-4.72659
3527.682	9.35737	-5.42369	9.96913	-4.59933
3531.641	6.85221	-5.54793	7.05880	-4.85996
3535.672	5.94271	-5.91341	5.73023	-5.09709
3539.680	4.33737	-6.48494	5.36472	-5.43978
3543.679	3.79761	-6.87755	3.68794	-5.85701
3547.682	2.57813	-7.04073	3.37779	-6.32704
3551.641	1.45857	-7.05057	2.10332	-6.51041
3555.684	-0.13111	-7.17060	1.43496	-6.55753
3559.684	-0.48550	-7.00676	0.47354	-6.76480
3563.684	-1.14059	-7.21326	-0.38407	-6.68469
3567.641	-1.92495	-7.24638	-0.45401	-7.14107
3571.639	-1.89084	-7.35501	-1.52342	-7.20440
3575.660	-3.33579	-7.42595	-2.01030	-7.21233
3579.681	-3.65631	-7.54144	-2.21402	-7.49681
3583.661	-3.90177	-7.68817	-2.37268	-7.61510
3587.686	-3.82805	-7.78971	-2.20530	-7.68550
3591.680	-3.76055	-7.80270	-2.10508	-7.76241
3595.687	-3.65255	-7.82270	-2.12634	-7.69489
3599.681	-3.64526	-7.79414	-2.26633	-7.66274
3603.684	-3.61241	-7.86230	-2.06951	-7.76378
3607.681	-3.64276	-7.97016	-2.12307	-7.78361
3611.683	-3.74407	-8.04281	-2.17985	-7.79665
3615.671	-3.71641	-8.05065	-2.23038	-7.82237
3619.685	-3.75941	-8.05089	-2.35813	-7.83316
3623.681	-3.72617	-8.04920	-2.32642	-7.81174
3627.639	-3.64291	-8.02898	-2.29225	-7.80767
3631.580	-3.58848	-8.00577	-2.29292	-7.82591
3635.685	-3.58467	-8.01125	-2.37188	-7.79231
3639.683	-3.65769	-7.98715	-2.44447	-7.77309
3643.683	-3.63651	-7.99606	-2.55658	-7.80280
3647.688	-3.69790	-8.01388	-2.59284	-7.82032
3651.682	-3.76008	-7.99195	-2.50251	-7.88332
3655.684	-3.73962	-7.96966	-2.50107	-7.88898
3659.654	-3.76804	-7.94764	-2.42696	-7.87156
3663.672	-3.82250	-7.95811	-2.45698	-7.87102
3667.686	-3.81565	-7.94390	-2.46308	-7.85123
3671.684	-3.85857	-7.94903	-2.43694	-7.84365
3675.684	-3.89715	-7.95331	-2.44551	-7.75373
3679.581	-3.92727	-7.94323	-2.46256	-7.71897
3683.686	-3.95483	-7.92994	-2.32221	-7.69052
3687.685	-3.97620	-7.92263	-2.29342	-7.64882
3691.686	-4.00983	-7.93044	-2.26886	-7.63851
3695.579	-4.00287	-7.90623	-2.28308	-7.64629
3699.662	-4.02021	-7.91329	-2.31445	-7.66710
3703.678	-4.00512	-7.91166	-2.25875	-7.70946
3707.683	-3.94831	-7.85253	-2.22203	-7.79990
3711.580	-3.92344	-7.84619	-2.14181	-7.84206
3715.683	-3.90012	-7.84512	-2.09036	-7.92798
3719.686	-3.83561	-7.83882	-2.07174	-7.90817
3723.684	-3.78032	-7.82925	-2.03243	-7.97029
3727.580	-3.77745	-7.84988	-2.06195	-7.97299
3731.639	-3.71876	-7.85038	-1.97431	-8.02923
3735.684	-3.68305	-7.83755	-1.97049	-8.04834
3739.687	-3.64724	-7.83913	-1.94716	-8.05551
3743.689	-3.62936	-7.84806	-1.96390	-8.03155
3747.685	-3.61789	-7.82601	-1.99590	-7.97429
3751.642	-3.71214	-7.84289	-2.01489	-7.89722
3755.685	-3.66768	-7.82970	-2.05794	-7.85946
3759.590	-3.69289	-7.83045	-2.11378	-7.75455
3763.685	-3.67215	-7.80678	-2.27079	-7.66672
3767.677	-3.66659	-7.76827	-2.47353	-7.69002
3771.682	-3.67450	-7.77570	-2.29624	-7.71321
3775.581	-3.62781	-7.77033	-2.27312	-7.70953
3779.685	-3.77975	-7.81713	-2.40761	-7.68815
3783.687	-3.87749	-7.84161	-2.48240	-7.65939
3787.686	-4.35847	-7.79203	-4.37993	-7.62047
3791.579	-6.80267	-7.62024	-6.13169	-7.63833
3795.687	-6.80852	-7.57443	-6.91334	-7.54999
3799.689	-8.24650	-7.51370	-7.74467	-7.58495
3803.686	-8.69860	-7.43337	-8.23260	-7.62573
3807.583	-9.62777	-7.29674	-9.51563	-7.58175
3811.685	-10.26033	-6.76961	-10.28376	-7.57625
3815.641	-10.84896	-6.73825	-11.27639	-7.47805
3819.642	-11.36663	-6.39560	-11.22193	-7.43202
3823.581	-11.66313	-6.21812	-11.31720	-7.34418
3827.675	-11.77146	-6.52005	-11.37865	-7.38534
3831.687	-11.76530	-6.18725	-11.25299	-7.30486
3835.686	-11.65485	-6.04137	-11.20001	-7.28383
3839.584	-11.66494	-5.97544	-11.22265	-7.25015
3843.688	-11.79846	-5.88717	-11.24726	-7.23615
3847.686	-11.84682	-5.86544	-11.28932	-7.19618
3851.685	-11.90281	-5.83763	-11.30197	-7.15919
3855.582	-12.01544	-5.84287	-11.25908	-7.09848
3859.687	-12.09555	-5.85611	-11.26264	-7.09288
3863.688	-12.04331	-5.84227	-11.20885	-7.04800
3867.689	-12.03142	-5.85765	-11.17398	-7.02134
3871.596	-12.10260	-5.86303	-11.16299	-6.96452
3875.687	-12.09572	-5.81992	-11.17159	-6.98694
3879.686	-11.95151	-5.82449	-11.22494	-6.98470
3883.691	-12.07189	-5.83854	-11.17457	-6.94505
3887.583	-12.11071	-6.02115	-11.21255	-6.96677
3891.688	-12.00417	-6.03773	-11.08278	-6.90151
3895.688	-12.00243	-5.96991	-10.91365	-6.93494
3899.687	-12.05017	-6.01688	-10.95184	-6.94626
3903.585	-11.98116	-6.01392	-10.97411	-6.91522
3907.679	-11.89400	-5.96519	-11.02782	-6.88794
3911.675	-11.85459	-6.03058	-10.89705	-6.90442
3915.685	-11.75106	-5.96852	-10.89049	-6.92960
3919.583	-11.76345	-6.01048	-10.83793	-6.89242
3923.688	-11.87439	-6.00249	-10.78182	-6.88932
3927.683	-11.73973	-6.00435	-10.80939	-6.88913
3931.642	-11.77339	-6.05059	-10.79425	-6.85757
3935.583	-11.78038	-5.98702	-10.72728	-6.89886
3939.687	-11.69619	-5.97557	-10.81846	-6.87692
3943.643	-11.86270	-5.96190	-10.85215	-6.86990
3947.690	-11.74154	-5.97366	-10.83141	-6.82208
3951.548	-11.81895	-5.92704	-10.77941	-6.83004
3955.686	-11.82404	-5.90015	-10.77176	-6.76968
3959.685	-11.84587	-5.99228	-10.80951	-6.74445
3963.685	-11.83027	-5.98153	-10.76578	-6.67273
3967.547	-11.83068	-5.94168	-10.67744	-6.64255
3971.562	-11.85773	-5.92962	-10.70989	-6.61780
3975.560	-11.81505	-5.89293	-10.61804	-6.52922
3979.562	-11.86524	-6.05814	-10.71765	-6.56954
3983.549	-11.86407	-6.09039	-10.69417	-6.50697
3987.556	-11.79356	-5.98620	-10.64767	-6.48448
3991.561	-11.77910	-5.89812	-10.54104	-6.50232
3995.549	-11.70257	-5.94207	-10.49471	-6.49393
3999.647	-11.67398	-5.90796	-10.56025	-6.47086
4003.567	-11.59010	-5.85048	-10.58073	-6.41216
4007.538	-11.65361	-5.81849	-10.59126	-6.41937
4011.563	-11.64720	-5.82539	-10.60188	-6.44544
4015.523	-11.70999	-5.78736	-10.64887	-6.41759
4019.562	-11.84770	-5.79875	-10.64978	-6.51915
4023.563	-11.92740	-5.83468	-10.61562	-6.48841
4027.562	-11.91978	-5.79665	-10.51611	-6.47445
4031.520	-11.83341	-5.79862	-10.61303	-6.43295
4035.560	-11.76642	-5.83422	-10.66222	-6.39686
4039.564	-11.71087	-5.81735	-10.73308	-6.39755
4043.562	-11.88489	-5.83710	-10.68976	-6.46105
4047.559	-11.99540	-5.83774	-10.71264	-6.51750
4051.563	-12.01400	-5.86132	-10.72364	-6.54744
4055.564	-12.02705	-5.84832	-10.67090	-6.54625
4059.560	-12.02041	-5.91654	-10.67083	-6.51984
4063.560	-11.99543	-5.90011	-10.68940	-6.45790
4067.517	-11.89117	-5.89955	-10.75497	-6.45338
4071.565	-11.86602	-5.87603	-10.77105	-6.47427
4075.565	-12.00222	-5.87707	-10.79859	-6.52438
4079.555	-12.10032	-5.93196	-10.80321	-6.55579
4083.564	-12.01568	-5.95670	-10.72762	-6.56463
4087.567	-12.09420	-6.00304	-10.73727	-6.53163
4091.564	-11.85782	-6.01232	-10.82157	-6.49770
4095.555	-11.86762	-6.05271	-10.73643	-6.48470
4099.565	-11.83096	-6.01236	-10.79691	-6.49124
4103.569	-11.88066	-5.97406	-10.78875	-6.46811
4107.563	-11.82033	-6.01163	-10.78405	-6.49614
4111.554	-11.83008	-6.06945	-10.74144	-6.47083
4115.564	-11.81960	-6.08171	-10.74415	-6.42967
4119.569	-11.77253	-6.09953	-10.75572	-6.37400
4123.559	-11.78148	-6.08425	-10.75150	-6.35610
4127.554	-11.82611	-6.11889	-10.79832	-6.36722
4131.562	-11.77175	-6.13632	-10.77737	-6.39599
4135.563	-11.73302	-6.13155	-10.74477	-6.40547
4139.563	-11.72177	-6.10452	-10.77665	-6.38672
4143.588	-11.71577	-6.12688	-10.74058	-6.30455
4147.566	-11.67087	-6.11490	-10.72153	-6.25932
4151.561	-11.66844	-5.96641	-10.67430	-6.13679
4155.568	-11.52491	-5.03558	-9.32250	-4.34093
4159.558	-10.79995	-3.35910	-8.99048	-3.61903
4163.541	-9.71761	-2.70887	-8.30425	-2.33303
4167.567	-9.02210	-2.10780	-7.51669	-1.17555
4171.565	-8.55962	-1.66424	-7.15357	-0.99976
4175.562	-8.66794	-1.42292	-7.13292	-0.96059
4179.563	-8.33717	-1.02454	-7.11511	-0.74788
4183.568	-8.30981	-1.05786	-7.07945	-0.72089
4187.561	-8.27477	-1.11351	-7.16007	-0.74583
4191.551	-8.27168	-1.04223	-7.16219	-0.67138
4195.525	-8.39967	-1.02806	-7.14079	-0.51817
4199.568	-8.25231	-0.89151	-7.07503	-0.44086
4203.555	-8.20756	-0.83604	-7.05953	-0.44724
4207.562	-8.21327	-0.88402	-7.04582	-0.37396
4211.565	-8.15813	-0.83292	-7.00081	-0.46249
4215.568	-8.13916	-0.75253	-6.97299	-0.45359
4219.564	-8.07416	-0.74852	-6.88220	-0.40350
4223.524	-8.11515	-0.78920	-6.80599	-0.41661
4227.565	-8.11500	-0.81788	-6.65500	-0.35613
4231.520	-8.07222	-0.77824	-6.68673	-0.32851
4235.562	-8.06280	-0.78347	-6.61717	-0.34011
4239.523	-7.98544	-0.81576	-6.66687	-0.33124
4243.566	-7.97768	-0.82748	-6.79219	-0.35588
4247.529	-7.96132	-0.84636	-6.81067	-0.37516
4251.522	-7.97240	-0.81701	-6.84321	-0.36759
4255.588	-8.00523	-0.81921	-6.95054	-0.34025
4259.566	-8.04268	-0.84514	-6.90136	-0.34739
4263.564	-8.05424	-0.88597	-6.96873	-0.36147
4267.568	-8.03117	-0.83256	-7.02621	-0.37336
4271.565	-8.03550	-0.79735	-7.09768	-0.44402
4275.566	-8.05433	-0.82039	-7.17304	-0.47119
4279.564	-8.08329	-0.83187	-7.20182	-0.49685
4283.522	-8.12746	-0.78997	-7.25416	-0.54051
4287.588	-8.12464	-0.77285	-7.25062	-0.57338
4291.559	-8.19859	-0.76518	-7.26000	-0.57383
4295.566	-8.21240	-0.77396	-7.26078	-0.59660
4299.569	-8.25802	-0.80065	-7.23093	-0.60019
4303.528	-8.23542	-0.82415	-7.21073	-0.60404
4307.567	-8.24679	-0.81960	-7.18867	-0.59456
4311.567	-8.22808	-0.83479	-7.13817	-0.61950
4315.567	-8.21607	-0.82822	-7.08849	-0.63377
4319.561	-8.21726	-0.83346	-7.02440	-0.58927
4323.567	-8.20787	-0.79935	-6.89752	-0.53898
4327.564	-8.19584	-0.79551	-6.87734	-0.51333
4331.567	-8.25039	-0.78183	-6.81082	-0.51266
4335.525	-8.19358	-0.80850	-6.77431	-0.48050
4339.565	-8.18711	-0.82467	-6.73253	-0.42667
4343.566	-8.17383	-0.79501	-6.81911	-0.40387
4347.564	-8.44914	-0.70119	-8.02088	-0.35024
4351.525	-9.46804	-0.19481	-8.63927	0.08311
4355.566	-10.33478	1.17019	-9.53880	1.81528
4359.565	-10.46210	1.98175	-9.42322	2.54441
4363.569	-10.67265	2.37627	-9.50387	2.76352
4367.525	-10.77854	2.51445	-9.45544	2.76379
4371.543	-10.69973	2.32526	-9.19916	2.68664
4375.567	-10.76951	2.33978	-9.08145	2.55053
4379.568	-10.72263	2.12047	-9.06639	2.51811
4383.527	-10.85260	2.22469	-9.38301	2.57189
4387.565	-10.89918	2.15049	-9.44076	2.55710
4391.568	-11.02340	2.41103	-9.52635	2.61672
4395.569	-11.11444	2.33424	-9.60379	2.65568
4399.557	-11.17763	2.25466	-9.60760	2.63749
4403.569	-11.15972	2.16371	-9.64482	2.57476
4407.569	-11.17763	2.30560	-9.67907	2.53228
4411.553	-11.27412	2.16755	-9.69627	2.45888
4415.526	-11.23850	2.20522	-9.74911	2.46311
4419.567	-11.25204	2.14335	-9.81983	2.44900
4423.570	-11.31662	2.20508	-9.86722	2.45107
4427.568	-11.33719	2.22886	-9.90089	2.43880
4431.525	-11.35668	2.28794	-9.95078	2.48389
4435.567	-11.29281	2.25456	-9.95791	2.51652
4439.563	-11.23671	2.26206	-9.94838	2.50819
4443.573	-11.25371	2.22710	-9.92278	2.55717
4447.563	-11.20892	2.23404	-9.90913	2.69158
4451.568	-11.19067	2.25480	-9.91950	2.58668
4455.533	-11.17324	2.24610	-9.92239	2.63009
4459.566	-11.22313	2.20373	-9.94727	2.56011
4463.565	-11.17935	2.24839	-9.91505	2.57736
4467.568	-11.08163	2.28265	-9.92227	2.65894
4471.568	-11.11645	2.24357	-9.87160	2.73356
4475.568	-11.08744	2.23934	-9.85370	2.68688
4479.566	-11.09105	2.20885	-9.82431	2.70378
4483.570	-11.11705	2.21691	-9.82942	2.65148
4487.568	-11.08075	2.27194	-9.84231	2.65758
4491.569	-11.13315	2.25062	-9.83067	2.61027
4495.565	-11.11222	2.22929	-9.84361	2.71398
4499.524	-11.16987	2.30744	-9.78587	2.66810
4503.569	-11.17708	2.29996	-9.77271	2.69142
4507.571	-11.20440	2.25323	-9.76686	2.74696
4511.565	-11.17890	2.20100	-9.80944	2.71734
4515.572	-11.20304	2.28294	-9.83542	2.71539
4519.569	-11.16903	2.29442	-9.78406	2.72529
4523.567	-11.13661	2.33372	-9.88189	2.67553
4527.563	-11.18346	2.30066	-9.89906	2.62278
4531.523	-11.26956	2.23925	-9.84361	2.58921
4535.567	-11.16977	2.20971	-9.82657	2.63748
4539.562	-11.21699	2.18796	-9.83096	2.59617
4543.566	-11.22432	2.13562	-9.84606	2.53385
4547.565	-11.26214	2.09930	-9.94127	2.46701
4551.571	-11.28684	2.04358	-9.95991	2.34456
4555.565	-11.30378	2.06427	-9.96270	2.29382
4559.569	-11.23007	2.02609	-9.93660	2.31604
4563.525	-11.37462	2.04914	-9.91204	2.31265
4567.524	-11.50656	2.01956	-9.91112	2.28012
4571.571	-11.50341	2.00912	-9.93682	2.30624
4575.561	-11.49881	2.02538	-9.93771	2.26723
4579.568	-11.46137	2.05235	-9.90072	2.21364
4583.568	-11.41135	2.11423	-9.99460	2.11563
4587.572	-11.53360	1.99755	-10.04287	2.12851
4591.565	-11.54301	1.99316	-10.04244	2.13054
4595.570	-11.45097	2.02986	-10.00851	2.14965
4599.569	-11.46909	2.01092	-10.02235	2.18941
4603.571	-11.53467	2.08759	-10.06337	2.19468
4607.567	-11.52793	2.03431	-10.06595	2.24697
4611.569	-11.53482	2.02894	-10.08820	2.24388
4615.572	-11.50158	2.05172	-10.11235	2.26284
4619.560	-11.48203	2.12509	-10.11233	2.24427
4623.529	-11.48203	2.06857	-10.13842	2.28261
4627.525	-11.50494	1.99048	-10.14424	2.31614
4631.569	-11.46201	2.03501	-10.08859	2.34107
4635.570	-11.46954	2.08756	-10.08652	2.34770
4639.570	-11.47996	2.10932	-10.08435	2.37769
4643.570	-11.46597	2.11356	-10.06511	2.40467
4647.569	-11.47086	2.09392	-10.04689	2.43302
4651.571	-11.50727	2.09049	-10.01024	2.43009
4655.481	-11.53184	2.07314	-9.96867	2.45893
4659.570	-11.53248	2.03199	-9.91194	2.46845
4663.569	-11.56333	2.00347	-9.90657	2.49605
4667.572	-11.57241	1.98711	-9.85245	2.52419
4671.464	-11.56438	2.00151	-9.82498	2.51148
4675.571	-11.57481	2.00358	-9.81949	2.53058
4679.570	-11.55092	1.98362	-9.79534	2.56302
4683.572	-11.55154	1.96571	-9.75683	2.56918
4687.466	-11.54783	1.95879	-9.77924	2.58306
4691.573	-11.53105	1.92393	-9.78510	2.57862
4695.569	-11.47953	1.93163	-9.81713	2.58822
4699.561	-11.45512	1.89336	-9.85828	2.56891
4703.530	-11.43190	1.91361	-9.89335	2.56756
4707.573	-11.40617	1.88841	-9.95555	2.52797
4711.572	-11.39766	1.90486	-10.00942	2.48195
4715.573	-11.39425	1.87629	-10.06017	2.46203
4719.469	-11.41326	1.83393	-10.07148	2.42885
4723.573	-11.43626	1.80244	-10.13006	2.34563
4727.572	-11.45293	1.77143	-10.15776	2.31661
4731.526	-11.45724	1.77131	-10.21272	2.23676
4735.468	-11.47734	1.80629	-10.27907	2.19635
4739.571	-11.50946	1.78748	-10.29685	2.14020
4743.570	-11.54628	1.79772	-10.38538	2.08802
4747.564	-11.59946	1.78634	-10.32940	2.05086
4751.440	-11.63204	1.79452	-10.30809	2.02173
4755.571	-11.60370	1.81231	-10.32224	1.99868
4759.577	-11.58827	1.83928	-10.30629	1.98890
4763.570	-11.59615	1.85049	-10.34465	1.97571
4767.440	-11.57043	1.90005	-10.36067	1.97395
4771.568	-11.52429	1.93312	-10.35404	1.98271
4775.572	-11.50191	1.94631	-10.33171	1.99325
4779.573	-11.47040	1.95991	-10.31002	2.00235
4783.440	-11.47269	1.99475	-10.30761	2.00891
4787.547	-11.48180	2.03409	-10.26518	2.03990
4791.571	-11.43357	2.08060	-10.25240	2.03805
4795.573	-11.45634	2.12900	-10.20245	2.05286
4799.440	-11.46804	2.15744	-10.17776	2.05790
4803.572	-11.43903	2.15484	-10.16555	2.06873
4807.574	-11.43820	2.19502	-10.15562	2.07314
4811.573	-11.42906	2.17834	-10.14347	2.07881
4815.436	-11.35215	2.14981	-10.14081	2.06891
4819.573	-11.34714	2.14865	-10.13097	2.08945
4823.574	-11.35217	2.15803	-10.15526	2.09806
4827.571	-11.36911	2.16238	-10.14886	2.14847
4831.435	-11.30803	2.15732	-10.20291	2.17648
4835.572	-11.32431	2.15863	-10.17396	2.27442
4839.573	-11.27190	2.12429	-10.22070	2.33849
4843.531	-11.24535	2.09984	-10.24543	2.35852
4847.532	-11.26612	2.07958	-10.22589	2.35305
4851.573	-11.24418	2.06384	-10.24432	2.41026
4855.573	-11.25614	2.04010	-10.24021	2.39022
4859.574	-11.26994	2.02929	-10.23421	2.39720
4863.449	-11.27615	1.98030	-10.23598	2.38425
4867.571	-11.27152	1.92790	-10.19257	2.38558
4871.536	-11.27054	1.87353	-10.13304	2.30182
4875.574	-11.27834	1.97493	-10.10908	2.26066
4879.530	-11.24521	1.99975	-10.02350	2.20756
4883.538	-11.22143	2.00629	-9.96660	2.19340
4887.573	-11.20591	1.98317	-9.93540	2.17878
4891.571	-11.17868	1.98445	-9.94614	2.18545
4895.473	-11.19533	2.01149	-9.94912	2.16131
4899.575	-11.23451	2.07944	-9.91753	2.17550
4903.575	-11.43569	2.13344	-9.89325	2.18084
4907.576	-11.56252	2.11456	-9.88658	2.12569
4911.473	-11.53012	2.12045	-9.98904	2.15537
4915.569	-11.57558	2.14084	-10.07649	2.18169
4919.573	-11.62371	2.09570	-10.14362	2.16919
4923.577	-11.55068	2.08805	-10.21551	2.18260
4927.468	-11.62897	2.08518	-10.28352	2.13198
4931.529	-11.66463	2.12723	-10.31326	2.17324
4935.572	-11.69493	2.16534	-10.35090	2.18071
4939.560	-11.71147	2.20571	-10.41157	2.19964
4943.467	-11.70476	2.19452	-10.36065	2.19493
4947.573	-11.69309	2.16803	-10.38821	2.17618
4951.576	-11.67751	2.20161	-10.35248	2.20975
4955.576	-11.67544	2.23576	-10.33798	2.22650
4959.468	-11.67310	2.26530	-10.29125	2.21836
4963.574	-11.68024	2.28920	-10.22135	2.20417
4967.575	-11.70523	2.30085	-10.20567	2.24511
4971.572	-11.72503	2.30717	-10.13229	2.26997
4975.471	-11.73290	2.29865	-10.11466	2.29511
4979.573	-11.74730	2.30249	-10.05859	2.30323
4983.530	-11.76592	2.30724	-9.98579	2.29326
4987.578	-11.77969	2.33166	-9.99631	2.34332
4991.468	-11.76128	2.36076	-9.95406	2.38387
4995.544	-11.74556	2.38040	-9.99310	2.39155
4999.531	-11.73307	2.39595	-10.02798	2.42351
5003.443	-11.71499	2.37923	-10.03715	2.41411
5007.580	-11.67227	2.37100	-10.04521	2.43195
5011.449	-11.63670	2.33434	-10.07925	2.42735
5015.449	-11.58568	2.27012	-10.07396	2.42324
5019.450	-11.51473	1.91191	-9.95935	2.37508
5023.408	-11.42756	1.97154	-9.90356	2.39281
5027.450	-11.36348	1.60755	-9.82057	2.39161
5031.404	-11.31865	1.60303	-9.66634	2.32815
5035.450	-11.28316	1.73139	-9.68040	2.30797
5039.448	-11.28581	1.65907	-9.51894	2.28732
5043.415	-11.25898	1.61756	-9.46331	2.23699
5047.451	-11.24232	1.63591	-9.44452	2.22232
5051.451	-11.24741	1.60756	-9.48647	2.24241
5055.447	-11.22659	1.55819	-9.39267	2.24929
5059.451	-11.22126	1.54723	-9.37136	2.23361
5063.449	-11.21157	1.63200	-9.31320	2.23592
5067.405	-11.23807	1.69448	-9.27370	2.22493
5071.449	-11.22845	1.74726	-9.27095	2.23487
5075.450	-11.21116	1.80861	-9.28697	2.27487
5079.451	-11.24206	1.81452	-9.32519	2.29632
5083.431	-11.23206	1.87909	-9.33142	2.34712
5087.408	-11.24585	1.89626	-9.45204	2.36527
5091.445	-11.22644	1.91041	-9.49475	2.38085
5095.449	-11.19390	1.92879	-9.55077	2.29756
5099.450	-11.19614	1.97477	-9.57054	2.28252
5103.410	-11.18647	1.95287	-9.53827	2.24237
5107.447	-11.17656	1.92708	-9.56320	2.25153
5111.452	-11.18258	1.80986	-9.60471	2.18963
5115.451	-11.18413	1.78795	-9.66740	2.07491
5119.436	-11.17651	1.68145	-9.68115	1.96564
5123.450	-11.09712	1.65142	-9.68749	1.88376
5127.453	-10.99707	1.54530	-9.70188	1.80210
5131.407	-11.01579	1.66814	-9.64465	1.72925
5135.449	-10.95634	1.75700	-9.68271	1.77347
5139.448	-11.00484	1.78781	-9.65228	1.81396
5143.453	-10.96932	1.82421	-9.63382	1.78127
5147.451	-10.94225	1.89898	-9.61059	1.78704
5151.443	-10.92966	1.96216	-9.58058	1.77198
5155.454	-10.91648	1.95245	-9.56846	1.83446
5159.454	-10.90578	1.99609	-9.53089	1.89378
5163.451	-10.96162	1.97306	-9.51264	1.96392
5167.441	-10.97707	2.00568	-9.46464	2.02650
5171.452	-11.02655	2.05474	-9.45764	2.11232
5175.452	-11.05151	2.00948	-9.44774	2.15487
5179.451	-11.05758	1.99444	-9.40984	2.23346
5183.453	-11.05689	1.93437	-9.41291	2.25391
5187.407	-11.06760	1.88855	-9.42062	2.31223
5191.451	-11.06875	1.84243	-9.42779	2.31265
5195.440	-11.05275	1.85379	-9.43112	2.34478
5199.444	-11.06605	1.81903	-9.46483	2.34242
5203.453	-11.07040	1.75656	-9.47637	2.35123
5207.437	-11.05034	1.75111	-9.50976	2.21601
5211.455	-11.07788	1.70360	-9.57498	2.15992
5215.449	-11.06301	1.69404	-9.59098	2.06745
5219.453	-11.05280	1.72056	-9.64203	2.12483
5223.451	-11.04525	1.72884	-9.66658	2.10202
5227.452	-10.99336	1.72681	-9.67796	2.12785
5231.442	-10.94612	1.73395	-9.69841	1.97745
5235.453	-10.91432	1.76749	-9.72334	1.93363
5239.451	-10.88561	1.77629	-9.74478	1.93975
5243.453	-10.83623	1.80582	-9.77156	1.90520
5247.455	-10.72699	1.81367	-9.77809	1.83398
5251.416	-10.69889	1.86506	-9.76059	1.84900
5255.453	-10.64312	1.91414	-9.74490	1.85772
5259.449	-10.62140	1.97312	-9.72182	1.87297
5263.412	-10.59064	1.92218	-9.68332	1.85527
5267.453	-10.55435	1.90777	-9.67285	1.82553
5271.452	-10.53394	1.91226	-9.63409	1.79137
5275.452	-10.51650	1.91269	-9.61563	1.79857
5279.411	-10.52559	1.82577	-9.58065	1.83170
5283.451	-10.54152	1.78233	-9.57083	1.82081
5287.455	-10.57829	1.76938	-9.53641	1.82942
5291.428	-10.60339	1.75303	-9.55978	1.83820
5295.419	-10.64875	1.72272	-9.56969	1.85227
5299.453	-10.65592	1.68166	-9.56644	1.86852
5303.456	-10.68966	1.65081	-9.57184	1.90376
5307.452	-10.70311	1.68011	-9.59703	1.90401
5311.411	-10.71573	1.71519	-9.59947	1.92431
5315.452	-10.76415	1.75469	-9.60881	1.95952
5319.455	-10.80175	1.78959	-9.62220	1.97799
5323.452	-10.82938	1.85365	-9.66441	1.96703
5327.450	-10.87311	1.87178	-9.70895	1.95226
5331.443	-10.90313	1.89424	-9.78064	1.92411
5335.455	-10.92933	1.89239	-9.73241	1.87313
5339.453	-10.89650	1.87119	-9.75341	1.81307
5343.449	-10.92157	1.88118	-9.77385	1.80763
5347.451	-10.96732	1.82401	-9.78368	1.76709
5351.455	-10.99056	1.79011	-9.76170	1.76148
5355.454	-11.02756	1.71079	-9.76661	1.68040
5359.444	-11.03566	1.65452	-9.78645	1.64171
5363.454	-11.00637	1.52995	-9.75849	1.58978
5367.456	-10.99642	1.45258	-9.74490	1.51283
5371.454	-11.02461	1.54494	-9.74015	1.45773
5375.473	-11.05689	1.55486	-9.75003	1.39589
5379.454	-10.96189	1.53791	-9.75741	1.36580
5383.433	-11.01555	1.53490	-9.78055	1.32946
5387.454	-10.98932	1.49237	-9.75541	1.49775
5391.459	-10.95361	1.49855	-9.75673	1.50947
5395.455	-10.99236	1.50998	-9.77611	1.52712
5399.456	-11.00704	1.52197	-9.76264	1.59903
5403.453	-11.03088	1.49553	-9.74907	1.64926
5407.445	-11.06509	1.52372	-9.77353	1.69947
5411.459	-11.16184	1.52926	-9.76056	1.75987
5415.442	-11.20636	1.48859	-9.80197	1.63806
5419.441	-11.23160	1.41168	-9.78966	1.57805
5423.451	-11.29135	1.38474	-9.79296	1.65778
5427.453	-11.38032	1.37701	-9.77428	1.63636
5431.409	-11.37390	1.40268	-9.75459	1.60054
5435.449	-11.39609	1.45250	-9.77802	1.64809
5439.413	-11.32531	1.38480	-9.74032	1.59400
5443.457	-11.24712	1.38881	-9.67630	1.56917
5447.454	-11.14825	1.42892	-9.67000	1.58567
5451.456	-11.12720	1.45700	-9.61385	1.59629
5455.452	-10.91935	1.51847	-9.55169	1.56575
5459.418	-10.96507	1.54340	-9.50947	1.61580
5463.457	-11.01639	1.52531	-9.50086	1.64278
5467.457	-11.01357	1.54448	-9.44706	1.63919
5471.450	-11.02815	1.58647	-9.42532	1.67589
5475.456	-11.10388	1.56382	-9.37663	1.70038
5479.455	-11.04042	1.54590	-9.35759	1.68330
5483.456	-11.06908	1.59249	-9.32197	1.69469
5487.444	-11.16500	1.59338	-9.31059	1.68348
5491.455	-11.16817	1.61129	-9.27571	1.68181
5495.452	-11.19086	1.60094	-9.27479	1.64702
5499.411	-11.25851	1.55926	-9.26781	1.65261
5503.457	-11.28899	1.53112	-9.25345	1.65528
5507.458	-11.28226	1.53242	-9.23865	1.67375
5511.455	-11.25061	1.48144	-9.21694	1.69485
5515.457	-11.17921	1.48203	-9.19537	1.70525
5519.452	-11.04126	1.51792	-9.18925	1.68550
5523.452	-10.94320	1.52986	-9.22315	1.66681
5527.452	-10.87352	1.49300	-9.27733	1.64169
5531.410	-10.83750	1.49040	-9.38740	1.64864
5535.452	-10.82550	1.46280	-9.50281	1.61395
5539.445	-10.77502	1.45085	-9.51558	1.51963
5543.446	-10.74199	1.39507	-9.59520	1.47192
5547.454	-10.70919	1.39109	-9.62861	1.41970
5551.414	-10.70752	1.38122	-9.60449	1.39671
5555.456	-10.70780	1.35847	-9.69332	1.29879
5559.456	-10.74534	1.35430	-9.71604	1.32411
5563.456	-10.77057	1.29898	-9.72045	1.36397
5567.450	-10.84207	1.21356	-9.72122	1.30336
5571.456	-10.89429	1.17273	-9.76686	1.27983
5575.454	-10.95607	1.17481	-9.77011	1.20176
5579.458	-11.02067	1.17567	-9.72452	1.18510
5583.415	-11.04675	1.16538	-9.70774	1.19162
5587.454	-11.11050	1.17248	-9.65240	1.23996
5591.456	-11.19320	1.21728	-9.63708	1.31012
5595.454	-11.22174	1.24685	-9.68498	1.29258
5599.416	-11.23585	1.28455	-9.67946	1.34977
5603.465	-11.24989	1.31686	-9.71707	1.35424
5607.455	-11.27343	1.40880	-9.76555	1.35955
5611.458	-11.26827	1.43912	-9.82575	1.38341
5615.414	-11.26223	1.44899	-9.82689	1.44548
5619.457	-11.27925	1.46132	-9.77859	1.53196
5623.442	-11.28340	1.48144	-9.80236	1.59676
5627.411	-11.28846	1.47228	-9.85980	1.64223
5631.459	-11.23074	1.49879	-9.82450	1.61867
5635.454	-11.20015	1.49386	-9.79414	1.58885
5639.456	-11.16760	1.49746	-9.73299	1.59934
5643.457	-11.14763	1.50143	-9.69301	1.61655
5647.448	-11.16332	1.50627	-9.68105	1.61675
5651.460	-11.17001	1.51391	-9.63103	1.61777
5655.458	-11.20491	1.52893	-9.53175	1.65681
5659.458	-11.14505	1.51604	-9.49076	1.67743
5663.453	-11.14416	1.51039	-9.39390	1.64961
5667.460	-11.09587	1.46244	-9.32291	1.60323
5671.459	-11.03953	1.44827	-9.30360	1.60451
5675.457	-11.01381	1.45086	-9.31431	1.56717
5679.453	-10.99855	1.41773	-9.28886	1.57498
5683.458	-10.96351	1.40929	-9.30346	1.57964
5687.413	-10.99719	1.40555	-9.33736	1.55291
5691.457	-11.00187	1.40511	-9.36363	1.56394
5695.354	-10.99958	1.40254	-9.40095	1.57078
5699.459	-11.01311	1.39333	-9.42682	1.56843
5703.459	-11.06918	1.42931	-9.49914	1.57640
5707.437	-11.12398	1.43518	-9.58077	1.56897
5711.369	-11.20593	1.46986	-9.59954	1.57621
5715.459	-11.25070	1.48758	-9.73279	1.58273
5719.458	-11.33287	1.49348	-9.71679	1.59196
5723.456	-11.39210	1.50113	-9.75999	1.60930
5727.351	-11.44213	1.50661	-9.80260	1.60432
5731.412	-11.48084	1.50151	-9.84315	1.58908
5735.457	-11.50544	1.46172	-9.86917	1.58518
5739.455	-11.53386	1.43189	-9.88675	1.56118
5743.459	-11.55130	1.37413	-9.93590	1.53744
5747.454	-11.56926	1.34485	-9.94643	1.52029
5751.415	-11.58344	1.31459	-9.96877	1.49649
5755.458	-11.52450	1.28366	-9.99505	1.48774
5759.459	-11.49455	1.26289	-9.99530	1.45968
5763.459	-11.46952	1.23402	-10.01400	1.46055
5767.462	-11.43693	1.22951	-10.06066	1.46240
5771.456	-11.42279	1.22925	-10.10276	1.47815
5775.354	-11.40934	1.23781	-10.13058	1.49188
5779.458	-11.51478	1.23791	-10.11396	1.46587
5783.461	-11.47131	1.25351	-10.12876	1.46563
5787.461	-11.47925	1.27886	-10.11875	1.46636
5791.449	-11.40260	1.24784	-10.12652	1.46579
5795.461	-11.35990	1.23603	-10.09287	1.48386
5799.460	-11.36799	1.23650	-10.10302	1.51107
5803.461	-11.39344	1.26658	-10.03592	1.50542
5807.357	-11.39721	1.28183	-9.96898	1.46758
5811.459	-11.39640	1.29842	-9.98117	1.46620
5815.418	-11.35556	1.27148	-9.92162	1.45436
5819.447	-11.25421	1.23551	-9.89179	1.43879
5823.355	-11.17773	1.22329	-9.88210	1.45062
5827.460	-11.13322	1.22379	-9.86384	1.44982
5831.443	-11.09219	1.22430	-9.85495	1.46958
5835.461	-11.05890	1.23414	-9.84806	1.48251
5839.355	-11.07047	1.23432	-9.84334	1.49041
5843.460	-11.06294	1.22784	-9.86168	1.48643
5847.459	-11.04345	1.18970	-9.90161	1.50626
5851.463	-11.04687	1.15143	-9.92030	1.52058
5855.357	-11.01947	1.14030	-9.93301	1.49800
5859.461	-11.01036	1.13938	-9.93978	1.45120
5863.459	-11.00271	1.14290	-9.94688	1.42815
5867.461	-11.04429	1.13701	-9.94818	1.30929
5871.353	-11.08968	1.09703	-9.94765	1.23301
5875.425	-11.15078	1.09463	-9.95541	1.16279
5879.417	-11.10553	1.14452	-9.92030	1.08406
5883.460	-11.10739	1.18987	-9.73390	1.02584
5887.355	-11.10041	1.26012	-9.65377	0.89643
5891.460	-11.11475	1.26554	-9.55212	0.82095
5895.461	-11.07948	1.27120	-9.57722	0.86498
5899.462	-11.08419	1.29185	-9.57645	0.87963
5903.360	-11.09745	1.23900	-9.47162	1.02935
5907.463	-11.11979	1.30656	-9.57693	0.99224
5911.457	-11.14330	1.44866	-9.58367	1.38492
5915.442	-11.16609	1.72866	-9.64077	1.93301
5919.347	-11.17207	2.01584	-9.51075	1.77604
5923.460	-11.20192	2.13976	-9.55082	1.84687
5927.460	-11.25984	2.08172	-9.58065	1.87615
5931.415	-11.33738	2.14160	-9.62811	1.83886
5935.358	-11.29140	2.24630	-9.68377	1.91720
5939.459	-11.29772	2.30360	-9.73120	2.03966
5943.459	-11.31040	2.28904	-9.74304	2.11015
5947.461	-11.31407	2.30536	-9.80809	2.13301
5951.326	-11.23155	2.27251	-9.77283	2.16806
5955.458	-11.18857	2.29534	-9.70278	2.15541
5959.448	-11.12488	2.26646	-9.69373	2.14306
5963.460	-11.09736	2.23332	-9.67794	2.13690
5967.321	-11.07147	2.18657	-9.69810	2.13761
5971.463	-11.04558	2.16950	-9.71879	2.15323
5975.462	-11.01744	2.15338	-9.71891	2.17218
5979.462	-11.03580	2.13406	-9.72392	2.17824
5983.321	-11.02478	2.11514	-9.71150	2.18108
5987.427	-11.04926	2.10354	-9.69725	2.18817
5991.459	-11.03535	2.07539	-9.68455	2.21692
5995.460	-11.05087	2.09605	-9.62943	2.28384
5999.325	-11.06581	2.09042	-9.63407	2.36046
6003.464	-11.08177	2.08908	-9.63264	2.40126
6007.463	-11.08911	2.08328	-9.66431	2.45479
6011.462	-11.09344	2.07673	-9.65990	2.50839
6015.326	-11.09267	2.05282	-9.65269	2.54348
6019.461	-11.10378	2.03053	-9.65614	2.56040
6023.462	-11.07926	2.01692	-9.65828	2.56948
6027.460	-11.07123	2.00993	-9.63662	2.62575
6031.321	-11.04601	1.98202	-9.61088	2.66003
6035.461	-11.06038	2.02143	-9.59887	2.67932
6039.442	-11.06882	2.01755	-9.60106	2.69128
6043.336	-11.07403	2.01568	-9.62065	2.68921
6047.337	-11.08545	2.02739	-9.57471	2.67897
6051.338	-11.09406	2.02142	-9.56837	2.67198
6055.337	-11.12204	2.02332	-9.55603	2.66576
6059.336	-11.14792	2.05820	-9.55046	2.66884
6063.334	-11.17885	2.07086	-9.52777	2.66936
6067.337	-11.22547	2.04706	-9.49009	2.65119
6071.334	-11.22246	2.00740	-9.45853	2.57678
6075.338	-11.25691	1.98027	-9.47439	2.51441
6079.341	-11.26746	1.95984	-9.46025	2.47928
6083.336	-11.28407	1.93916	-9.47551	2.44333
6087.314	-11.30085	1.92527	-9.44769	2.41255
6091.337	-11.30235	1.90956	-9.46085	2.39866
6095.329	-11.29467	1.89766	-9.46348	2.39671
6099.339	-11.27779	1.88166	-9.46447	2.36550
6103.338	-11.25581	1.86335	-9.43926	2.33920
6107.294	-11.23893	1.87904	-9.42581	2.35018
6111.327	-11.20768	1.89030	-9.43073	2.36201
6115.342	-11.20171	1.91235	-9.44619	2.39086
6119.336	-11.15840	1.94712	-9.46020	2.39896
6123.336	-11.11212	1.96535	-9.46034	2.41153
6127.332	-11.09920	1.96023	-9.46198	2.43256
6131.295	-11.09119	1.96890	-9.47572	2.46481
6135.335	-11.07322	1.97453	-9.48777	2.49777
6139.348	-11.07953	1.98554	-9.52374	2.46957
6143.329	-11.08529	2.00314	-9.56506	2.50689
6147.339	-11.09853	2.01834	-9.56673	2.51634
6151.341	-11.10135	2.03220	-9.59969	2.48377
6155.338	-11.12648	2.04501	-9.58774	2.42836
6159.336	-11.13826	2.05513	-9.55126	2.36984
6163.338	-11.17847	2.08325	-9.52205	2.30827
6167.339	-11.20727	2.10357	-9.51454	2.29748
6171.309	-11.24416	2.11201	-9.49864	2.27243
6175.332	-11.25908	2.13816	-9.45136	2.18730
6179.338	-11.29677	2.15913	-9.46329	2.16234
6183.338	-11.33041	2.17608	-9.34647	2.15594
6187.340	-11.34254	2.16847	-9.30735	2.23718
6191.360	-11.34318	2.15291	-9.30005	2.18782
6195.340	-11.35525	2.08981	-9.25187	2.19120
6199.337	-11.35947	2.08448	-9.28093	2.22763
6203.340	-11.32486	2.07512	-9.33338	2.27048
6207.331	-11.29591	2.02658	-9.36822	2.33696
6211.340	-11.28949	2.00229	-9.42972	2.38329
6215.343	-11.28856	1.95987	-9.43508	2.42159
6219.340	-11.28842	1.89724	-9.53006	2.42168
6223.334	-11.23979	1.85247	-9.57771	2.43440
6227.337	-11.27810	1.84100	-9.65589	2.43384
6231.339	-11.24311	1.88525	-9.72773	2.39354
6235.339	-11.25431	1.91986	-9.77724	2.38534
6239.332	-11.23077	1.98127	-9.83961	2.29609
6243.339	-11.17099	2.05524	-9.86645	2.24780
6247.340	-11.18487	2.09996	-9.94375	2.17486
6251.335	-11.09903	2.08095	-9.98870	2.10440
6255.297	-11.08416	2.14125	-10.01185	2.05605
6259.340	-11.04037	2.17874	-10.07245	2.01736
6263.316	-11.00312	2.21643	-10.07006	2.06272
6267.339	-10.99857	2.24313	-10.09184	2.06075
6271.298	-10.96064	2.26371	-10.11380	2.06398
6275.340	-10.97191	2.26389	-10.04764	2.02059
6279.340	-10.97361	2.28631	-9.98078	2.01284
6283.340	-10.97600	2.29922	-10.00844	2.04958
6287.298	-11.02832	2.29891	-9.95143	2.07406
6291.340	-11.10527	2.31718	-9.92786	2.10266
6295.312	-11.12942	2.35230	-9.91700	2.14952
6299.338	-11.14944	2.36726	-9.88143	2.19994
6303.298	-11.17257	2.36775	-9.89525	2.27085
6307.340	-11.23733	2.35287	-9.92360	2.29583
6311.339	-11.20710	2.28152	-9.95290	2.28853
6315.345	-11.21536	2.25821	-9.95745	2.25815
6319.326	-11.19029	2.25897	-9.90730	2.27578
6323.340	-11.20622	2.17641	-9.86527	2.27272
6327.339	-11.21054	2.11265	-9.78137	2.25051
6331.342	-11.18991	2.12066	-9.84207	2.28869
6335.298	-11.15781	2.04520	-9.76553	2.28643
6339.330	-11.16581	2.03455	-9.70770	2.29135
6343.340	-11.19695	2.02216	-9.72296	2.27460
6347.348	-11.25863	2.04663	-9.70408	2.21919
6351.298	-11.28295	2.11066	-9.63583	2.24163
6355.339	-11.30219	2.17218	-9.55299	2.23581
6359.339	-11.33593	2.29297	-9.55005	2.27486
6363.340	-11.35628	2.27413	-9.55842	2.30555
6367.298	-11.35308	2.34601	-9.60866	2.30159
6371.341	-11.35549	2.40278	-9.64900	2.31448
6375.340	-11.40534	2.41447	-9.68430	2.29391
6379.313	-11.41037	2.44995	-9.70063	2.25900
6383.308	-11.42186	2.46254	-9.78423	2.23623
6387.342	-11.38714	2.47952	-9.80650	2.19677
6391.298	-11.37164	2.47705	-9.82826	2.15645
6395.341	-11.34108	2.44723	-9.89663	2.10242
6399.334	-11.34692	2.43738	-9.94657	2.04415
6403.343	-11.31868	2.41586	-9.99359	1.97593
6407.342	-11.29018	2.39924	-10.00425	1.89476
6411.340	-11.28042	2.37475	-9.99522	1.83563
6415.335	-11.24089	2.35128	-10.02793	1.82266
6419.326	-11.21754	2.33648	-10.06285	1.82500
6423.340	-11.18181	2.33589	-10.09746	1.83544
6427.340	-11.11487	2.33302	-10.06407	1.81710
6431.361	-11.11623	2.32374	-10.04227	1.83751
6435.343	-11.11786	2.29142	-10.03229	1.86419
6439.340	-11.14364	2.24910	-9.95991	1.92841
6443.344	-11.14796	2.22497	-9.89925	1.89666
6447.365	-11.21415	2.17890	-9.87820	1.90537
6451.348	-11.27608	2.14670	-9.86613	1.93227
6455.340	-11.28510	2.14065	-9.82387	1.97624
6459.336	-11.35544	2.12988	-9.81221	1.96946
6463.342	-11.39623	2.12002	-9.77977	1.95300
6467.341	-11.44041	2.10195	-9.78129	1.92596
6471.342	-11.45703	2.08563	-9.74991	1.89507
6475.342	-11.48120	2.06252	-9.78720	1.84753
6479.344	-11.49197	2.03579	-9.82954	1.83663
6483.344	-11.49095	2.02273	-9.85821	1.80394
6487.342	-11.49011	2.02332	-9.88682	1.78280
6491.342	-11.47152	2.02599	-9.89101	1.76329
6495.344	-11.43300	2.00729	-9.93939	1.84587
6499.345	-11.43078	1.97994	-9.94609	1.90466
6503.319	-11.41151	2.00304	-9.96393	1.91084
6507.344	-11.33612	2.03192	-10.00093	1.99341
6511.331	-11.31679	2.04266	-10.02249	1.99367
6515.344	-11.31421	2.05667	-10.01046	1.94222
6519.343	-11.30553	2.07613	-9.98925	1.89548
6523.343	-11.30837	2.10716	-9.94765	1.89017
6527.341	-11.30746	2.11515	-9.87305	1.88219
6531.296	-11.33101	2.12118	-9.81484	1.81863
6535.340	-11.34669	2.11321	-9.77052	1.94554
6539.340	-11.37498	2.09857	-9.70355	1.90769
6543.341	-11.38516	2.15873	-9.65488	1.90885
6547.332	-11.36947	2.15705	-9.67490	1.92782
6551.345	-11.41478	2.14877	-9.57199	1.99013
6555.343	-11.43657	2.12108	-9.51469	1.97311
6559.342	-11.43948	2.13516	-9.50274	1.99822
6563.340	-11.44542	2.13400	-9.49506	2.06612
6567.342	-11.44099	2.11791	-9.49354	2.12788
6571.343	-11.43994	2.13620	-9.51553	2.15643
6575.340	-11.43007	2.14800	-9.54336	2.20341
6579.343	-11.42081	2.14090	-9.57561	2.24364
6583.342	-11.41049	2.17865	-9.62994	2.24810
6587.314	-11.38242	2.13209	-9.61327	2.26059
6591.309	-11.37462	2.11777	-9.63148	2.27593
6595.342	-11.35241	2.07557	-9.68708	2.29238
6599.343	-11.32746	2.06132	-9.70251	2.32039
6603.345	-11.28574	2.00273	-9.68028	2.33429
6607.339	-11.27290	1.98432	-9.67649	2.37386
6611.342	-11.23872	1.97170	-9.63262	2.35658
6615.342	-11.25536	1.97285	-9.64355	2.38101
6619.346	-11.24595	1.95916	-9.60060	2.37263
6623.338	-11.23103	1.99792	-9.58359	2.38686
6627.299	-11.22943	2.00918	-9.53337	2.38658
6631.344	-11.21842	2.02089	-9.49789	2.41452
6635.344	-11.22852	2.00385	-9.52280	2.45390
6639.341	-11.24261	2.02669	-9.49796	2.42098
6643.345	-11.23855	2.05398	-9.48910	2.43381
6647.346	-11.26288	2.06902	-9.48330	2.43371
6651.347	-11.27918	2.10438	-9.49045	2.42960
6655.339	-11.27161	2.11843	-9.56752	2.42022
6659.345	-11.24729	2.13139	-9.56875	2.40857
6663.339	-11.22250	2.15891	-9.61040	2.38895
6667.347	-11.21381	2.17516	-9.60796	2.37872
6671.343	-11.20283	2.20727	-9.60345	2.36527
6675.345	-11.18976	2.25997	-9.62171	2.33758
6679.344	-11.16870	2.31869	-9.59691	2.34272
6683.345	-11.14044	2.35000	-9.62138	2.31929
6687.346	-11.12837	2.38291	-9.57158	2.31001
6691.345	-11.10878	2.40717	-9.59452	2.25191
6695.344	-11.06724	2.42331	-9.58970	2.21443
6699.346	-11.05096	2.42882	-9.57884	2.31887
6703.336	-11.04888	2.39902	-9.60890	2.28838
6707.345	-11.05945	2.25309	-9.63665	2.15608
6711.344	-11.08082	2.21219	-9.68462	1.94878
6715.343	-11.27128	2.07884	-9.74991	1.72633
6719.305	-11.38075	1.89147	-9.78071	1.62473
6723.344	-11.46204	1.83999	-9.78462	1.50410
6727.343	-11.50096	1.76943	-9.77269	1.54368
6731.345	-11.51323	1.73379	-9.80185	1.53779
6735.300	-11.53801	1.62135	-9.87904	1.41670
6739.343	-11.63616	1.59984	-9.92377	1.40540
6743.346	-11.67905	1.56689	-9.88974	1.40342
6747.346	-11.69645	1.52796	-9.90077	1.38392
6751.303	-11.74349	1.51814	-9.89937	1.35247
6755.334	-11.75134	1.51943	-9.87020	1.35976
6759.347	-11.71760	1.51454	-9.84941	1.36542
6763.345	-11.71123	1.54443	-9.80826	1.37423
6767.242	-11.69031	1.58333	-9.81489	1.38426
6771.346	-11.69452	1.62527	-9.81720	1.39624
6775.344	-11.70578	1.63075	-9.81910	1.37409
6779.343	-11.70806	1.70175	-9.78848	1.42079
6783.341	-11.68650	1.76104	-9.73031	1.43462
6787.346	-11.63751	1.69280	-9.75083	1.47200
6791.347	-11.49722	1.68058	-9.73651	1.52322
6795.311	-11.41180	1.68238	-9.69800	1.63507
6799.349	-11.33213	1.69634	-9.68517	1.68083
6803.348	-11.22726	1.74456	-9.70266	1.81164
6807.345	-11.15276	1.76396	-9.72653	1.89102
6811.345	-11.13241	1.76640	-9.74367	1.96405
6815.240	-11.07522	1.77344	-9.71088	1.97358
6819.303	-11.03776	1.79531	-9.68828	2.01668
6823.349	-10.98535	1.81651	-9.65845	2.00511
6827.347	-10.96885	1.81910	-9.68382	2.02013
6831.350	-10.95296	1.83716	-9.63489	2.02103
6835.323	-10.95179	1.86868	-9.61134	1.99051
6839.348	-10.98652	1.90223	-9.64468	2.00725
6843.346	-10.98910	1.92251	-9.62837	1.98677
6847.242	-11.01950	1.91912	-9.58236	1.97404
6851.346	-11.05357	1.92002	-9.53328	1.93842
6855.349	-11.06846	1.91780	-9.53202	1.88430
6859.346	-11.09671	1.89940	-9.54278	1.86576
6863.248	-11.10844	1.84885	-9.59650	1.86579
6867.346	-11.12558	1.81033	-9.63279	1.85457
6871.347	-11.15632	1.77022	-9.67037	1.84761
6875.346	-11.15372	1.70474	-9.71081	1.82740
6879.303	-11.16963	1.66745	-9.72590	1.76945
6883.345	-11.18723	1.63299	-9.75861	1.67640
6887.348	-11.26197	1.67863	-9.71396	1.67701
6891.344	-10.24435	1.66141	-9.46433	1.61518
6895.242	-8.86788	1.62720	-8.31822	1.68257
6899.348	-7.37804	1.61830	-6.16191	1.65398
6903.348	-4.47215	1.62391	-5.15362	1.81768
6907.347	-3.78716	1.64997	-3.85091	1.94405
6911.243	-2.09943	1.71219	-3.05402	2.07871
6915.345	-0.47761	1.64403	-0.92790	2.06973
6919.324	0.48503	1.65669	-0.24994	2.05010
6923.351	1.53319	1.60632	1.25036	2.33139
6927.241	3.13108	1.54170	2.87128	2.29250
6931.344	3.55651	1.49339	3.26814	2.18828
6935.304	5.11004	1.46755	5.31524	2.24851
6939.348	5.89927	1.32922	5.85686	2.28504
6943.244	6.15534	1.29190	6.57272	2.37455
6947.347	6.30870	1.32907	6.73914	2.21067
6951.350	6.22871	1.29920	6.87076	2.28352
6955.349	6.04509	1.26880	6.84593	2.28182
6959.247	6.12008	1.23427	6.88930	2.18608
6963.337	6.14923	1.10917	6.88313	2.16643
6967.350	6.19903	1.03165	6.94222	2.12887
6971.348	6.21784	1.02257	7.04892	2.02533
6975.245	6.23153	0.92737	7.06222	2.07296
6979.348	6.26937	0.94298	7.09622	2.06982
6983.350	6.26049	0.90084	7.17565	2.09847
6987.346	6.29070	1.08245	7.22434	2.06668
6991.244	6.32875	1.05477	7.28490	2.06717
6995.347	6.31880	1.20142	7.28700	2.08737
6999.347	6.34265	1.20983	7.34975	2.08786
7003.316	6.32586	1.17975	7.41014	2.10783
7007.245	6.34510	1.32310	7.47034	2.04369
7011.347	6.34616	1.23260	7.45169	2.06900
7015.351	6.36525	1.29059	7.48356	2.10509
7019.352	6.34035	1.35175	7.48351	2.05502
7023.245	6.34062	1.38566	7.46882	2.04502
7027.347	6.30382	1.41133	7.46055	1.99068
7031.303	6.23162	1.35793	7.46141	1.88394
7035.349	6.11361	1.31445	7.47724	1.92098
7039.246	6.10242	1.33581	7.50078	1.93444
7043.329	6.05351	1.33509	7.49759	1.99794
7047.347	5.99902	1.35835	7.49076	1.97086
7051.349	6.08360	1.30916	7.45557	1.99425
7055.243	6.05390	1.31422	7.51554	1.96038
7059.348	6.07501	1.31079	7.52337	1.93385
7063.349	6.05835	1.30248	7.51430	1.99698
7067.351	6.08230	1.31440	7.49625	1.98796
7071.244	6.06973	1.31088	7.51898	1.94649
7075.349	6.05422	1.32939	7.50966	1.97704
7079.350	6.11805	1.31308	7.50403	1.96619
7083.350	6.18667	1.25130	7.47817	1.91475
7087.248	6.24320	1.27332	7.47600	1.85031
7091.199	6.29254	1.25364	7.44059	1.79163
7095.179	6.30073	1.27513	7.44218	1.75925
7099.223	6.30732	1.28676	7.39693	1.72513
7103.348	6.27925	1.30216	7.36677	1.71457
7107.224	6.27876	1.26617	7.34323	1.72217
7111.225	6.26005	1.26471	7.41926	1.70823
7115.223	6.26966	1.28535	7.45775	1.72396
7119.182	6.26216	1.27226	7.49015	1.78254
7123.226	6.26691	1.34752	7.50922	1.85858
7127.221	6.24673	1.29888	7.54908	1.94338
7131.225	6.23820	1.32414	7.60146	1.92144
7135.183	6.21490	1.28578	7.60275	1.95221
7139.224	6.21576	1.25625	7.55718	1.95515
7143.226	6.26414	1.22724	7.59868	2.01167
7147.225	7.71881	1.23775	7.77410	2.01755
7151.222	8.59895	1.31863	8.26403	2.14828
7155.226	9.12251	1.34345	9.53214	2.13633
7159.225	10.63396	1.34931	10.89092	2.21741
7163.225	10.95342	1.23837	11.43879	2.03649
7167.221	12.46259	1.19256	12.99423	2.04666
7171.229	13.39894	0.96965	13.52055	1.86120
7175.189	14.84800	0.93960	14.67746	1.86140
7179.226	15.30722	0.78940	15.54031	1.79750
7183.223	15.91661	0.56167	15.99353	1.70102
7187.189	17.71881	0.46284	16.74660	1.60569
7191.227	17.68799	0.28667	17.04026	1.40471
7200.417	17.79826	0.06925	17.55264	1.42699
7205.409	17.72106	0.06105	17.69444	1.38350
7207.182	17.47810	0.01865	17.60156	1.39868
7211.225	17.62296	-0.01866	17.56196	1.40009
7215.223	17.54680	0.04440	17.67403	1.35831
7219.193	17.50115	0.01232	17.66371	1.34197
7223.226	17.41555	0.04306	17.72921	1.30166
7227.225	17.44463	0.11618	17.69399	1.20325
7231.223	17.42366	0.04502	17.70624	1.24460
7235.222	17.34976	0.05014	17.71480	1.21205
7239.227	17.38751	0.10365	17.77029	1.25385
7243.225	17.34318	0.17265	17.72390	1.22370
7247.226	17.32515	0.18161	17.68493	1.23987
7251.224	17.35055	0.22914	17.67551	1.19021
7255.183	17.32174	0.23615	17.63903	1.16828
7259.215	17.33402	0.23701	17.63815	1.16487
7263.224	17.36384	0.24513	17.66866	1.18363
7267.223	17.37053	0.21463	17.65963	1.19389
7271.228	17.38538	0.21475	17.60535	1.27292
7275.225	17.40986	0.23687	17.65880	1.33606
7279.222	17.41478	0.25284	17.73340	1.29026
7283.222	17.41628	0.33784	17.80773	1.26340
7287.229	17.44366	0.41756	17.91435	1.25109
7291.226	17.44657	0.49333	17.87219	1.24503
7295.228	17.46782	0.48626	17.89871	1.13602
7299.226	17.49302	0.56978	17.92772	1.11548
7303.227	17.53037	0.54888	18.00577	1.12945
7307.224	17.58794	0.61768	18.06645	1.08889
7311.226	17.56918	0.64131	18.05873	1.10533
7315.223	17.56189	0.66642	18.12459	1.08267
7319.226	17.64681	0.64132	18.12811	1.06613
7323.227	17.65965	0.66817	18.14880	1.11595
7327.226	17.67804	0.64840	18.15057	1.07765
7331.226	17.64906	0.60624	18.18375	1.14725
7335.181	17.66853	0.58130	18.20696	1.12034
7339.209	17.71126	0.58237	18.25458	1.20661
7343.227	17.68991	0.53232	18.26496	1.23930
7347.185	17.68101	0.51552	18.25023	1.30094
7351.227	17.64489	0.48446	18.22547	1.35279
7355.229	17.65136	0.48958	18.20140	1.34661
7359.226	17.64162	0.47002	18.16200	1.37244
7363.217	17.54463	0.47729	18.12813	1.37606
7367.226	17.47904	0.49633	18.09466	1.38437
7371.229	17.33691	0.48032	17.98887	1.42009
7375.229	17.37040	0.51372	18.02609	1.41882
7379.198	17.31531	0.49369	17.99817	1.44578
7383.190	17.21578	0.46460	17.95946	1.44799
7387.192	17.12915	0.45714	17.88354	1.45759
7391.229	17.04541	0.46647	17.88826	1.43038
7395.224	16.95846	0.51833	17.86308	1.39919
7399.228	16.93310	0.53873	17.82096	1.38798
7403.218	16.93019	0.56740	17.78109	1.42287
7407.227	16.84807	0.61238	17.78841	1.43364
7411.185	16.81153	0.64123	17.77297	1.45630
7415.228	16.82065	0.64505	17.80051	1.45785
7419.230	16.79293	0.67312	17.79723	1.53554
7423.233	16.75760	0.71181	17.79480	1.57200
7427.195	16.73331	0.72413	17.78123	1.58682
7431.227	16.71576	0.79910	17.80848	1.60020
7435.228	16.70021	0.84062	17.80384	1.64078
7439.232	16.67542	0.84908	17.82310	1.67389
7443.225	16.66974	0.86181	17.86074	1.68965
7447.227	16.63877	0.88316	17.89046	1.71108
7451.227	16.63715	0.87638	17.93540	1.72758
7455.220	16.64451	0.86321	17.95395	1.73295
7459.226	16.63428	0.86933	17.95696	1.73642
7463.217	16.63712	0.86360	17.99457	1.72464
7467.218	16.66744	0.81929	18.00685	1.70552
7471.232	16.68849	0.81901	18.02101	1.69733
7475.227	16.70991	0.80353	18.03459	1.67444
7479.229	16.72803	0.78168	18.03120	1.67745
7483.228	16.73695	0.76239	18.00916	1.73121
7487.198	16.75316	0.76385	17.95202	1.69187
7491.225	16.76556	0.75914	17.90188	1.63045
7495.229	16.76988	0.74038	17.83394	1.60439
7499.227	16.73978	0.72367	17.83605	1.53166
7503.231	16.71961	0.72553	17.83596	1.49571
7507.226	16.69466	0.69255	17.84291	1.43677
7511.231	16.65369	0.71512	17.76923	1.37339
7515.228	16.63464	0.70419	17.73957	1.32163
7519.185	16.62904	0.72133	17.76138	1.27492
7523.226	16.62936	0.72290	17.67274	1.28806
7527.228	16.61416	0.72251	17.68766	1.28278
7531.228	16.64514	0.70463	17.51279	1.30522
7535.183	16.71185	0.69675	17.56349	1.28494
7539.225	16.66485	0.68623	17.57173	1.32913
7543.230	16.60739	0.68972	17.57852	1.32210
7547.214	16.59171	0.63775	17.58434	1.33709
7551.222	16.61587	0.63036	17.60578	1.33312
7555.188	16.69479	0.64628	17.58282	1.34766
7559.230	16.71340	0.68006	17.57249	1.37714
7563.185	16.71180	0.73444	17.54195	1.36222
7567.228	16.71278	0.73641	17.53775	1.24365
7571.189	16.71244	0.79485	17.52026	1.22977
7575.227	16.66455	0.83797	17.54980	1.16646
7579.229	16.60823	0.94744	17.53277	1.13542
7583.231	16.58266	1.00958	17.50417	1.09986
7587.189	16.61363	1.04230	17.46902	1.07178
7591.193	16.59850	1.04435	17.45626	1.00699
7595.230	16.65378	1.08979	17.43756	0.94903
7599.230	16.61742	1.11154	17.43308	0.91919
7603.189	16.58626	1.13031	17.42543	0.87818
7607.232	16.57247	1.08018	17.47166	0.93748
7611.230	16.51618	1.09891	17.50419	0.98600
7615.230	16.40448	1.05350	17.55079	1.01836
7619.189	16.38550	1.05122	17.47414	1.00995
7623.240	16.32387	1.03017	17.49358	1.06519
7627.230	16.32625	1.01373	17.48103	1.09092
7631.228	16.33729	1.00803	17.65834	1.15490
7635.192	16.31717	1.06308	17.61401	1.22284
7639.230	16.34261	1.10571	17.66269	1.25209
7643.230	16.27488	1.11975	17.68061	1.27613
7647.232	16.37519	1.12509	17.75706	1.27705
7651.223	16.37999	1.21838	17.77162	1.28286
7655.229	16.45382	1.20465	17.68797	1.27134
7659.188	16.52225	1.19203	17.66490	1.28448
7663.233	16.53343	1.13977	17.67171	1.34884
7667.235	16.58241	1.08803	17.62222	1.36893
7671.223	16.54221	1.02532	17.68126	1.29219
7675.221	16.58234	1.08106	17.58530	1.24562
7679.232	16.55391	1.15410	17.57344	1.34292
7683.227	16.61204	1.10388	17.57798	1.36517
7687.231	16.72275	1.03854	17.54421	1.43783
7691.232	16.72325	0.90354	17.52665	1.45737
7695.232	16.74148	0.86656	17.52809	1.36566
7699.221	16.77875	0.89365	17.54531	1.42028
7703.229	16.82336	0.97419	17.58932	1.51431
7707.232	16.82365	0.92582	17.56866	1.39739
7711.232	16.71620	0.97336	17.69243	1.41668
7715.229	16.76005	1.06369	17.71160	1.50498
7719.230	16.80014	1.08213	17.71360	1.51786
7723.239	16.86628	1.08542	17.72214	1.47521
7727.231	16.82870	1.12239	17.74096	1.48522
7731.232	16.72903	1.09274	17.76041	1.46674
7735.231	15.88656	1.13513	16.42969	1.46453
7739.233	15.30180	1.18674	14.89175	1.52807
7743.229	13.09642	1.16559	12.65271	1.60511
7747.227	11.47791	1.17064	11.01818	1.58628
7751.232	10.17024	1.17104	9.45474	1.54369
7755.214	9.60562	1.21655	8.29737	1.33929
7759.226	8.25272	1.22731	7.12820	1.26263
7763.236	6.85126	1.12008	5.58088	1.07509
7767.230	5.34449	0.94085	5.21644	0.90631
7771.233	4.46939	0.83087	3.97486	0.75697
7775.232	3.34868	0.70725	3.53206	0.79237
7779.128	2.81286	0.59011	2.39758	0.73835
7783.232	2.29535	0.56822	1.61704	0.70053
7787.234	1.09777	0.56527	1.25977	0.51106
7791.233	0.50587	0.34049	0.38214	0.15095
7795.242	-0.03502	0.18600	0.21075	-0.05830
7799.197	-0.68757	0.18039	-0.10967	-0.04836
7803.233	-1.02372	0.05945	-0.60081	-0.14046
7807.232	-1.84287	-0.00184	-1.04890	-0.41868
7811.129	-2.09413	-0.11011	-1.36886	-0.76663
7815.191	-2.28403	-0.14371	-1.10519	-0.75769
7819.232	-2.10577	-0.27507	-1.01169	-0.82250
7823.233	-1.92674	-0.27599	-0.91698	-0.82565
7827.231	-1.90522	-0.35753	-1.02759	-0.87324
7831.232	-1.98420	-0.40050	-1.05803	-0.87159
7835.200	-1.98814	-0.44184	-1.06155	-0.98021
7839.211	-2.07943	-0.48309	-1.11328	-0.99877
7843.235	-2.05630	-0.50606	-1.13003	-1.03999
7847.230	-2.14221	-0.52674	-1.11678	-1.07971
7851.231	-2.13043	-0.54497	-1.04570	-1.13845
7855.233	-2.08491	-0.53816	-1.01236	-1.13151
7859.127	-2.10263	-0.52273	-0.98849	-1.12662
7863.233	-2.09903	-0.51844	-0.96127	-1.17014
7867.234	-2.18007	-0.51409	-0.96986	-1.21010
7871.234	-2.20344	-0.50524	-0.97680	-1.21901
7875.132	-2.21271	-0.52488	-0.97643	-1.25820
7879.226	-2.24597	-0.52328	-1.01084	-1.28215
7883.222	-2.25818	-0.50808	-1.04711	-1.30084
7887.235	-2.18126	-0.56526	-1.05121	-1.30207
7891.133	-2.14701	-0.57662	-1.11847	-1.29827
7895.233	-2.13690	-0.63738	-1.17689	-1.27389
7899.235	-2.15968	-0.64683	-1.24850	-1.23492
7903.236	-2.17053	-0.65728	-1.34284	-1.21630
7907.130	-2.17589	-0.66264	-1.43461	-1.20840
7911.232	-2.19482	-0.65278	-1.45276	-1.15501
7915.234	-2.18444	-0.64720	-1.29717	-1.17641
7919.237	-2.16944	-0.66667	-1.27770	-1.15509
7923.134	-2.18156	-0.71013	-1.03553	-1.12181
7927.234	-2.15953	-0.81765	-0.96899	-1.10601
7931.232	-2.22052	-0.86950	-0.82905	-1.07091
7935.189	-2.24971	-0.95527	-0.82481	-1.05494
7939.193	-2.28455	-1.03974	-0.81191	-1.06009
7943.190	-2.32134	-0.86981	-0.86096	-1.07607
7947.233	-2.32045	-0.91913	-0.84679	-1.10021
7951.234	-2.36247	-0.91533	-0.87183	-1.13175
7955.099	-2.36475	-0.94579	-0.80565	-1.02646
7959.234	-2.39215	-1.00275	-0.79868	-0.95813
7963.234	-2.38122	-0.99564	-0.81109	-0.89771
7967.230	-2.30965	-0.95717	-0.81724	-0.88969
7971.095	-2.29483	-0.91260	-0.85967	-0.90187
7975.232	-2.26388	-0.88682	-0.90875	-0.95703
7979.235	-2.25801	-0.89393	-0.94140	-1.05267
7983.234	-2.26381	-0.88399	-0.96867	-1.18651
7987.196	-2.25246	-0.97269	-0.96946	-1.23349
7991.235	-2.21311	-0.99233	-0.93711	-1.17554
7995.234	-2.19591	-0.99545	-0.84989	-1.13250
7999.234	-2.15291	-0.98964	-0.79632	-1.21038
8003.100	-2.11812	-1.02670	-0.83307	-1.26369
8007.198	-2.09517	-1.07177	-0.80632	-1.31232
8011.236	-2.13539	-1.10317	-0.82136	-1.33484
8015.235	-2.17068	-1.11973	-0.85788	-1.37138
8019.135	-2.19866	-1.15743	-0.89121	-1.36757
8023.236	-2.22969	-1.16900	-0.93286	-1.35631
8027.237	-2.23363	-1.18414	-0.94361	-1.32876
8031.233	-2.26358	-1.14835	-0.86719	-1.29902
8035.129	-2.29983	-1.12839	-0.94564	-1.25754
8039.236	-2.34768	-1.09206	-0.88309	-1.26469
8043.237	-2.40226	-1.02772	-0.91356	-1.22626
8047.235	-2.29225	-1.09007	-0.89381	-1.14665
8051.121	-2.29037	-1.03619	-0.93830	-1.05131
8055.234	-2.36334	-0.98706	-0.90473	-0.97914
8059.233	-2.40687	-0.92473	-0.88324	-0.93168
8063.232	-2.38006	-0.92853	-0.81935	-0.91917
8067.132	-2.36388	-0.94817	-0.76672	-0.84468
8071.238	-2.31842	-0.93775	-0.75062	-0.80062
8075.236	-2.32446	-0.94341	-0.71047	-0.78443
8079.193	-2.30048	-0.93183	-0.68265	-0.78307
8083.130	-2.29632	-0.96671	-0.69434	-0.79375
8087.227	-2.32384	-0.99568	-0.70871	-0.82606
8091.225	-2.38400	-0.96722	-0.73116	-0.82176
8095.237	-2.41123	-0.95032	-0.74819	-0.84002
8099.133	-2.41915	-0.97367	-0.80791	-0.86234
8103.235	-2.46387	-1.00767	-0.89632	-0.87707
8107.235	-2.54276	-1.01163	-1.10055	-0.90926
8111.234	-2.55012	-1.00683	-1.07932	-0.93684
8115.132	-2.45294	-1.00909	-1.09760	-0.91085
8119.235	-2.45272	-1.04150	-1.07646	-0.86563
8123.111	-2.56035	-1.08658	-1.13035	-0.87659
8127.069	-2.51009	-1.11447	-1.15277	-0.82055
8131.105	-2.41073	-1.05437	-1.17823	-0.80477
8135.068	-2.45611	-1.01551	-1.15597	-0.89255
8139.109	-2.18895	-1.16849	-0.86004	-1.15997
8143.110	-0.51731	-1.43081	0.16231	-1.27773
8147.109	0.49753	-1.96393	1.39951	-2.04353
8151.112	0.66087	-2.77640	1.70102	-2.39457
8155.113	0.42437	-3.04492	1.86516	-2.59882
8159.121	0.50562	-2.58507	1.70690	-2.67630
8163.107	0.37415	-2.73190	1.69949	-2.72848
8167.111	0.47143	-3.11467	1.65324	-2.80734
8171.114	0.44259	-3.14543	1.67668	-2.81363
8175.110	0.49525	-3.19995	1.59269	-2.84356
8179.100	0.49478	-3.20840	1.64975	-2.92638
8183.111	0.57803	-3.20060	1.70955	-3.04244
8187.068	0.65665	-3.28482	1.77459	-3.08037
8191.111	0.66888	-3.27500	1.80174	-3.24254
8195.072	0.61312	-3.29644	1.81706	-3.38259
8199.111	0.64764	-3.28844	1.80035	-3.36107
8203.107	0.74905	-3.26945	1.81721	-3.42771
8207.111	0.72791	-3.34537	1.93616	-3.47380
8211.114	0.73915	-3.30207	2.07497	-3.49968
8215.113	0.81042	-3.29025	2.17440	-3.50250
8219.069	0.85672	-3.26223	2.20845	-3.53700
8223.112	0.85538	-3.22543	2.24567	-3.55898
8227.113	0.86766	-3.20213	2.27169	-3.55822
8231.113	0.87910	-3.16618	2.29864	-3.54235
8235.066	0.88108	-3.18540	2.32439	-3.50837
8239.067	0.87312	-3.11347	2.35276	-3.45114
8243.108	0.87788	-3.11416	2.37114	-3.43991
8247.112	0.79335	-3.16771	2.39517	-3.41232
8251.110	0.85106	-3.11803	2.38420	-3.39057
8255.070	0.86327	-3.11576	2.34835	-3.39697
8259.071	0.86188	-3.13610	2.30922	-3.40233
8263.101	0.80476	-3.16359	2.31919	-3.41500
8267.112	0.84729	-3.19923	2.27032	-3.43202
8271.112	0.83225	-3.23129	2.26034	-3.43540
8275.071	0.77484	-3.28124	2.26663	-3.43237
8279.114	0.73734	-3.30779	2.24515	-3.45075
8283.113	0.76712	-3.31743	2.24914	-3.47046
8287.112	0.79424	-3.33236	2.26445	-3.47755
8291.097	0.77838	-3.34245	2.33487	-3.49254
8295.111	0.75399	-3.36719	2.29535	-3.49106
8299.114	0.74422	-3.37710	2.36718	-3.44984
8303.077	0.66427	-3.38629	2.40253	-3.42803
8307.071	0.68233	-3.37274	2.39688	-3.39361
8311.112	0.64645	-3.36919	2.42213	-3.35871
8315.111	0.57736	-3.38263	2.44247	-3.33525
8319.112	0.58630	-3.37510	2.46360	-3.33419
8323.110	0.59868	-3.35214	2.49050	-3.31796
8327.116	0.57851	-3.34046	2.52040	-3.28387
8331.113	0.53466	-3.34346	2.52349	-3.26649
8335.114	0.60657	-3.28455	2.55131	-3.22052
8339.103	0.64367	-3.23841	2.59941	-3.18832
8343.094	0.63481	-3.08263	2.63140	-3.12979
8347.115	0.59464	-3.12189	2.65755	-3.09507
8351.115	0.44187	-3.01245	2.72181	-2.44882
8355.073	-0.22969	-2.73912	2.61595	-1.87984
8359.070	-1.51519	-1.66960	1.85566	-2.33566
8363.114	1.26088	-0.57552	-0.99201	-2.47215
8367.124	7.88310	2.21441	-0.83595	5.72668
8371.104	9.42069	6.98799	NaN	NaN
8375.115	NaN	NaN	NaN	NaN
8379.115	NaN	NaN	NaN	NaN
8383.105	NaN	NaN	NaN	NaN
8387.069	NaN	NaN	NaN	NaN
8391.113	NaN	NaN	NaN	NaN
8395.113	NaN	NaN	NaN	NaN
8399.113	NaN	NaN	NaN	NaN
8403.070	NaN	NaN	NaN	NaN
8407.112	NaN	NaN	NaN	NaN
8411.112	NaN	NaN	NaN	NaN
8415.112	NaN	NaN	NaN	NaN
8419.070	NaN	NaN	NaN	NaN
8423.110	NaN	NaN	NaN	NaN
8427.091	NaN	NaN	NaN	NaN
8431.114	NaN	NaN	NaN	NaN
8435.069	NaN	NaN	NaN	NaN
8439.068	NaN	NaN	NaN	NaN
8443.113	NaN	NaN	-3.99633	7.30801
8447.113	NaN	NaN	NaN	NaN
8451.116	-4.59472	9.93221	2.34637	15.18471
8455.110	-4.00294	2.09051	-3.76300	3.51457
8459.116	-3.49681	0.15132	-3.71711	0.23195
8463.136	-0.75096	4.90089	-3.55926	1.32403
8467.115	-1.28755	1.56307	-2.61134	1.64943
8471.115	-0.85158	1.90077	-1.03689	0.96094
8475.115	-0.79295	2.01881	-0.57625	1.39814
8479.138	-1.75731	1.88682	-0.30081	1.39576
8483.115	-2.57216	1.90705	-0.27361	1.89945
8487.120	-2.26175	2.05463	-0.18055	1.72649
8491.114	-1.80065	2.17114	-0.17122	1.81812
8495.134	-1.92421	2.31558	-0.07182	1.88902
8499.116	-1.35836	2.12599	-0.06631	1.89676
8503.073	-1.13290	2.07784	-0.09741	2.00322
8507.117	-1.43555	2.08719	-0.15280	2.09610
8511.102	-1.59281	2.19360	-0.16677	2.18868
8515.117	-1.34276	2.18593	-0.16313	2.29584
8519.113	-1.39989	2.25050	-0.15648	2.33695
8523.110	-1.32768	2.25672	-0.03050	2.48847
8527.116	-1.31749	2.27937	0.11416	2.59049
8531.115	-1.21918	2.26098	0.10041	2.59883
8535.117	-1.22196	2.20625	0.17285	2.57883
8539.118	-1.24181	2.12951	0.32972	2.48213
8543.111	-1.27956	2.10549	0.32176	2.39740
8547.114	-1.34122	2.13315	0.34873	2.14185
8551.094	-1.35648	2.16072	0.22817	2.04919
8555.119	-1.40251	2.13113	0.23314	2.03939
8559.113	-1.46149	2.09652	0.13240	2.11553
8563.116	-1.54368	2.07362	0.10654	2.16437
8567.117	-1.50857	1.97903	-0.07939	1.99339
8571.083	-1.49550	1.91865	0.01710	1.94715
8575.113	-1.56962	1.81898	0.01881	1.89180
8579.117	-1.61694	1.78288	-0.00700	1.84531
8583.117	-1.47836	1.77496	-0.09518	1.83801
8587.119	-1.50229	1.75201	-0.09125	1.87586
8591.106	-1.55948	1.73052	-0.17918	1.88854
8595.109	-1.52662	1.74966	-0.23534	1.90025
8599.117	-1.54844	1.75991	-0.27011	1.89538
8603.119	-1.52488	1.78738	-0.27858	1.84695
8607.122	-1.59581	1.73049	-0.28235	1.82920
8611.125	-1.48317	1.81883	-0.22758	1.87019
8615.117	-1.52868	1.77127	-0.26570	1.91372
8619.118	-1.49066	1.81686	-0.30860	1.92076
8623.117	-1.53580	1.82593	-0.35474	1.92788
8627.072	-1.53890	1.83149	-0.31838	1.90674
8631.119	-1.52736	1.85847	-0.40353	1.87599
8635.074	-1.45594	1.81151	-0.32345	1.85871
8639.111	-1.48850	1.75351	-0.35980	1.84465
8643.118	-1.40735	1.73605	-0.34645	1.91001
8647.119	-1.37429	1.70763	-0.29739	2.03218
8651.118	-1.42228	1.69310	-0.27925	2.15281
8655.076	-1.48280	1.68370	-0.27438	2.18445
8659.119	-1.47310	1.69009	-0.29669	2.26332
8663.120	-1.46601	1.64085	-0.24984	2.23140
8667.120	-1.47890	1.66844	-0.20884	2.25721
8671.104	-1.45529	1.66352	-0.26309	2.21834
8675.103	-1.52982	1.66366	-0.24584	2.29868
8679.108	-1.59574	1.69768	-0.24262	2.34478
8683.117	-1.67296	1.73698	-0.19405	2.32529
8687.077	-1.63881	1.67248	-0.17094	2.31638
8691.120	-1.68902	1.61826	-0.19301	2.26994
8695.108	-1.74990	1.59880	-0.20204	2.21066
8699.117	-1.64657	1.63108	-0.21328	2.16669
8703.078	-1.64498	1.66620	-0.22716	2.09972
8707.116	-1.64114	1.73122	-0.26649	2.07494
8711.118	-1.60444	1.71810	-0.29999	2.05623
8715.119	-1.59259	1.76784	-0.33920	2.04987
8719.077	-1.63767	1.71187	-0.37519	2.04519
8723.119	-1.67053	1.77656	-0.48361	2.01878
8727.117	-1.53639	1.60538	-0.56483	2.04017
8731.120	-1.55918	1.63321	-0.66496	2.04599
8735.105	-1.48816	1.65523	-0.71645	2.08024
8739.119	-1.44178	1.72406	-0.68002	2.08857
8743.116	-1.49589	1.74305	-0.56022	2.06894
8747.117	-1.40812	1.74987	-0.49068	2.11782
8751.121	-1.41412	1.73044	-0.59630	2.17441
8755.075	-1.36901	1.65022	-0.39325	2.06554
8759.103	-1.43305	1.65904	-0.54585	2.13594
8763.119	-1.46246	1.66780	-0.63091	2.06730
8767.122	-1.44321	1.62019	-0.54106	2.03408
8771.120	-1.52779	1.58205	-0.43492	2.12478
8775.120	-1.64022	1.57147	-0.47703	2.23591
8779.116	-1.63442	1.54933	-0.27408	2.13892
8783.077	-1.69264	1.53392	-0.31975	2.23109
8787.120	-1.64878	1.51688	-0.41445	2.25664
8791.122	-1.60223	1.46054	-0.47870	2.15430
8795.119	-1.63866	1.41521	-0.42966	2.16389
8799.109	-1.58425	1.45775	-0.51964	2.19900
8803.115	-1.55363	1.43381	-0.48185	2.14623
8807.119	-1.54463	1.49690	-0.42820	2.10600
8811.116	-1.57887	1.61284	-0.46711	2.06966
8815.124	-1.59269	1.56249	-0.36936	2.13756
8819.118	-1.56352	1.66041	-0.38107	2.18979
8823.109	-1.55891	1.66130	-0.42864	2.18615
8827.127	-1.58120	1.66191	-0.35923	2.31538
8831.125	-1.68109	1.57220	-0.34464	2.27187
8835.120	-1.52670	1.60933	-0.36648	2.23284
8839.121	-1.64585	1.61567	-0.39633	2.17400
8843.089	-1.64799	1.71126	-0.48249	2.10663
8847.119	-1.73041	1.71035	-0.42770	2.15692
8851.117	-1.76492	1.72138	-0.40968	2.31199
8855.121	-1.77605	1.84462	-0.48274	2.38522
8859.120	-1.75748	2.03916	-0.40872	2.48101
8863.122	-1.76562	2.03811	-0.29041	2.65566
8867.120	-1.70918	2.44889	1.99850	2.29602
8871.122	-1.37930	4.41616	-0.45224	2.30583
8875.122	-1.39244	13.49884	-0.39735	4.59661
8879.123	-0.95589	10.60410	-0.12037	7.47185
8883.105	NaN	NaN	-0.44763	11.59834
8887.118	NaN	NaN	NaN	NaN
8891.120	NaN	NaN	NaN	NaN
8895.118	NaN	NaN	NaN	NaN
8899.118	NaN	NaN	NaN	NaN
8903.075	NaN	NaN	NaN	NaN
8907.124	NaN	NaN	NaN	NaN
8911.118	NaN	NaN	NaN	NaN
8915.120	NaN	NaN	NaN	NaN
8919.077	NaN	NaN	NaN	NaN
8923.075	NaN	NaN	NaN	NaN
8927.086	NaN	NaN	NaN	NaN
8931.123	NaN	NaN	NaN	NaN
8935.076	NaN	NaN	NaN	NaN
8939.074	NaN	NaN	NaN	NaN
8943.117	NaN	NaN	NaN	NaN
8947.120	NaN	NaN	NaN	NaN
8951.122	NaN	NaN	NaN	NaN
8955.074	NaN	NaN	NaN	NaN
8959.120	NaN	NaN	NaN	NaN
8963.122	NaN	NaN	NaN	NaN
8967.117	NaN	NaN	NaN	NaN
8971.074	NaN	NaN	NaN	NaN
8975.120	NaN	NaN	NaN	NaN
8979.120	NaN	NaN	NaN	NaN
8983.077	NaN	NaN	NaN	NaN
8986.989	NaN	NaN	NaN	NaN
