time (ms)	lx (deg)	ly (deg)	rx (deg)	ry (deg)
0.000	-0.40266	0.71245	1.82395	-0.00273
3.998	-0.36323	0.72497	1.81106	-0.02161
8.002	-0.34360	0.69757	1.76356	-0.07754
11.986	-0.35883	0.65585	1.87455	-0.09177
16.002	-0.31059	0.68189	1.91987	-0.07987
20.002	-0.28639	0.65362	1.94017	0.01103
23.999	-0.29076	0.59961	1.92850	0.05034
27.962	-0.27227	0.57883	1.92285	0.00867
31.999	-0.19216	0.59126	1.87649	0.05014
36.002	-0.14441	0.59832	1.85470	0.05183
40.000	-0.08634	0.68667	1.90787	0.08598
43.960	-0.06011	0.69110	1.88427	0.08372
47.999	-0.07711	0.65164	1.89669	0.11452
51.999	-0.04080	0.66250	1.90864	0.22242
56.003	-0.00355	0.68451	1.89516	0.27314
59.959	0.04286	0.66103	1.81111	0.28624
64.004	0.10570	0.68861	1.74340	0.27925
67.992	0.15015	0.72307	1.69646	0.26512
72.002	0.11463	0.75957	1.60980	0.28878
76.005	0.06897	0.78397	1.64920	0.26036
80.003	0.02075	0.77030	1.63509	0.27531
84.001	0.00298	0.73512	1.62076	0.26573
88.002	-0.00548	0.72794	1.65064	0.28336
92.003	-0.07180	0.73110	1.63747	0.28182
96.002	-0.09289	0.72486	1.64977	0.25095
100.003	-0.06068	0.76953	1.78094	0.22550
104.002	-0.11208	0.76744	1.87059	0.21766
108.007	-0.15933	0.79363	2.02807	0.19288
112.003	-0.20698	0.80741	2.13690	0.20663
116.005	-0.19785	0.82011	2.08585	0.04115
120.006	-0.20859	0.80548	2.18885	0.05143
123.961	-0.11486	0.82314	2.23320	0.02513
128.005	-0.06991	0.86521	2.29736	0.03260
132.003	-0.03358	0.81092	2.32669	0.03017
136.002	0.08500	0.78943	2.36440	0.05502
139.897	0.04581	0.76499	2.38526	0.01646
144.005	0.10041	0.79395	2.37644	0.04541
148.003	0.04983	0.78185	2.37003	0.03737
152.003	0.08128	0.71380	2.35068	0.04372
156.005	0.21313	0.69375	2.33489	0.02739
160.005	0.17283	0.75994	2.27952	0.09304
164.002	0.13101	0.61626	1.89947	0.11707
168.002	-0.17635	0.60311	1.21851	0.11816
172.005	-0.65161	0.60693	1.33865	-0.03617
176.001	-0.48552	0.67105	1.25024	-0.11102
180.003	-0.59464	0.58915	1.43987	-0.15712
184.005	-0.63225	0.58256	1.28988	-0.28393
188.004	-0.78414	0.56758	1.28777	-0.23409
192.009	-0.94619	0.63185	1.15602	-0.29510
195.996	-0.90957	0.42302	1.07222	-0.35555
200.002	-0.95437	0.51452	1.05193	-0.36405
204.003	-0.92671	0.52903	0.94046	-0.40033
208.006	-0.92324	0.50560	0.97010	-0.40754
212.004	-0.93234	0.39865	1.03456	-0.44435
216.007	-0.87411	0.41527	1.10480	-0.43681
220.006	-0.86637	0.37584	1.07098	-0.39013
223.959	-0.85977	0.38300	1.10117	-0.37910
228.009	-0.85394	0.41493	1.10760	-0.36128
232.001	-0.86314	0.35888	1.07855	-0.32062
235.904	-0.79652	0.33737	1.16429	-0.32265
240.003	-0.75049	0.41474	1.16550	-0.30647
243.959	-0.75230	0.36502	1.17934	-0.31820
248.005	-0.76754	0.35555	1.18408	-0.32823
252.005	-0.75953	0.33928	1.16719	-0.34168
256.014	-0.77680	0.34494	1.04156	-0.34070
260.003	-0.77479	0.36947	0.90170	-0.38307
264.005	-0.73811	0.44995	0.83741	-0.32335
268.007	-0.72253	0.44972	0.89984	-0.26461
272.003	-0.67893	0.44180	0.89661	-0.19822
275.991	-0.60394	0.65354	0.76920	-0.23607
280.005	-0.59302	0.55980	0.77804	-0.18267
284.009	-0.60496	0.58134	0.76407	-0.19520
288.004	-0.53796	0.59576	0.70347	-0.13507
292.004	-0.52552	0.71405	0.73972	-0.10108
296.006	-0.49758	0.66831	0.73168	-0.06696
300.008	-0.46989	0.73428	0.73722	-0.06783
303.961	-0.47830	0.69820	0.78377	-0.05014
308.004	-0.53582	0.70883	0.79942	-0.04259
312.008	-0.52711	0.75877	0.78126	-0.07074
315.903	-0.54548	0.83193	0.76208	-0.10634
320.005	-0.57416	0.81237	0.81508	-0.10386
324.007	-0.59352	0.76800	0.84176	-0.14190
328.006	-0.60712	0.75332	0.85610	-0.17139
331.898	-0.63124	0.71093	0.85180	-0.24814
336.004	-0.62682	0.70569	0.92162	-0.25571
340.004	-0.67213	0.66379	0.83265	-0.29768
344.006	-0.68399	0.62379	0.85314	-0.27383
347.901	-0.68704	0.63395	0.91758	-0.28856
352.005	-0.67650	0.51781	0.86724	-0.33085
356.005	-0.69285	0.45181	0.97412	-0.32766
359.988	-0.68302	0.41872	0.98484	-0.35447
363.898	-0.69022	0.39894	0.95447	-0.39827
368.006	-0.68824	0.39850	0.94130	-0.37112
372.005	-0.73692	0.37792	0.93028	-0.35363
376.006	-0.75953	0.35136	0.96777	-0.30590
380.008	-0.77801	0.37235	0.85555	-0.30099
384.006	-0.80729	0.36089	0.78992	-0.31426
388.004	-0.85436	0.34558	0.65761	-0.29745
392.008	-0.85925	0.29830	0.57185	-0.29467
395.903	-0.87701	0.30257	0.54915	-0.24980
400.004	-0.86091	0.29989	0.51565	-0.22686
403.999	-0.87361	0.30161	0.53019	-0.22840
408.007	-0.91726	0.35102	0.49490	-0.18430
412.009	-0.98660	0.31265	0.48671	-0.16832
416.009	-1.02044	0.29762	0.51364	-0.16370
419.881	-1.04029	0.27267	0.47185	-0.19901
423.961	-1.06339	0.24214	0.51562	-0.20209
427.840	-1.06277	0.20999	0.54009	-0.16362
431.836	-1.05820	0.18097	0.63047	-0.18839
435.884	-1.07133	0.13687	0.58607	-0.14131
439.883	-1.07932	0.17553	0.61568	-0.10642
443.966	-1.11107	0.21990	0.66761	-0.11666
447.869	-1.12797	0.23500	0.66439	-0.08505
451.871	-1.13516	0.20618	0.67389	-0.04391
455.881	-1.10333	0.20705	0.74096	-0.03479
459.839	-1.07654	0.22189	0.71394	0.00629
463.880	-1.08892	0.23381	0.68134	0.01009
467.880	-1.05213	0.27955	0.65796	0.04070
471.883	-1.02985	0.28601	0.63823	0.04368
475.866	-1.01243	0.30189	0.56158	0.10292
479.881	-0.95926	0.32823	0.61052	0.15748
483.880	-0.93071	0.33102	0.58396	0.16196
487.880	-0.93351	0.32749	0.56354	0.18735
491.865	-0.89034	0.31693	0.58128	0.23876
495.838	-0.86699	0.29117	0.58741	0.24112
499.880	-0.88848	0.29393	0.55664	0.27648
503.880	-0.88451	0.33368	0.55977	0.24465
507.900	-0.87029	0.34799	0.53969	0.31798
511.883	-0.89679	0.31465	0.53302	0.29599
515.882	-0.96757	0.39633	0.54580	0.30419
519.881	-1.04682	0.37739	0.57456	0.25817
523.902	-1.05153	0.40653	0.56280	0.19476
527.885	-1.13732	0.37564	0.59796	0.09529
531.860	-1.12874	0.39904	0.63563	0.04927
535.882	-1.19867	0.41642	0.64238	-0.05690
539.880	-1.18423	0.43001	0.63387	-0.06426
543.884	-1.15198	0.48450	0.67335	-0.08878
547.883	-1.10708	0.49549	0.68503	-0.17338
551.838	-1.10604	0.45554	0.72732	-0.22231
555.874	-1.09266	0.45045	0.75002	-0.27282
559.883	-0.97388	0.42781	0.77220	-0.33558
563.882	-0.97308	0.40036	0.81012	-0.37655
567.884	-1.03402	0.45287	0.83553	-0.43172
571.901	-1.03419	0.47749	0.79436	-0.45501
575.891	-1.14203	0.42652	0.80151	-0.48833
579.882	-1.12474	0.42396	0.81982	-0.51362
583.882	-1.19085	0.45659	0.82322	-0.53752
587.905	-1.24476	0.44886	0.78250	-0.56050
591.881	-1.25982	0.38534	0.76938	-0.57084
595.882	-1.34849	0.41026	0.72759	-0.59432
599.881	-1.34400	0.37844	0.72697	-0.55504
603.900	-1.38706	0.42827	0.72970	-0.56185
607.885	-1.45586	0.41116	0.67583	-0.53855
611.882	-1.48684	0.39884	0.67476	-0.49557
615.883	-1.49185	0.45679	0.68176	-0.43547
619.881	-1.47422	0.40883	0.65350	-0.33338
623.837	-1.46727	0.34268	0.65474	-0.32123
627.882	-1.45058	0.28709	0.63791	-0.24276
631.880	-1.41415	0.24114	0.63769	-0.14260
635.902	-1.36710	0.22569	0.63801	-0.08018
639.881	-1.31250	0.21789	0.68134	-0.02828
643.882	-1.33425	0.19933	0.64424	-0.03655
647.884	-1.30923	0.18326	0.54746	-0.07976
651.905	-1.24964	0.15296	0.53284	-0.10739
655.870	-1.20871	0.19256	0.48609	-0.05718
659.879	-1.19686	0.14814	0.34930	-0.12268
663.884	-1.16768	0.14409	0.36228	-0.16504
667.906	-1.14523	0.17378	0.26426	-0.15394
671.881	-1.15099	0.22384	0.15399	-0.22990
675.840	-1.17537	0.21202	0.13516	-0.26782
679.883	-1.21489	0.27246	0.09617	-0.31295
683.917	-1.27264	0.24212	0.05127	-0.36110
687.882	-1.24855	0.24649	0.03204	-0.38203
691.852	-1.22782	0.25894	0.01765	-0.37778
695.886	-1.18552	0.27239	0.02695	-0.35514
699.885	-1.22112	0.29424	0.02978	-0.38881
703.886	-1.22965	0.35416	0.05979	-0.37599
707.885	-1.19706	0.41714	0.10845	-0.36876
711.885	-1.22787	0.53648	0.15645	-0.35767
715.908	-1.20512	0.68280	0.24532	-0.32969
719.888	-1.19954	0.55355	0.25118	-0.32959
723.841	-1.20618	0.57866	0.31416	-0.27234
727.886	-1.21529	0.69370	0.35533	-0.21444
731.907	-1.28445	0.67321	0.36238	-0.16830
735.887	-1.35139	0.69724	0.38871	-0.13706
739.865	-1.36675	0.70081	0.38703	-0.07328
743.845	-1.40909	0.68550	0.40772	-0.00877
747.843	-1.43027	0.71644	0.41958	0.03941
751.882	-1.44706	0.70491	0.43579	0.08829
755.883	-1.50601	0.71577	0.44529	0.13309
759.887	-1.52955	0.70456	0.45413	0.20323
763.906	-1.54244	0.69092	0.47634	0.26269
767.885	-1.53066	0.70555	0.50034	0.31453
771.886	-1.44445	0.74507	0.45242	0.22694
775.886	-1.49659	0.79306	0.41678	0.16484
779.875	-1.44292	0.78064	0.49550	0.13987
783.877	-1.46948	0.74986	0.50776	0.16497
787.884	-1.46640	0.76940	0.46671	0.05894
791.892	-1.49505	0.70147	0.48068	-0.00663
795.903	-1.53089	0.63815	0.40383	0.00330
799.885	-1.51134	0.57593	0.39668	-0.08364
803.841	-1.53855	0.50320	0.30821	-0.10335
807.887	-1.58215	0.42103	0.35069	-0.18346
811.907	-1.60717	0.37857	0.30439	-0.21211
815.884	-1.66224	0.29352	0.32139	-0.19032
819.888	-1.67484	0.21900	0.37072	-0.20177
823.840	-1.69408	0.24610	0.34861	-0.21539
827.881	-1.70142	0.21319	0.32144	-0.24891
831.886	-1.71553	0.19076	0.33409	-0.29746
835.883	-1.69946	0.23363	0.28560	-0.32373
839.885	-1.69396	0.24056	0.32238	-0.32939
843.871	-1.70973	0.20693	0.31156	-0.41258
847.886	-1.70993	0.23795	0.36233	-0.43410
851.886	-1.58567	0.27840	0.38030	-0.47509
855.886	-1.51983	0.35703	0.44815	-0.42574
859.872	-1.43461	0.44110	0.57471	-0.42449
863.873	-1.42908	0.45923	0.63007	-0.39634
867.841	-1.37446	0.44017	0.56627	-0.39614
871.886	-1.43421	0.44351	0.56781	-0.39483
875.873	-1.32232	0.42848	0.58493	-0.37801
879.885	-1.39421	0.41547	0.56027	-0.36327
883.885	-1.37850	0.50383	0.61838	-0.37316
887.885	-1.40849	0.54434	0.60555	-0.32709
891.876	-1.37359	0.52395	0.56218	-0.31527
895.886	-1.41278	0.55678	0.48614	-0.28441
899.886	-1.41737	0.50675	0.43495	-0.27634
903.886	-1.41598	0.60768	0.40105	-0.25663
907.845	-1.50333	0.46761	0.32687	-0.23701
911.886	-1.62287	0.52854	0.31461	-0.26677
915.886	-1.46936	0.49783	0.29451	-0.24255
919.888	-1.35946	0.48314	0.25743	-0.25982
923.844	-1.36094	0.48352	0.27406	-0.27570
927.841	-1.29253	0.44103	0.24875	-0.23601
931.843	-1.31937	0.44060	0.26195	-0.26079
935.887	-1.20889	0.36557	0.28587	-0.26598
939.890	-1.25977	0.32045	0.30143	-0.25172
943.883	-1.15332	0.27217	0.31677	-0.27371
947.887	-1.26051	0.28644	0.33166	-0.28491
951.886	-1.20368	0.30031	0.36762	-0.29855
955.892	-1.21484	0.22687	0.37645	-0.26064
959.890	-1.20936	0.25378	0.41623	-0.21370
963.887	-1.23134	0.21912	0.42564	-0.19541
967.889	-1.26433	0.22682	0.42768	-0.16867
971.889	-1.23119	0.16223	0.44098	-0.16857
975.891	-1.22298	0.13033	0.38454	-0.13277
979.886	-1.26453	0.10591	0.38090	-0.07969
983.890	-1.22841	0.18079	0.36015	0.02015
987.891	-1.31444	0.35738	0.37459	0.00417
991.842	-1.31898	0.59098	0.38871	-0.00621
995.888	-1.33225	0.57012	0.39301	0.02244
999.887	-1.26738	0.33066	0.41571	0.03215
1003.891	-1.33604	0.37179	0.42916	0.02033
1007.889	-1.32870	0.39263	0.45544	-0.03330
1011.887	-1.30814	0.34653	0.52344	-0.03690
1015.888	-1.39058	0.41609	0.54766	-0.05658
1019.893	-1.38458	0.41972	0.54081	-0.04058
1023.843	-1.37020	0.49467	0.50652	0.02286
1027.888	-1.38339	0.45174	0.45378	-0.08463
1031.859	-1.30112	0.44050	0.43142	-0.06234
1035.855	-1.31798	0.43265	0.34605	-0.16691
1039.889	-1.35325	0.38234	0.27329	-0.22848
1043.890	-1.33234	0.42189	0.25252	-0.36627
1047.888	-1.31811	0.41320	0.25565	-0.40776
1051.892	-1.37521	0.40345	0.22048	-0.45865
1055.845	-1.33941	0.37737	0.17037	-0.42484
1059.866	-1.28110	0.41263	0.12349	-0.35067
1063.889	-1.30814	0.44505	0.10257	-0.48010
1067.893	-1.32547	0.45103	0.14707	-0.49757
1071.863	-1.39470	0.48130	0.12856	-0.47722
1075.889	-1.34103	0.44844	0.14295	-0.51754
1079.888	-1.32577	0.42304	0.18236	-0.44591
1083.886	-1.22040	0.44963	0.27068	-0.40992
1087.885	-1.30590	0.50715	0.27830	-0.35377
1091.888	-1.33249	0.50476	0.32642	-0.34037
1095.889	-1.30836	0.49786	0.36812	-0.33230
1099.892	-1.36412	0.54013	0.40224	-0.28526
1103.890	-1.45919	0.57619	0.41078	-0.33567
1107.890	-1.54314	0.61904	0.43132	-0.34507
1111.899	-1.48882	0.87145	0.45438	-0.28963
1115.866	-1.19780	0.74646	0.47646	-0.12051
1119.893	-1.36866	1.08013	0.44718	-0.07939
1123.888	-1.37260	1.35994	0.45448	0.24709
1127.889	-1.24942	1.58539	0.47505	0.69589
1131.893	-1.26443	1.82979	0.48619	0.69582
1135.889	-1.09991	1.81997	0.48011	0.74712
1139.889	-1.12792	1.73845	0.51021	0.72212
1143.892	-1.22055	1.84975	0.49210	0.72729
1147.892	-1.11512	1.82443	0.53639	0.80763
1151.889	-1.08830	1.90836	0.60699	0.88160
1155.867	-1.03846	2.05778	0.71193	1.08003
1159.891	-1.06510	2.23227	0.63903	1.01991
1163.893	-1.07850	2.12273	0.60173	1.05132
1167.891	-1.00422	2.07296	0.59975	1.03691
1171.889	-1.00355	1.95906	0.75446	0.99048
1175.891	-1.02541	1.66011	0.80022	1.05301
1179.892	-1.02513	1.57648	0.68082	0.96580
1183.891	-0.99060	1.66624	0.69203	0.94240
1187.889	-0.92353	1.59261	0.71238	1.00790
1191.893	-0.93016	2.04596	0.76161	0.97664
1195.887	-0.92562	1.72642	0.64106	1.04368
1199.879	-0.93016	1.71316	0.65355	0.98844
1203.889	-0.99070	1.73408	0.58729	0.92965
1207.893	-0.83032	1.71246	0.65960	0.92007
1211.793	-0.75712	1.61887	0.77332	0.84791
1215.889	-0.63990	1.66114	0.65553	0.84836
1219.891	-0.61476	1.95496	0.71384	0.78974
1223.845	-0.70655	1.81468	0.75466	0.79848
1227.784	-0.79600	1.85225	0.79436	0.86979
1231.888	-0.82965	1.83928	0.71662	0.80721
1235.890	-0.92143	1.77688	0.66240	0.80935
1239.860	-0.93438	1.73009	0.71980	0.81481
1243.758	-0.96998	1.72218	0.76781	0.83758
1247.866	-0.87977	1.69583	0.81937	0.91030
1251.889	-0.99941	1.67867	0.85210	0.90135
1255.889	-0.95939	1.79022	0.83769	0.88998
1259.893	-0.80476	1.69989	0.88039	0.92807
1263.892	-0.77278	1.77636	0.88612	0.91913
1267.891	-0.72231	1.71077	0.87597	0.96678
1271.892	-0.73367	1.60696	0.90197	0.95194
1275.791	-0.67744	1.58665	0.93274	0.99443
1279.877	-0.82307	1.61378	0.94822	0.99532
1283.892	-0.55203	1.85786	1.04766	1.12568
1287.891	-0.48788	1.89349	1.11953	1.31583
1291.894	-0.14454	2.60713	1.26029	3.94834
1295.890	-0.18566	4.60561	1.32438	4.18519
1299.848	-0.16600	5.46004	1.43840	4.54243
1303.891	-0.00246	6.05349	1.49981	5.64707
1307.896	0.18256	5.91243	1.86724	5.22090
1311.890	0.36243	6.07069	1.94253	5.28670
1315.892	0.36524	5.86245	2.05908	5.21146
1319.898	0.46904	5.90572	2.19137	5.16486
1323.893	0.44510	5.78436	2.04237	4.92974
1327.891	0.49644	5.62777	2.20974	4.95573
1331.892	0.39333	5.74627	2.30306	5.08228
1335.890	0.39668	5.78112	2.37062	5.16245
1339.893	0.33953	5.85243	2.43672	5.19872
1343.893	0.25001	5.81377	2.48250	5.25992
1347.893	0.32387	5.80269	2.53905	5.24458
1351.891	0.31888	5.77239	2.58254	5.24718
1355.895	0.39328	5.79178	2.55049	5.28808
1359.890	0.48704	5.77645	2.54772	5.31703
1363.867	0.50910	5.76682	2.56542	5.42730
1367.892	0.48644	5.87042	2.51715	5.47185
1371.789	0.51518	5.92045	2.43523	5.49460
1375.893	0.57049	5.94447	2.36896	5.48542
1379.890	0.63791	5.94970	2.31743	5.47969
1383.895	0.56257	5.98279	2.27662	5.47655
1387.895	0.60476	6.00005	2.24807	5.48696
1391.892	0.66429	6.03313	2.21977	5.47169
1395.894	0.68712	6.06643	2.19222	5.47876
1399.896	0.69714	6.06179	2.21179	5.49062
1403.888	0.69089	6.09838	2.19747	5.42785
1407.881	0.70764	6.11556	2.16022	5.44570
1411.893	0.71424	6.09143	2.16979	5.44116
1415.894	0.71092	6.01698	2.14156	5.51899
1419.896	0.73814	6.02193	2.13955	5.55115
1423.893	0.72950	6.04824	2.17021	5.61846
1427.890	0.78017	5.98875	2.19075	5.75290
1431.891	0.82575	5.98325	2.16513	5.85384
1435.786	0.84788	5.98956	2.19502	5.97030
1439.892	0.87595	5.98204	2.20679	6.14490
1443.893	0.89255	5.99268	2.20793	6.34277
1447.895	0.90460	6.02525	2.22428	6.36835
1451.774	0.90887	5.97909	2.25950	6.47643
1455.766	0.90942	6.02654	2.25214	6.36011
1459.768	0.93001	6.07670	2.30102	6.40916
1463.769	0.95418	6.12348	2.33626	6.46557
1467.755	0.95112	6.08033	2.31648	6.43136
1471.768	0.94961	6.11990	2.31279	6.35693
1475.768	0.95294	6.12383	2.34020	6.37831
1479.769	0.94046	6.09337	2.36088	6.33383
1483.752	0.92564	6.10160	2.38333	6.30329
1487.767	0.90438	6.02974	2.37151	6.21957
1491.725	0.87076	5.98303	2.37069	6.17044
1495.763	0.85180	5.96021	2.39099	6.12657
1499.728	0.84513	5.96282	2.43283	6.12152
1503.768	0.72064	5.99593	2.45270	6.16600
1507.768	0.67087	6.79591	2.40097	6.59770
1511.769	0.53270	6.78241	2.18342	7.05534
1515.759	0.44867	6.96792	2.07259	7.55117
1519.770	0.39891	6.99404	2.03320	7.83436
1523.769	0.29391	7.07356	1.97582	7.98410
1527.770	0.23567	7.03402	2.09063	8.15241
1531.764	0.20512	7.05726	2.13846	8.14900
1535.724	0.06289	6.84095	2.28975	8.09070
1539.767	-0.10480	7.00528	2.22220	8.12599
1543.769	-0.03571	7.17368	1.80414	8.01381
1547.727	-0.07775	7.18201	1.73817	8.14710
1551.768	-0.11230	7.26768	1.73058	8.15324
1555.769	-0.17419	7.25005	1.79929	8.11381
1559.768	-0.22209	7.29761	1.88497	7.99794
1563.759	-0.19693	7.29063	2.15975	8.09873
1567.769	-0.21214	7.31514	2.08325	8.02544
1571.768	-0.20934	7.36164	2.03122	8.02036
1575.769	-0.18576	7.34772	2.01258	8.15215
1579.754	-0.15479	7.36836	2.07184	8.28192
1583.770	-0.06929	7.35366	2.03129	8.27777
1587.768	-0.01631	7.28727	1.97379	8.47704
1591.768	0.05430	7.21222	2.05618	8.67698
1595.728	0.03963	7.18715	2.09100	8.41440
1599.770	0.14851	7.17554	2.10907	8.35114
1603.771	0.23822	7.18553	2.09546	8.43221
1607.769	0.24356	7.16718	2.08820	8.29421
1611.727	0.27416	7.18436	2.09021	8.43696
1615.769	0.28540	7.15674	2.12882	8.24222
1619.770	0.28878	7.15913	2.16610	8.11352
1623.728	0.32196	7.16721	2.15762	8.15381
1627.729	0.30520	7.19107	2.14630	8.01557
1631.770	0.26627	7.26157	2.19886	7.90857
1635.768	0.23353	7.35043	2.22914	7.94692
1639.769	0.24599	7.41497	2.27335	7.85811
1643.728	0.25736	7.45085	2.32114	7.78436
1647.769	0.23879	7.49674	2.37694	7.79275
1651.769	0.22773	7.54037	2.39854	7.75543
1655.771	0.23770	7.61510	2.43402	7.72340
1659.727	0.24100	7.57127	2.44138	7.69154
1663.770	0.23718	7.63763	2.46590	7.70957
1667.770	0.25105	7.67197	2.48381	7.69676
1671.771	0.22385	7.73606	2.51750	7.72402
1675.728	0.24907	7.78347	2.53835	7.73138
1679.772	0.23363	7.71842	2.53365	7.68350
1683.726	0.23175	7.76738	2.50469	7.67179
1687.770	0.19383	7.74710	2.48884	7.68871
1691.755	0.15563	7.72872	2.43270	7.66233
1695.771	0.11893	7.71741	2.38204	7.64810
1699.772	0.01767	7.59917	2.38110	7.69488
1703.766	-0.01397	7.68039	2.38276	7.75504
1707.730	-0.03204	7.62417	2.35851	7.76451
1711.771	-0.10332	7.52700	2.31069	7.73993
1715.770	-0.15729	7.40846	2.27523	7.73458
1719.773	-0.19802	7.43495	2.23083	7.70673
1723.761	-0.07229	7.37950	2.16962	7.78959
1727.773	1.07689	7.21084	2.17304	7.19436
1731.774	1.22013	6.94618	2.50860	6.70178
1735.771	1.63164	4.44303	2.74895	5.79777
1739.732	1.96776	4.05507	3.44515	5.00998
1743.749	2.01632	3.66940	3.43031	4.43453
1747.771	1.84456	3.58770	3.38672	3.77964
1751.770	1.90542	3.46253	3.56586	3.44080
1755.769	2.00224	3.51105	3.46249	3.43577
1759.773	2.00973	3.55537	3.61975	3.39822
1763.772	1.93108	3.48282	3.60591	3.51799
1767.771	1.92513	3.47333	3.66313	3.47784
1771.770	1.93636	3.54038	3.70435	3.54129
1775.774	1.98271	3.49718	3.74152	3.59541
1779.771	1.94726	3.50055	3.74735	3.57488
1783.760	1.91258	3.49753	3.73233	3.59270
1787.769	1.86920	3.49987	3.76893	3.57055
1791.772	1.87398	3.53571	3.76806	3.58999
1795.771	1.90435	3.57226	3.75852	3.68439
1799.769	1.88740	3.59778	3.79707	3.81068
1803.770	1.89389	3.63227	3.73309	3.85596
1807.730	1.95247	3.67726	3.72748	3.93171
1811.771	2.06835	3.73190	3.73707	4.06694
1815.730	2.02007	3.73565	3.66261	4.11073
1819.770	2.05514	3.76183	3.62140	4.02325
1823.773	2.14798	3.78215	3.60979	4.07473
1827.777	2.21561	3.78920	3.54729	4.06881
1831.772	2.22156	3.78419	3.53926	4.13312
1835.769	2.24302	3.77771	3.52877	4.19068
1839.774	2.21003	3.71131	3.57362	4.08883
1843.776	2.28261	3.65109	3.63255	4.05580
1847.773	2.31103	3.58449	3.75716	3.97825
1851.768	2.23781	3.54411	3.78657	3.92118
1855.771	2.22416	3.53662	3.90217	3.88672
1859.774	2.23147	3.52381	3.97407	3.87005
1863.774	2.26056	3.49653	4.10310	3.85273
1867.769	2.23861	3.48605	4.11076	3.87022
1871.769	2.26031	3.46287	4.11429	3.89549
1875.774	2.29386	3.47815	4.10503	3.87730
1879.772	2.32483	3.49922	4.14455	3.87898
1883.770	2.31948	3.53896	4.15818	3.93605
1887.772	2.35073	3.55938	4.15295	3.93294
1891.776	2.35095	3.58886	4.16277	3.95850
1895.773	2.39480	3.59068	4.13782	3.97455
1899.772	2.42599	3.57247	4.15500	3.99186
1903.774	2.43531	3.52657	4.13100	3.99768
1907.776	2.36398	3.51369	4.11419	4.00800
1911.738	2.40305	3.46390	4.11984	3.98663
1915.768	2.42611	3.42599	4.12174	3.98223
1919.774	2.54549	3.45779	4.17169	3.93995
1923.729	3.55822	3.37000	4.29191	3.76270
1927.729	5.29017	3.37477	5.06387	3.72628
1931.732	6.40859	3.36831	6.79019	3.66793
1935.775	6.77029	3.32853	7.25157	3.53201
1939.774	7.92335	3.26495	8.87203	3.59103
1943.781	9.29855	3.22235	9.49016	3.44156
1947.765	9.48437	3.32238	10.01356	3.49610
1951.752	9.55396	3.31775	10.31170	3.31019
1955.773	9.68954	3.31232	10.39851	3.34435
1959.781	9.69600	3.27700	10.54984	3.31550
1963.766	9.81491	3.23134	10.73080	3.30174
1967.772	9.67524	3.21086	10.72103	3.37718
1971.773	9.67150	3.22572	10.73960	3.31208
1975.773	9.71394	3.22385	10.72994	3.29776
1979.731	9.71252	3.23045	10.76056	3.28146
1983.773	9.65985	3.19987	10.86084	3.23848
1987.773	9.55806	3.22116	10.88793	3.18958
1991.730	9.51329	3.20199	10.93892	3.17522
1995.774	9.51942	3.18976	10.94914	3.14359
1999.773	9.35764	3.15765	10.94500	3.11250
2003.772	9.37965	3.15359	10.93823	3.11965
2007.773	9.31499	3.16505	10.92686	3.09868
2011.733	9.36602	3.18045	10.91176	3.10608
2015.774	9.33983	3.15214	10.89954	3.10923
2019.772	9.33275	3.16015	10.89899	3.15276
2023.774	9.30450	3.13791	10.88975	3.17526
2027.733	9.32896	3.16852	10.86555	3.21838
2031.774	9.33323	3.14790	10.83766	3.23231
2035.745	9.34541	3.14534	10.80606	3.26016
2039.775	9.30994	3.11038	10.77593	3.31377
2043.733	9.29797	3.05053	10.75771	3.32831
2047.774	9.31518	3.07038	10.75751	3.33094
2051.775	9.28739	3.01492	10.74106	3.34168
2055.774	9.26517	2.96952	10.71324	3.33412
2059.736	9.23657	2.92813	10.69661	3.32124
2063.775	9.21459	2.88936	10.68643	3.26571
2067.771	9.20069	2.84369	10.66857	3.23300
2071.776	9.22995	2.85554	10.65937	3.18645
2075.733	9.28214	2.85375	10.66095	3.12360
2079.767	9.34715	2.86247	10.66335	3.09620
2083.776	9.41520	2.87956	10.70268	3.13303
2087.776	9.51457	2.88951	10.70390	3.13995
2091.733	9.56646	2.91317	10.69211	3.13236
2095.732	9.69048	2.92703	10.70186	3.07636
2099.775	9.68090	2.98193	10.69568	3.02858
2103.774	9.68537	3.00791	10.76391	3.01407
2107.733	9.65691	2.99944	10.67667	3.16762
2111.775	9.66118	3.06448	10.65913	3.31817
2115.776	9.52898	3.07630	10.61711	3.41834
2119.777	9.57247	3.08747	10.59327	3.44594
2123.734	9.67644	3.12262	10.57025	3.49061
2127.775	9.64731	3.14475	10.53000	3.52200
2131.776	9.58586	3.22224	10.55214	3.53723
2135.773	9.58806	3.29900	10.80137	3.54375
2139.774	9.57855	3.29409	10.89030	3.49573
2143.778	9.57674	3.32046	10.78077	3.44690
2147.774	9.55437	3.35369	10.79490	3.57436
2151.775	9.60111	3.38532	10.85358	3.49776
2155.675	9.60654	3.34852	10.79018	3.46341
2159.753	9.66817	3.37769	10.87917	3.45652
2163.775	9.67357	3.36843	10.80474	3.43600
2167.777	9.67090	3.37539	10.91559	3.44397
2171.789	9.65782	3.36859	10.87252	3.36271
2175.775	9.66868	3.33926	10.84923	3.32454
2179.776	9.70524	3.29078	10.82801	3.32383
2183.732	9.65809	3.03124	10.80857	3.32988
2187.772	9.69270	3.15549	10.84990	3.42201
2191.773	9.73291	3.11301	10.85040	3.35158
2195.774	9.77247	3.09848	10.86517	3.36510
2199.764	9.81113	3.10842	10.91009	3.36504
2203.676	9.84045	3.10981	10.93229	3.38560
2207.777	9.88470	3.11061	10.97779	3.41435
2211.775	9.91517	3.09954	11.02961	3.35357
2215.776	9.87904	3.10573	10.97131	3.37655
2219.680	9.59990	3.04969	10.56157	3.42188
2223.778	8.97688	3.09310	9.80132	3.39081
2227.778	8.98685	3.13177	9.76854	3.42709
2231.777	8.76212	3.13991	10.07779	3.34712
2235.675	8.82911	3.10879	10.22690	3.26793
2239.777	8.88029	3.06121	10.07680	3.31882
2243.782	8.67679	3.05705	9.99597	3.29767
2247.770	8.65256	3.04211	9.86755	3.33190
2251.679	8.71746	3.03928	9.87413	3.31048
2255.778	8.66265	3.03943	9.88456	3.29357
2259.777	8.64068	3.01967	9.82479	3.24994
2263.780	8.63607	3.07181	9.85821	3.24383
2267.672	8.66704	3.08765	9.82371	3.22721
2271.778	8.70558	3.13820	9.85298	3.18524
2275.777	8.74084	3.17109	9.87678	3.13937
2279.780	8.64725	3.18927	9.80486	3.22441
2283.762	8.61111	3.24407	9.74675	3.28488
2287.770	8.58917	3.38518	9.65411	3.34150
2291.778	8.58032	3.48821	9.62939	3.33200
2295.779	8.56983	3.56010	9.61860	3.24554
2299.694	8.61038	3.60275	9.59264	3.22152
2303.735	8.62935	3.60736	9.59378	3.20543
2307.778	8.63590	3.63326	9.60401	3.27641
2311.779	8.61533	3.70479	9.65515	3.31383
2315.673	8.58323	3.64353	9.75782	3.38096
2319.779	8.58997	3.65734	9.83913	3.46769
2323.779	8.58313	3.53626	9.86589	3.40152
2327.781	8.58733	3.51495	9.92813	3.37102
2331.781	8.62358	3.45066	9.88046	3.36763
2335.778	8.53518	3.21309	9.93179	3.36142
2339.779	8.55251	3.13190	9.96783	3.40522
2343.779	8.54773	3.08782	9.93487	3.45239
2347.672	8.49666	2.94706	9.96162	3.48091
2351.779	8.51231	2.88762	9.89388	3.44411
2355.778	8.50996	2.88999	9.87827	3.45016
2359.784	8.52057	2.81796	9.83214	3.37742
2363.677	8.50508	2.78027	9.80867	3.32771
2367.757	8.54294	2.75347	9.76411	3.30995
2371.778	8.56549	2.72762	9.80913	3.27741
2375.781	8.58796	2.69826	9.76442	3.28002
2379.644	8.66772	2.70668	9.76929	3.23271
2383.779	8.70638	2.70917	9.74253	3.20160
2387.775	8.70449	2.74053	9.71355	3.09988
2391.778	8.76903	2.81229	9.64383	3.21426
2395.675	8.77005	2.81929	9.66815	3.34715
2399.779	8.81377	2.83921	9.71541	3.21390
2403.778	8.80708	2.81075	9.69781	3.06710
2407.770	8.87021	1.89443	9.53873	0.56126
2411.673	8.79843	-0.00670	9.45445	0.14187
2415.776	8.52355	-1.13670	8.92907	-1.71225
2419.779	7.89564	-2.68662	8.73764	-2.33591
2423.733	7.91570	-3.70149	8.75247	-3.00763
2427.644	7.72914	-4.41665	8.73410	-3.89315
2431.735	7.93664	-4.78255	8.69879	-4.31013
2435.780	7.64961	-5.01545	8.66964	-4.75073
2439.777	7.63301	-5.34933	8.64907	-5.18183
2443.640	7.58495	-5.63153	8.53673	-5.40057
2447.781	7.49283	-5.78442	8.53498	-5.53435
2451.779	7.50264	-5.77710	8.52137	-5.65732
2455.783	7.46541	-5.77429	8.51074	-5.56433
2459.638	7.46848	-5.73471	8.51282	-5.64178
2463.779	7.47573	-5.85199	8.49712	-5.66201
2467.779	7.47797	-5.88417	8.49311	-5.60414
2471.778	7.45433	-5.92569	8.51945	-5.64032
2475.644	7.42476	-5.98929	8.53583	-5.71179
2479.780	7.40621	-6.02115	8.54617	-5.75790
2483.780	7.37013	-6.04784	8.53095	-5.80153
2487.778	7.37294	-6.04485	8.49581	-5.82015
2491.638	7.34929	-6.04400	8.43664	-5.83255
2495.649	7.33486	-6.06618	8.37606	-5.87895
2499.645	7.35373	-6.07111	8.43239	-5.91626
2503.655	7.31506	-6.09467	8.44038	-5.95254
2507.652	7.29897	-6.09230	8.63338	-5.96127
2511.656	7.25943	-6.08725	8.69261	-5.96080
2515.653	7.28522	-6.09982	8.84271	-5.93856
2519.612	7.27641	-6.12648	8.96293	-5.96256
2523.782	7.29167	-6.13236	9.10480	-5.96649
2527.659	7.30021	-6.13966	9.19689	-5.95438
2531.655	7.28466	-6.15244	9.04994	-5.95917
2535.655	7.32851	-6.14519	9.14380	-5.95810
2539.614	7.41521	-6.15688	9.17217	-5.93690
2543.658	7.42468	-6.21221	9.08568	-5.93693
2547.655	7.49244	-6.25400	9.07332	-5.93021
2551.656	7.48163	-6.32090	8.94694	-5.94201
2555.784	7.53062	-6.34329	8.82393	-5.94093
2559.612	7.53532	-6.37225	8.78995	-5.96346
2563.652	7.56954	-6.37343	8.65793	-5.95415
2567.655	7.63813	-6.37536	8.55775	-5.92555
2571.655	7.59612	-6.39493	8.44567	-5.92036
2575.659	7.64069	-6.41069	8.44013	-5.89112
2579.645	7.68893	-6.40075	8.41704	-5.84253
2583.650	7.59844	-6.40470	8.43664	-5.80693
2587.653	7.25059	-6.36790	8.37497	-5.77201
2591.658	6.74073	-6.09165	6.82381	-5.57524
2595.658	5.23327	-4.26027	5.32587	-4.65794
2599.656	4.18144	-3.52285	4.33811	-2.99713
2603.652	3.32803	-2.92179	3.36493	-2.29893
2607.657	2.31009	-1.92811	2.40999	-2.21006
2611.656	1.28177	-1.56367	1.99250	-1.62679
2615.654	0.97435	-0.74277	1.83184	-0.92828
2619.676	0.51289	-0.22435	1.41494	-0.47017
2623.632	0.53002	-0.37798	1.07897	-0.14236
2627.654	0.46919	-0.45206	1.30114	-0.22532
2631.658	0.43361	-0.29383	1.59390	0.10492
2635.653	0.27098	-0.23691	1.65999	0.03050
2639.657	0.14690	-0.23139	1.44815	0.03041
2643.656	0.07540	-0.05772	1.51313	0.12741
2647.656	-0.04028	-0.04038	1.43778	0.15561
2651.653	-0.10458	-0.09167	1.35187	0.17862
2655.658	-0.13531	-0.01620	1.26309	0.21131
2659.615	-0.17216	-0.02495	1.25657	0.25400
2663.637	-0.20618	-0.01014	1.25565	0.29660
2667.678	-0.21492	-0.01265	1.35492	0.28921
2671.658	-0.27051	0.01071	1.35767	0.30198
2675.656	-0.30106	0.01565	1.30625	0.28542
2679.658	-0.32945	0.01327	1.22861	0.27690
2683.616	-0.32618	0.03444	1.20792	0.29134
2687.658	-0.34526	-0.00974	1.20884	0.27718
2691.658	-0.33154	-0.03141	1.17609	0.24019
2695.667	-0.33935	-0.02691	1.15168	0.21026
2699.648	-0.33245	-0.04098	1.10651	0.21242
2703.658	-0.26917	-0.04515	1.07240	0.15555
2707.650	-0.28634	-0.07278	1.05932	0.13369
2711.657	-0.28788	-0.12086	1.01804	0.10855
2715.680	-0.28600	-0.14422	0.99370	0.12127
2719.661	-0.28257	-0.08680	0.96509	0.08850
2723.614	-0.26905	-0.10141	0.96135	0.06286
2727.660	-0.24877	-0.13928	1.01523	0.06582
2731.654	-0.22266	-0.05007	1.08830	0.07406
2735.659	-0.21825	-0.05733	1.17034	0.08362
2739.658	-0.17958	-0.06319	1.23774	0.06931
2743.660	-0.15719	-0.08245	1.20998	0.06174
2747.680	-0.15739	-0.10494	1.21328	0.07545
2751.661	-0.14940	-0.12887	1.27782	0.03113
2755.657	-0.14888	-0.08966	1.27782	0.06074
2759.659	-0.13734	-0.09453	1.28993	0.03118
2763.681	-0.14253	-0.14191	1.31116	0.08119
2767.660	-0.16184	-0.12541	1.31883	0.11080
2771.658	-0.19586	-0.09060	1.32996	0.15040
2775.659	-0.20070	-0.12382	1.29888	0.11758
2779.680	-0.23135	-0.15496	1.26815	0.13584
2783.662	-0.24279	-0.14554	1.23305	0.13589
2787.644	-0.30687	-0.13143	1.24104	0.13448
2791.659	-0.33657	-0.11411	1.23945	0.13902
2795.673	-0.36740	-0.09912	1.26433	0.16538
2799.659	-0.36970	-0.09609	1.26321	0.18786
2803.657	-0.39576	-0.07435	1.26145	0.18906
2807.614	-0.39005	-0.05653	1.26272	0.17318
2811.683	-0.35491	-0.05897	1.27261	0.15745
2815.660	-0.34131	-0.08521	1.23278	0.14263
2819.659	-0.31689	-0.10593	1.23273	0.14677
2823.658	-0.29498	-0.10839	1.20053	0.16417
2827.678	-0.28185	-0.14427	1.14186	0.18397
2831.627	-0.26694	-0.20155	0.99070	0.11593
2835.659	-0.37186	-0.32072	0.60012	0.08794
2839.660	-0.82223	-0.60499	-0.95527	-0.80654
2843.681	-1.77434	-1.50568	-1.39584	-1.35643
2847.660	-2.23035	-2.49437	-1.55467	-2.10499
2851.660	-2.25548	-3.36235	-1.52846	-3.31494
2855.656	-2.51495	-3.65405	-1.25153	-3.64826
2859.657	-2.43414	-4.59805	-1.49259	-4.24319
2863.660	-2.46221	-5.28900	-1.52245	-6.04570
2867.660	-2.51839	-6.39538	-1.60754	-6.58562
2871.661	-2.51326	-6.95788	-1.56905	-6.90225
2875.656	-2.40583	-7.40969	-1.20894	-7.66818
2879.661	-2.20404	-7.79487	-1.39463	-7.58096
2883.661	-2.42507	-7.91775	-1.28839	-8.04053
2887.661	-2.17212	-8.23509	-1.04711	-8.08364
2891.659	-2.08277	-8.40300	-0.92996	-8.21868
2895.659	-1.81215	-8.40183	-0.75149	-8.26040
2899.662	-1.66527	-8.48211	-0.57702	-8.29524
2903.669	-1.64255	-8.57406	-0.51920	-8.24453
2907.657	-1.66346	-8.55454	-0.53905	-8.26454
2911.659	-1.59993	-8.54961	-0.46071	-8.25797
2915.662	-1.54120	-8.53500	-0.41695	-8.25110
2919.660	-1.47672	-8.55566	-0.34613	-8.20414
2923.680	-1.50075	-8.62179	-0.27947	-8.19779
2927.659	-1.47915	-8.66769	-0.15700	-8.17782
2931.663	-1.48014	-8.67046	-0.10391	-8.12809
2935.660	-1.52054	-8.66753	0.09731	-8.17748
2939.651	-1.52776	-8.66578	0.15419	-8.15993
2943.663	-1.55536	-8.66222	0.33722	-8.16045
2947.662	-1.61771	-8.69818	0.36164	-8.16306
2951.657	-1.68429	-8.72202	0.53580	-8.16720
2955.652	-1.75595	-8.74659	0.56523	-8.19314
2959.662	-1.77236	-8.76003	0.67250	-8.20666
2963.664	-1.82857	-8.79312	0.60967	-8.26653
2967.661	-1.83313	-8.80226	0.72047	-8.34814
2971.656	-1.87081	-8.78428	0.74757	-8.37518
2975.661	-1.90973	-8.79985	0.74697	-8.41810
2979.663	-1.89583	-8.84587	0.72866	-8.42354
2983.661	-1.94672	-8.85243	0.75553	-8.46637
2987.650	-1.94917	-8.87041	0.73665	-8.45180
2991.661	-1.94134	-8.84989	0.67980	-8.49745
2995.647	-1.96196	-8.82650	0.67891	-8.51566
2999.655	-1.93668	-8.80342	0.65903	-8.52680
3003.657	-1.95249	-8.79364	0.55734	-8.53988
3007.664	-1.96714	-8.76528	0.57573	-8.53954
3011.663	-1.97800	-8.76457	0.51255	-8.52706
3015.660	-1.97699	-8.77185	0.40154	-8.50739
3019.663	-1.97686	-8.77035	0.38688	-8.51056
3023.659	-1.95009	-8.75271	0.34598	-8.50722
3027.660	-1.92602	-8.74050	0.26503	-8.48969
3031.664	-1.93571	-8.76845	0.15437	-8.48984
3035.659	-1.91705	-8.83022	0.03293	-8.44169
3039.661	-1.90034	-8.83773	-0.12672	-8.40099
3043.663	-1.86129	-8.86486	-0.01427	-8.39257
3047.663	-1.84208	-8.88653	0.02427	-8.38839
3051.659	-1.81999	-8.92480	-0.00328	-8.35626
3055.661	-1.80112	-8.93769	0.00705	-8.36903
3059.662	-1.79440	-8.93251	0.06381	-8.35924
3063.660	-1.77533	-8.91093	0.04030	-8.35056
3067.658	-1.66085	-8.89710	0.04837	-8.32546
3071.663	-1.75143	-8.88066	0.05944	-8.29117
3075.664	-1.79237	-8.86728	0.08545	-8.24999
3079.642	-1.81882	-8.82545	0.16958	-8.25148
3083.636	-1.81404	-8.81191	0.23311	-8.25291
3087.663	-1.91070	-8.78155	0.21996	-8.23101
3091.663	-1.92173	-8.77257	0.23147	-8.20403
3095.664	-1.87230	-8.75164	0.20266	-8.19584
3099.658	-1.90544	-8.71828	0.20182	-8.16639
3103.662	-1.86251	-8.71054	0.18482	-8.15792
3107.663	-1.94102	-8.71456	0.18626	-8.15466
3111.659	-1.95004	-8.71136	0.14992	-8.16692
3115.666	-1.95376	-8.69268	0.16151	-8.19912
3119.658	-1.91204	-8.68627	0.11697	-8.23816
3123.618	-1.91955	-8.68849	0.03107	-8.26005
3127.661	-1.88759	-8.65872	-0.04199	-8.28312
3131.661	-1.85487	-8.65007	-0.08257	-8.32394
3135.660	-1.87646	-8.62846	-0.13446	-8.36159
3139.662	-1.92885	-8.61055	-0.15623	-8.40706
3143.664	-2.02111	-8.60782	-0.14032	-8.43729
3147.666	-2.03556	-8.59597	-0.07294	-8.45661
3151.662	-1.96380	-8.59122	-0.07152	-8.44484
3155.663	-1.93814	-8.56711	0.08535	-8.41994
3159.666	-1.91196	-8.57244	0.04827	-8.39784
3163.664	-1.93827	-8.55575	0.13640	-8.37214
3167.662	-1.94131	-8.56452	0.13866	-8.33553
3171.661	-1.97902	-8.58769	0.24435	-8.30054
3175.619	-1.96871	-8.63188	0.21226	-8.27312
3179.560	-1.96209	-8.68228	0.25736	-8.25691
3183.662	-1.94144	-8.72402	0.29605	-8.22285
3187.663	-1.89585	-8.73335	0.25676	-8.20618
3191.664	-1.85313	-8.79234	0.22946	-8.19624
3195.563	-1.78240	-8.85157	0.20363	-8.18540
3199.662	-1.80863	-8.90621	0.13689	-8.19726
3203.651	-1.79135	-8.91536	0.10691	-8.20106
3207.667	-1.67732	-8.91153	0.06718	-8.22546
3211.562	-1.72041	-8.91519	0.05276	-8.25443
3215.663	-1.72059	-8.89771	0.02097	-8.30680
3219.664	-1.71734	-8.81891	0.00946	-8.30174
3223.620	-1.69235	-8.57506	0.05011	-8.04846
3227.659	-1.49458	-7.51657	0.05755	-7.03026
3231.663	0.05748	-4.89452	0.44279	-4.18363
3235.663	0.45800	-4.19606	2.21928	-2.72753
3239.662	0.78893	-2.49314	2.66667	-1.46032
3243.669	1.99550	-1.23357	2.88883	-0.70004
3247.627	3.11836	-0.65308	3.34991	-0.28371
3251.662	3.52351	0.02433	4.15416	2.00266
3255.664	3.73579	0.48310	4.16974	1.72510
3259.532	3.94762	0.70708	4.70382	2.00095
3263.664	4.11300	1.10365	4.92964	1.92428
3267.664	4.12851	1.24677	4.98199	1.78339
3271.664	4.14512	1.32624	5.11903	1.89034
3275.533	4.05564	1.37390	5.12383	1.92432
3279.665	4.06799	1.45181	5.23551	2.04647
3283.666	4.15154	1.36732	5.28153	2.11835
3287.639	4.22367	1.42537	5.33123	2.15067
3291.532	4.31711	1.49211	5.28694	2.15068
3295.664	4.40313	1.52135	5.39251	2.00783
3299.662	4.47027	1.59862	5.46295	2.10075
3303.667	4.52486	1.62748	5.46937	2.08754
3307.532	4.55068	1.63876	5.45105	2.09973
3311.666	4.57704	1.67434	5.47247	2.18757
3315.665	4.60180	1.66250	5.42715	2.20885
3319.662	4.63183	1.63489	5.43585	2.27274
3323.532	4.67821	1.63112	5.46000	2.20560
3327.659	4.68989	1.64680	5.44694	2.18927
3331.656	4.70900	1.63835	5.46716	2.15800
3335.663	4.69909	1.62572	5.43952	2.19461
3339.562	4.68070	1.62245	5.39810	2.25379
3343.666	4.67498	1.58200	5.35682	2.26706
3347.663	4.68789	1.57039	5.26120	2.25798
3351.665	4.67074	1.57941	5.31393	2.29205
3355.560	4.65429	1.55302	5.21491	2.24240
3359.667	4.61953	1.54525	5.17885	2.21874
3363.666	4.59408	1.56142	5.15377	2.20713
3367.665	4.55828	1.57100	5.12068	2.22396
3371.562	4.52067	1.55264	5.12218	2.23623
3375.667	4.47839	1.54582	5.12526	2.24719
3379.666	4.50367	1.53141	5.24479	2.21957
3383.665	4.44427	1.54971	5.36262	2.21405
3387.563	4.40083	1.64415	5.48735	2.20470
3391.666	4.35158	1.74979	5.54253	2.21221
3395.667	4.36180	1.74303	5.46118	2.22011
3399.667	4.34571	1.82857	5.52770	2.23575
3403.563	4.37808	1.82230	5.63380	2.27033
3407.669	4.42738	1.81750	5.73301	2.30023
3411.648	4.49011	1.75652	5.85949	2.31970
3415.659	4.50380	1.85906	5.88724	2.40645
3419.565	4.53709	1.86504	5.88665	2.42908
3423.622	4.61709	1.88106	5.89903	2.44869
3427.669	4.52895	1.85440	5.83220	2.51809
3431.633	4.57921	1.83497	5.80749	2.41471
3435.567	4.58015	1.81163	5.71711	2.46520
3439.667	4.57953	1.80252	5.74146	2.41529
3443.667	4.64342	1.76238	5.83154	2.41937
3447.665	4.56459	1.75381	5.69300	2.36827
3451.564	4.62281	1.75790	5.70531	2.40789
3455.629	4.55445	1.87279	5.82520	2.42110
3459.668	5.02755	1.87382	6.34052	2.51949
3463.667	7.43913	2.09172	8.07409	3.19733
3467.564	8.35566	3.06045	8.92914	3.62864
3471.665	8.75514	3.63786	9.54508	3.28455
3475.669	8.75616	3.58819	9.74936	3.90397
3479.666	9.18613	3.14772	9.94279	3.55965
3483.566	9.14394	2.89363	10.36576	3.34714
3487.667	9.08312	2.74897	10.20902	3.53228
3491.622	9.20492	3.17137	10.26706	3.91337
3495.645	9.08440	3.29310	10.41081	4.06357
3499.558	9.21379	3.30308	10.38252	3.96241
3503.667	9.16639	3.20224	10.42684	3.92856
3507.668	9.18429	3.25802	10.46280	3.89901
3511.667	9.28040	3.40769	10.44076	3.85540
3515.564	9.31250	3.38607	10.58176	3.93576
3519.667	9.35314	3.40063	10.73986	3.94619
3523.667	9.32405	3.42423	10.78738	3.96806
3527.668	9.23892	3.41012	10.71899	4.05752
3531.565	9.19338	3.46783	10.76925	4.02337
3535.543	9.22049	3.48225	10.77596	4.06229
3539.543	9.29797	3.50076	10.66821	3.99652
3543.542	9.33488	3.53879	10.70457	3.97189
3547.500	9.37238	3.54349	10.74230	4.00791
3551.543	9.47715	3.52977	10.68545	4.00210
3555.542	9.56381	3.47466	10.63319	4.01001
3559.543	9.39508	3.46994	10.68986	4.01663
3563.540	9.37738	3.40194	10.69244	4.00381
3567.543	9.37008	3.37479	10.70874	4.01822
3571.543	9.27999	3.34885	10.71142	4.02944
3575.546	9.32915	3.32778	10.70045	4.06658
3579.537	9.22274	3.39794	10.65156	4.10018
3583.525	9.17193	3.42815	10.66548	4.07543
3587.540	9.17863	3.43153	10.69486	4.07944
3591.546	9.20811	3.45713	10.70002	4.07723
3595.540	9.20804	3.51747	10.72297	4.05725
3599.544	9.20289	3.55290	10.73389	4.02831
3603.543	9.25040	3.60722	10.74511	3.99405
3607.544	9.30711	3.60080	10.73107	4.02009
3611.540	9.39699	3.63833	10.70821	3.97403
3615.509	9.39112	3.67861	10.65278	4.05286
3619.544	9.49040	3.69734	10.61056	3.96261
3623.502	9.55579	3.70452	10.61967	3.91779
3627.540	9.64441	3.68689	10.59752	3.94440
3631.546	9.67912	3.70651	10.54303	3.96621
3635.546	9.63407	3.63840	10.50186	3.94988
3639.545	9.58287	3.60593	10.48120	4.03812
3643.545	9.54592	3.61323	10.45413	4.06780
3647.543	9.34039	3.58524	10.47388	4.06751
3651.540	9.20540	3.58354	10.50378	4.09658
3655.545	9.22255	3.55642	10.54723	4.09965
3659.534	9.24174	3.52729	10.52972	4.06027
3663.545	9.12665	3.51546	10.52418	4.05361
3667.521	9.22525	3.51241	10.49003	4.05952
3671.546	9.15047	3.51926	10.52182	4.03613
3675.539	9.15788	3.53326	10.53905	4.03982
3679.543	9.15447	3.56895	10.53533	3.96295
3683.544	9.15115	3.61529	10.54747	3.95596
3687.548	9.32475	3.57573	10.56255	3.93413
3691.536	9.52712	3.58985	10.63557	3.94418
3695.545	9.58294	3.61525	10.59030	3.89677
3699.544	9.48596	3.59685	10.70510	3.87630
3703.547	9.57189	3.59143	10.72915	3.87111
3707.541	9.60651	3.62554	10.66328	3.91420
3711.536	9.66033	3.62428	10.82835	3.95032
3715.545	9.65216	3.63216	10.86936	3.95340
3719.545	9.66144	3.62391	10.89686	4.01496
3723.533	9.71049	3.62877	10.90894	4.03551
3727.544	9.68959	3.69542	10.95803	4.08749
3731.543	9.63211	3.72991	10.97267	4.10943
3735.551	9.57387	3.76396	10.90750	4.11365
3739.542	9.48468	3.74995	10.86902	4.13013
3743.540	9.42673	3.79107	10.87407	4.15094
3747.549	9.35597	3.77446	10.81659	4.14205
3751.545	9.25108	3.72096	10.81085	4.11996
3755.539	9.22136	3.64521	10.83036	4.12595
3759.541	9.17974	3.59413	10.73351	4.12762
3763.545	9.21338	3.55177	10.75045	4.13635
3767.544	9.36423	3.59738	10.71351	4.14635
3771.538	9.56578	3.50594	10.60788	4.13636
3775.545	9.60502	3.41789	10.66455	4.13290
3779.544	9.69629	3.36144	10.72132	4.12050
3783.547	9.77727	3.27779	10.78573	4.12880
3787.538	9.64396	3.26921	10.80747	4.12044
3791.527	9.66887	3.30288	10.77239	4.12699
3795.539	9.55748	3.53800	10.76812	4.14849
3799.502	9.61749	3.52085	10.76959	4.14230
3803.566	9.67982	3.58779	10.86675	4.13048
3807.546	9.61602	3.65673	10.85902	4.09174
3811.546	9.52982	3.64452	10.84781	4.03750
3815.549	9.51836	3.69817	10.83965	4.02571
3819.544	9.49649	3.77640	10.87790	3.99217
3823.546	9.46539	3.84143	10.83582	4.05818
3827.546	9.51191	3.88090	10.74319	4.06885
3831.546	9.41045	3.82884	10.69836	4.11493
3835.538	9.40168	3.81231	10.75483	4.18425
3839.544	9.39924	3.66033	10.73236	4.15719
3843.548	9.47502	3.62672	10.69302	4.12520
3847.547	9.51281	3.51002	10.67104	4.13073
3851.546	9.58371	3.43928	10.64878	4.18875
3855.544	9.64005	3.49279	10.60363	4.15168
3859.546	9.35984	3.50901	10.53106	4.32825
3863.502	7.54398	3.47910	8.68167	4.36284
3867.569	6.67182	3.57696	7.38319	4.31026
3871.548	6.54034	3.43162	7.01675	4.31768
3875.523	6.41650	3.41993	6.34179	4.27846
3879.548	5.99630	3.42137	6.37293	4.31882
3883.545	4.34867	3.47199	5.59902	4.27662
3887.546	3.98674	3.44086	5.37583	4.31600
3891.547	3.79504	3.44024	5.14050	4.28172
3895.548	3.71935	3.44639	5.24041	4.24076
3899.544	3.73544	3.38419	5.04614	4.10779
3903.546	3.76295	3.42927	5.09648	4.03613
3907.544	3.70116	3.47515	5.15603	4.04984
3911.549	3.63930	3.45359	5.02428	4.11415
3915.537	3.62919	3.36007	4.98854	4.08253
3919.537	3.67039	3.34146	4.96140	4.01543
3923.547	3.60188	3.25181	4.94903	3.93078
3927.504	3.53921	3.23784	4.95684	3.85629
3931.571	3.54724	3.25334	4.96290	3.84457
3935.549	3.58588	3.24487	5.01039	3.78216
3939.547	3.61001	3.40468	4.95864	3.82061
3943.546	3.54193	3.47398	4.96824	3.82642
3947.549	3.51456	3.47845	5.01012	3.85797
3951.549	3.59060	3.34084	4.98869	3.81973
3955.549	3.60304	3.13722	4.97891	3.84135
3959.548	3.60422	3.24261	4.99957	3.78730
3963.515	3.53931	3.24118	4.98554	3.80542
3967.546	3.46904	3.24785	5.01657	3.79371
3971.547	3.42856	3.23708	5.03366	3.77666
3975.549	3.46174	3.20161	5.08106	3.76347
3979.571	3.43120	3.18772	5.04371	3.77196
3983.545	3.43331	3.12003	5.07712	3.73428
3987.547	3.47695	3.01049	5.12046	3.70377
3991.547	3.49030	2.97132	5.05087	3.56744
3995.568	3.48422	2.90165	5.04890	3.50943
3999.528	3.48523	2.90610	5.05752	3.49713
4003.546	3.45616	2.84411	5.02859	3.44228
4007.548	3.49275	2.84099	5.08941	3.33541
4011.533	3.55859	2.78482	4.97896	3.27192
4015.548	3.60615	2.77171	4.89816	3.27089
4019.548	3.65467	2.74771	4.85031	3.26439
4023.547	3.68201	2.75005	4.94526	3.27954
4027.507	3.72262	2.77773	4.90075	3.30394
4031.547	3.71142	2.78524	4.73079	3.26621
4035.549	3.68821	2.82329	4.80071	3.31468
4039.550	3.69783	2.83585	4.79514	3.38400
4043.507	3.66740	2.92017	4.81796	3.46580
4047.547	3.71535	2.93277	4.86022	3.52350
4051.548	3.74916	2.93575	4.86832	3.56825
4055.549	3.69518	2.98747	4.91686	3.62397
4059.507	3.63473	3.04905	4.94324	3.62748
4063.549	3.55446	3.07002	4.93780	3.61757
4067.553	3.52929	3.03434	4.97071	3.69293
4071.547	3.54445	3.07151	4.92809	3.80270
4075.507	3.54915	3.04140	5.02154	3.78976
4079.551	3.53634	2.97721	5.08461	3.74065
4083.525	3.53105	2.87514	5.04344	3.73036
4087.547	3.54292	2.72271	5.06114	3.77356
4091.506	3.49347	2.77868	5.02216	3.71500
4095.550	3.40934	2.82824	5.01795	3.75124
4099.549	3.39327	2.76759	4.97391	3.78427
4103.547	3.39762	2.89100	4.94418	3.68519
4107.527	3.67979	2.72517	5.06424	3.40596
4111.547	4.11201	1.74231	5.10682	2.39085
4115.506	4.58538	-0.59945	5.15273	-0.52909
4119.551	5.58474	-1.66382	5.33618	-1.28127
4123.510	5.44468	-2.88590	5.82481	-2.91733
4127.537	5.92879	-4.57148	6.08689	-3.40778
4131.546	6.00715	-4.96826	6.59571	-4.30501
4135.549	6.16101	-6.05035	7.23159	-5.00538
4139.510	6.35422	-7.00833	8.20235	-6.55335
4143.549	7.17341	-7.53825	7.68927	-6.68510
4147.549	7.74886	-7.81928	7.95621	-7.11711
4151.548	7.99321	-8.09505	8.55498	-7.66859
4155.508	8.50790	-8.46584	9.14602	-7.83417
4159.550	8.82851	-8.83058	9.59450	-8.16540
4163.548	9.51609	-9.08475	10.23767	-8.25559
4167.520	9.74393	-9.26864	10.21974	-8.34510
4171.508	9.69610	-9.34320	9.99416	-8.36178
4175.548	9.54913	-9.37157	10.15146	-8.35912
4179.890	9.36653	-9.28350	10.19082	-8.28807
4183.551	9.34995	-9.36091	10.18370	-8.29819
4187.510	9.51587	-9.36808	10.27275	-8.29053
4191.551	9.49451	-9.44003	10.27491	-8.33024
4195.549	9.51536	-9.49490	10.26730	-8.30408
4199.551	9.58070	-9.53792	10.29860	-8.28582
4203.509	9.60705	-9.57124	10.31038	-8.23593
4207.533	9.52553	-9.58416	10.27547	-8.18988
4211.553	9.46150	-9.60015	10.25809	-8.16716
4215.549	9.35215	-9.57543	10.27008	-8.15779
4219.509	9.25376	-9.54912	10.25170	-8.14190
4223.506	9.07305	-9.55444	10.24144	-8.15050
4227.551	8.96361	-9.50877	10.23702	-8.18585
4231.549	8.94200	-9.48695	10.23168	-8.22283
4235.510	8.87966	-9.47295	10.22325	-8.30187
4239.553	8.79203	-9.44271	10.24966	-8.43333
4243.552	8.60623	-9.44162	10.29615	-8.49554
4247.550	8.68116	-9.41248	10.38452	-8.57293
4251.510	8.67793	-9.35512	10.43424	-8.66408
4255.552	8.66428	-9.27903	10.57296	-8.70711
4259.551	8.76726	-9.22333	10.91140	-8.71677
4263.551	8.87893	-9.20133	10.85200	-8.66199
4267.511	8.79341	-9.17969	10.91320	-8.66760
4271.551	8.84639	-9.18969	10.79351	-8.60808
4275.557	8.87166	-9.18129	10.79868	-8.63476
4279.550	8.84028	-9.13463	10.80232	-8.52471
4283.510	8.83663	-9.11593	10.79045	-8.51640
4287.550	8.88908	-9.08672	10.70965	-8.38661
4291.527	8.88600	-9.04928	10.65333	-8.34258
4295.553	8.84288	-9.05889	10.59502	-8.32703
4299.509	8.83229	-9.06652	10.48125	-8.29683
4303.553	8.82250	-9.09181	10.41947	-8.25787
4307.529	8.78350	-9.08944	10.41659	-8.23044
4311.552	8.78719	-9.08404	10.36041	-8.22041
4315.512	8.78675	-9.05127	10.33041	-8.20358
4319.550	8.76503	-9.04137	10.31641	-8.13843
4323.552	8.75555	-9.04030	10.35863	-8.15675
4327.552	8.75184	-9.04769	10.37904	-8.10825
4331.512	8.76387	-9.03740	10.53140	-8.13641
4335.539	8.81593	-9.02460	10.66095	-8.14369
4339.553	8.87995	-9.00613	10.50635	-8.15425
4343.551	8.91640	-9.02998	10.46378	-8.27676
4347.419	8.96089	-9.00237	10.32558	-8.27746
4351.550	8.98140	-8.98360	10.28200	-8.40135
4355.551	9.06146	-8.95159	10.19089	-8.53023
4359.552	9.02266	-8.97217	10.44446	-8.55862
4363.552	9.08462	-8.97302	10.51343	-8.57287
4367.552	9.07789	-8.97201	10.43438	-8.64712
4371.552	9.08137	-8.99797	10.50177	-8.63830
4375.520	9.10248	-8.99772	10.47626	-8.66641
4379.434	9.11290	-9.01172	10.42821	-8.74114
4383.552	9.08058	-8.99100	10.42701	-8.79581
4387.552	9.03256	-8.94557	10.48418	-8.79942
4391.551	9.03963	-8.96002	10.51969	-8.74268
4395.445	9.15577	-8.97801	10.69901	-8.64516
4399.552	9.36092	-9.03416	10.74281	-8.64063
4403.552	9.54899	-9.11241	10.94806	-8.67695
4407.551	10.13621	-9.17151	11.30133	-8.82806
4411.557	10.26266	-9.16417	11.61123	-8.98183
4415.555	10.55876	-9.23839	11.77341	-8.74809
4419.546	10.81221	-9.20567	12.06055	-8.76856
4423.553	10.96842	-9.26417	12.13496	-8.87799
4427.555	10.75553	-9.32563	12.13749	-8.97485
4431.554	10.73140	-9.39915	12.09761	-8.97065
4435.552	10.83204	-9.47883	12.18595	-9.01556
4439.556	10.93442	-9.57057	12.21357	-8.98370
4443.446	11.07929	-9.60854	12.26031	-8.97773
4447.555	11.16409	-9.59634	12.33001	-9.00563
4451.555	11.23275	-9.60723	12.46971	-8.97108
4455.553	11.05926	-9.61400	12.47494	-8.92066
4459.461	11.17777	-9.62751	12.60105	-8.93899
4463.557	11.03124	-9.65691	12.76123	-8.93838
4467.553	11.00589	-9.62206	12.91215	-8.99122
4471.554	10.99896	-9.61899	12.62566	-8.97321
4475.556	11.01371	-9.60107	12.60375	-8.95232
4479.556	10.98915	-9.52680	12.37427	-8.95288
4483.552	10.92260	-9.47890	12.31402	-8.98961
4487.554	10.91645	-9.44308	12.29808	-9.01526
4491.451	10.87194	-9.42318	12.41341	-9.00117
4495.512	10.83441	-9.41461	12.24372	-9.00128
4499.528	10.84516	-9.39207	12.24604	-8.99313
4503.552	10.86692	-9.35403	12.17447	-9.05771
4507.554	10.95382	-9.28910	12.15192	-9.04404
4511.553	10.98588	-9.23790	12.18170	-9.00964
4515.555	10.98556	-9.23539	12.36525	-8.97209
4519.554	10.99099	-9.21892	12.45260	-8.96771
4523.453	10.97253	-9.19629	12.31585	-9.03336
4527.552	11.02648	-9.19190	12.36206	-8.99642
4531.554	11.04259	-9.17543	12.32750	-9.03058
4535.556	11.03124	-9.17433	12.35187	-8.97128
4539.451	11.06440	-9.15323	12.43554	-8.95233
4543.540	11.01321	-9.14172	12.36814	-8.92339
4547.556	10.99867	-9.13646	12.43473	-8.86939
4551.556	11.01857	-9.14852	12.44730	-8.86421
4555.414	11.03174	-9.15508	12.35744	-8.90555
4559.553	10.96442	-9.19451	12.37018	-8.90100
4563.543	10.96684	-9.16513	12.31045	-8.88871
4567.553	11.02043	-9.15493	12.23794	-8.85729
4571.428	11.09422	-9.17990	12.21423	-8.83604
4575.428	10.95260	-9.12266	12.03261	-8.77198
4579.434	10.67385	-8.75841	10.57464	-8.60223
4583.430	8.77633	-7.15936	8.39049	-6.17585
4587.388	7.24300	-6.39287	7.82677	-5.63404
4591.431	6.48681	-5.44646	6.39763	-5.14829
4595.432	5.36597	-4.48560	6.34246	-4.46634
4599.439	5.28913	-3.82130	5.46564	-3.51672
4603.424	3.74207	-3.01152	4.88833	-2.00895
4607.429	2.92223	-1.31385	3.46731	-1.23692
4611.431	2.15490	-0.22472	3.06570	-0.85744
4615.430	2.32102	-0.19461	2.92124	-0.63799
4619.433	2.14161	-0.07181	3.12195	-0.56530
4623.391	2.25838	-0.16522	3.15746	-0.56556
4627.427	1.99330	-0.06164	3.10426	-0.55355
4631.391	2.03380	-0.00693	3.12895	-0.48990
4635.451	2.05905	-0.05948	3.10131	-0.40846
4639.429	1.88973	-0.05340	3.10658	-0.30934
4643.432	1.93856	-0.01900	3.16743	0.00360
4647.431	1.84984	-0.00551	3.17460	0.19204
4651.448	1.82871	0.01053	3.15117	0.47570
4655.430	1.71764	0.05097	3.13724	0.26514
4659.432	1.72706	0.08477	3.15896	0.29126
4663.429	1.72227	0.12049	3.06897	0.34121
4667.450	1.68478	0.11043	3.10742	0.30859
4671.402	1.70579	0.05519	3.07736	0.23957
4675.430	1.70098	0.02407	3.03697	0.41164
4679.431	1.67325	0.06850	3.01202	0.44614
4683.389	1.70760	0.04938	2.94525	0.45703
4687.431	1.72500	0.07109	2.96379	0.43129
4691.432	1.77375	0.06271	2.93743	0.41698
4695.430	1.80553	0.10603	2.94319	0.38490
4699.451	1.79961	0.02692	3.00794	0.38237
4703.436	1.78493	-0.01994	3.04516	0.32332
4707.432	1.74982	-0.00189	3.12195	0.24785
4711.416	1.72897	-0.02307	3.19318	0.28998
4715.449	1.73073	-0.01145	3.22851	0.34669
4719.432	1.73415	0.01788	3.29087	0.36001
4723.388	1.74045	0.03793	3.30868	0.38585
4727.430	1.74429	0.02732	3.33888	0.38024
4731.452	1.70851	0.00589	3.33695	0.40512
4735.432	1.70757	-0.02414	3.35330	0.37214
4739.433	1.67546	-0.08798	3.33574	0.36506
4743.387	1.64397	-0.13219	3.29560	0.33337
4747.390	1.67722	-0.10353	3.26661	0.29160
4751.430	1.71851	-0.15337	3.20850	0.33290
4755.397	1.75109	-0.20784	3.09379	0.35343
4759.435	1.79490	-0.23011	3.10940	0.35541
4763.390	1.85075	-0.20336	3.03544	0.30663
4767.432	1.79301	-0.23143	2.95384	0.32156
4771.431	1.47841	-0.17381	2.79773	0.34414
4775.432	1.03692	-0.08656	1.45874	0.42706
4779.390	-1.10524	0.00325	-0.23125	0.78592
4783.430	-1.50633	0.21867	-1.32991	0.68266
4787.433	-2.79144	0.29863	-1.84037	0.69146
4791.432	-2.54217	0.24894	-2.35001	0.70270
4795.390	-2.86992	0.23736	-2.34478	0.63384
4799.433	-3.11836	0.29117	-2.25630	0.67842
4803.432	-3.34536	0.29738	-2.31869	0.68105
4807.432	-3.49846	0.31028	-2.33437	0.68893
4811.391	-3.38993	0.36640	-2.32191	0.61744
4815.431	-3.32993	0.39780	-2.34825	0.70544
4819.432	-3.38867	0.37717	-2.35974	0.73408
4823.432	-3.43311	0.36127	-2.50821	0.66814
4827.422	-3.40615	0.33090	-2.65892	0.64707
4831.433	-3.45321	0.30258	-2.75705	0.51995
4835.426	-3.55985	0.31644	-2.68722	0.35098
4839.425	-3.60823	0.37869	-2.68059	0.24234
4843.423	-3.63285	0.41759	-2.69522	0.12202
4847.432	-3.61515	0.46094	-2.67561	0.09971
4851.433	-3.60264	0.45487	-2.76136	0.08913
4855.432	-3.61275	0.41903	-2.79956	0.02911
4859.391	-3.64946	0.33505	-2.88329	0.04063
4863.433	-3.63189	0.30240	-2.93953	0.03382
4867.404	-3.61789	0.26640	-2.91728	0.03276
4871.434	-3.69553	0.18040	-2.86039	0.00618
4875.389	-3.75252	0.16953	-2.72694	0.24044
4879.403	-3.76554	0.20414	-2.62152	0.20233
4883.432	-3.78768	0.17552	-2.65275	0.32497
4887.432	-3.80522	0.15484	-2.68172	0.33117
4891.419	-3.82096	0.16143	-2.69252	0.32201
4895.433	-3.79976	0.24016	-2.57310	0.34838
4899.434	-3.83821	0.30010	-2.61907	0.32990
4903.434	-3.85733	0.38560	-2.58076	0.31486
4907.392	-3.96172	0.41782	-2.54935	0.26316
4911.433	-3.98509	0.32580	-2.56463	0.26080
4915.440	-4.02132	0.37935	-2.45550	0.41760
4919.433	-3.98674	0.32592	-2.54494	0.38170
4923.390	-3.96785	0.37471	-2.59314	0.26648
4927.388	-3.94779	0.35137	-2.63116	0.24408
4931.388	-3.91632	0.45528	-2.61431	0.25558
4935.433	-3.99553	0.35988	-2.65949	0.27242
4939.434	-3.99111	0.40100	-2.65619	0.32316
4943.436	-4.05903	0.32138	-2.54373	0.33049
4947.434	-3.95873	0.31488	-2.55995	0.45601
4951.436	-3.97417	0.30659	-2.50013	0.54170
4955.434	-3.91301	0.34209	-2.51438	0.61336
4959.435	-3.91378	0.34145	-2.55346	0.53403
4963.398	-3.87033	0.34057	-2.55024	0.47349
4967.434	-3.88505	0.28630	-2.53593	0.47466
4971.431	-3.88537	0.29282	-2.54499	0.43184
4975.435	-3.92927	0.21189	-2.46669	0.57024
4979.434	-3.84315	0.18749	-2.43501	0.58564
4983.433	-3.81773	0.17081	-2.45753	0.54502
4987.431	-3.77622	0.15943	-2.50459	0.55014
4991.412	-3.84681	0.21039	-2.53300	0.42956
4995.435	-3.87104	0.17439	-2.58841	0.36627
4999.434	-3.91341	0.17056	-2.58846	0.38916
5003.432	-3.99124	0.20674	-2.55401	0.43752
5007.436	-3.99223	0.18381	-2.50291	0.44357
5011.439	-4.00415	0.28298	-2.48502	0.56849
5015.434	-3.95174	0.29188	-2.45255	0.64049
5019.432	-3.90545	0.25302	-2.57090	0.56014
5023.433	-3.93228	0.23851	-2.61335	0.43887
5027.437	-3.95249	0.29269	-2.56292	0.51124
5031.434	-4.00774	0.39638	-2.50036	0.79235
5035.434	-4.01727	0.26709	-2.50608	0.64154
5039.434	-4.01369	0.19545	-2.46788	0.63135
5043.431	-4.00161	0.41485	-2.46488	0.71228
5047.427	-3.95384	0.64541	-2.40890	1.21489
5051.394	-3.98190	1.48132	-2.42200	1.52186
5055.435	-3.90429	2.46959	-2.40659	2.22236
5059.434	-3.79438	2.88851	-2.26636	2.91163
5063.436	-3.75771	3.11677	-2.08443	3.35634
5067.435	-3.11759	3.34252	-2.21043	3.76372
5071.434	-3.41929	3.58521	-1.84471	3.34524
5075.436	-3.21671	3.19423	-1.94674	3.63550
5079.435	-3.33520	3.31036	-1.99830	3.41661
5083.430	-3.10386	3.30891	-1.89739	3.72986
5087.434	-2.80597	3.27843	-1.80858	3.79655
5091.437	-3.13892	3.34743	-1.82209	3.95396
5095.435	-2.96876	3.23064	-1.64868	4.03702
5099.432	-3.04180	3.48931	-1.62569	4.01517
5103.436	-3.07728	3.36614	-1.62911	3.99712
5107.438	-2.91245	3.35782	-1.60504	4.14323
5111.436	-2.94775	3.39822	-1.64169	4.06469
5115.395	-3.10020	3.26003	-1.66219	4.19156
5119.437	-3.09698	3.41783	-1.61305	4.20105
5123.392	-3.11126	3.31651	-1.65778	4.24375
5127.422	-3.09216	3.21914	-1.60199	4.25278
5131.431	-3.15817	3.47454	-1.66073	4.31340
5135.436	-3.10968	3.26895	-1.63154	4.23543
5139.438	-3.19761	3.41043	-1.75297	4.18848
5143.439	-3.23761	3.36886	-1.69540	4.15789
5147.433	-3.19029	3.30659	-1.73795	4.07361
5151.435	-3.15755	3.21667	-1.67933	4.18051
5155.439	-3.22203	3.18226	-1.63938	4.20774
5159.435	-3.21241	3.43229	-1.71000	4.08605
5163.426	-3.31828	3.28920	-1.65810	4.10504
5167.436	-3.29456	3.37804	-1.62951	4.07364
5171.438	-3.34408	3.39943	-1.73490	3.98764
5175.439	-3.17552	3.32582	-1.92453	4.00316
5179.408	-3.25938	3.22666	-1.81096	3.97210
5183.438	-3.19952	3.12868	-1.83776	4.02753
5187.440	-3.16362	3.22306	-1.72500	3.96689
5191.394	-2.99240	3.30131	-1.77464	4.03664
5195.430	-3.03781	3.24098	-1.70274	4.05310
5199.438	-3.18591	3.19036	-1.76125	3.97268
5203.436	-3.17529	3.19873	-1.79904	3.92469
5207.435	-3.12645	3.25406	-1.77236	3.94549
5211.429	-3.19843	3.17714	-1.76919	3.98348
5215.438	-3.21661	3.31745	-1.78853	3.97568
5219.438	-3.10760	3.47043	-1.75225	3.87163
5223.394	-3.18625	3.45559	-1.74851	3.80644
5227.434	-3.28842	3.53033	-1.74293	3.72301
5231.436	-3.35835	3.55645	-1.75173	3.67587
5235.438	-3.33930	3.47963	-1.70244	3.68680
5239.438	-3.33547	3.54237	-1.76033	3.66505
5243.394	-3.33755	3.55536	-1.73358	3.69500
5247.437	-3.32130	3.49823	-1.67100	3.74536
5251.434	-3.38098	3.45024	-1.66343	3.74025
5255.428	-3.31581	3.44118	-1.66167	3.73773
5259.332	-3.16087	3.36692	-1.68337	3.72016
5263.438	-3.17807	3.32665	-1.73425	3.69824
5267.440	-3.15844	3.19134	-1.80367	3.77806
5271.438	-3.08748	3.15519	-1.86712	3.77014
5275.333	-3.11376	2.93401	-1.96444	3.65822
5279.439	-3.27482	1.29186	-2.73813	1.34596
5283.439	-4.15561	-0.53440	-3.45447	0.13310
5287.439	-4.43510	-1.89215	-3.68651	-2.96643
5291.341	-4.74730	-3.94439	-2.94913	-3.18120
5295.411	-4.14821	-4.45377	-3.21038	-4.62154
5299.394	-4.56143	-5.50120	-3.05716	-6.18504
5303.439	-4.38094	-6.31189	-3.02205	-6.49755
5307.334	-4.56792	-7.28546	-2.84633	-6.87000
5311.439	-4.69191	-8.03503	-2.90161	-7.36434
5315.441	-4.67209	-8.27575	-2.92686	-8.13348
5319.439	-4.64857	-8.53723	-3.10158	-8.36683
5323.336	-4.70054	-8.92458	-3.04293	-8.69330
5327.438	-4.66270	-8.86955	-3.03784	-8.95439
5331.441	-4.69088	-9.17659	-3.04989	-9.03708
5335.428	-4.74314	-9.22745	-2.94233	-9.07155
5339.334	-4.69983	-9.39802	-2.85786	-9.08962
5343.438	-4.79741	-9.37958	-2.78483	-9.15822
5347.440	-4.80556	-9.28500	-2.78570	-9.23403
5351.437	-4.81902	-9.29300	-2.83818	-9.20995
5355.442	-4.83232	-9.26366	-2.88633	-9.19395
5359.439	-4.89244	-9.44081	-2.82999	-9.27435
5363.394	-4.98677	-9.51505	-2.77012	-9.26716
5367.439	-4.98334	-9.52619	-2.77604	-9.25253
5371.336	-4.93726	-9.53369	-2.65013	-9.25655
5375.438	-4.95898	-9.51626	-2.55802	-9.26570
5379.441	-5.01401	-9.56659	-2.52607	-9.28880
5383.440	-5.01337	-9.51329	-2.48079	-9.30384
5387.442	-4.97024	-9.52327	-2.59819	-9.31399
5391.438	-4.92590	-9.54832	-2.61503	-9.33736
5395.439	-4.77826	-9.55116	-2.84106	-9.32908
5399.441	-4.82855	-9.59029	-2.71902	-9.32493
5403.443	-4.87870	-9.56251	-2.70562	-9.31909
5407.440	-4.91521	-9.52687	-2.86126	-9.31201
5411.441	-5.01386	-9.46363	-2.98789	-9.30462
5415.439	-5.03297	-9.47420	-2.94933	-9.27523
5419.442	-5.02127	-9.48725	-3.02432	-9.31441
5423.440	-4.83708	-9.44649	-3.06038	-9.27075
5427.441	-4.87808	-9.45585	-3.02410	-9.25938
5431.440	-4.99174	-9.46994	-3.10760	-9.19280
5435.444	-4.93726	-9.46515	-3.08644	-9.11181
5439.449	-5.08283	-9.47659	-3.03742	-9.06715
5443.441	-4.86182	-9.42259	-2.96116	-8.97591
5447.442	-4.97544	-9.39050	-3.06644	-9.02042
5451.440	-5.01048	-9.41076	-3.08275	-9.02333
5455.436	-4.84674	-9.43067	-3.08634	-9.00198
5459.434	-4.65710	-9.39355	-3.06036	-9.02521
5463.442	-4.73010	-9.37221	-3.00306	-8.99620
5467.337	-4.66169	-9.39821	-2.98492	-9.01288
5471.395	-4.57162	-9.36247	-2.99821	-8.98295
5475.441	-4.62162	-9.34962	-2.91131	-8.96061
5479.439	-4.68479	-9.36657	-2.83905	-9.00139
5483.443	-4.58469	-9.35210	-2.90158	-9.06285
5487.440	-4.75452	-9.40968	-2.89775	-9.12661
5491.397	-4.79065	-9.42565	-2.82543	-9.14549
5495.396	-4.58269	-9.38354	-2.73989	-9.13407
5499.334	-4.61911	-9.41024	-2.74962	-9.19898
5503.414	-4.66292	-9.44295	-2.78986	-9.14156
5507.439	-4.64764	-9.44152	-2.84838	-9.13784
5511.442	-4.78984	-9.40658	-2.81598	-9.10252
5515.445	-4.86480	-9.40368	-2.83935	-9.07122
5519.441	-4.86712	-9.35576	-2.82051	-9.04803
5523.442	-4.85556	-9.38274	-2.72219	-9.01551
5527.442	-4.94583	-9.41981	-2.65758	-9.02489
5531.444	-4.83935	-9.45019	-2.73533	-8.97992
5535.441	-4.90760	-9.42169	-2.73501	-8.95049
5539.441	-4.96911	-9.40173	-2.89057	-8.90221
5543.425	-5.06250	-9.37609	-2.97539	-8.85060
5547.351	-5.03260	-9.33931	-2.90582	-8.87225
5551.439	-4.93213	-9.34980	-2.91136	-8.86806
5555.441	-4.87037	-9.36728	-2.81518	-8.89225
5559.431	-4.54340	-9.31261	-2.88901	-8.88461
5563.335	-4.69152	-9.35252	-2.79832	-8.93103
5567.441	-4.78415	-9.33863	-2.70661	-8.94678
5571.441	-4.75647	-9.22984	-2.79951	-8.92688
5575.443	-4.79181	-9.20396	-2.82145	-8.95934
5579.338	-4.70932	-9.14270	-2.84559	-8.94051
5583.441	-4.65624	-9.15536	-3.05694	-8.93923
5587.406	-4.58659	-9.14731	-2.91814	-8.97095
5591.443	-4.63758	-9.16607	-2.98886	-8.92767
5595.338	-4.70323	-9.12738	-2.96062	-8.93673
5599.442	-4.77939	-9.11135	-3.04368	-8.92122
5603.442	-4.75918	-9.14746	-3.03415	-8.92675
5607.445	-4.79206	-9.12253	-3.00910	-8.87846
5611.307	-4.81446	-9.08472	-3.08914	-8.83086
5615.400	-4.91447	-9.12001	-2.95606	-8.85894
5619.282	-4.76623	-9.14505	-2.86762	-8.82694
5623.314	-4.88596	-9.19802	-2.90257	-8.78108
5627.399	-4.81234	-9.22533	-2.59871	-8.78574
5631.309	-4.72741	-9.20457	-2.25157	-8.77275
5635.317	-4.54609	-9.19209	-2.31614	-8.78551
5639.318	-4.75193	-9.30438	-2.48034	-8.85416
5643.276	-4.71491	-9.32691	-2.67774	-8.75185
5647.321	-5.09830	-9.22787	-3.34690	-8.68822
5651.319	-5.81914	-9.19067	-5.23573	-8.63873
5655.317	-7.16876	-8.84432	-6.95724	-8.62176
5659.303	-7.20680	-9.05261	-7.05401	-8.56184
5663.316	-7.93045	-8.56997	-7.15015	-8.49186
5667.316	-8.49525	-8.44697	-7.90657	-8.43983
5671.318	-8.83554	-8.19433	-9.21072	-8.37042
5675.276	-9.78069	-7.88123	-9.50513	-8.37471
5679.317	-9.98519	-7.78200	-9.54662	-8.40235
5683.306	-9.88745	-7.97509	-9.34674	-8.35666
5687.317	-9.84334	-7.81164	-9.18206	-8.34739
5691.304	-10.05183	-7.80674	-8.99281	-8.35674
5695.318	-10.24298	-7.85062	-8.98191	-8.37294
5699.318	-10.29935	-7.76148	-8.94595	-8.35122
5703.316	-10.36975	-7.67683	-8.97656	-8.34252
5707.276	-10.36526	-7.65223	-8.97152	-8.30090
5711.319	-10.39835	-7.59743	-9.08500	-8.30942
5715.316	-10.40997	-7.60313	-8.94716	-8.29899
5719.314	-10.34194	-7.62631	-8.93844	-8.25005
5723.305	-10.34319	-7.67025	-8.85589	-8.26396
5727.317	-10.42207	-7.67479	-8.79775	-8.23667
5731.319	-10.45757	-7.71614	-8.77851	-8.25066
5735.317	-10.47921	-7.73955	-8.76093	-8.24686
5739.315	-10.42113	-7.72226	-8.70522	-8.23612
5743.274	-10.41059	-7.74182	-8.71104	-8.21388
5747.321	-10.40401	-7.75261	-8.69646	-8.22050
5751.321	-10.41446	-7.75197	-8.68975	-8.21915
5755.310	-10.42663	-7.74663	-8.67175	-8.21367
5759.282	-10.43325	-7.69655	-8.69559	-8.23536
5763.318	-10.47396	-7.65922	-8.70012	-8.26361
5767.317	-10.53094	-7.67599	-8.75865	-8.24157
5771.315	-10.54349	-7.62954	-8.84566	-8.24406
5775.318	-10.56044	-7.57005	-8.92394	-8.22152
5779.321	-10.57735	-7.55702	-9.03803	-8.22803
5783.317	-10.59853	-7.55064	-9.08544	-8.21547
5787.317	-10.64484	-7.55868	-9.20869	-8.21308
5791.319	-10.69827	-7.55106	-9.21309	-8.20118
5795.322	-10.71389	-7.57147	-9.21079	-8.23530
5799.296	-10.70390	-7.58223	-9.25209	-8.24624
5803.316	-10.37102	-7.61514	-9.13088	-8.27317
5807.321	-10.44463	-7.63689	-9.11269	-8.23586
5811.320	-10.40176	-7.60972	-9.04246	-8.25031
5815.320	-9.94686	-7.57997	-8.88741	-8.25670
5819.315	-10.14287	-7.53779	-8.96988	-8.25897
5823.319	-10.23238	-7.48207	-8.97886	-8.24953
5827.321	-10.42509	-7.48511	-8.94455	-8.19029
5831.313	-10.40303	-7.51314	-8.99181	-8.18454
5835.316	-10.27830	-7.49047	-9.07736	-8.18602
5839.305	-10.31600	-7.49744	-9.07457	-8.12162
5843.322	-10.12104	-7.50038	-8.96961	-8.14237
5847.322	-10.18195	-7.46584	-9.03384	-8.08928
5851.309	-10.20971	-7.45586	-9.01818	-8.04459
5855.321	-10.28042	-7.49328	-8.98908	-7.97529
5859.322	-10.35102	-7.50928	-9.02481	-7.97085
5863.318	-10.27143	-7.50262	-9.01418	-7.94514
5867.310	-10.31177	-7.49252	-9.01138	-7.96311
5871.318	-10.34528	-7.51915	-9.01949	-7.98048
5875.322	-10.43479	-7.51906	-9.05371	-8.02644
5879.317	-10.45022	-7.54189	-8.96508	-8.05353
5883.279	-10.28823	-7.50939	-8.93227	-8.03574
5887.320	-10.22923	-7.51433	-8.91083	-7.98572
5891.324	-10.21435	-7.43296	-8.90485	-7.95284
5895.320	-10.26028	-7.47080	-8.90718	-7.97138
5899.279	-10.21837	-7.49461	-9.05122	-8.00628
5903.319	-10.31271	-7.57232	-9.06990	-8.06893
5907.322	-10.43426	-7.62007	-9.07714	-8.08426
5911.321	-10.23380	-7.60395	-9.00130	-8.05680
5915.277	-10.13462	-7.62412	-8.95624	-8.03478
5919.321	-10.15069	-7.63285	-8.89591	-8.02418
5923.274	-10.13284	-7.58006	-8.92396	-7.95860
5927.276	-10.23771	-7.58202	-8.92595	-7.97635
5931.279	-10.44007	-7.59708	-8.95617	-7.96209
5935.321	-10.31787	-7.51244	-8.97874	-8.02893
5939.321	-10.22865	-7.62647	-9.00276	-8.06868
5943.318	-10.07389	-7.61117	-8.91258	-8.08071
5947.313	-10.10013	-7.58400	-8.86141	-8.08488
5951.323	-10.02126	-7.55039	-8.84234	-8.06927
5955.320	-10.14775	-7.52452	-8.83059	-7.99585
5959.322	-10.15918	-7.47088	-8.80418	-7.97043
5963.311	-10.23274	-7.44598	-8.84668	-7.89527
5967.286	-10.14826	-7.42561	-8.77734	-7.87808
5971.326	-10.12573	-7.41297	-8.72149	-7.87199
5975.322	-10.07933	-7.38958	-8.69971	-7.89782
5979.317	-10.07872	-7.42539	-8.65400	-7.84769
5983.318	-10.08818	-7.39362	-8.66600	-7.85263
5987.320	-10.15785	-7.37427	-8.73679	-7.82998
5991.319	-10.18983	-7.35257	-8.78047	-7.78269
5995.343	-10.22793	-7.35812	-8.75616	-7.80675
5999.320	-10.28974	-7.34725	-8.84242	-7.89114
6003.319	-10.19599	-7.31781	-8.86897	-7.90737
6007.299	-10.19380	-7.28268	-8.79371	-7.85812
6011.280	-8.98809	-6.74111	-7.48258	-6.95905
6015.322	-7.26466	-4.89793	-6.41435	-4.87369
6019.322	-6.32745	-3.12071	-5.31640	-2.92205
6023.320	-5.17228	-2.46454	-4.72830	-2.36558
6027.279	-4.39042	-1.26871	-2.91700	-0.51826
6031.319	-2.97403	-0.94614	-2.48421	0.08870
6035.320	-1.28532	0.28442	-0.91038	1.54962
6039.320	-0.83525	0.88273	0.29481	1.95951
6043.307	-0.28118	1.28060	0.69389	2.19533
6047.309	-0.25262	1.51521	1.40244	2.52149
6051.311	0.03450	1.68359	1.62725	2.79499
6055.323	0.04884	1.85836	1.69465	2.98826
6059.281	0.08924	1.84478	1.59350	3.26346
6063.322	-0.01380	1.97003	1.62383	3.32749
6067.323	0.20348	2.02189	1.78012	3.44689
6071.321	0.43001	2.08501	1.80169	3.34045
6075.280	0.51428	2.17583	1.84842	3.46737
6079.321	0.62330	2.18360	1.97617	3.43675
6083.321	0.68151	2.14963	2.13542	3.30092
6087.320	0.75590	2.17247	2.09556	3.38245
6091.307	0.79558	2.21411	2.13770	3.40740
6095.321	0.83394	2.21932	2.07918	3.32438
6099.321	0.86550	2.20901	2.06369	3.33548
6103.323	0.86242	2.21479	2.09264	3.31425
6107.281	0.93043	2.15235	2.14932	3.27436
6111.323	0.95452	2.14864	2.09608	3.22247
6115.323	0.93391	2.05784	1.97332	3.18667
6119.324	0.89036	2.00370	1.89124	3.16337
6123.282	0.87327	1.97792	1.97349	3.14960
6127.324	0.85714	1.99848	1.94156	3.17640
6131.324	0.84771	2.03968	1.94615	3.22351
6135.321	0.86783	2.09872	1.95363	3.30102
6139.282	0.86704	2.08939	1.90093	3.31197
6143.321	0.81272	2.09051	1.91895	3.32592
6147.325	0.74235	2.11569	1.89716	3.33561
6151.326	0.75146	2.18811	1.86821	3.39512
6155.282	0.70744	2.19793	1.92111	3.28440
6159.324	0.66159	2.27124	1.96900	3.28196
6163.323	0.65379	2.37052	2.05799	3.05458
6167.322	0.79310	2.39302	2.09836	3.04118
6171.281	0.66154	2.38810	2.01055	3.05586
6175.301	0.63650	2.35190	2.05003	2.91492
6179.331	0.58312	2.35773	2.17038	2.91593
6183.322	0.54046	2.37957	2.31738	2.81764
6187.283	0.53471	2.46068	2.36512	2.77769
6191.323	0.57334	2.53031	2.25977	2.67290
6195.321	0.54592	2.54220	2.26066	2.60273
6199.323	0.52689	2.55185	2.32729	2.60449
6203.283	0.52394	2.57687	2.23581	2.61675
6207.328	0.54982	2.53614	2.24820	2.70575
6211.325	0.53294	2.56499	2.18989	2.77716
6215.301	0.55250	2.60545	2.26339	2.81581
6219.282	0.53533	2.64851	2.22696	2.87998
6223.280	0.55133	2.64057	2.18248	2.97587
6227.325	0.64759	2.67637	2.16843	3.07001
6231.321	0.63377	2.65726	2.08421	3.13186
6235.283	0.60607	2.59866	2.05325	3.18074
6239.325	0.72198	2.57432	2.10808	3.07568
6243.281	1.06791	2.53691	2.29052	3.16970
6247.325	3.10050	2.72108	3.43135	3.25381
6251.289	5.03654	3.15450	5.14862	3.58487
6255.315	6.70521	3.24306	6.11606	3.55736
6259.313	7.28141	3.40412	7.03878	4.39516
6263.324	7.39601	3.77416	7.46611	4.59748
6267.283	7.84133	3.98329	8.30714	4.68259
6271.323	8.03533	3.91116	8.80539	5.05752
6275.325	7.95748	3.78544	8.24266	4.78409
6279.325	8.05151	3.88382	8.71834	4.78468
6283.283	7.90477	3.90733	8.85456	4.94374
6287.323	7.77999	3.85794	8.70771	4.85891
6291.322	8.01852	3.92134	8.87786	4.99151
6295.324	8.18779	3.92882	8.89892	5.03332
6299.283	8.26087	3.97020	8.95649	5.00696
6303.326	8.42945	4.11118	9.06942	5.03601
6307.325	8.35090	4.01893	9.05163	5.08006
6311.325	8.41837	4.04468	9.18714	5.03253
6315.283	8.47121	4.11502	9.20910	5.01922
6319.326	8.52447	4.23239	9.19295	5.02716
6323.323	8.47041	4.11266	9.25318	5.05206
6327.325	8.34490	4.24536	9.20289	5.12574
6331.283	8.35724	4.21747	9.21604	5.13778
6335.323	8.15217	4.28861	9.30015	5.13330
6339.305	8.12960	4.39266	9.32540	5.12690
6343.324	8.09282	4.41607	9.29203	5.14050
6347.284	8.23520	4.47329	9.30938	5.14711
6351.329	8.21274	4.47335	9.30575	5.15572
6355.325	8.15046	4.52426	9.27738	5.10768
6359.327	8.17928	4.56033	9.31424	5.15331
6363.224	8.16197	4.57739	9.37167	5.18053
6367.325	8.17096	4.63692	9.19396	5.12847
6371.325	8.25785	4.64372	9.28168	5.08956
6375.325	8.25683	4.64071	9.27905	5.04986
6379.224	8.29888	4.67104	9.27793	5.06059
6383.319	8.27589	4.63228	9.25591	5.02888
6387.326	8.31798	4.56328	9.24651	5.03784
6391.326	8.37196	4.42937	9.21343	5.08042
6395.228	8.40674	4.37873	9.17839	5.08506
6399.329	8.40594	4.31013	9.17662	5.10363
6403.326	8.41811	4.24793	9.16305	5.10570
6407.325	8.47320	4.18632	9.11053	5.07884
6411.224	8.44229	4.14320	9.15863	5.12980
6415.332	8.41874	4.08885	9.14822	5.13893
6419.327	8.41956	4.05139	9.14956	5.19576
6423.303	8.39083	4.01324	9.10168	5.18139
6427.224	8.43970	4.00341	9.08856	5.20825
6431.327	8.43676	4.00034	9.06908	5.19500
6435.323	8.42884	4.01033	9.04877	5.15328
6439.327	8.41286	4.02771	9.06310	5.11510
6443.224	8.41587	4.06828	9.06308	5.09244
6447.327	8.45473	4.10940	9.07184	5.05207
6451.328	8.44076	4.08030	9.09563	5.09665
6455.327	8.46529	4.07478	9.12094	5.03728
6459.227	8.50066	4.07627	9.16680	5.03732
6463.314	8.50760	4.11835	9.27080	5.01929
6467.317	8.52761	4.18242	9.22687	4.98202
6471.327	8.47687	4.22781	9.19425	4.99516
6475.224	8.50901	4.28096	9.21565	4.96884
6479.328	8.51316	4.31813	9.29667	5.03428
6483.328	8.37091	4.24324	9.19198	5.10762
6487.324	8.31020	4.36551	9.13816	5.11418
6491.329	8.46279	4.56774	9.43197	5.20531
6495.326	9.40762	5.24814	10.78779	5.40358
6499.326	9.85886	6.97978	10.55891	5.78191
6503.327	9.77821	6.21241	10.65498	6.23733
6507.330	8.87874	6.28720	10.82497	6.23447
6511.326	9.15524	6.10278	10.71058	6.32369
6515.326	9.55266	6.04745	10.84590	6.45305
6519.327	9.75574	5.77100	10.84394	6.35633
6523.329	9.80918	5.48217	10.97927	6.41846
6527.329	9.82975	5.78993	11.01118	6.51136
6531.327	9.86577	5.79934	10.94765	6.57716
6535.324	9.83125	6.08012	10.99728	6.61768
6539.224	9.76977	6.16512	10.98257	6.63298
6543.328	9.68493	6.24969	11.05252	6.64311
6547.326	9.69600	6.25616	11.05082	6.65109
6551.326	9.72894	6.21852	11.10570	6.64759
6555.227	9.80985	6.29055	11.15554	6.62710
6559.331	9.80527	6.21764	11.17660	6.55393
6563.328	9.82202	6.24873	11.17493	6.58120
6567.325	9.86201	6.26506	11.19626	6.62418
6571.330	9.89646	6.33220	11.20483	6.63683
6575.330	9.97483	6.29441	11.20495	6.60198
6579.327	9.99137	6.29237	11.15453	6.54641
6583.329	9.92271	6.28370	11.04663	6.57030
6587.223	9.86563	6.51870	11.03102	6.59739
6591.297	9.85944	6.33704	10.99001	6.57035
6595.327	9.94118	6.43701	11.02311	6.57373
6599.329	9.96573	6.42937	10.95325	6.56317
6603.331	9.92555	6.41599	10.83510	6.59499
6607.334	9.93913	6.40512	10.81200	6.58776
6611.327	9.96003	6.43690	10.77890	6.60982
6615.328	9.99732	6.46063	10.83802	6.58288
6619.330	10.00716	6.49162	10.83158	6.53343
6623.284	9.92138	6.51108	10.83422	6.54214
6627.328	9.79250	6.51038	10.83316	6.53758
6631.329	9.67591	6.46942	10.88738	6.48214
6635.216	9.71994	6.44411	11.01507	6.47797
6639.329	9.65150	6.38975	11.02545	6.48417
6643.328	9.75630	6.33191	11.06380	6.47370
6647.204	9.73255	6.23963	11.07348	6.49371
6651.163	9.63486	6.08100	11.08127	6.44038
6655.206	9.63575	5.94384	11.16084	6.46449
6659.204	9.66393	5.84077	11.17701	6.44353
6663.204	9.64005	5.60907	11.22525	6.47380
6667.163	9.68551	5.55921	11.21018	6.53799
6671.205	9.71828	5.50414	11.20608	6.62283
6675.205	9.75321	5.77380	11.13609	6.55322
6679.171	9.67278	5.97937	10.02899	6.63027
6683.196	9.21585	5.88776	8.57022	6.75823
6687.206	5.92977	6.05341	6.54673	6.99161
6691.204	5.75728	6.54354	5.96588	7.05540
6695.204	4.70441	6.89276	4.56239	6.99901
6699.224	4.40127	6.64587	4.50754	7.20795
6703.204	3.14610	6.84094	3.82818	7.18620
6707.206	2.14751	6.66759	2.53773	7.08236
6711.205	2.18431	6.62368	2.58452	7.24762
6715.199	1.71298	6.76627	2.18585	7.21197
6719.206	1.22409	6.74878	2.08610	7.28064
6723.198	1.32721	6.67750	2.70713	7.34103
6727.204	1.34140	6.61261	3.07031	7.31682
6731.202	1.33713	6.71317	2.69599	7.26444
6735.206	1.13707	6.64219	2.47385	7.20907
6739.207	0.92038	6.58973	2.38606	7.15374
6743.159	0.92741	6.52169	2.45047	7.09466
6747.201	0.91852	6.55334	2.32466	7.17368
6751.208	0.89493	6.60054	2.30325	7.33692
6755.206	0.94385	6.53635	2.24978	7.12790
6759.201	0.81873	6.46323	2.35063	7.34025
6763.205	0.85312	6.38854	2.34877	7.16011
6767.207	0.80099	6.47429	2.41588	7.16040
6771.205	0.68379	6.51712	2.37037	7.06703
6775.205	0.60220	6.48014	2.28819	7.14863
6779.203	0.58042	6.44677	2.27783	7.11722
6783.208	0.57396	6.42924	2.24867	7.15729
6787.205	0.55694	6.55701	2.24666	7.09759
6791.206	0.59833	6.53226	2.23821	7.07692
6795.228	0.70310	6.81923	2.25323	7.00294
6799.207	0.65883	6.88330	2.30890	6.97498
6803.178	0.64930	6.98057	2.30092	6.94725
6807.206	0.68218	7.11175	2.28586	6.90588
6811.226	0.81233	6.91252	2.35417	6.84801
6815.196	0.82848	6.98171	2.30058	6.84409
6819.214	0.83620	6.96576	2.33968	6.82018
6823.202	0.88761	7.08941	2.42089	6.91936
6827.203	0.90780	6.96514	2.69247	7.26566
6831.207	0.96145	6.94990	2.64277	6.77286
6835.206	0.97891	6.98886	2.63381	6.93374
6839.207	0.97775	6.97942	2.55198	6.78487
6843.164	0.97306	6.91012	2.46298	6.87887
6847.205	0.98663	6.88516	2.36891	6.95788
6851.205	0.99171	6.81020	2.44670	6.91771
6855.209	0.94418	6.77894	2.39864	6.94017
6859.230	0.92835	6.74950	2.38095	6.95246
6863.163	0.91788	6.75547	2.38705	7.03794
6867.206	0.91726	6.69722	2.44041	7.00710
6871.207	0.93085	6.68065	2.40749	7.00458
6875.229	0.96365	6.66358	2.37084	7.06451
6879.210	0.96033	6.66619	2.34483	7.23550
6883.209	0.94279	6.65470	2.39780	7.22582
6887.173	0.97673	6.62252	2.44841	7.22814
6891.199	1.01848	6.63764	2.50551	7.37299
6895.206	1.02642	6.67471	2.54385	7.39921
6899.206	1.00794	6.61177	2.52186	7.35261
6903.206	0.95738	5.90249	2.36232	7.00576
6907.165	0.15466	4.73536	0.75280	4.26124
6911.209	-0.28530	3.77110	0.81806	3.76636
6915.208	0.19715	3.43015	0.72814	3.05975
6919.206	-0.18832	3.27080	0.65451	3.00236
6923.166	-0.47279	2.87095	0.66002	2.67570
6927.162	-0.48403	2.06186	0.82114	2.17487
6931.206	-0.47120	1.86431	0.83399	1.90406
6935.207	-0.45336	1.87533	0.68486	1.95796
6939.198	-0.48713	1.87930	0.67680	2.14775
6943.208	-0.54210	1.79141	0.63796	2.05325
6947.206	-0.55528	1.75206	0.59230	1.84593
6951.207	-0.57019	1.70930	0.64064	1.79157
6955.206	-0.53002	1.67044	0.66315	1.76034
6959.210	-0.55967	1.60538	0.66920	1.74003
6963.207	-0.57426	1.45580	0.73506	1.73539
6967.205	-0.51202	1.34625	0.76012	1.74588
6971.198	-0.51364	1.46406	0.79233	1.72846
6975.209	-0.55173	1.38056	0.77412	1.87204
6979.207	-0.60469	1.28124	0.82243	1.89910
6983.206	-0.57977	1.27111	0.83602	1.84891
6987.205	-0.56041	1.26925	0.89061	1.84915
6991.208	-0.57024	1.25546	0.94877	1.84515
6995.209	-0.55337	1.27953	0.98995	1.85580
6999.208	-0.54421	1.28798	0.91567	1.91246
7003.227	-0.59754	1.33799	0.87820	1.92295
7007.208	-0.58935	1.43047	0.93018	1.91644
7011.187	-0.64588	1.48493	0.92775	1.87418
7015.208	-0.70528	1.57534	0.88384	1.88418
7019.227	-0.68920	1.63816	0.88002	1.82079
7023.173	-0.65444	1.69964	0.84473	1.73738
7027.208	-0.65774	1.70977	0.82791	1.70720
7031.209	-0.72350	1.73375	0.80692	1.67973
7035.208	-0.80756	1.72744	0.78156	1.64175
7039.207	-0.83208	1.70841	0.74876	1.58886
7043.209	-0.88076	1.70077	0.74692	1.51271
7047.211	-0.87490	1.65780	0.76980	1.48755
7051.197	-0.90641	1.57452	0.76198	1.45013
7055.198	-0.90421	1.53835	0.77555	1.41335
7059.164	-0.88128	1.47820	0.79873	1.39162
7063.179	-0.85366	1.48826	0.81230	1.38883
7067.233	-0.84803	1.43985	0.84324	1.49847
7071.210	-0.83178	1.43896	0.89498	1.52298
7075.208	-0.70977	1.44210	0.94075	1.56820
7079.211	-0.58955	1.41378	0.95160	1.53013
7083.199	-0.59784	1.42662	0.98085	1.53265
7087.210	-0.57034	1.39690	1.03575	1.61458
7091.207	-0.53044	1.40654	1.05292	1.62415
7095.175	-0.47681	1.40017	1.10517	1.63130
7099.230	-0.45401	1.38791	1.13568	1.62289
7103.210	-0.46674	1.36501	1.13789	1.62977
7107.209	-0.43403	1.33161	1.15406	1.60935
7111.212	-0.38033	1.29409	1.17002	1.68540
7115.204	-0.38531	1.17299	1.11948	1.65944
7119.212	-0.43778	1.08746	1.11430	1.63124
7123.166	-0.46768	1.07479	1.09653	1.62045
7127.213	-0.47445	1.01164	1.11130	1.58527
7131.203	-0.48167	1.00069	1.07641	1.55932
7135.210	-0.48634	1.00747	1.10993	1.59600
7139.210	-0.47629	1.00722	1.02727	1.56841
7143.222	-0.49463	1.00337	0.87111	1.43199
7147.205	-0.48547	0.98546	0.78332	1.34114
7151.208	-0.50942	0.99035	0.81550	1.27681
7155.211	-0.50453	0.99832	0.84840	1.29170
7159.165	-0.45544	1.06466	0.99504	1.38819
7163.204	-0.28525	1.10904	1.50065	1.36071
7167.209	1.22551	1.10649	2.47108	1.29935
7171.209	3.00737	1.06146	3.39631	1.24058
7175.166	3.12512	0.95020	4.12883	1.33862
7179.211	2.69594	0.91061	4.02221	1.13492
7183.212	2.43667	0.85363	4.09599	1.13350
7187.209	2.32858	0.75527	4.18418	1.15550
7191.211	2.26532	0.69408	4.24322	1.10943
7195.208	2.29354	0.66189	4.24833	1.10321
7199.208	2.24151	0.63498	4.28829	1.05921
7203.210	2.29540	0.57612	4.22792	1.02949
7207.211	2.30152	0.54799	4.22999	0.96599
7211.207	2.43441	0.52289	4.24581	0.93059
7215.211	2.34198	0.54355	4.25238	0.88257
7219.209	2.34079	0.58303	4.23377	0.88653
7223.165	2.32072	0.60709	4.20160	0.89633
7227.207	2.34632	0.63826	4.21456	0.89480
7231.208	2.34790	0.67644	4.21022	0.88064
7235.210	2.41759	0.69344	4.20200	0.91380
7239.210	2.43414	0.70859	4.20607	0.93515
7243.213	2.48463	0.69618	4.19390	0.94108
7247.209	2.47289	0.72533	4.20943	0.97010
7251.210	2.47506	0.67030	4.22577	1.03286
7255.215	2.46305	0.62376	4.24085	1.05286
7259.170	2.48723	0.65061	4.24115	1.09026
7263.205	2.47160	0.62994	4.23384	1.10234
7267.210	2.49411	0.61600	4.27429	1.12613
7271.209	2.53060	0.61109	4.30803	1.13099
7275.169	2.58598	0.59558	4.27898	1.17539
7279.209	2.56188	0.57811	4.28994	1.14694
7283.211	2.60949	0.54275	4.33231	1.16407
7287.211	2.66060	0.55526	4.28792	1.18571
7291.172	2.75034	0.50134	4.21691	1.16555
7295.210	2.77725	0.48073	4.14278	1.13631
7299.212	2.89210	0.50827	4.16297	1.11577
7303.169	2.91396	0.46543	4.10878	1.07925
7307.171	2.96423	0.40437	4.19674	1.09553
7311.211	2.96163	0.42626	4.25267	1.11021
7315.211	2.93975	0.38348	4.25023	1.10662
7319.211	2.96836	0.37399	4.32148	1.11155
7323.204	3.02027	0.37549	4.39861	1.17476
7327.213	3.00203	0.36145	4.42419	1.17197
7331.212	2.98455	0.36329	4.43830	1.15900
7335.212	2.94559	0.38909	4.49852	1.18087
7339.110	2.93124	0.37286	4.51258	1.23584
7343.192	2.89532	0.36685	4.56017	1.27208
7347.212	2.88675	0.39440	4.57608	1.30701
7351.217	2.85368	0.41066	4.58094	1.34728
7355.110	2.84467	0.39498	4.57670	1.34867
7359.214	2.86980	0.40649	4.58234	1.40369
7363.210	2.86559	0.43322	4.56373	1.43851
7367.213	2.83633	0.45023	4.54705	1.45010
7371.205	2.84385	0.42886	4.53756	1.44933
7375.213	2.84618	0.41704	4.52318	1.46518
7379.213	2.84445	0.41384	4.51267	1.47196
7383.214	2.85556	0.40744	4.51840	1.46219
7387.115	2.88089	0.43093	4.54730	1.45929
7391.215	2.84655	0.43469	4.54163	1.42481
7395.214	2.85606	0.44461	4.58543	1.38123
7399.212	2.82813	0.56119	4.57386	1.37388
7403.108	2.77040	0.59981	4.50821	1.32389
7407.214	2.75720	0.64493	4.38736	1.29494
7411.209	2.71466	0.66233	4.47439	1.28297
7415.214	2.68888	0.72275	4.46551	1.27838
7419.108	2.64951	0.68753	4.35913	1.26789
7423.167	2.63819	0.65110	4.34324	1.25809
7427.217	2.63170	0.66580	4.26067	1.24676
7431.169	2.61030	0.60100	4.23471	1.17618
7435.117	2.63494	0.47051	4.27980	1.19642
7439.212	2.67360	0.55235	4.27306	1.24451
7443.167	2.68529	0.52097	4.24517	1.21783
7447.213	2.74041	0.59116	4.29892	1.23057
7451.109	2.72315	0.68659	4.36715	1.27212
7455.211	2.73162	0.68510	4.33073	1.26695
7459.214	2.74989	0.67886	4.31247	1.20682
7463.212	2.76482	0.56067	4.25413	1.20461
7467.114	2.76054	0.54717	4.32136	1.22360
7471.210	2.77144	0.41819	4.34401	1.18250
7475.211	2.77064	0.42340	4.38474	1.19633
7479.216	2.75893	0.28235	4.30857	1.24490
7483.109	2.75158	0.65801	4.26790	1.21509
7487.213	2.85143	0.71175	4.33364	1.24894
7491.214	3.21488	0.85752	4.97132	1.27364
7495.213	6.66957	1.75462	7.07823	1.50476
7499.113	7.39854	2.33910	8.03815	2.12217
7503.213	7.89746	2.71058	8.59444	2.60306
7507.214	10.35664	2.65163	9.57483	2.68461
7511.216	11.03028	2.68721	11.50854	2.86329
7515.217	11.00572	2.74552	11.25925	2.79388
7519.214	10.74841	2.84312	11.41769	2.73931
7523.214	10.65079	2.70747	11.45302	2.89400
7527.217	10.56493	2.78054	11.46449	2.94611
7531.218	10.43376	2.76022	11.47841	2.93970
7535.214	10.35313	2.77427	11.48470	2.98410
7539.213	10.47295	2.80958	11.51630	2.99489
7543.217	10.50477	2.85621	11.51437	3.06260
7547.218	10.52439	2.90415	11.59594	3.12341
7551.190	10.49428	2.90821	11.65296	3.15783
7555.217	10.48528	2.92217	11.70254	3.10293
7559.208	10.40725	2.90147	11.66615	3.12791
7563.120	10.37474	2.86939	11.70176	3.21023
7567.214	10.46981	2.87561	11.64499	3.27006
7571.213	10.49690	2.89752	11.60544	3.27610
7575.214	10.51614	2.76034	11.48137	3.29515
7579.218	10.56474	2.69329	11.58720	3.35672
7583.214	10.55488	2.88445	11.72003	3.41387
7587.216	10.52797	2.88548	11.72636	3.43299
7591.209	10.47110	2.98264	11.64013	3.38140
7595.119	10.47588	2.98235	11.62294	3.35289
7599.215	10.39078	3.00871	11.57898	3.36424
7603.215	10.41064	3.17148	11.60658	3.40332
7607.214	10.39827	3.22542	11.64623	3.39593
7611.219	10.37813	3.23567	11.61373	3.41289
7615.172	10.32534	3.24542	11.74178	3.43200
7619.213	10.32123	3.25685	11.72322	3.51370
7623.172	10.30262	3.30880	11.78985	3.44231
7627.112	10.26014	3.33420	11.79770	3.45898
7631.211	10.21519	3.37656	11.76409	3.44047
7635.186	10.25372	3.38829	11.77701	3.45667
7639.218	10.23469	3.40989	11.86552	3.48560
7643.221	10.23584	3.39706	11.86260	3.50267
7647.217	10.14913	3.28162	11.91405	3.49271
7651.215	10.09159	3.22798	11.91462	3.42404
7655.217	10.06583	3.18370	11.88948	3.35896
7659.221	10.05339	3.10130	11.80970	3.20350
7663.215	10.00827	3.12193	11.74887	3.08880
7667.216	9.88894	3.01769	11.70192	3.11266
7671.219	9.99688	2.99551	11.48978	2.98839
7675.202	10.00379	2.97107	11.46921	3.10148
7679.211	10.04372	2.94650	11.33559	3.18635
7683.054	10.05101	2.92207	11.45007	3.27983
7687.092	9.98497	2.88361	11.37452	3.14429
7691.115	10.07300	2.92024	11.38483	3.21184
7695.091	10.10379	2.92606	11.31956	3.27929
7699.091	10.13525	2.93251	11.31877	3.33719
7703.092	10.00735	2.86093	11.34690	3.41835
7707.084	10.07079	2.84187	11.43655	3.50131
7711.092	10.07257	2.82062	11.49736	3.60076
7715.092	10.02706	2.65430	11.55254	3.65054
7719.094	9.97698	2.53110	11.59992	3.68035
7723.173	10.00456	2.53912	11.65996	3.73026
7727.090	10.02909	2.51995	11.70704	3.75262
7731.088	10.11779	2.48371	11.68607	3.74999
7735.094	10.26026	2.45529	11.65344	3.63805
7739.089	10.42713	2.43149	11.62799	3.57552
7743.094	10.48699	2.39686	11.65830	3.42770
7747.092	10.55116	2.41577	11.63051	3.53939
7751.085	10.51655	2.58130	11.55905	3.38265
7755.089	10.50863	2.92726	11.55831	3.31890
7759.096	10.52070	3.11406	11.57246	3.29236
7763.093	10.55797	3.03530	11.56441	3.21919
7767.093	10.51504	3.30088	11.53496	3.22315
7771.089	10.53555	3.15169	11.47698	3.31707
7775.091	10.48912	3.23359	11.51597	3.33362
7779.091	10.44021	3.45380	11.54034	3.43336
7783.094	10.32753	3.43074	11.55783	3.45236
7787.113	10.29053	3.44597	11.63390	3.54710
7791.092	10.24425	3.47908	11.67929	3.56223
7795.093	10.21421	3.48177	11.72998	3.51890
7799.095	10.17913	3.44189	11.78162	3.61226
7803.114	10.15107	3.41592	11.86712	3.59510
7807.063	10.15951	3.42512	11.87596	3.63260
7811.092	10.11478	3.38798	11.89754	3.66014
7815.095	9.91021	3.38728	11.90074	3.66973
7819.085	9.61867	3.38609	11.81177	3.71603
7823.091	9.63385	3.35174	11.74004	3.64482
7827.093	9.56870	3.29020	11.53439	3.67769
7831.096	9.50805	3.26521	11.40598	3.69707
7835.116	9.58029	3.22517	11.54361	3.60439
7839.094	9.51532	2.98319	11.57369	3.58502
7843.087	9.49641	2.86052	11.60870	3.53901
7847.095	9.46235	2.83469	11.46804	3.62316
7851.080	9.46918	2.97949	11.14455	3.56930
7855.094	9.46343	2.89290	11.08005	3.53207
7859.099	9.46561	2.88410	11.08039	3.38388
7863.097	9.51495	2.92649	10.97181	3.30813
7867.086	9.56815	2.91949	10.98566	3.25261
7871.097	9.60138	2.93863	10.95370	3.15921
7875.094	9.61288	2.89762	10.95660	3.13573
7879.092	9.61257	2.96431	10.94119	3.12830
7883.083	9.64933	3.00984	10.89073	3.09874
7887.093	9.68609	3.07500	10.88901	3.11761
7891.093	9.68443	3.05054	10.84267	3.05769
7895.094	9.68619	3.03187	10.89274	3.01759
7899.114	9.70729	3.04907	10.89561	2.96249
7903.093	9.71558	3.00984	10.92478	2.92692
7907.093	9.76469	2.98839	10.92902	2.95408
7911.095	9.79542	2.97737	10.91502	2.95507
7915.117	9.77577	2.98849	10.90135	2.96874
7919.094	9.81906	3.00265	10.87948	2.96694
7923.102	9.79496	3.02048	10.87371	2.95169
7927.050	9.78696	3.00966	10.89937	2.96467
7931.091	9.77965	3.02477	10.86467	2.94017
7935.097	9.81168	3.07094	10.88520	2.96109
7939.094	9.76898	3.06059	10.88664	2.96679
7943.093	9.71141	3.03923	10.87986	2.98597
7947.079	9.74405	3.06114	10.92696	3.01092
7951.095	9.74412	3.07283	10.99779	3.01942
7955.076	9.76281	3.04416	11.03317	3.04477
7959.095	9.75196	3.03552	11.07926	3.04942
7963.081	9.76907	3.02496	11.15284	3.05879
7967.095	9.78349	3.01543	11.16034	3.09301
7971.096	9.79995	3.02551	11.17161	3.11161
7975.084	9.73542	2.96059	11.20550	3.12923
7979.052	9.68373	2.88013	11.20832	3.14684
7983.094	9.64721	2.85754	11.24552	3.16621
7987.095	9.59245	2.82308	11.25939	3.19092
7991.099	9.56890	2.80724	11.27631	3.22421
7995.052	9.52550	2.82764	11.27221	3.26873
7999.093	9.45303	2.82176	11.26137	3.29849
8003.092	9.44810	2.85975	11.25077	3.34524
8007.093	9.39448	2.85075	11.26204	3.39174
8011.053	9.34751	2.87411	11.26865	3.47602
8015.064	9.31842	2.92248	11.28997	3.47327
8019.094	9.27963	2.95482	11.29992	3.49973
8023.096	9.25262	3.01272	11.33884	3.58008
8027.053	9.24390	3.15796	11.37879	3.60134
8031.094	9.27056	3.24926	11.42902	3.66097
8035.093	9.25635	3.21678	11.27791	3.66072
8039.096	9.26723	3.27816	11.27806	3.63890
8043.053	9.28282	3.37006	11.34234	3.59217
8047.095	9.29386	3.40795	11.33154	3.49201
8051.096	9.28867	3.45812	11.26758	3.47038
8055.096	9.31721	3.51105	11.22458	3.38980
8059.053	9.37264	3.40579	11.22783	3.25346
8063.097	9.41231	3.40509	11.17701	3.23506
8067.096	9.50631	3.35578	11.14510	3.23337
8071.096	9.57416	3.28822	10.99692	3.21494
8075.054	9.57850	3.24781	10.98908	3.13714
8079.096	9.59534	3.18180	11.01110	3.10582
8083.095	9.61491	3.16354	11.01663	3.08558
8087.097	9.62478	3.13199	11.01275	3.06543
8091.053	9.60702	3.08847	10.97626	3.07663
8095.096	9.58154	3.04092	10.90324	3.06832
8099.089	9.55876	2.99611	10.89614	3.07214
8103.097	9.47720	2.96627	10.93222	3.16449
8107.081	9.44100	2.92074	10.95552	3.28998
8111.095	9.39844	2.84955	10.99735	3.42302
8115.093	9.38030	2.86716	11.04580	3.50323
8119.097	9.35761	2.81403	11.08380	3.59112
8123.056	9.36585	2.81858	11.12500	3.61170
8127.098	9.43598	2.78104	11.13685	3.64128
8131.103	9.45938	2.72641	11.07228	3.69998
8135.097	9.43735	2.75239	11.05930	3.70706
8139.055	9.57225	2.75404	11.10285	3.72259
8143.094	9.61016	2.77368	11.12204	3.78420
8147.096	9.60483	2.76671	11.11122	3.75868
8151.098	9.71826	2.76236	11.05433	3.74045
8155.056	9.62726	2.78980	10.92220	3.67659
8159.096	8.88576	2.78889	10.12486	3.53762
8163.098	8.36397	2.76866	9.88331	3.54169
8167.097	7.93243	2.80874	9.64907	3.55264
8171.055	8.13286	2.84976	9.82043	3.48918
8175.097	8.19795	2.85381	10.12051	3.42509
8179.760	8.33372	2.83056	9.99344	3.32660
8183.088	8.22698	2.83810	9.77787	3.30029
8187.055	8.11274	2.77785	9.84505	3.25836
8191.097	8.08200	2.76370	9.70622	3.32458
8195.097	8.11887	2.73184	9.64465	3.29447
8199.102	8.08871	2.67919	9.64755	3.32489
8203.054	8.03784	2.63339	9.62594	3.35164
8207.097	8.01275	2.58307	9.65799	3.41372
8211.095	7.96132	2.56942	9.54592	3.31133
8215.097	7.95290	2.51362	9.61853	3.32139
8219.057	7.91380	2.50880	9.54136	3.29567
8223.068	7.88444	2.54629	9.52825	3.20114
8227.101	7.70877	2.65743	9.50105	3.24837
8231.097	7.68910	2.64494	9.49752	3.22735
8235.056	7.67557	2.67513	9.52080	3.21237
8239.099	7.68705	2.71523	9.53591	3.27017
8243.055	7.69044	2.72710	9.47997	3.22165
8247.098	7.69549	2.69267	9.49760	3.15268
8251.057	7.75120	2.69686	9.49052	3.07765
8255.098	7.82550	2.64750	9.52379	3.05516
8259.097	7.84693	2.57156	9.47567	3.03000
8263.101	7.88203	2.58492	9.47478	3.00689
8267.058	7.89712	2.60883	9.45877	3.05511
8271.100	7.88441	2.51915	9.50713	3.12071
8275.098	7.85288	2.59984	9.47188	3.11484
8279.099	7.85553	2.62108	9.50696	3.20363
8283.058	7.84092	2.58818	9.51949	3.12086
8287.097	7.94406	2.62852	9.59850	3.16655
8291.097	7.98077	2.58327	9.66518	3.16156
8295.099	8.01435	2.57297	9.75169	3.23464
8299.082	8.08744	2.51650	9.76387	3.29189
8303.095	8.29270	2.57775	9.74796	3.26903
8307.063	8.29355	2.59034	9.77127	3.26936
8311.098	8.39348	2.53808	9.72672	3.30832
8315.057	8.42425	2.51867	9.64391	3.27150
8319.097	8.29010	2.60793	9.65056	3.22409
8323.096	8.27380	2.54166	9.47804	3.15257
8327.098	8.22231	2.49800	9.41644	3.14462
8331.056	8.14694	2.51470	9.39636	3.14635
8335.098	8.07635	2.53803	9.41441	3.07713
8339.098	7.93488	2.49919	9.30684	3.03837
8343.098	7.92269	2.54213	9.27571	3.00127
8347.057	7.91122	2.54645	9.22888	3.01762
8351.102	7.87397	2.53619	9.19667	3.03490
8355.098	7.81390	2.53318	9.16833	3.00483
8359.099	7.75736	2.54891	9.18751	3.02069
8363.060	7.72600	2.50602	9.19055	3.03835
8367.097	7.70090	2.46458	9.25388	3.06945
8371.101	7.71776	2.37029	9.28753	3.11024
8375.099	7.74043	2.33307	9.35078	3.16138
8379.057	7.78294	2.32194	9.36467	3.17298
8383.101	7.82309	2.34160	9.34285	3.20647
8387.100	7.86793	2.38109	9.40153	3.31624
8391.089	7.84691	2.36071	9.44324	3.23514
8395.058	7.90487	2.29057	9.43414	3.28377
8399.100	7.94891	2.37465	9.55558	3.27477
8403.100	8.44560	2.68692	10.23055	3.33936
8407.101	9.59597	2.81692	11.33724	3.26049
8411.063	10.22526	2.71674	11.57965	3.30996
8415.098	10.11067	2.67761	11.70011	3.29022
8419.099	9.94498	2.77119	11.57119	3.22326
8423.101	9.88540	2.79548	11.58472	3.25169
8427.058	10.04564	2.80126	11.60516	3.27941
8431.068	10.22500	2.78132	11.80775	3.26620
8435.101	10.16507	2.80217	11.88984	3.32370
8439.099	10.39287	2.73637	11.85321	3.37712
8443.058	10.41186	2.70772	11.89402	3.30574
8447.100	10.46088	2.62527	12.06525	3.26610
8451.100	10.46189	2.60933	11.95028	3.15134
8455.099	10.53048	2.47902	12.04073	3.12768
8458.968	10.47573	2.47933	12.03273	2.93554
8463.103	10.49071	2.42810	12.06142	2.98312
8467.102	10.52250	2.40268	12.05870	3.09636
8471.084	10.43606	2.35438	12.09190	3.04519
8475.060	10.40384	2.34536	12.09764	3.07854
8479.100	10.49889	2.33544	12.04982	3.13571
8483.100	10.48334	2.36398	12.01851	3.15382
8487.101	10.45514	2.36600	12.04104	3.10260
8490.963	10.46640	2.32425	12.04004	3.15291
8495.099	10.55699	2.29757	12.06831	3.13778
8499.100	10.55073	2.30803	12.05782	3.14757
8503.101	10.68844	2.34436	12.09351	3.15977
8506.999	10.67735	2.39125	12.10082	3.22806
8511.103	10.71868	2.46918	12.19282	3.22995
8515.094	10.71997	2.59211	12.18763	3.28216
8519.101	10.74956	2.77153	12.22556	3.35963
8522.996	10.76218	2.65954	12.19998	3.34369
8527.100	10.73502	2.84678	12.22452	3.31540
8531.100	10.70030	2.91420	12.23976	3.31366
8535.100	10.70493	2.81605	12.17136	3.27386
8538.998	10.76099	2.96740	12.14091	3.35540
8543.101	10.83230	2.84165	12.12578	3.39587
8547.106	10.86411	2.81673	12.11754	3.39501
8551.101	10.84815	2.74206	12.06551	3.38840
8554.997	10.90834	2.73177	12.07379	3.28421
8559.100	10.89970	2.70524	12.08395	3.25859
8563.106	10.97093	2.61175	12.04858	3.19736
8567.058	10.93622	2.61468	12.03804	3.18622
8570.999	11.00290	2.57006	12.07476	3.15834
8575.103	11.03516	2.54310	12.07626	3.22118
8579.100	11.05089	2.54141	12.09325	3.21817
8583.098	11.02856	2.54489	12.14736	3.18572
8587.000	10.97038	2.57628	12.14027	3.21034
8591.104	10.94193	2.59462	12.14672	3.19273
8595.090	10.91267	2.63785	12.16994	3.23577
8599.090	10.89032	2.67686	12.13851	3.25339
8603.001	10.86866	2.75147	12.12369	3.29450
8607.103	10.84528	2.78650	12.15410	3.34884
8611.102	10.83228	2.81684	12.18569	3.39659
8615.101	10.81257	2.86698	12.25846	3.39778
8618.999	10.79418	2.90607	12.28609	3.41528
8623.106	10.76183	2.94465	12.32869	3.41473
8627.104	10.73540	2.97496	12.35507	3.42769
8631.099	10.73746	2.99493	12.36554	3.44770
8634.998	10.71947	3.05629	12.39426	3.47702
8639.074	10.72465	3.06768	12.41452	3.47092
8643.102	10.70565	3.07700	12.47283	3.47998
8647.104	10.71137	3.07811	12.49800	3.49289
8650.995	10.66205	3.06863	12.52265	3.49763
8655.104	10.65669	3.05643	12.54308	3.49368
8659.101	10.65067	3.04890	12.53003	3.48910
8663.102	10.64113	3.03930	12.50292	3.47561
8666.998	10.64909	3.02619	12.42863	3.48589
8671.104	10.66050	2.98721	12.40683	3.51488
8675.104	10.65776	2.98251	12.34598	3.50092
8679.085	10.70684	2.98968	12.24061	3.49763
8682.996	10.74233	2.99775	12.27185	3.50692
8687.105	10.63710	3.01769	12.21499	3.53288
8691.102	10.03181	3.02987	11.51742	3.56493
8695.103	8.27946	3.00281	9.57148	3.61933
8699.000	7.21914	3.06840	6.98022	3.67853
8703.105	5.93623	3.04879	5.29309	3.63945
8707.059	4.90491	3.08478	4.44743	3.59982
8711.103	4.23268	3.08690	3.65873	3.56388
8714.999	3.37865	3.07393	3.08550	3.36360
8719.105	2.60882	2.90017	3.28523	3.43713
8723.061	1.90676	2.95208	3.04838	3.43999
8726.954	1.79272	3.00998	2.99354	3.32095
8731.000	1.71394	3.01796	3.10742	3.24148
8734.980	1.68349	2.97354	2.95819	3.16992
8738.978	1.61089	2.95515	2.99747	3.10904
8742.980	1.52273	2.92068	2.88391	3.00195
8746.976	1.38595	2.84685	2.79387	3.00283
8750.980	1.36499	2.79463	2.64661	2.96799
8754.978	1.32778	2.74731	2.59745	3.05349
8758.977	1.32905	2.70983	2.56191	3.11259
8762.971	1.29082	2.70881	2.53627	3.09757
8766.970	1.33500	2.67852	2.48203	3.05027
8770.979	1.34894	2.58529	2.47281	3.10604
8774.978	1.38478	2.53627	2.41794	3.16649
8778.998	1.42791	2.49355	2.45198	3.16195
8782.981	1.41271	2.51930	2.46984	3.15424
8786.979	1.46308	2.51002	2.46345	3.18344
8790.981	1.51189	2.52628	2.43211	3.15411
8794.978	1.58358	2.53976	2.42284	3.16695
8798.981	1.63373	2.52289	2.53214	3.14223
8802.978	1.67018	2.53985	2.65599	3.09852
8806.980	1.74080	2.53118	2.70500	3.08887
8810.970	1.75825	2.49922	2.76581	3.11593
8814.981	1.77595	2.48507	2.82214	3.06364
8818.980	1.74340	2.51481	2.83484	3.01453
8822.980	1.72022	2.57488	2.91062	2.99735
8826.999	1.68059	2.55991	2.85727	3.02165
8830.983	1.62592	2.61685	2.91819	3.02302
8834.986	1.58036	2.74700	2.96272	3.09221
8838.980	1.64585	2.69618	2.99156	3.02344
8843.016	1.60925	2.74181	2.97621	2.98352
8846.978	1.64275	2.67990	2.93052	2.98245
8850.958	1.63169	2.64710	2.89470	2.98799
8854.977	1.59137	2.62899	2.91849	3.00424
8858.999	1.56260	2.70556	2.90386	2.96257
8862.936	1.53384	2.71289	2.92911	3.01465
8866.982	1.48962	2.73775	2.95460	3.04299
8870.980	1.47546	2.79742	2.98755	3.02028
8875.002	1.39728	2.71107	2.95176	3.05720
8878.981	1.44614	2.57582	2.91186	3.03078
8882.979	1.30047	2.52217	2.89435	3.04924
8886.980	1.21638	2.45123	2.77785	3.10214
8891.000	1.27730	2.43412	2.79176	3.10755
8894.973	1.30558	2.43945	2.84014	3.11596
8898.978	1.26093	2.32645	2.79986	3.16741
8902.981	1.32776	2.35149	2.81090	3.15387
8906.976	1.39959	2.26218	2.80486	3.11348
8910.981	1.51563	1.69658	2.71892	1.74449
8914.982	1.78443	0.21255	2.53097	0.37200
8918.948	2.12523	-2.50889	2.80630	-1.30981
8922.979	2.42498	-2.89803	2.81667	-3.38464
8926.982	2.29084	-4.38464	2.89252	-4.26839
8930.982	2.20047	-5.06430	3.02885	-4.61664
8934.957	2.07363	-5.99877	3.18997	-4.97482
8938.948	2.26695	-6.79196	3.16577	-6.38432
8942.980	2.20971	-7.32354	3.30010	-7.06488
8946.983	2.26247	-7.99474	3.45331	-7.43472
8950.981	2.48470	-8.12310	3.61735	-7.76397
8954.974	2.56510	-8.34239	3.72242	-7.77757
8958.980	2.75131	-8.52068	3.80816	-7.81515
8962.979	2.80481	-8.56236	4.01223	-7.82962
8966.984	2.73363	-8.67994	4.28885	-7.92354
8970.975	2.73311	-8.60672	4.31190	-7.95478
8974.981	2.61446	-8.62290	4.31462	-7.97796
8978.984	2.76477	-8.61453	4.24011	-7.96438
8982.981	2.76463	-8.67598	4.34053	-7.93701
8986.940	2.76861	-8.69213	4.37631	-7.95095
8990.982	2.83667	-8.71961	4.39580	-7.95777
8994.939	2.82085	-8.74689	4.35672	-7.92772
8998.939	2.83269	-8.74222	4.40303	-7.90371
9002.940	2.86918	-8.70295	4.41595	-7.94402
9006.983	2.87873	-8.66464	4.40169	-7.96575
9010.982	2.95809	-8.64000	4.34835	-7.97617
9014.985	2.93683	-8.62371	4.30137	-7.95102
9018.940	3.01987	-8.59877	4.28303	-7.95425
9022.981	3.05239	-8.59466	4.32049	-7.96798
9026.982	3.05919	-8.57248	4.36042	-7.97709
9030.985	3.12576	-8.54273	4.36172	-7.96194
9034.973	3.13009	-8.51137	4.35923	-7.96529
9038.983	3.10730	-8.48864	4.37939	-7.97847
9042.982	3.07300	-8.48347	4.39979	-7.99133
9046.985	3.02366	-8.47657	4.37633	-7.97530
9050.973	2.97242	-8.47614	4.36353	-7.96173
9054.985	2.91829	-8.44960	4.38553	-7.94798
9058.979	2.84200	-8.44865	4.40826	-7.97141
9062.983	2.80751	-8.43697	4.39908	-7.96563
9066.976	2.76624	-8.43707	4.36101	-7.96890
9070.983	2.79766	-8.42320	4.35573	-8.00358
9074.984	2.76002	-8.41805	4.37483	-8.02325
9078.982	2.76069	-8.42786	4.33954	-8.02027
9082.974	2.76740	-8.41924	4.36545	-8.01847
9086.983	2.80199	-8.40653	4.35899	-8.00551
9090.983	2.86304	-8.40294	4.37525	-8.01307
9094.988	2.89448	-8.40681	4.40757	-8.01132
9098.970	2.95391	-8.41997	4.45969	-8.01664
9102.983	2.95772	-8.41725	4.50202	-8.02626
9106.983	2.94941	-8.41678	4.55273	-8.04394
9110.985	2.98742	-8.40675	4.57339	-8.05554
9114.979	2.97784	-8.35910	4.60168	-8.08249
9118.984	2.93777	-8.34579	4.64034	-8.12983
9122.939	2.96572	-8.32503	4.67271	-8.14677
9126.985	3.03125	-8.29505	4.70301	-8.21021
9130.978	3.04024	-8.28084	4.72894	-8.22364
9134.984	3.06847	-8.26257	4.73959	-8.24694
9138.982	3.00255	-8.22007	4.72997	-8.21108
9142.956	2.98208	-8.19632	4.69142	-8.23048
9146.952	3.01205	-8.17648	4.65395	-8.17921
9150.984	3.06330	-8.15604	4.61045	-8.20720
9154.982	3.06070	-8.14120	4.59228	-8.20311
9158.996	3.09978	-8.15550	4.52138	-8.14343
9162.978	3.17297	-8.15958	4.46147	-8.12539
9166.988	3.16530	-8.19209	4.45434	-8.10675
9170.983	3.13868	-8.24540	4.44546	-8.07797
9174.983	3.13853	-8.27661	4.42693	-8.06426
9178.972	3.13902	-8.32903	4.42136	-8.07491
9182.969	3.17240	-8.38557	4.42422	-8.08767
9186.985	3.21725	-8.40083	4.45619	-8.09206
9190.985	3.23534	-8.46564	4.50569	-8.13318
9194.981	3.26559	-8.48840	4.52545	-8.12687
9198.985	3.31568	-8.55540	4.55349	-8.14314
9202.982	3.39342	-8.59085	4.65114	-8.14170
9206.986	3.32194	-8.63398	4.71153	-8.13673
9210.981	3.36065	-8.62705	4.76118	-8.14924
9214.984	3.38093	-8.60912	4.80992	-8.15330
9218.985	3.39772	-8.61598	4.87690	-8.16085
9222.938	3.35664	-8.55204	4.94364	-8.15473
9226.984	3.24172	-8.58055	4.94098	-8.13623
9230.985	3.27294	-8.57660	4.95746	-8.16475
9234.984	3.19002	-8.58950	4.97657	-8.16129
9238.981	3.04979	-8.61755	4.93267	-8.20127
9242.943	3.03445	-8.67784	4.98448	-8.17701
9246.987	3.07743	-8.65391	4.98534	-8.18156
9250.984	3.14318	-8.65582	4.97273	-8.19748
9254.984	3.03281	-8.64771	4.90607	-8.18058
9258.976	3.03088	-8.66318	4.94718	-8.17121
9262.984	2.98450	-8.65796	4.90109	-8.13688
9266.970	2.96131	-8.67825	4.88045	-8.11842
9270.941	3.02116	-8.68452	4.91711	-8.12164
9274.982	3.05553	-8.71473	4.91141	-8.07798
9278.984	3.06348	-8.70181	4.99802	-8.09924
9282.941	3.10267	-8.74004	5.00918	-8.06802
9286.984	3.11428	-8.72674	5.03122	-8.08578
9290.977	3.10718	-8.74805	5.03982	-8.10943
9294.984	3.08592	-8.76786	5.09574	-8.13845
9298.987	3.10062	-8.79272	5.06077	-8.19673
9302.957	3.08545	-8.82641	5.06432	-8.25756
9306.981	3.11002	-8.89205	5.01371	-8.33491
9310.987	3.10366	-8.92835	5.11886	-8.40778
9314.986	3.09691	-8.96645	5.10746	-8.46200
9318.986	3.07352	-9.01559	5.16125	-8.51560
9322.978	3.08654	-9.08314	5.09288	-8.54652
9326.989	3.08258	-9.12438	5.11369	-8.58576
9330.940	3.09287	-9.17065	5.11236	-8.62667
9334.987	3.07298	-9.19846	5.15719	-8.65580
9338.977	3.09545	-9.26117	5.13003	-8.66809
9342.987	3.11175	-9.30381	5.16216	-8.68387
9346.983	3.10542	-9.32947	5.19222	-8.69444
9350.984	3.12321	-9.33437	5.18729	-8.70219
9354.982	3.14298	-9.35555	5.18333	-8.69141
9358.987	3.12705	-9.37738	5.20841	-8.65533
9362.985	3.12873	-9.38698	5.19130	-8.62269
9366.997	3.14941	-9.38247	5.20760	-8.59494
9370.983	3.12643	-9.38512	5.24343	-8.52862
9374.988	3.11940	-9.38882	5.26391	-8.49349
9378.984	3.08943	-9.36756	5.26763	-8.46444
9382.985	3.06907	-9.33155	5.27636	-8.47415
9386.979	3.03724	-9.30834	5.30188	-8.45045
9390.973	3.01841	-9.28660	5.35357	-8.43420
9394.984	2.99579	-9.26276	5.37765	-8.41172
9398.986	2.98821	-9.23619	5.39952	-8.41762
9402.982	2.98099	-9.24761	5.42985	-8.44221
9406.987	3.08298	-9.19596	5.46920	-8.41620
9410.942	3.12286	-9.14307	5.46040	-8.42448
9414.985	3.34240	-9.08661	5.44134	-8.44985
9418.991	3.25508	-9.04322	5.42547	-8.42293
9422.941	3.38348	-9.02022	5.43713	-8.43291
9426.941	3.46760	-8.97378	5.44822	-8.38214
9430.942	3.51191	-8.94442	5.38880	-8.36680
9434.884	3.67479	-8.90548	5.34390	-8.34123
9438.985	3.61965	-8.89086	5.22055	-8.30158
9442.989	3.22495	-8.89638	4.99384	-8.18133
9446.986	1.81540	-8.83017	4.20138	-8.20347
9450.883	1.00866	-8.85104	1.94459	-8.09270
9454.985	-0.03276	-8.84297	0.96040	-8.26838
9458.988	-1.31389	-8.83804	0.42343	-8.24090
9462.986	-1.98378	-8.83092	-1.66381	-8.50260
9466.890	-2.98183	-8.85828	-1.60256	-8.58190
9470.994	-3.46113	-8.86030	-2.79367	-8.76808
9474.963	-3.91951	-8.94188	-3.90429	-8.88689
9478.986	-5.58452	-8.91686	-3.68028	-8.91242
9482.982	-5.55745	-8.89737	-3.48904	-9.12299
9486.987	-5.70723	-8.88092	-3.50412	-9.18380
9490.945	-5.20588	-8.95846	-3.46644	-9.24168
9494.986	-5.25660	-8.98667	-3.46758	-9.24831
9498.885	-5.34708	-9.00389	-3.47685	-9.29649
9502.986	-5.43590	-9.01092	-3.49372	-9.33695
9506.988	-5.46618	-9.04364	-3.58504	-9.35085
9510.990	-5.50046	-9.04299	-3.57827	-9.34585
9514.885	-5.46709	-9.07801	-3.64644	-9.34728
9518.978	-5.49079	-9.06412	-3.62304	-9.32741
9522.987	-5.48779	-9.06788	-3.68530	-9.30564
9526.987	-5.50943	-9.08396	-3.80374	-9.26707
9530.884	-5.49669	-9.09389	-3.85227	-9.23695
9534.985	-5.44958	-9.06112	-3.92112	-9.19690
9538.987	-5.45452	-9.01974	-3.97970	-9.19685
9542.989	-5.47919	-9.03272	-4.04186	-9.21290
9546.884	-5.46839	-9.04957	-4.08085	-9.22031
9550.988	-5.45592	-9.05518	-4.07515	-9.21489
9554.988	-5.41568	-9.05503	-4.08258	-9.24002
9558.959	-5.39583	-9.04157	-4.06866	-9.22960
9562.887	-5.31531	-9.02404	-4.06774	-9.22661
9566.987	-5.29836	-9.01342	-3.99171	-9.22686
9570.991	-5.30894	-9.00745	-3.96377	-9.23934
9574.991	-5.26268	-9.02023	-3.87556	-9.22880
9578.995	-5.30924	-9.04495	-3.80033	-9.21933
9582.987	-5.35652	-9.06449	-3.81207	-9.19394
9586.988	-5.34078	-9.05009	-3.76043	-9.17350
9590.991	-5.34029	-9.03500	-3.75449	-9.11664
9594.884	-5.34341	-9.02409	-3.77928	-9.09069
9598.973	-5.33583	-9.01221	-3.74152	-9.06489
9602.982	-5.36309	-9.01015	-3.72590	-9.03216
9606.988	-5.39532	-9.01477	-3.72721	-9.02414
9610.991	-5.40009	-9.02327	-3.73527	-9.00227
9614.987	-5.32260	-9.03757	-3.74580	-8.99004
9618.990	-5.32848	-9.04274	-3.79712	-8.99090
9622.945	-5.32663	-9.05973	-3.81965	-9.00465
9626.883	-5.26763	-9.05395	-3.81795	-9.01681
9630.985	-5.26206	-9.10151	-3.82884	-9.02874
9634.987	-5.27107	-9.13207	-3.86072	-9.07391
9638.989	-5.27004	-9.16582	-3.85466	-9.11152
9642.853	-5.27904	-9.20469	-3.87737	-9.15263
9646.990	-5.28313	-9.24452	-3.93675	-9.17405
9650.990	-5.24457	-9.23658	-4.01297	-9.21737
9654.986	-5.27402	-9.22065	-4.00238	-9.21529
9658.851	-5.41384	-9.16964	-4.07364	-9.13261
9662.990	-6.41077	-9.06983	-4.25665	-8.93540
9666.989	-7.53169	-8.91484	-4.86268	-8.46422
9670.992	-6.74731	-8.60258	-4.74575	-8.15990
9674.947	-7.35302	-8.12464	-5.17688	-8.04379
9678.988	-7.51800	-8.04786	-5.15059	-8.04145
9682.991	-7.30173	-7.79059	-5.16561	-8.00909
9686.991	-7.25406	-7.68862	-5.13316	-8.07537
9690.849	-7.23814	-7.73854	-5.23110	-8.03726
9694.989	-7.28217	-7.67907	-5.28532	-7.99088
9698.988	-7.29870	-7.56902	-5.34976	-7.93806
9702.989	-7.29067	-7.50022	-5.42200	-7.88504
9706.851	-7.33672	-7.47929	-5.36929	-7.80987
9710.989	-7.28940	-7.44589	-5.37362	-7.82371
9714.989	-7.30056	-7.42358	-5.45580	-7.80117
9718.990	-7.32778	-7.49459	-5.43898	-7.81874
9722.934	-7.35700	-7.48610	-5.48971	-7.79376
9726.980	-7.32426	-7.53893	-5.50697	-7.77120
9730.989	-7.35642	-7.55532	-5.53065	-7.77425
9734.991	-7.39244	-7.57883	-5.55811	-7.72926
9738.887	-7.42109	-7.59771	-5.60344	-7.71842
9742.944	-7.44581	-7.62195	-5.61741	-7.70507
9746.992	-7.46460	-7.64167	-5.60167	-7.70594
9750.991	-7.47731	-7.67937	-5.64127	-7.71853
9754.884	-7.50727	-7.71616	-5.65801	-7.70678
9758.866	-7.55764	-7.72171	-5.66197	-7.72945
9762.867	-7.55388	-7.69865	-5.67794	-7.73431
9766.867	-7.54076	-7.69590	-5.66268	-7.72116
9770.828	-7.56074	-7.70690	-5.65430	-7.71103
9774.864	-7.57098	-7.69329	-5.61546	-7.68475
9778.867	-7.61117	-7.67059	-5.61986	-7.65737
9782.864	-7.61424	-7.65660	-5.61153	-7.65123
9786.862	-7.57159	-7.63596	-5.58078	-7.63285
9790.865	-7.59202	-7.60439	-5.56246	-7.61241
9794.868	-7.55503	-7.59085	-5.53028	-7.61731
9798.866	-7.54413	-7.56715	-5.48548	-7.61319
9802.825	-7.50608	-7.56117	-5.43002	-7.60361
9806.866	-7.43486	-7.54779	-5.40754	-7.58981
9810.867	-7.45801	-7.54468	-5.38545	-7.58401
9814.830	-7.44257	-7.52666	-5.35859	-7.58565
9818.861	-7.36518	-7.49973	-5.35483	-7.58402
9822.866	-7.43164	-7.50498	-5.66735	-7.57162
9826.867	-7.55915	-7.64243	-7.05985	-7.61235
9830.856	-9.52987	-7.63120	-7.68654	-7.75479
9834.884	-10.17620	-7.70132	-8.97787	-8.03819
9838.867	-10.47043	-7.91433	-9.60963	-8.38695
9842.868	-11.59718	-8.24146	-10.22534	-8.76356
9846.864	-11.78573	-8.32504	-10.54500	-8.89322
9850.860	-11.64199	-8.19836	-10.77124	-8.80478
9854.843	-11.86215	-8.36375	-10.87773	-8.92034
9858.867	-12.21053	-8.45130	-11.03277	-9.01395
9862.866	-12.39312	-8.40877	-11.02681	-9.01109
9866.864	-12.46827	-8.43176	-11.06440	-9.05058
9870.870	-12.52263	-8.43502	-11.03217	-9.07981
9874.870	-12.45414	-8.45685	-11.03781	-9.11907
9878.867	-12.50799	-8.50251	-11.02292	-9.15702
9882.864	-12.58335	-8.50896	-11.06172	-9.14791
9886.866	-12.64184	-8.50206	-11.10926	-9.14643
9890.869	-12.69060	-8.48348	-11.12261	-9.12648
9894.854	-12.69802	-8.51183	-11.12450	-9.14066
9898.858	-12.73224	-8.49968	-11.09298	-9.12620
9902.866	-12.71748	-8.49718	-11.06597	-9.09372
9906.869	-12.70581	-8.51248	-11.06117	-9.06997
9910.866	-12.68123	-8.53188	-10.99013	-9.07474
9914.862	-12.64945	-8.54812	-10.99886	-9.05908
9918.866	-12.65571	-8.56593	-10.98812	-9.06243
9922.822	-12.63102	-8.56661	-10.92983	-9.08917
9926.822	-12.60176	-8.55221	-10.90499	-9.14436
9930.826	-12.55990	-8.54255	-10.90442	-9.16781
9934.867	-12.54311	-8.53959	-10.82026	-9.19137
9938.839	-12.52625	-8.51594	-10.80551	-9.24107
9942.869	-12.50276	-8.51353	-10.81341	-9.26865
9946.863	-12.48644	-8.51064	-10.73052	-9.30511
9950.869	-12.47132	-8.50448	-10.73516	-9.34603
9954.827	-12.44612	-8.49637	-10.73260	-9.37197
9958.868	-12.42096	-8.49001	-10.73001	-9.40774
9962.864	-12.40550	-8.48035	-10.74542	-9.43353
9966.865	-12.38528	-8.45865	-10.74103	-9.47445
9970.868	-12.35746	-8.45688	-10.78111	-9.46449
9974.871	-12.33473	-8.43739	-10.82588	-9.44762
9978.861	-12.32262	-8.40212	-10.86682	-9.44334
9982.862	-12.30917	-8.37655	-10.89161	-9.42953
9986.868	-12.25901	-8.34765	-11.01330	-9.42345
9990.825	-12.26199	-8.32015	-11.00936	-9.43138
9994.858	-12.25081	-8.29342	-11.02641	-9.39054
9998.869	-12.25273	-8.26806	-11.04902	-9.40974
10002.877	-12.24616	-8.24393	-11.10137	-9.40422
10006.868	-12.24540	-8.22692	-11.10663	-9.41564
10010.827	-12.20660	-8.21403	-11.16662	-9.37944
10014.868	-12.20181	-8.18184	-11.16774	-9.41059
10018.865	-12.22077	-8.17212	-11.13652	-9.44036
10022.862	-12.18602	-8.17637	-11.09284	-9.46491
10026.853	-12.13315	-8.18143	-11.07683	-9.47925
10030.869	-12.13349	-8.18277	-11.03198	-9.50777
10034.868	-12.10703	-8.19747	-11.06224	-9.52220
10038.869	-12.09937	-8.20801	-11.02571	-9.55588
10042.826	-12.07721	-8.21901	-11.03021	-9.56105
10046.870	-12.02409	-8.22450	-10.97978	-9.56382
10050.869	-11.95969	-8.21836	-10.94992	-9.55739
10054.875	-12.11816	-8.21070	-11.02438	-9.57582
10058.827	-12.49509	-8.20135	-12.10298	-9.53274
10062.860	-13.41523	-8.20571	-13.72032	-9.43222
10066.866	-14.21766	-8.23085	-14.38996	-9.45615
10070.869	-15.39063	-8.16169	-15.05915	-9.52985
10074.868	-15.05688	-8.22315	-15.47005	-9.84946
10078.871	-15.85120	-8.21692	-15.69760	-9.77320
10082.869	-16.00264	-8.17673	-15.73536	-9.78682
10086.870	-16.24484	-8.15379	-15.90814	-9.87178
10090.867	-16.22814	-8.14510	-15.85157	-9.94408
10094.871	-16.18867	-8.14170	-15.91167	-9.87270
10098.869	-16.02593	-8.15824	-15.98537	-9.94904
10102.857	-16.16559	-8.16914	-15.94853	-9.97343
10106.827	-16.16056	-8.15686	-16.05628	-10.01307
10110.865	-16.19190	-8.14744	-16.14018	-10.03395
10114.825	-16.19988	-8.15362	-16.21064	-10.02313
10118.868	-16.22023	-8.13668	-16.23608	-10.01275
10122.866	-16.21673	-8.14302	-16.19256	-10.01228
10126.826	-16.17608	-8.13934	-16.19206	-9.98414
10130.873	-16.14103	-8.15017	-16.20121	-9.96607
10134.868	-16.14089	-8.17480	-16.18805	-9.92602
10138.896	-16.13393	-8.17805	-16.16298	-9.92959
10142.869	-16.17308	-8.16357	-16.16443	-9.91986
10146.871	-16.21217	-8.13593	-16.17704	-9.93650
10150.873	-16.24924	-8.10650	-16.13684	-9.92282
10154.869	-16.26202	-8.09518	-16.13182	-9.92181
10158.868	-16.30188	-8.08367	-16.07560	-9.92640
10162.874	-16.37177	-8.06992	-16.05718	-9.89982
10166.869	-16.41297	-8.03281	-16.08197	-9.88362
10170.872	-16.38936	-8.01028	-16.07636	-9.90535
10174.870	-16.43980	-7.98418	-16.02965	-9.90973
10178.832	-16.38657	-7.95622	-16.01085	-9.91781
10183.582	-16.36315	-7.95144	-15.96849	-9.90483
10186.857	-16.31317	-7.93263	-15.96282	-9.89010
10190.869	-16.20869	-7.93480	-15.96592	-9.86637
10194.871	-16.13003	-7.93195	-15.96287	-9.84750
10198.874	-16.04725	-7.89487	-15.93141	-9.81496
10202.869	-16.02653	-7.86205	-15.93676	-9.78626
10206.870	-15.93437	-7.82914	-15.88672	-9.77978
10210.870	-15.88179	-7.80639	-15.84116	-9.74682
10214.871	-15.86059	-7.78562	-15.80634	-9.72152
10218.866	-15.80893	-7.78533	-15.83262	-9.69292
10222.870	-15.79800	-7.76232	-15.77488	-9.65883
10226.873	-15.77750	-7.73121	-15.80755	-9.64431
10230.872	-15.78577	-7.70026	-15.80647	-9.60934
10234.868	-15.79455	-7.66844	-15.71317	-9.52501
10238.872	-15.78487	-7.64238	-15.60143	-9.49809
10242.873	-15.78720	-7.60111	-15.55692	-9.47121
10246.841	-15.76368	-7.54796	-15.47554	-9.40235
10250.867	-15.75757	-7.49229	-15.46242	-9.38051
10254.871	-15.73382	-7.45511	-15.45680	-9.34567
10258.872	-15.73640	-7.41470	-15.36061	-9.32871
10262.876	-15.70793	-7.37444	-15.33410	-9.30878
10266.832	-15.70434	-7.35438	-15.34342	-9.29847
10270.847	-15.73085	-7.32374	-15.34582	-9.29008
10274.876	-15.76640	-7.29843	-15.30261	-9.28649
10278.870	-15.80778	-7.27280	-15.29473	-9.26937
10282.830	-15.91057	-7.23118	-15.35597	-9.28061
10286.871	-16.01722	-7.22730	-15.39331	-9.26168
10290.872	-16.12158	-7.24133	-15.36391	-9.22277
10294.872	-16.06937	-7.24817	-15.37437	-9.20761
10298.859	-16.08138	-7.26708	-15.39259	-9.16596
10302.874	-16.15259	-7.28589	-15.39462	-9.10004
10306.873	-16.16161	-7.29228	-15.39531	-9.01611
10310.863	-16.18784	-7.31144	-15.37164	-8.99900
10314.865	-16.21700	-7.33305	-15.33936	-8.95829
10318.872	-16.19911	-7.41097	-15.34707	-8.93002
10322.870	-16.23606	-7.45569	-15.31198	-8.91615
10326.872	-16.12106	-7.49333	-15.27928	-8.89150
10330.831	-16.07696	-7.52769	-15.23429	-8.87690
10334.872	-16.02481	-7.55574	-15.22056	-8.86864
10338.872	-15.92588	-7.57284	-15.20605	-8.85478
10342.871	-15.92728	-7.58967	-15.14079	-8.85581
10346.832	-15.90757	-7.58243	-15.14558	-8.86851
10350.872	-15.82019	-7.59782	-15.08692	-8.87955
10354.842	-15.65881	-7.57976	-15.11713	-8.87664
10358.874	-15.64158	-7.55019	-15.12416	-8.87288
10362.831	-15.63401	-7.51477	-15.11782	-8.85863
10366.873	-15.55985	-7.46576	-15.14167	-8.85254
10370.829	-15.50091	-7.46636	-15.16370	-8.84643
10374.874	-15.44033	-7.42552	-15.16137	-8.84018
10378.858	-15.39381	-7.40212	-15.20004	-8.82794
10382.873	-15.39416	-7.38594	-15.18675	-8.81432
10386.873	-15.46092	-7.36150	-15.17713	-8.81942
10390.874	-15.30752	-7.31846	-14.87072	-8.78348
10394.833	-13.50380	-7.35081	-12.97116	-8.73248
10398.871	-10.32986	-7.08510	-10.79921	-8.07422
10402.873	-9.51220	-7.00117	-9.38851	-7.01103
10406.873	-8.30315	-7.04772	-7.86729	-6.81756
10410.832	-5.95862	-6.95357	-7.13312	-6.75930
10414.874	-4.58745	-6.77209	-4.53951	-6.69707
10418.873	-2.84747	-7.11350	-3.62800	-6.62821
10422.871	-1.92297	-7.11131	-2.14107	-6.47304
10426.868	-0.59451	-6.99188	-0.84220	-6.33498
10430.829	1.37994	-7.08232	1.15689	-6.31094
10434.829	2.59809	-7.21596	2.48274	-6.26621
10438.867	3.25859	-7.31921	2.95436	-6.19011
10442.736	5.59794	-7.41219	4.63984	-6.23027
10446.874	6.26390	-7.69976	6.30122	-6.21740
10450.875	7.48466	-7.78854	6.73840	-6.19173
10454.848	8.48763	-8.01821	7.93043	-6.24491
10458.768	8.45060	-8.18202	8.09156	-6.36316
10462.874	9.42107	-8.30032	8.75398	-6.28627
10466.879	10.30372	-8.43038	9.57174	-6.54989
10470.877	10.80067	-8.58540	10.16052	-6.58426
10474.879	11.03406	-8.63651	10.54730	-6.70810
10478.851	10.83252	-8.69536	10.66095	-6.78988
10482.875	10.77347	-8.73182	10.72989	-6.83695
10486.873	10.68700	-8.73457	10.79157	-6.88347
10490.878	10.78561	-8.80331	10.74544	-6.94207
10494.873	10.73387	-8.84313	10.86117	-6.98188
10498.832	10.73286	-8.87279	10.86768	-7.00731
10502.874	10.72963	-8.89557	10.86500	-7.03033
10506.773	10.76278	-8.90467	10.85217	-7.07714
10510.874	10.74072	-8.91184	10.91100	-7.07782
10514.876	10.68643	-8.88378	10.94528	-7.09203
10518.862	10.65966	-8.87361	10.94059	-7.08383
10522.772	10.63842	-8.86573	10.97267	-7.07322
10526.883	10.63981	-8.86207	10.99145	-7.06821
10530.875	10.65369	-8.88775	11.02701	-7.07938
10534.870	10.64154	-8.87697	11.08854	-7.08535
10538.864	10.64480	-8.87754	11.15981	-7.15111
10542.874	10.68722	-8.85766	11.18465	-7.17741
10546.875	10.71219	-8.85143	11.30868	-7.24735
10550.874	10.71499	-8.84616	11.47808	-7.27146
10554.776	10.74257	-8.82574	11.49936	-7.32642
10558.874	10.82801	-8.80943	11.62142	-7.35042
10562.867	10.81351	-8.76863	11.59325	-7.40385
10566.875	10.82074	-8.74315	11.68672	-7.42491
10570.876	10.77770	-8.71312	11.83778	-7.44269
10574.879	10.72177	-8.71070	11.84330	-7.45767
10578.876	10.73512	-8.67702	11.87494	-7.44097
10582.876	10.76099	-8.70079	11.89528	-7.41864
10586.878	10.74757	-8.70642	11.92776	-7.40853
10590.874	10.73689	-8.70142	11.95957	-7.40729
10594.877	10.77651	-8.68849	11.93752	-7.40222
10598.876	10.74158	-8.69573	11.88931	-7.39611
10602.862	10.70181	-8.69896	11.84014	-7.41381
10606.870	10.71614	-8.73438	11.79299	-7.41045
10610.877	10.73425	-8.74136	11.68448	-7.40271
10614.876	10.76218	-8.77838	11.57910	-7.42914
10618.782	10.78326	-8.78955	11.50446	-7.45616
10622.832	10.78901	-8.80176	11.60401	-7.52561
10626.877	10.81760	-8.79233	11.47665	-7.59590
10630.876	10.77924	-8.77930	11.41058	-7.64902
10634.878	10.78115	-8.76727	11.37605	-7.68880
10638.875	10.73270	-8.77047	11.36742	-7.72104
10642.878	10.69256	-8.77753	11.36627	-7.74891
10646.838	10.64899	-8.79675	11.38855	-7.76886
10650.756	10.60639	-8.77396	11.45698	-7.79271
10654.875	10.60565	-8.76697	11.48175	-7.82062
10658.880	10.61960	-8.77025	11.50844	-7.84560
10662.877	10.58433	-8.76149	11.50325	-7.86587
10666.878	10.59495	-8.77553	11.50065	-7.86125
10670.875	10.57934	-8.77943	11.55826	-7.83214
10674.879	10.62061	-8.81025	11.54108	-7.85997
10678.873	10.63749	-8.83576	11.54301	-7.86541
10682.748	10.68430	-8.85712	11.56421	-7.88470
10686.853	10.75306	-8.85826	11.51587	-7.89139
10690.867	10.79559	-8.86004	11.48451	-7.90253
10694.876	10.89741	-8.87157	11.41726	-7.90647
10698.774	10.92815	-8.87996	11.36458	-7.91680
10702.877	10.87950	-8.88408	11.35468	-7.92802
10706.878	10.91825	-8.88697	11.36935	-7.92908
10710.875	10.90561	-8.86069	11.41342	-7.92492
10714.773	10.93009	-8.83741	11.43092	-7.94489
10718.874	10.91272	-8.83053	11.43927	-7.93212
10722.834	10.89580	-8.79016	11.48554	-7.93198
10726.877	10.90095	-8.78269	11.54208	-7.91512
10730.777	10.80917	-8.73290	11.57803	-7.92272
10734.877	10.71578	-8.68628	11.60489	-7.91979
10738.875	10.65990	-8.62272	11.71147	-7.93512
10742.837	10.57517	-8.56842	11.71451	-7.95833
10746.781	10.50529	-8.54320	11.76559	-7.98615
10750.877	10.48987	-8.53366	11.77950	-7.96850
10754.877	10.45622	-8.51182	11.74097	-7.94710
10758.877	10.38416	-8.47749	11.69831	-7.89246
10762.837	10.33106	-8.38561	11.77061	-7.89192
10766.879	10.10939	-8.03789	11.58551	-7.48593
10770.846	9.92822	-6.49120	11.38638	-5.68564
10774.876	8.68361	-4.19747	9.42904	-3.31832
10778.776	8.09212	-2.67819	8.93389	-2.39149
10782.877	8.18079	-1.97713	8.85894	-0.67500
10786.879	7.95874	-0.58441	8.79984	0.05994
10790.878	7.44511	0.34503	8.60822	1.26396
10794.772	6.91422	0.80567	8.53365	1.41149
10798.834	7.00949	0.96558	8.38665	1.53794
10802.755	6.90573	0.90325	8.29883	1.56571
10806.757	6.72893	0.97987	8.14837	1.53144
10810.754	6.61308	1.10348	8.17539	1.55100
10814.752	6.49609	1.20280	8.06504	1.61963
10818.740	6.42633	1.32040	8.05747	1.68239
10822.754	6.34807	1.50520	8.02068	1.70898
10826.750	6.31963	1.49326	7.97658	1.72453
10830.741	6.31539	1.51015	7.93420	1.71691
10834.754	6.25002	1.52678	7.93691	1.79057
10838.752	6.23270	1.61643	7.96534	1.86427
10842.745	6.21674	1.63361	8.00735	1.93963
10846.754	6.19405	1.67565	8.08859	2.01043
10850.752	6.17600	1.69325	8.14679	2.06625
10854.752	6.18009	1.68085	8.17670	2.09995
10858.753	6.20568	1.67450	8.21699	2.08092
10862.709	6.20639	1.65890	8.21660	2.04720
10866.752	6.22505	1.61179	8.23585	2.04160
10870.751	6.24575	1.57537	8.17048	2.02673
10874.752	6.20489	1.52049	8.16197	2.04090
10878.746	6.23145	1.50901	8.02806	2.02826
10882.753	6.19812	1.47442	8.20226	1.93710
10886.754	6.20931	1.43724	8.15932	1.93360
10890.749	6.17987	1.43342	8.13719	1.92316
10894.756	6.21698	1.40421	8.10922	1.91064
10898.741	6.23010	1.36628	8.02246	1.90953
10902.752	6.33505	1.34524	7.98785	1.90684
10906.750	6.45294	1.38012	8.00280	1.89418
10910.757	6.52081	1.35420	8.06302	1.86620
10914.754	6.60348	1.36560	8.04947	1.84056
10918.754	6.71199	1.37563	8.06431	1.85116
10922.751	6.78275	1.37706	8.12437	1.75415
10926.711	6.78143	1.38594	8.12286	1.73506
10930.755	6.83646	1.39456	8.11038	1.73679
10934.748	6.84514	1.36788	8.07966	1.70769
10938.778	6.86606	1.37628	8.08158	1.72118
10942.756	6.85167	1.41207	8.11457	1.55925
10946.758	6.85393	1.42747	8.17661	1.48803
10950.752	6.83680	1.43051	8.17556	1.46210
10954.748	6.81253	1.42508	8.18470	1.46735
10958.755	6.76278	1.46025	8.23311	1.44768
10962.753	6.74971	1.50243	8.26031	1.39012
10966.754	6.73642	1.47764	8.26084	1.42222
10970.772	6.73737	1.43398	8.26886	1.44799
10974.753	6.72242	1.46234	8.27419	1.40922
10978.757	6.72232	1.49931	8.28993	1.38547
10982.732	6.70705	1.52503	8.27642	1.36991
10986.715	6.68761	1.47966	8.23897	1.42532
10990.710	6.69552	1.48622	8.21560	1.42572
10994.755	6.69238	1.46803	8.20362	1.46264
10998.755	6.70479	1.45381	8.16039	1.46461
11002.751	6.71946	1.41818	8.11364	1.45404
11006.756	6.68702	1.38927	8.07616	1.45609
11010.756	6.71843	1.43880	8.06175	1.46674
11014.756	6.73642	1.44425	8.03402	1.48278
11018.777	6.72986	1.43628	8.04066	1.60650
11022.748	6.71072	1.43332	8.02027	1.59775
11026.758	6.65671	1.41207	8.07567	1.60294
11030.755	6.67769	1.36468	8.10759	1.56862
11034.753	6.61775	1.39728	8.18025	1.55890
11038.753	6.51038	1.36092	8.16163	1.50293
11042.759	6.40072	1.38797	8.18551	1.55438
11046.755	6.53132	1.41144	8.20411	1.48579
11050.748	6.52409	1.44040	8.20328	1.52593
11054.755	6.54389	1.46546	8.19798	1.53890
11058.758	6.54007	1.45519	8.23170	1.71024
11062.756	6.51474	1.43377	8.25119	1.65271
11066.779	6.46194	1.42891	8.22319	1.75986
11070.753	6.47943	1.42257	8.22560	1.47317
11074.757	6.48666	1.39844	8.17466	1.48339
11078.761	6.47179	1.28941	8.15854	1.57734
11082.761	6.51966	1.15978	8.16153	1.63647
11086.757	6.57022	1.17642	8.16491	1.55193
11090.759	6.52003	1.24242	8.15329	1.60993
11094.757	6.55045	1.21824	8.13249	1.55075
11098.754	6.53267	1.23363	8.12836	1.63985
11102.758	6.53443	1.34704	8.21142	1.53762
11106.745	6.57137	1.28987	8.16394	1.48952
11110.711	6.58572	1.30565	8.13843	1.49289
11114.747	6.58817	1.33645	8.10362	1.53924
11118.758	6.58087	1.37671	8.06781	1.60821
11122.713	6.57340	1.47283	8.01735	1.62724
11126.756	6.55778	1.48494	8.01173	1.66631
11130.753	6.55013	1.52793	7.95748	1.72085
11134.755	6.55827	1.53363	7.92174	1.77084
11138.757	6.52155	1.54524	7.90236	1.82248
11142.759	6.47607	1.51844	7.85621	1.81287
11146.757	6.45324	1.47214	7.83473	1.82266
11150.720	6.44427	1.46005	7.80363	1.85061
11154.757	6.43893	1.42182	7.81770	1.83235
11158.758	6.43449	1.39673	7.82854	1.78002
11162.755	6.43557	1.37020	7.86337	1.64145
11166.767	6.41481	1.33447	7.76421	1.70967
11170.756	6.42145	1.28541	7.76316	1.65494
11174.758	6.43447	1.22462	7.78048	1.59755
11178.757	6.47125	1.17275	7.78382	1.56710
11182.756	6.48987	1.07978	7.81515	1.50246
11186.758	6.55163	1.05172	7.83346	1.44756
11190.738	6.58739	1.06240	7.86600	1.43180
11194.754	6.55888	1.07630	7.92305	1.31663
11198.756	6.50060	1.06335	7.92393	1.28669
11202.757	6.49570	1.04339	7.92315	1.25577
11206.758	6.49822	1.00535	7.99128	1.20347
11210.755	6.51008	1.05232	7.95711	1.25313
11214.757	6.49661	1.02685	7.92023	1.27472
11218.756	6.42459	0.97141	8.02594	1.22078
11222.713	6.38280	0.97285	8.01212	1.25665
11226.757	6.35388	1.02020	8.01584	1.35298
11230.753	6.31728	1.03178	8.05947	1.39569
11234.749	6.27282	1.01938	8.07200	1.40091
11238.714	6.25701	1.00625	8.07881	1.45751
11242.756	6.26490	1.05162	8.00333	1.53770
11246.757	6.27329	1.05896	8.01543	1.56475
11250.757	6.30700	1.15631	7.95253	1.51502
11254.756	6.34679	1.17350	7.95046	1.47988
11258.756	6.38425	1.06937	8.01866	1.42047
11262.760	6.42667	1.07629	7.99197	1.44412
11266.760	6.41224	1.13161	8.00323	1.47025
11270.759	6.39979	1.05966	8.05312	1.44887
11274.756	6.44853	0.93545	8.03701	1.39739
11278.763	6.43498	0.97586	8.06210	1.27888
11282.757	6.33706	0.95614	8.04662	1.26002
11286.758	6.41815	1.11427	8.05969	1.29293
11290.757	6.29911	1.44092	7.95570	1.77912
11294.761	5.81403	3.01818	5.64334	3.70239
11298.758	4.30958	5.04145	3.90876	5.41712
11302.760	3.38763	6.58057	3.85634	6.97235
11306.749	2.14805	7.09458	3.18967	7.77176
11310.756	2.06619	8.30410	3.08894	9.29424
11314.746	1.58892	9.73515	2.58675	10.38915
11318.755	0.40494	10.28386	2.30605	13.97243
11322.763	-0.90594	12.40038	1.37260	14.03446
11326.763	-1.68503	12.57685	1.35110	14.24860
11330.759	-2.14288	12.78660	NaN	NaN
11334.760	-2.23174	13.43358	NaN	NaN
11338.762	-2.38610	14.38835	NaN	NaN
11342.762	NaN	NaN	NaN	NaN
11346.760	NaN	NaN	NaN	NaN
11350.761	NaN	NaN	NaN	NaN
11354.764	NaN	NaN	NaN	NaN
11358.760	NaN	NaN	NaN	NaN
11362.752	NaN	NaN	NaN	NaN
11366.716	NaN	NaN	NaN	NaN
11370.762	NaN	NaN	NaN	NaN
11374.768	NaN	NaN	NaN	NaN
11378.758	NaN	NaN	NaN	NaN
11382.760	NaN	NaN	NaN	NaN
11386.761	NaN	NaN	NaN	NaN
11390.761	NaN	NaN	NaN	NaN
11394.758	NaN	NaN	NaN	NaN
11398.738	NaN	NaN	NaN	NaN
11402.764	NaN	NaN	NaN	NaN
11406.760	NaN	NaN	NaN	NaN
11410.759	NaN	NaN	NaN	NaN
11414.759	NaN	NaN	NaN	NaN
11418.763	NaN	NaN	NaN	NaN
11422.715	NaN	NaN	NaN	NaN
11426.716	NaN	NaN	NaN	NaN
11430.715	NaN	NaN	NaN	NaN
11434.754	NaN	NaN	NaN	NaN
11438.756	NaN	NaN	NaN	NaN
11442.751	NaN	NaN	NaN	NaN
11446.761	NaN	NaN	NaN	NaN
11450.765	NaN	NaN	NaN	NaN
11454.767	NaN	NaN	NaN	NaN
11458.762	NaN	NaN	NaN	NaN
11462.759	NaN	NaN	NaN	NaN
11466.765	NaN	NaN	NaN	NaN
11470.760	NaN	NaN	NaN	NaN
11474.763	NaN	NaN	NaN	NaN
11478.763	NaN	NaN	NaN	NaN
11482.765	NaN	NaN	NaN	NaN
11486.726	NaN	NaN	NaN	NaN
11490.716	NaN	NaN	NaN	NaN
11494.761	NaN	NaN	NaN	NaN
11498.764	NaN	NaN	NaN	NaN
11502.761	NaN	NaN	NaN	NaN
11506.760	NaN	NaN	NaN	NaN
11510.759	NaN	NaN	NaN	NaN
11514.764	NaN	NaN	NaN	NaN
11518.759	NaN	NaN	NaN	NaN
11522.749	NaN	NaN	NaN	NaN
11526.763	NaN	NaN	NaN	NaN
11530.762	NaN	NaN	NaN	NaN
11534.762	NaN	NaN	NaN	NaN
11538.761	NaN	NaN	NaN	NaN
11542.766	NaN	NaN	NaN	NaN
11546.764	NaN	NaN	NaN	NaN
11550.762	NaN	NaN	NaN	NaN
11554.721	NaN	NaN	NaN	NaN
11558.762	NaN	NaN	NaN	NaN
11562.764	NaN	NaN	NaN	NaN
11566.724	NaN	NaN	NaN	NaN
11570.762	NaN	NaN	NaN	NaN
11574.762	NaN	NaN	NaN	NaN
11578.767	NaN	NaN	NaN	NaN
11582.763	NaN	NaN	NaN	NaN
11586.764	NaN	NaN	NaN	NaN
11590.765	NaN	NaN	NaN	NaN
11594.764	NaN	NaN	NaN	NaN
11598.762	NaN	NaN	NaN	NaN
11602.761	NaN	NaN	NaN	NaN
11606.764	NaN	NaN	NaN	NaN
11610.764	NaN	NaN	NaN	NaN
11614.759	NaN	NaN	NaN	NaN
11618.762	NaN	NaN	NaN	NaN
11622.717	NaN	NaN	NaN	NaN
11626.657	NaN	NaN	NaN	NaN
11630.759	NaN	NaN	NaN	NaN
11634.762	NaN	NaN	NaN	NaN
11638.762	NaN	NaN	NaN	NaN
11642.723	NaN	NaN	NaN	NaN
11646.759	NaN	NaN	NaN	NaN
11650.751	NaN	NaN	NaN	NaN
11654.763	NaN	NaN	NaN	NaN
11658.722	NaN	NaN	NaN	NaN
11662.763	NaN	NaN	NaN	NaN
11666.764	NaN	NaN	NaN	NaN
11670.763	NaN	NaN	NaN	NaN
11674.721	NaN	NaN	NaN	NaN
11678.761	NaN	NaN	NaN	NaN
11682.768	NaN	NaN	NaN	NaN
11686.765	NaN	NaN	NaN	NaN
11690.723	NaN	NaN	NaN	NaN
11694.782	NaN	NaN	NaN	NaN
11698.761	NaN	NaN	NaN	NaN
11702.763	NaN	NaN	NaN	NaN
11706.765	NaN	NaN	NaN	NaN
11710.763	NaN	NaN	NaN	NaN
11714.762	NaN	NaN	NaN	NaN
11718.763	NaN	NaN	NaN	NaN
11722.731	NaN	NaN	NaN	NaN
11726.765	NaN	NaN	NaN	NaN
11730.744	NaN	NaN	NaN	NaN
11734.762	NaN	NaN	NaN	NaN
11738.768	NaN	NaN	NaN	NaN
11742.721	NaN	NaN	NaN	NaN
11746.765	NaN	NaN	NaN	NaN
11750.764	NaN	NaN	NaN	NaN
11754.765	NaN	NaN	NaN	NaN
11758.761	-2.34317	15.22465	NaN	NaN
11762.769	-1.94399	14.56525	NaN	NaN
11766.766	NaN	NaN	NaN	NaN
11770.769	NaN	NaN	NaN	NaN
11774.761	NaN	NaN	NaN	NaN
11778.764	NaN	NaN	NaN	NaN
11782.763	NaN	NaN	NaN	NaN
11786.763	NaN	NaN	NaN	NaN
11790.760	NaN	NaN	NaN	NaN
11794.722	NaN	NaN	NaN	NaN
11798.763	NaN	NaN	NaN	NaN
11802.760	NaN	NaN	NaN	NaN
11806.764	NaN	NaN	NaN	NaN
11810.720	NaN	NaN	NaN	NaN
11814.742	NaN	NaN	NaN	NaN
11818.766	NaN	NaN	NaN	NaN
11822.766	NaN	NaN	NaN	NaN
11826.776	NaN	NaN	NaN	NaN
11830.734	0.65913	-0.15761	NaN	NaN
11834.640	0.56684	-0.40196	-0.01837	2.44209
11838.639	-0.74538	-2.32329	-0.18861	-3.45422
11842.598	0.60362	-2.91199	1.50450	-3.89926
11846.638	-0.39735	-3.75485	1.78986	-4.05759
11850.637	-2.04059	-3.23553	0.36209	-3.39215
11854.637	-2.03930	-3.19025	0.59689	-2.49935
11858.665	-1.83692	-3.42166	-0.32992	-2.23106
11862.597	-1.86449	-3.43146	0.62531	-2.68806
11866.641	-1.44758	-3.50660	0.78136	-2.46557
11870.643	-1.73596	-3.56634	0.71923	-2.66589
11874.663	-1.60102	-3.51984	0.69382	-2.75325
11878.642	-1.64950	-3.51342	0.70414	-2.77548
11882.646	-1.66755	-3.57938	0.70729	-2.71826
11886.641	-1.65850	-3.58726	0.69963	-2.73391
11890.637	-1.56779	-3.54699	0.62647	-2.72639
11894.640	-1.53081	-3.53535	0.62057	-2.71873
11898.642	-1.47489	-3.53927	0.63287	-2.68295
11902.622	-1.37729	-3.54571	0.65918	-2.72580
11906.617	-1.34524	-3.53940	0.61712	-2.75823
11910.642	-1.32582	-3.52809	0.56987	-2.79352
11914.642	-1.29975	-3.48954	0.53816	-2.78315
11918.639	-1.26294	-3.48217	0.47721	-2.76040
11922.637	-1.24002	-3.47024	0.44639	-2.74722
11926.636	-1.20246	-3.44789	0.38219	-2.72483
11930.642	-1.20229	-3.45450	0.31478	-2.69654
11934.641	-1.16667	-3.45528	0.23023	-2.72457
11938.640	-1.18331	-3.45259	0.16730	-2.74704
11942.638	-1.19966	-3.49227	0.04321	-2.79339
11946.605	-1.31739	-3.48484	0.14632	-2.79886
11950.640	-1.32587	-3.48577	0.12731	-2.83347
11954.599	-1.44061	-3.48221	0.15196	-2.81532
11958.637	-1.45968	-3.50141	0.23269	-2.83402
11962.643	-1.62277	-3.51406	0.38204	-2.79767
11966.641	-1.75778	-3.54999	0.40519	-2.76635
11970.638	-1.64340	-3.58580	0.39273	-2.73266
11974.640	-1.76981	-3.61988	0.52572	-2.73695
11978.646	-1.68667	-3.61707	0.68268	-2.70536
11982.641	-1.64379	-3.61059	0.72196	-2.71979
11986.639	-1.64293	-3.56453	0.82918	-2.72153
11990.641	-1.57052	-3.55164	0.79019	-2.84262
11994.642	-1.64625	-3.51295	0.79407	-2.83655
11998.641	-1.61305	-3.44743	0.77565	-2.84997
12002.638	-1.65959	-3.34926	0.73955	-2.80012
12006.642	-1.62572	-3.38160	0.52054	-2.86471
12010.645	-1.52479	-3.44708	0.33377	-2.87591
12014.642	-1.57483	-3.45819	0.53972	-3.03258
12018.635	-1.49314	-3.42842	0.35037	-3.05652
12022.641	-1.52927	-3.40420	0.44425	-3.17810
12026.631	-1.59383	-3.41682	0.34997	-3.30602
12030.642	-1.67754	-3.42928	0.25696	-3.33305
12034.634	-1.69845	-3.40033	0.30233	-3.30913
12038.644	-1.71399	-3.36075	0.26450	-3.29495
12042.645	-1.66648	-3.35658	0.27049	-3.22045
12046.646	-1.62964	-3.34181	0.21050	-3.21999
12050.633	-1.53401	-3.43872	0.28729	-3.29908
12054.643	-1.48394	-3.40063	0.33670	-3.30211
12058.645	-1.47670	-3.38322	0.29307	-3.26007
12062.642	-1.57545	-3.39782	0.30347	-3.17580
12066.642	-1.59717	-3.40140	0.28505	-3.13860
12070.609	-1.66237	-3.38527	0.25733	-3.11688
12074.645	-1.61148	-3.34251	0.38109	-3.06402
12078.642	-1.71702	-3.32005	0.41080	-2.98637
12082.602	-1.68590	-3.29057	0.34958	-2.89997
12086.643	-1.69185	-3.18226	0.30833	-2.91652
12090.645	-1.77628	-3.24533	0.47341	-2.94370
12094.643	-1.69311	-3.28665	0.42897	-2.92850
12098.601	-1.69500	-3.25233	0.50622	-2.92842
12102.642	-1.61334	-3.17625	0.51689	-2.97337
12106.646	-1.53161	-3.17526	0.46217	-3.01007
12110.624	-1.50140	-3.18919	0.42641	-3.03013
12114.620	-1.43290	-3.22193	0.32407	-3.03839
12118.642	-1.47858	-3.19705	0.29267	-3.06154
12122.600	-1.49086	-3.22257	0.28706	-2.87332
12126.644	-1.46898	-3.26390	0.41676	-2.88639
12130.663	-1.60640	-3.28483	0.45145	-2.80436
12134.642	-1.46727	-3.19977	0.46644	-2.76100
12138.643	-1.57615	-3.10122	0.56424	-2.71737
12142.644	-1.50683	-3.17386	0.72975	-2.89439
12146.641	-1.54966	-3.19866	0.76694	-2.79381
12150.642	-1.62455	-3.14431	0.57319	-2.75921
12154.637	-1.62485	-3.15607	0.69444	-2.72843
12158.641	-1.56481	-3.12340	0.62225	-2.68325
12162.639	-1.52139	-3.18483	0.66456	-2.63158
12166.644	-1.53061	-3.21149	0.55632	-2.71264
12170.643	-1.52436	-3.20132	0.47560	-2.72596
12174.645	-1.50080	-3.28992	0.45937	-2.79419
12178.665	-1.48786	-3.31636	0.50252	-2.86234
12182.644	-1.54435	-3.32281	0.42090	-2.88438
12186.649	-1.68582	-3.31845	0.40953	-2.91252
12190.650	-1.66120	-3.30819	0.27868	-2.97799
12194.635	-1.72763	-3.34038	0.27078	-2.92146
12198.642	-1.64186	-3.38696	0.20720	-2.95654
12202.646	-1.64451	-3.41485	0.20350	-2.97942
12206.646	-1.73150	-3.42213	0.17491	-3.00609
12210.643	-1.68835	-3.42364	0.19253	-2.98658
12214.644	-1.73247	-3.43396	0.18993	-2.97590
12218.645	-1.73896	-3.43409	0.18013	-2.95622
12222.599	-1.70737	-3.40299	0.14489	-2.93311
12226.642	-1.69450	-3.43189	0.12190	-2.92349
12230.643	-1.69019	-3.46950	0.12399	-2.88507
12234.644	-1.67677	-3.49704	0.15677	-2.86006
12238.634	-1.67189	-3.51964	0.14158	-2.88249
12242.602	-1.77710	-3.50163	0.14424	-2.89942
12246.602	-1.82924	-3.47033	0.17526	-2.94111
12250.645	-1.86935	-3.42684	0.15983	-2.95499
12254.652	-1.86528	-3.37448	0.11178	-2.98865
12258.643	-1.87961	-3.29777	0.04790	-3.00275
12262.646	-1.89243	-3.28055	0.00519	-3.00094
12266.645	-1.92099	-3.24787	0.00102	-3.00434
12270.645	-1.89617	-3.16787	-0.12228	-3.00329
12274.645	-1.85289	-3.17226	-0.08656	-2.96307
12278.648	-1.79619	-3.13893	-0.03097	-3.00402
12282.642	-1.69440	-3.10341	-0.10528	-2.97026
12286.647	-1.69832	-3.09657	-0.01516	-2.91792
12290.645	-1.61329	-3.08984	-0.06098	-2.86185
12294.647	-1.54252	-3.08009	-0.04095	-2.81332
12298.645	-1.49195	-3.12046	0.03326	-2.83057
12302.646	-1.42623	-3.11292	0.12622	-2.78857
12306.638	-1.41018	-3.04086	0.20192	-2.75078
12310.648	-1.48890	-3.06407	0.29287	-2.76063
12314.644	-1.52744	-3.04759	0.41812	-2.74408
12318.628	-1.49800	-3.04491	0.47222	-2.81122
12322.642	-1.52275	-2.93183	0.53974	-2.87846
12326.649	-1.55323	-2.98691	0.66456	-3.03739
12330.647	-1.64868	-2.97335	0.55922	-3.10046
12334.647	-1.69802	-2.99314	0.63511	-3.25831
12338.642	-1.76301	-2.98484	0.37380	-3.26854
12342.646	-1.77613	-2.91788	0.33345	-3.36675
12346.646	-1.79428	-2.94451	0.39529	-3.41707
12350.646	-1.74620	-2.99235	0.48527	-3.41624
12354.642	-1.69959	-3.04800	0.27577	-3.43746
12358.648	-1.79839	-3.07600	0.33434	-3.49018
12362.645	-1.79130	-3.15746	0.04353	-3.44528
12366.645	-1.75882	-3.19555	-0.04470	-3.44065
12370.646	-1.81907	-3.15184	-0.03137	-3.37924
12374.615	-1.79477	-3.15431	-0.09565	-3.20795
12378.646	-1.80139	-3.12146	-0.20115	-3.16084
12382.646	-1.78724	-3.11814	-0.14531	-3.18168
12386.643	-1.77107	-3.14509	-0.15526	-3.04420
12390.649	-1.71114	-3.13756	-0.07155	-2.99698
12394.650	-1.68384	-3.17351	-0.10399	-3.00446
12398.646	-1.74157	-3.11621	-0.03251	-2.98000
12402.644	-1.67524	-3.06820	-0.13245	-2.95826
12406.650	-1.64580	-3.05163	-0.16293	-2.94478
12410.647	-1.62926	-3.04786	-0.09242	-2.94084
12414.647	-1.68533	-3.05734	-0.13491	-2.95469
12418.644	-1.65059	-3.03473	-0.09634	-3.01678
12422.601	-1.60067	-3.12694	-0.00161	-3.05950
12426.604	-1.61649	-3.13053	0.10503	-3.11440
12430.603	-1.65039	-3.14207	0.12759	-3.08447
12434.646	-1.72262	-3.15282	0.10480	-2.95819
