time (ms)	lx (deg)	ly (deg)	rx (deg)	ry (deg)
0.000	-1.15846	-0.16936	0.11374	0.72792
3.997	-1.19998	-0.14772	0.09738	0.80235
7.997	-1.14819	-0.04487	0.07711	0.81987
11.988	-1.15198	-0.11580	0.05470	0.68936
15.998	-1.11891	-0.09821	0.10165	0.62975
19.998	-1.24478	-0.10437	0.06276	0.71915
23.975	-1.16687	-0.03856	0.04929	0.67833
27.989	-1.22529	-0.04581	0.06031	0.77808
31.998	-1.22467	-0.02360	0.05098	0.88473
36.004	-1.18894	0.04055	0.07229	0.79930
39.999	-1.21206	0.01111	0.06755	0.77420
44.020	-1.13117	0.06529	0.07785	0.79164
48.000	-1.24664	0.06345	0.07944	0.69790
51.998	-1.15439	0.03431	0.08761	0.72146
55.996	-1.08148	0.09250	0.09488	0.79405
59.989	-1.09708	0.03620	0.06103	0.82431
63.985	-1.03808	0.11429	0.08542	0.79259
67.999	-0.89927	0.07891	0.21095	0.73728
71.997	-0.48890	0.11599	0.51984	0.75698
76.019	-0.39383	0.11192	0.53473	0.61991
79.997	-0.38650	0.15406	0.53317	0.66560
84.001	-0.23013	0.14524	0.62302	0.68368
87.998	-0.20829	0.13356	0.84364	0.72617
92.025	-0.21169	0.11853	0.99018	0.81460
95.996	-0.11036	0.14450	0.74317	0.75998
100.001	-0.04316	0.14261	0.87679	0.77364
104.000	-0.03824	0.20868	1.03139	0.70422
108.021	0.00328	0.17469	1.04260	0.73368
111.998	0.02095	0.19186	1.12526	0.64295
116.001	-0.02834	0.20160	1.12883	0.65931
119.999	-0.06465	0.22237	1.14074	0.67963
124.001	-0.07736	0.19596	1.17257	0.70871
127.999	-0.09217	0.18995	1.19758	0.59193
132.001	-0.11017	0.19730	1.18252	0.80827
136.003	-0.09510	0.20955	1.10611	0.71797
139.989	-0.09763	0.19213	1.09452	0.69462
144.000	-0.10890	0.15208	1.11395	0.68299
147.971	-0.07502	0.06262	1.01402	0.73081
152.000	-0.04725	0.10146	0.94212	0.64249
156.022	0.07165	0.10755	0.90056	0.57139
159.999	0.13404	0.07850	0.90220	0.64749
164.001	0.11342	0.07276	0.91488	0.68020
168.001	0.03328	0.11199	0.89840	0.64393
172.005	0.03869	0.13259	0.79588	0.76039
176.000	0.00338	0.20379	0.81771	0.78968
179.999	-0.01678	0.15623	0.84113	0.66591
183.997	-0.12121	0.12621	0.88679	0.65767
187.989	-0.01286	0.17538	0.91813	0.58063
192.000	0.04698	0.18545	0.89654	0.56550
196.001	0.00042	0.16711	0.91676	0.56249
199.956	-0.03003	0.10479	0.86141	0.57793
204.003	-0.05373	0.10320	0.83811	0.52775
208.001	-0.01509	0.00852	0.76082	0.53012
212.003	-0.03460	-0.14554	0.70422	0.54864
216.000	0.04279	-0.05760	0.70216	0.53271
219.991	0.07041	-0.20426	0.70429	0.49887
224.002	0.07326	-0.25232	0.70603	0.53196
227.956	0.04008	-0.41281	0.67312	0.49276
231.970	0.07316	-0.04711	0.61536	0.50693
235.970	-0.03894	-0.28730	0.61059	0.46226
240.002	-0.14404	-0.49963	0.53538	0.50294
243.999	-0.31940	-0.42622	0.52858	0.54130
248.004	-0.36481	-0.52084	0.49513	0.54148
251.998	-0.33819	-0.46474	0.51121	0.55897
255.999	-0.44058	-0.49166	0.51644	0.56635
259.999	-0.46860	-0.50712	0.53848	0.62694
263.957	-0.41534	-0.61972	0.41718	0.58551
267.993	-0.23902	-0.59881	0.42269	0.67600
271.988	-0.21795	-0.53700	0.45765	0.68163
275.996	-0.34695	-0.17896	0.44544	0.67018
280.008	-0.46497	-0.45248	0.49932	0.66978
284.004	-0.38440	-0.51882	0.53220	0.62632
287.997	-0.35164	-0.27415	0.57220	0.61494
292.000	-0.38931	-0.60651	0.58565	0.56500
296.002	-0.35806	-0.34410	0.57677	0.50144
300.005	-0.33407	-0.19466	0.50006	0.49009
304.000	-0.20819	-0.15960	0.45807	0.42632
307.999	-0.19435	-0.13443	0.43142	0.34596
312.005	-0.22428	-0.12347	0.56220	0.29206
316.003	-0.20139	-0.19867	0.56270	0.26413
319.999	-0.27647	-0.13759	0.55436	0.25623
324.002	-0.28307	-0.27500	0.46693	0.21618
327.999	-0.22413	0.03670	0.42164	0.27288
331.961	-0.38313	-0.01389	0.47053	0.44584
336.004	-0.36000	-0.19757	0.40613	0.44570
340.003	-0.30044	-0.26240	0.44837	0.37573
344.002	-0.28853	-0.38754	0.44132	0.38452
347.999	-0.48785	-0.71544	0.52637	0.39197
352.004	-0.46810	-0.34867	0.64134	0.51316
355.982	-0.75794	-0.60848	0.54116	0.47270
360.002	-0.78240	-0.49012	0.49522	0.44902
363.999	-0.73521	-0.51996	0.52560	0.50589
368.003	-0.78667	-0.34065	0.63434	0.52136
372.002	-0.87701	-0.42586	0.64039	0.48775
376.004	-0.77178	-0.11869	0.78476	0.41742
380.006	-0.85657	-0.55855	0.89192	0.41676
384.004	-0.86071	-0.51848	0.69836	0.35772
388.002	-0.80513	-0.09765	0.77072	0.29997
391.998	-0.92830	-0.74618	0.79781	0.32005
396.005	-0.88711	-0.48752	0.73958	0.28651
400.004	-0.86101	-0.32287	0.77563	0.29481
404.001	-0.78007	-0.56642	0.88590	0.33696
408.002	-0.71275	-0.08523	0.80292	0.47431
412.006	-0.56443	-0.29979	0.69925	0.41790
416.006	-0.51597	-0.32628	0.65409	0.39549
420.003	-0.55984	-0.09345	0.65297	0.49550
424.003	-0.42954	-0.16151	0.58466	0.40777
427.898	-0.51158	-0.06354	0.58888	0.54455
432.005	-0.58518	-0.34401	0.54719	0.54751
436.002	-0.57843	-0.19888	0.55376	0.55141
439.979	-0.63771	-0.12160	0.55900	0.63698
443.889	-0.58491	0.05171	0.58248	0.64110
448.005	-0.46840	-0.10769	0.53049	0.62769
452.004	-0.72387	-0.06843	0.49123	0.63922
456.002	-0.56960	-0.11194	0.48746	0.61713
459.901	-0.55932	-0.24309	0.45696	0.54953
464.005	-0.53108	-0.12536	0.49783	0.54781
468.004	-0.59210	-0.05891	0.57352	0.59158
472.004	-0.52026	-0.56590	0.65032	0.56069
475.908	-0.40045	-0.52737	0.76044	0.55742
479.992	-0.48565	-0.32720	0.79712	0.54696
483.959	-0.32836	-0.21765	0.87240	0.53065
488.005	-0.28763	-0.05524	0.84290	0.55836
491.899	-0.37859	-0.48429	0.88748	0.53157
496.007	-0.33427	-0.18445	0.90713	0.48901
500.001	-0.32764	0.00435	0.93053	0.47119
504.004	-0.31543	-0.26103	0.93413	0.48093
508.009	-0.37447	-0.02773	0.92894	0.51293
511.960	-0.39745	-0.29731	0.92522	0.54011
516.005	-0.61404	-2.25034	0.93356	0.49527
520.005	-0.39767	0.34865	0.92234	0.48486
523.904	-0.54436	-0.33840	0.87796	0.47704
527.960	-0.60833	0.02065	0.84858	0.50382
532.003	-0.68315	-0.61609	0.84657	0.48502
536.003	-0.54530	-0.42907	0.84788	0.53128
539.903	-0.58377	-0.11900	0.85233	0.50742
544.005	-0.59491	-0.15480	0.85773	0.57570
548.004	-0.62414	-0.17065	0.88748	0.58237
552.006	-0.68613	-0.16521	0.91969	0.57959
556.009	-0.72030	-0.39310	0.94440	0.57635
560.007	-0.67300	-0.23801	0.94701	0.59178
563.984	-0.64970	-0.28860	0.95165	0.62204
567.961	-0.66873	-0.24490	0.90691	0.65134
572.008	-0.66245	-0.22365	0.87208	0.67261
576.004	-0.54620	-0.20037	0.85942	0.68831
580.003	-0.63017	-0.18293	0.84034	0.67018
584.006	-0.62831	-0.20673	0.87175	0.74130
588.008	-0.58761	-0.21767	0.85992	0.83460
592.002	-0.44748	-0.23889	0.77531	0.78310
596.007	-0.52409	-0.25688	0.75059	0.76619
600.009	-0.57076	-0.20785	0.66734	0.79318
603.904	-0.60478	-0.19823	0.67647	0.79589
607.997	-0.64091	-0.17455	0.63890	0.77858
612.007	-0.58039	-0.16509	0.67677	0.76640
616.002	-0.61734	-0.16370	0.74270	0.69089
619.865	-0.63972	-0.14215	0.74163	0.80800
624.006	-0.64794	-0.14590	0.72146	0.75064
627.960	-0.64486	-0.14158	0.71605	0.91308
632.005	-0.60893	-0.17205	0.67685	0.74419
636.007	-0.73392	-0.21463	0.65920	0.71840
639.964	-0.79913	-0.18255	0.63781	0.72976
644.004	-0.84597	-0.19253	0.70759	0.89840
648.006	-0.79687	-0.22993	0.64513	0.83119
652.008	-0.79248	-0.30502	0.65891	0.85181
656.005	-0.75967	-0.33553	0.71722	0.77680
660.006	-0.79801	-0.33866	0.71573	0.77896
664.008	-0.74717	-0.34082	0.75362	0.70885
668.008	-0.75615	-0.37456	0.78786	0.64288
672.005	-0.71392	-0.37578	0.81617	0.54527
676.005	-0.70206	-0.41489	0.85486	0.48521
679.963	-0.69307	-0.41077	0.88967	0.34285
684.010	-0.58766	-0.41776	0.92862	0.40933
687.995	-0.57960	-0.43836	0.89671	0.37616
692.000	-0.56302	-0.42859	0.90721	0.36548
696.007	-0.52466	-0.39046	0.88768	0.29157
700.009	-0.48718	-0.35297	0.86084	0.30784
704.004	-0.46500	-0.31030	0.83089	0.27497
708.006	-0.47177	-0.37729	0.79449	0.37717
712.011	-0.48718	-0.40085	0.79729	0.51056
716.009	-0.53471	-0.40233	0.79310	0.63409
720.003	-0.51160	-0.39282	0.74801	0.51007
724.006	-0.51441	-0.38847	0.74446	0.73923
727.961	-0.54428	-0.38156	0.70853	0.65999
731.903	-0.55563	-0.41384	0.75275	0.71439
735.861	-0.56322	-0.43197	0.73814	0.82979
739.886	-0.57697	-0.46241	0.77359	0.81900
743.883	-0.58843	-0.47031	0.77868	0.86441
747.866	-0.62739	-0.49267	0.74481	0.80129
751.881	-0.65327	-0.46769	0.71077	0.82184
755.881	-0.75642	-0.41402	0.77737	0.80320
759.882	-0.91284	-0.33696	0.77340	0.79343
763.841	-0.86749	-0.16257	0.82868	0.78038
767.881	-0.81530	-0.09442	0.82364	0.76103
771.881	-0.82121	-0.26524	0.82744	0.73736
775.875	-0.75980	-0.22976	0.77436	0.75356
779.841	-0.77198	-0.25542	0.81615	0.75507
783.881	-0.65588	-0.06152	0.83327	0.76635
787.880	-0.64771	-0.13890	0.76429	0.75585
791.881	-0.55009	-0.29658	0.90885	0.82386
795.867	-0.57632	-0.35162	0.87716	0.81291
799.882	-0.55019	-0.20992	0.80198	0.87747
803.882	-0.56061	-0.25099	0.89887	0.86629
807.882	-0.56731	-0.33323	0.89701	0.86182
811.845	-0.54555	-0.42638	0.92669	0.87853
815.881	-0.68826	-0.41370	0.87007	0.91384
819.850	-0.65278	-0.42476	0.83779	0.91678
823.881	-0.68675	-0.38647	0.70583	0.85039
828.294	-0.66350	-0.46372	0.62518	0.87651
831.882	-0.64806	-0.43289	0.79439	0.84754
835.843	-0.81669	-0.41528	0.56295	0.77499
839.886	-1.12529	-0.31246	-0.27034	0.93982
843.903	-2.35853	0.36892	-1.07041	1.19521
847.882	-3.94009	1.36146	-3.40361	3.09022
851.885	-4.23606	1.81881	-4.33616	4.01462
855.883	-5.07092	2.42765	-4.91077	4.88948
859.892	-6.13098	2.73260	-5.35847	4.81679
863.880	-6.12340	2.83966	-5.38897	4.58301
867.886	-6.15431	2.65429	-4.92100	4.64376
871.882	-6.23261	2.60447	-4.95950	4.55641
875.902	-6.23361	2.78198	-4.93144	4.53336
879.882	-6.33329	2.74680	-5.06754	4.57810
883.885	-6.41268	2.67596	-5.06333	4.48522
887.884	-6.46956	2.71895	-5.01790	4.43202
891.869	-6.63916	2.90154	-5.12543	4.54758
895.883	-6.66942	2.93809	-5.30279	4.63864
899.887	-6.62733	2.85997	-5.20524	4.49618
903.883	-6.69135	2.87184	-5.18129	4.51511
907.902	-6.58795	2.82078	-5.27791	4.51966
911.883	-6.60387	2.71361	-5.22483	4.49916
915.884	-6.65789	2.76384	-5.31608	4.53903
919.882	-6.63147	2.87327	-5.30754	4.64915
923.902	-6.60732	2.85699	-5.29848	4.70442
927.884	-6.46917	2.78061	-5.29078	4.67039
931.884	-6.48377	2.71483	-5.39020	4.65251
935.883	-6.36704	2.71543	-5.34543	4.79834
939.908	-6.42067	2.70736	-5.24031	4.76937
943.862	-6.44410	2.79442	-5.28364	4.79047
947.885	-6.43140	2.76640	-5.28933	4.82320
951.884	-6.40599	2.75127	-5.31750	4.75281
955.903	-6.45887	2.89872	-5.29944	4.82691
959.883	-6.36822	3.01022	-5.30951	4.76209
963.886	-6.35922	2.92958	-5.28940	4.66477
967.885	-6.36993	2.69370	-5.25599	4.66554
971.907	-6.45130	2.97117	-5.26900	4.68540
975.884	-6.48918	2.99443	-5.26398	4.84261
979.887	-6.55873	3.12367	-5.24085	4.79104
983.873	-6.69224	3.13978	-5.31802	4.78991
987.908	-6.69326	3.29779	-5.33487	4.62257
991.886	-6.83871	3.37163	-5.35318	4.74472
995.886	-6.74822	3.39309	-5.32889	4.79061
999.886	-6.52593	2.90427	-5.30333	4.88829
1003.907	-6.72215	3.33737	-5.28709	4.80551
1007.885	-6.91043	3.26412	-5.24668	4.94884
1011.841	-6.91933	3.44605	-5.29169	4.83407
1015.886	-6.79557	3.43839	-5.37207	4.91746
1019.900	-6.96480	3.45445	-5.29403	4.85127
1023.883	-6.87000	3.38734	-5.41357	4.81749
1027.840	-7.00807	3.36607	-5.80838	4.84350
1031.883	-8.73402	3.40500	-7.53208	4.87869
1035.903	-9.34795	3.29796	-9.80238	4.74839
1039.884	-10.57886	3.28079	-10.70526	4.47711
1043.886	-10.95306	3.25426	-11.23442	4.32061
1047.886	-11.66870	3.28009	-12.41334	3.07646
1051.907	-12.20169	3.24686	-11.97686	3.85560
1055.886	-12.34278	3.10774	-12.29083	2.89407
1059.888	-12.76763	3.00697	-12.49517	2.98845
1063.886	-13.42488	2.92560	-12.38427	3.18681
1067.898	-12.85650	3.02959	-12.27363	3.30660
1071.883	-13.13729	2.98435	-12.35578	3.10340
1075.842	-12.91746	2.94767	-12.23014	3.53041
1079.884	-12.95004	2.96306	-12.29462	3.40005
1083.878	-13.29276	2.82311	-12.37361	3.35336
1087.886	-13.02464	2.85394	-12.37072	3.12883
1091.881	-13.19348	2.83924	-12.33238	3.12986
1095.887	-13.27189	2.79174	-12.34143	3.10367
1099.905	-13.34625	2.81677	-12.39355	3.18486
1103.888	-13.43752	2.79502	-12.33158	3.23573
1107.888	-13.50260	2.84377	-12.38086	3.39100
1111.887	-13.45625	2.84268	-12.36286	3.30151
1115.910	-13.45320	2.84124	-12.33776	3.39260
1119.882	-13.47636	2.79261	-12.31571	3.10787
1123.888	-13.51576	2.76602	-12.36838	3.16527
1127.842	-13.44667	2.75122	-12.29024	3.19333
1131.882	-13.51384	2.74931	-12.21990	3.23175
1135.885	-13.44355	2.72393	-12.24713	3.25603
1139.841	-13.44601	2.76316	-12.19759	3.20599
1143.887	-13.48575	2.83666	-12.13605	3.22206
1147.845	-13.39262	2.94981	-12.13776	3.25992
1151.863	-13.39262	2.92408	-12.11050	3.24298
1155.887	-13.36582	2.86842	-12.11747	3.26116
1159.884	-13.36539	2.85675	-12.11460	3.22535
1163.908	-13.41765	2.83395	-12.11463	3.27843
1167.887	-13.37993	2.75806	-12.04887	3.23988
1171.888	-13.49411	2.92215	-12.05027	3.21648
1175.887	-13.45125	3.00595	-12.08786	3.17694
1179.907	-13.41751	3.07241	-12.13370	3.18746
1183.843	-13.45407	2.95882	-12.21980	3.23783
1187.889	-13.46486	2.98269	-12.26301	3.24129
1191.874	-13.45608	2.91900	-12.21608	3.21780
1195.886	-13.37653	2.86723	-12.19754	3.18033
1199.885	-13.30632	2.98583	-12.23030	3.12476
1203.842	-13.33760	3.01402	-12.24144	3.23371
1207.887	-13.35473	3.07152	-12.30554	3.13856
1211.890	-13.32042	3.01110	-12.18635	3.23797
1215.888	-13.25204	2.99902	-12.23315	3.27264
1219.888	-13.23504	2.99488	-12.25545	3.28715
1223.889	-13.28284	3.01070	-12.23523	3.21442
1227.847	-13.27889	3.03351	-12.21793	3.16323
1231.888	-13.24118	3.06430	-12.21627	3.16882
1235.860	-13.14621	3.06221	-12.21589	3.11938
1239.890	-13.10492	3.08531	-12.25363	3.21752
1243.883	-13.13519	3.08739	-12.21122	3.34747
1247.888	-13.09998	3.09068	-12.09498	3.31062
1251.889	-13.17896	3.09476	-12.02014	3.35947
1255.889	-13.17263	3.18322	-12.08779	3.35703
1259.885	-13.21082	3.21716	-12.06862	3.30043
1263.888	-13.19263	3.20616	-12.09168	3.28387
1267.887	-13.23132	3.14066	-11.98579	3.40515
1271.880	-13.16859	3.17879	-12.05172	3.33072
1275.877	-13.16675	3.14801	-11.96610	3.40758
1279.887	-13.26220	3.19286	-11.93983	3.37673
1283.887	-13.29429	3.16322	-11.95342	3.39141
1287.887	-13.32153	3.15932	-11.95014	3.36749
1291.883	-13.35976	3.07107	-11.94189	3.35684
1295.889	-13.33650	3.03947	-11.87891	3.37240
1299.889	-13.32635	3.05465	-11.77289	3.35295
1303.891	-13.31370	3.01830	-11.72817	3.36700
1307.890	-13.31053	3.04633	-11.66461	3.36801
1311.888	-13.30353	3.09144	-11.56548	3.34672
1315.890	-13.32397	3.06984	-11.55940	3.38711
1319.855	-13.34796	3.11127	-11.49791	3.36841
1323.881	-13.34829	3.08349	-11.47014	3.40726
1327.890	-13.34843	3.06124	-11.41755	3.39653
1331.845	-13.33800	3.04608	-11.36579	3.41399
1335.888	-13.32209	3.08028	-11.34013	3.46601
1339.893	-13.35809	3.10133	-11.37495	3.38650
1343.891	-13.34902	3.08888	-11.42461	3.32161
1347.887	-13.36065	3.09375	-11.45500	3.26941
1351.895	-13.34108	3.12457	-11.51197	3.34425
1355.882	-13.31354	3.09732	-11.60427	3.44905
1359.887	-13.28282	3.14099	-11.62001	3.59977
1363.886	-13.28164	3.09816	-11.73859	3.47974
1367.888	-13.25731	3.05349	-11.71273	3.62140
1371.879	-13.23965	3.05219	-11.77165	3.41109
1375.890	-13.24471	3.07369	-11.81558	3.43992
1379.889	-13.18207	3.10523	-11.81004	3.53506
1383.890	-13.12378	3.05375	-11.83422	3.51885
1387.886	-13.12110	3.07818	-11.84182	3.36323
1391.853	-13.14670	3.02538	-11.83752	3.43686
1395.888	-13.17409	3.02717	-11.90096	3.56416
1399.878	-13.15049	3.00120	-11.85221	3.50389
1403.787	-13.17722	2.94410	-11.79558	3.49965
1407.889	-13.19211	3.00366	-11.74801	3.50774
1411.890	-13.16663	3.02704	-11.60992	3.46993
1415.890	-13.16127	3.06762	-11.74656	3.50405
1419.894	-13.01807	3.04531	-11.72434	3.53933
1423.888	-13.11088	3.06699	-11.80288	3.50142
1427.889	-13.08352	3.08710	-11.58963	3.32108
1431.892	-13.09574	3.10661	-11.66803	3.48216
1435.895	-12.69460	3.09510	-11.26970	3.48643
1439.890	-10.98009	3.11289	-9.91748	3.49574
1443.890	-8.67170	3.02052	-8.47333	3.53943
1447.892	-8.33054	2.65278	-8.11070	3.27927
1451.882	-7.43315	2.48109	-7.35493	3.23922
1455.889	-6.61962	2.14614	-5.38597	3.17423
1459.889	-6.42251	1.86948	-5.21973	2.93144
1463.890	-5.86133	1.63711	-4.98657	2.85539
1467.849	-5.95430	1.75301	-4.63728	2.63633
1471.892	-5.77433	1.58523	-4.54908	2.60173
1475.891	-5.83820	1.42784	-4.52316	2.48399
1479.895	-5.80398	1.47045	-4.40599	2.47571
1483.785	-5.70922	1.47250	-4.39600	2.46291
1487.891	-5.75718	1.51764	-4.28629	2.43227
1491.892	-5.75099	1.39327	-4.40046	2.37230
1495.892	-5.66081	1.39782	-4.33273	2.34585
1499.785	-5.59295	1.34462	-4.17011	2.32764
1503.890	-5.57154	1.30010	-4.11001	2.35941
1507.889	-5.54995	1.22158	-4.03702	2.34399
1511.847	-5.40304	1.19144	-4.10745	2.33566
1515.786	-5.39842	1.20869	-3.92168	2.39079
1519.892	-5.36245	1.23787	-3.88080	2.41939
1523.891	-5.36607	1.17171	-3.83791	2.37242
1527.846	-5.42943	1.20440	-3.93258	2.38150
1531.773	-5.35692	1.22621	-3.87425	2.34989
1535.891	-5.36609	1.26578	-3.86598	2.36531
1539.889	-5.40048	1.14221	-3.84229	2.30577
1543.897	-5.43064	1.13224	-3.87181	2.30235
1547.788	-5.35106	1.07548	-3.86529	2.30143
1551.889	-5.42341	1.10807	-3.84355	2.33309
1555.889	-5.51346	1.14568	-3.87107	2.38564
1559.899	-5.57812	1.11278	-3.93720	2.33808
1563.789	-5.55708	1.06263	-3.98929	2.28888
1567.890	-5.57306	1.04858	-4.00245	2.27726
1571.889	-5.54176	1.14113	-3.91743	2.26067
1575.848	-5.54698	1.19259	-3.96259	2.31559
1579.787	-5.50995	1.22261	-3.93161	2.30516
1583.894	-5.47572	1.14225	-3.89241	2.35264
1587.893	-5.51270	1.16759	-3.92951	2.31994
1591.894	-5.47914	1.22264	-3.95824	2.28365
1595.789	-5.49023	1.12726	-3.93423	2.30998
1599.892	-5.46709	1.02515	-3.85222	2.26572
1603.893	-5.42997	1.20497	-3.79566	2.25010
1607.896	-5.33057	1.24253	-3.74614	2.25892
1611.786	-5.31526	1.26136	-3.69373	2.32453
1615.891	-5.24794	1.20926	-3.76473	2.30140
1619.889	-5.32668	1.22013	-3.71728	2.29887
1623.895	-5.35505	1.12585	-3.70964	2.32031
1627.852	-5.34179	1.11208	-3.77797	2.30911
1631.891	-5.22387	1.13465	-3.74392	2.30088
1635.892	-5.31625	1.12115	-3.64649	2.33468
1639.856	-5.33536	1.10652	-3.66454	2.32030
1643.789	-5.27336	1.14431	-3.73977	2.19864
1647.894	-5.36831	1.09200	-3.80495	2.19992
1651.861	-5.42454	1.11455	-3.90247	2.15609
1655.891	-5.50328	1.08760	-3.91541	2.21629
1659.765	-5.44881	1.14860	-3.93238	2.24493
1663.890	-5.48275	1.12364	-3.84100	2.24159
1667.892	-5.50304	1.17317	-3.92062	2.20115
1671.892	-5.51096	1.23605	-3.91961	2.14100
1675.851	-5.58744	1.22457	-3.94448	2.11209
1679.893	-5.51627	1.24507	-3.93739	2.17086
1683.892	-5.51455	1.30702	-3.98422	2.10041
1687.894	-5.52148	1.31581	-3.86210	2.16184
1691.852	-5.51425	1.35377	-3.86272	2.16805
1695.885	-5.44650	1.33424	-3.78630	2.22024
1699.892	-5.38917	1.31523	-3.76339	2.15585
1703.894	-5.50442	1.25570	-3.87685	2.19005
1707.754	-5.77298	1.26913	-4.62320	2.19503
1711.893	-6.34483	1.24804	-6.08397	2.19935
1715.893	-8.13018	1.21606	-6.41815	2.23355
1719.894	-8.41145	1.23748	-7.08087	2.27747
1723.753	-8.84658	1.22207	-7.82679	2.26928
1727.861	-9.20458	1.23605	-8.28206	2.30277
1731.891	-9.68295	1.34544	-8.36538	2.31880
1735.888	-9.77782	1.37805	-8.39778	2.30076
1739.852	-9.70883	1.38732	-8.28811	2.28273
1743.896	-9.63672	1.44170	-8.08813	2.29726
1747.894	-9.73132	1.45067	-8.18913	2.26117
1751.893	-9.82371	1.50158	-8.23053	2.28274
1755.760	-9.83380	1.55220	-8.28174	2.28971
1759.768	-9.87008	1.57637	-8.40655	2.30901
1763.773	-9.89653	1.59124	-8.43418	2.30857
1767.768	-9.90118	1.64373	-8.50139	2.34878
1771.756	-9.90985	1.67123	-8.47524	2.37048
1775.768	-9.90284	1.64588	-8.47005	2.40736
1779.756	-9.87338	1.65187	-8.39860	2.44027
1783.763	-9.83611	1.63992	-8.47539	2.50710
1787.727	-9.86163	1.65606	-8.52707	2.54069
1791.769	-9.86618	1.64755	-8.57306	2.49773
1795.768	-9.87056	1.66209	-8.57954	2.47356
1799.767	-9.87442	1.66953	-8.58340	2.43076
1803.727	-9.81026	1.67151	-8.59631	2.39406
1807.769	-9.80951	1.65447	-8.45293	2.41841
1811.767	-9.81985	1.57003	-8.40293	2.38351
1815.769	-9.81669	1.56594	-8.39608	2.33265
1819.728	-9.85573	1.56502	-8.34733	2.30099
1823.742	-9.87620	1.49645	-8.43710	2.26242
1827.725	-9.97618	1.43984	-8.42836	2.15472
1831.768	-10.07466	1.43397	-8.45278	2.08544
1835.728	-9.96802	1.42510	-8.48585	2.07861
1839.766	-10.01799	1.41737	-8.33357	2.07743
1843.769	-9.94996	1.38810	-8.28940	2.08125
1847.771	-9.99426	1.37871	-8.32966	2.10996
1851.727	-9.96386	1.35988	-8.39596	2.11074
1855.769	-10.02391	1.44478	-8.36035	2.15421
1859.770	-10.04222	1.45507	-8.32434	2.13681
1863.751	-10.08640	1.42470	-8.36414	2.15066
1867.730	-10.04478	1.43643	-8.29421	2.21215
1871.768	-10.02415	1.43547	-8.31168	2.31536
1875.768	-9.99219	1.49227	-8.36545	2.24546
1879.769	-10.04949	1.50548	-8.28575	2.25821
1883.728	-10.04855	1.51835	-8.30242	2.35373
1887.771	-10.12142	1.57291	-8.38014	2.29287
1891.771	-10.07297	1.60429	-8.39819	2.25867
1895.771	-10.04179	1.61718	-8.39064	2.18372
1899.732	-10.09482	1.61127	-8.43690	2.00017
1903.768	-10.16752	1.65287	-8.58029	2.06867
1907.762	-10.48915	1.75471	-8.97152	2.08581
1911.771	-11.08593	1.84973	-9.90188	2.27278
1915.729	-11.72144	1.99516	-10.35111	2.21752
1919.772	-11.27180	2.08151	-10.38284	2.27111
1923.769	-11.49433	2.09834	-9.98506	2.55476
1927.770	-11.46466	2.19504	-10.01580	2.62111
1931.756	-11.67636	2.20616	-9.92150	2.60355
1935.771	-11.66660	2.18495	-9.92955	2.66208
1939.770	-11.65213	2.25065	-9.97890	2.71994
1943.772	-11.71266	2.27178	-10.08387	2.56130
1947.730	-11.73029	2.31711	-10.18144	2.54890
1951.770	-11.76207	2.33632	-10.13953	2.64005
1955.773	-11.75215	2.35219	-10.12351	2.60432
1959.770	-11.71211	2.32171	-10.00314	2.77489
1963.731	-11.65401	2.31172	-10.00049	2.89649
1967.782	-11.66644	2.32010	-10.05582	2.80737
1971.768	-11.70749	2.30091	-10.04692	2.74564
1975.770	-11.68979	2.30268	-10.06944	2.68459
1979.730	-11.72201	2.33465	-10.09092	2.69222
1983.771	-11.75760	2.35455	-10.16610	2.72459
1987.761	-11.77629	2.38841	-10.16697	2.69430
1991.762	-11.78290	2.41067	-10.16577	2.72998
1995.730	-11.78821	2.43430	-10.18613	2.76878
1999.772	-11.83122	2.45934	-10.23594	2.78296
2003.770	-11.84955	2.52401	-10.24740	2.78171
2007.771	-11.85537	2.54626	-10.23606	2.79150
2011.730	-11.86512	2.60298	-10.29332	2.75626
2015.768	-11.83619	2.58083	-10.25783	2.74783
2019.772	-11.86148	2.57962	-10.30821	2.76610
2023.770	-11.88508	2.61393	-10.36874	2.77484
2027.760	-11.87306	2.64101	-10.35445	2.76275
2031.728	-11.87684	2.58632	-10.33466	2.80387
2035.773	-11.84898	2.55773	-10.31525	2.84594
2039.772	-11.85730	2.53352	-10.27821	2.87457
2043.758	-11.89186	2.51750	-10.24269	2.90948
2047.776	-11.92137	2.51948	-10.18817	2.88936
2051.771	-11.93999	2.48570	-10.24872	2.94210
2055.771	-11.95190	2.45403	-10.20125	2.94210
2059.729	-11.98211	2.43196	-10.19909	2.96076
2063.774	-11.98716	2.41933	-10.17336	2.97539
2067.773	-11.93883	2.42248	-10.12594	2.98515
2071.755	-11.88637	2.40639	-10.11130	2.97486
2075.731	-11.88240	2.41405	-10.11923	2.94893
2079.771	-11.88202	2.42111	-10.12450	2.90152
2083.772	-11.83707	2.39391	-10.15615	2.89907
2087.769	-11.81971	2.37255	-10.21990	2.85126
2091.761	-11.79705	2.34962	-10.24007	2.84552
2095.771	-11.75053	2.31930	-10.23988	2.81435
2099.772	-11.68474	2.29818	-10.25896	2.79178
2103.772	-11.65758	2.29206	-10.27013	2.75692
2107.734	-11.63149	2.28501	-10.25833	2.73753
2111.766	-11.60335	2.27603	-10.27893	2.71608
2115.772	-11.63132	2.22462	-10.26067	2.70285
2119.773	-11.62261	2.19478	-10.23692	2.70812
2123.731	-11.61730	2.18826	-10.19039	2.72065
2127.729	-11.60318	2.20251	-10.13922	2.74544
2131.772	-11.58320	2.23723	-10.08026	2.77553
2135.773	-11.54106	2.25843	-10.07016	2.79792
2139.732	-11.52143	2.32269	-10.04068	2.83001
2143.773	-11.52862	2.38908	-9.99147	2.87130
2147.775	-11.53739	2.37015	-10.02738	2.83247
2151.776	-11.53837	2.38579	-10.04766	2.64395
2155.733	-11.55052	2.38897	-10.02598	2.63375
2159.772	-11.49445	2.43264	-10.01635	2.64059
2163.772	-11.48680	2.46008	-10.02629	2.52481
2167.772	-11.49979	2.41818	-10.03118	2.48418
2171.731	-11.49757	2.42299	-10.00957	2.48977
2175.774	-11.49893	2.39617	-10.01631	2.44045
2179.773	-11.53587	2.37646	-10.02555	2.42489
2183.773	-11.54380	2.33466	-10.03067	2.41645
2187.770	-11.57065	2.32709	-10.04516	2.41105
2191.774	-11.55969	2.33132	-9.98680	2.40295
2195.771	-11.59056	2.25895	-9.98591	2.50321
2199.769	-11.51943	2.34906	-9.95052	2.59079
2203.766	-10.53024	2.28172	-9.58649	2.61509
2207.774	-9.01629	2.19510	-8.68143	2.45595
2211.774	-8.29715	1.90323	-7.29594	2.34235
2215.774	-7.10115	1.56033	-6.84257	2.21133
2219.796	-6.05199	1.50777	-6.03150	2.03582
2223.777	-5.61421	1.22150	-5.33022	1.72108
2227.731	-5.81550	0.85994	-4.82037	1.68801
2231.773	-5.65226	0.84075	-4.34297	1.51590
2235.768	-5.75124	0.70448	-4.47585	1.51055
2239.740	-5.74861	0.68920	-4.52271	1.42644
2243.775	-5.67420	0.58389	-4.51230	1.43767
2247.777	-5.64508	0.56103	-4.40184	1.42110
2251.774	-5.54363	0.52709	-4.29752	1.39131
2255.777	-5.59064	0.47191	-4.33461	1.36999
2259.776	-5.52527	0.38965	-4.37369	1.34783
2263.776	-5.54594	0.36006	-4.38112	1.32224
2267.732	-5.57985	0.30761	-4.31857	1.34548
2271.732	-5.57665	0.29225	-4.34119	1.34011
2275.773	-5.62805	0.28307	-4.36007	1.31898
2279.773	-5.66995	0.30946	-4.26916	1.28754
2283.749	-5.60974	0.33783	-4.30586	1.25758
2287.775	-5.61556	0.38632	-4.25546	1.22512
2291.774	-5.62424	0.44092	-4.19168	1.14248
2295.778	-5.65580	0.45103	-4.22486	1.08251
2299.771	-5.67873	0.47757	-4.21649	1.01110
2303.776	-5.68841	0.53084	-4.19882	1.00146
2307.773	-5.68030	0.53065	-4.13757	0.93974
2311.775	-5.66912	0.55391	-4.17208	0.92426
2315.771	-5.67069	0.54681	-4.15596	0.90245
2319.769	-5.63729	0.56301	-4.13498	0.90518
2323.767	-5.59157	0.52708	-4.17697	0.93724
2327.775	-5.57790	0.51307	-4.19415	0.92059
2331.766	-5.59226	0.48573	-4.16058	0.91739
2335.778	-5.59607	0.47685	-4.15784	0.94058
2339.774	-5.61040	0.48275	-4.13700	0.96273
2343.774	-5.58936	0.49928	-4.10727	0.99719
2347.772	-5.62566	0.47939	-4.09866	0.97884
2351.779	-5.58479	0.44792	-4.05930	1.00195
2355.773	-5.56074	0.46676	-4.02154	0.96347
2359.776	-5.59882	0.48211	-4.04196	0.93881
2363.774	-5.56187	0.47282	-4.02040	0.93876
2367.778	-5.53613	0.48503	-4.04841	0.90718
2371.775	-5.57360	0.49536	-4.06142	0.94201
2375.775	-5.57092	0.51495	-4.10841	0.98212
2379.774	-5.53296	0.52255	-4.11194	1.08459
2383.778	-5.53392	0.55708	-4.14243	1.23877
2387.775	-5.50867	0.57938	-4.10942	1.12057
2391.733	-5.53181	0.61651	-4.18102	1.13930
2395.777	-5.56714	0.65191	-4.16443	1.11720
2399.778	-5.57245	0.68936	-4.16060	1.17166
2403.761	-5.53161	0.71770	-4.11394	1.23604
2407.772	-5.53943	0.74549	-4.08498	1.26780
2411.770	-5.40235	0.74848	-4.00630	1.23427
2415.779	-4.49990	0.72087	-3.62321	1.21199
2419.774	-1.92981	0.56585	-0.99496	1.06334
2423.773	-1.24029	-0.39167	-0.66342	0.69763
2427.776	-0.19561	-0.23306	0.21939	0.27875
2431.775	1.22690	-0.76474	1.43875	0.02410
2435.777	2.23085	-1.31049	2.55304	-0.32818
2439.776	2.99225	-1.57451	3.33075	-0.56023
2443.777	3.38479	-1.83344	4.20355	-0.71169
2447.743	4.05954	-1.90213	4.62956	-0.93046
2451.778	4.50052	-2.14289	5.05001	-1.10096
2455.734	4.20242	-2.14354	5.25330	-1.12928
2459.781	4.15532	-2.16713	5.30227	-1.44537
2463.780	4.15384	-2.25892	5.20359	-1.57560
2467.778	4.17926	-2.31435	5.31278	-1.62212
2471.777	4.20388	-2.36205	5.28436	-1.70279
2475.676	4.25485	-2.38990	5.37237	-1.74917
2479.780	4.28959	-2.44891	5.41851	-1.81354
2483.777	4.35881	-2.48123	5.38730	-1.93631
2487.756	4.40922	-2.52600	5.44653	-1.99663
2491.780	4.38526	-2.53406	5.48393	-2.05424
2495.779	4.36804	-2.47789	5.49195	-2.10616
2499.777	4.38578	-2.47078	5.48096	-2.17099
2503.784	4.41736	-2.46318	5.45954	-2.18431
2507.672	4.44139	-2.49715	5.49770	-2.18036
2511.734	4.46246	-2.51046	5.50363	-2.19064
2515.777	4.47422	-2.53596	5.54457	-2.22178
2519.779	4.46776	-2.54661	5.56237	-2.18385
2523.672	4.47089	-2.55187	5.54902	-2.22722
2527.762	4.47871	-2.45751	5.55661	-2.18975
2531.768	4.47284	-2.44030	5.59096	-2.12971
2535.778	4.48332	-2.42275	5.59378	-2.11740
2539.674	4.48086	-2.42588	5.59789	-2.06498
2543.776	4.48429	-2.45576	5.62812	-2.01244
2547.779	4.47563	-2.42478	5.63891	-1.97600
2551.779	4.45158	-2.50041	5.66251	-1.96544
2555.676	4.42920	-2.52397	5.72465	-1.93821
2559.777	4.42479	-2.49689	5.74097	-1.90578
2563.782	4.42355	-2.54209	5.77467	-1.93367
2567.778	4.43835	-2.50065	5.80838	-1.87733
2571.676	4.48071	-2.56595	5.84404	-1.88131
2575.776	4.52876	-2.60267	5.85264	-1.87698
2579.780	4.56111	-2.63582	5.89122	-1.87710
2583.777	4.59936	-2.62572	5.89041	-1.87350
2587.677	4.62249	-2.64051	5.91467	-1.89887
2591.745	4.70421	-2.68941	5.92324	-1.92299
2595.781	4.75243	-2.69661	5.93873	-1.92355
2599.778	4.77651	-2.67937	5.90936	-1.93232
2603.673	4.80670	-2.68389	5.93144	-1.98253
2607.777	4.82993	-2.68249	5.93159	-2.01297
2611.762	4.87236	-2.73472	5.91906	-2.04323
2615.766	4.86214	-2.75744	5.89495	-2.02458
2619.779	4.84667	-2.77732	5.88766	-2.03754
2623.777	4.83666	-2.81164	5.83608	-2.04800
2627.734	4.82727	-2.85592	5.83979	-2.07290
2631.780	4.81530	-2.89166	5.82609	-2.09623
2635.672	4.79391	-2.92235	5.80037	-2.08623
2639.779	4.75534	-2.94393	5.80604	-2.09324
2643.780	4.73032	-2.97590	5.79556	-2.08750
2647.782	4.72946	-3.00690	5.76799	-2.05138
2651.674	4.69098	-2.99486	5.73053	-2.03164
2655.779	4.64648	-2.95504	5.69268	-2.03076
2659.780	4.62471	-2.92037	5.72470	-2.02420
2663.780	4.56836	-2.90990	5.71866	-2.01909
2667.677	4.56168	-2.89520	5.74991	-1.99525
2671.779	4.55421	-2.91797	5.75674	-1.98599
2675.779	4.52523	-2.86318	5.75050	-1.95025
2679.780	4.48544	-2.88478	5.76416	-1.93294
2683.678	4.48710	-2.88841	5.75463	-1.91450
2687.780	4.56794	-2.89419	5.73084	-1.95076
2691.780	4.55056	-2.90629	5.79197	-2.06310
2695.764	4.54807	-3.12544	5.81339	-2.27939
2699.782	4.71789	-3.21671	5.88613	-2.31589
2703.781	5.26428	-3.56979	6.15882	-2.69876
2707.735	5.32838	-3.61812	6.61753	-2.98244
2711.781	5.67393	-3.98351	7.33220	-3.33494
2715.672	6.30833	-4.15564	7.78830	-3.42277
2719.780	6.31951	-4.23831	7.65127	-3.43409
2723.780	6.24869	-4.33942	7.82038	-3.57774
2727.734	6.29570	-4.38250	7.90014	-3.58669
2731.639	6.36846	-4.35822	7.93659	-3.66162
2735.778	6.38761	-4.40355	7.87153	-3.72809
2739.770	6.41043	-4.43394	7.96643	-3.77007
2743.780	6.45525	-4.48783	7.99094	-3.80336
2747.641	6.50322	-4.51369	8.04061	-3.84182
2751.782	6.50565	-4.54608	8.05377	-3.86533
2755.782	6.49886	-4.58169	8.06190	-3.86773
2759.781	6.46395	-4.59312	8.05020	-3.85907
2763.644	6.45476	-4.61197	8.07905	-3.90364
2767.780	6.46554	-4.65970	8.04665	-3.92285
2771.784	6.50121	-4.64338	8.04404	-3.92907
2775.779	6.50692	-4.67080	8.01382	-3.93818
2779.643	6.49999	-4.71231	8.01917	-3.95995
2783.779	6.50381	-4.78684	8.00199	-4.02445
2787.781	6.45187	-4.86289	7.97999	-4.02403
2791.781	6.43633	-4.85966	7.98943	-3.94711
2795.643	6.44309	-4.84959	8.03643	-3.91769
2799.654	6.41903	-4.85178	8.04356	-3.84784
2803.655	6.42420	-4.78663	8.08285	-3.90715
2807.656	6.35716	-4.77671	8.07102	-3.85657
2811.786	6.30470	-4.77047	8.05273	-3.80807
2815.656	6.24970	-4.77505	8.03295	-3.78261
2819.657	6.21281	-4.78645	8.11330	-3.69578
2823.657	6.20320	-4.73177	8.11693	-3.63487
2827.614	6.18127	-4.71575	8.13670	-3.56432
2831.653	6.21173	-4.66464	8.17417	-3.50474
2835.654	6.17867	-4.66557	8.17498	-3.48346
2839.654	6.17666	-4.67955	8.17342	-3.44649
2843.655	6.15733	-4.68200	8.12383	-3.48432
2847.657	6.13925	-4.71163	8.09632	-3.51233
2851.661	6.15478	-4.71370	8.07793	-3.45422
2855.655	6.23530	-4.68904	8.09180	-3.43135
2859.652	6.25767	-4.66548	8.12191	-3.46720
2863.657	6.28445	-4.61845	8.12649	-3.45577
2867.635	6.26066	-4.64050	8.10241	-3.49671
2871.613	6.28092	-4.63769	8.09839	-3.53927
2875.677	6.34057	-4.62708	8.06560	-3.56659
2879.653	6.40197	-4.62638	7.98189	-3.60578
2883.658	6.44601	-4.57296	7.92946	-3.66581
2887.657	6.53455	-4.55879	7.93386	-3.66910
2891.655	6.64459	-4.53971	7.90669	-3.68263
2895.656	6.61545	-4.53954	7.84318	-3.68356
2899.658	6.66136	-4.53997	7.79571	-3.70511
2903.656	6.63722	-4.51839	7.77739	-3.70449
2907.654	6.68768	-4.53061	7.78869	-3.71743
2911.644	6.75600	-4.47732	7.79515	-3.73497
2915.658	6.76936	-4.46390	7.85565	-3.74301
2919.657	6.75945	-4.42355	7.83804	-3.76273
2923.658	6.76434	-4.37613	7.88198	-3.77697
2927.656	6.75859	-4.33744	7.95748	-3.76378
2931.658	6.74834	-4.30370	8.00207	-3.79032
2935.654	6.73184	-4.30220	8.02234	-3.79782
2939.656	6.75999	-4.25658	8.10009	-3.82749
2943.655	6.77115	-4.24534	8.03261	-3.86617
2947.661	6.83577	-4.23699	8.06686	-3.88171
2951.630	6.88519	-4.21651	7.98851	-3.91942
2955.626	6.92388	-4.23776	7.97520	-3.93953
2959.659	6.94191	-4.23889	7.94051	-3.88573
2963.657	7.00013	-4.27509	7.95382	-3.79346
2967.659	7.06012	-4.30468	7.94681	-3.71952
2971.655	7.11389	-4.35103	7.96037	-3.71898
2975.660	7.17297	-4.40383	7.95572	-3.59910
2979.658	7.12496	-4.39431	7.95733	-3.58300
2983.650	7.13231	-4.45057	7.91015	-3.52413
2987.616	7.13226	-4.40768	7.96432	-3.55137
2991.640	7.07063	-4.41518	7.97967	-3.51149
2995.656	6.98030	-4.42101	8.02650	-3.48805
2999.659	6.88360	-4.42086	8.03764	-3.46390
3003.616	6.90507	-4.40418	8.03346	-3.48573
3007.656	6.74200	-4.37130	7.73380	-3.51251
3011.657	5.77939	-4.27359	6.22434	-3.42940
3015.660	4.13424	-4.16968	4.57682	-2.79317
3019.616	3.70977	-3.34722	3.71822	-2.31628
3023.616	3.14689	-2.56550	3.09230	-2.25909
3027.646	1.96333	-2.53916	2.67571	-1.77198
3031.661	1.67623	-2.28768	2.38321	-1.48741
3035.678	1.41010	-2.04037	2.27939	-1.17712
3039.659	1.36137	-2.07205	2.31366	-1.14491
3043.658	1.35100	-2.04385	2.27107	-1.29246
3047.658	1.27269	-2.04332	2.30184	-1.32797
3051.680	1.28378	-1.96862	2.30950	-1.29431
3055.659	1.25778	-1.95063	2.29421	-1.16929
3059.659	1.30293	-1.87975	2.25025	-1.16397
3063.660	1.25245	-1.84075	2.22555	-1.05403
3067.676	1.24463	-1.79449	2.18927	-1.02551
3071.659	1.23655	-1.74707	2.17653	-1.00770
3075.615	1.22697	-1.72548	2.18649	-1.00660
3079.658	1.24535	-1.71762	2.19663	-1.03233
3083.684	1.24741	-1.67664	2.19881	-1.05264
3087.660	1.24957	-1.66922	2.16976	-1.04675
3091.660	1.26577	-1.63542	2.15551	-1.03457
3095.657	1.28829	-1.64124	2.13108	-1.00852
3099.680	1.29722	-1.64489	2.11782	-0.99686
3103.660	1.23950	-1.63673	2.13185	-0.97965
3107.662	1.20832	-1.62374	2.12823	-0.99025
3111.658	1.18309	-1.64054	2.14820	-0.98478
3115.680	1.10554	-1.65990	2.17926	-0.96336
3119.648	1.04974	-1.69510	2.21303	-0.95815
3123.659	1.06542	-1.67662	2.31847	-0.91472
3127.614	1.00236	-1.69456	2.34376	-0.89916
3131.679	0.99176	-1.67982	2.37107	-0.86692
3135.660	0.98199	-1.71025	2.36453	-0.84908
3139.669	0.91894	-1.72195	2.35769	-0.83037
3143.659	0.89947	-1.73107	2.32424	-0.82118
3147.681	0.88225	-1.77546	2.30704	-0.81997
3151.658	0.84796	-1.79201	2.28539	-0.84337
3155.661	0.83808	-1.80016	2.23972	-0.88840
3159.660	0.78866	-1.80596	2.26926	-0.95543
3163.661	0.79538	-1.74683	2.27535	-0.96774
3167.656	0.76997	-1.73279	2.23563	-0.99822
3171.659	0.75687	-1.71324	2.21504	-1.02122
3175.660	0.78598	-1.70940	2.18684	-1.01735
3179.667	0.73866	-1.67298	2.17256	-1.02850
3183.659	0.74987	-1.68243	2.16287	-1.01912
3187.658	0.74327	-1.71160	2.18260	-0.98912
3191.660	0.76794	-1.69749	2.20156	-1.02106
3195.650	0.73784	-1.71828	2.21189	-0.99566
3199.642	0.75523	-1.71979	2.21212	-0.93675
3203.661	0.76799	-1.72706	2.20406	-0.90625
3207.659	0.74799	-1.72833	2.16979	-0.85230
3211.645	0.73833	-1.71878	2.13903	-0.82987
3215.659	0.72548	-1.73395	2.10857	-0.77375
3219.659	0.66330	-1.72107	2.10746	-0.72576
3223.661	0.58883	-1.69969	2.12429	-0.71113
3227.645	0.55808	-1.66311	2.13802	-0.68992
3231.661	0.58972	-1.65480	2.12290	-0.66840
3235.660	0.62044	-1.63953	2.12377	-0.63510
3239.662	0.59677	-1.62878	2.10758	-0.61646
3243.659	0.62759	-1.63600	2.09876	-0.59454
3247.660	0.67206	-1.64246	2.08845	-0.55877
3251.660	0.73943	-1.65249	2.06694	-0.52553
3255.661	0.77645	-1.70379	2.06850	-0.51428
3259.655	0.76082	-1.75050	2.05400	-0.51602
3263.618	0.79091	-1.79884	2.05752	-0.52483
3267.662	0.88078	-1.78304	2.05965	-0.52506
3271.664	0.88016	-1.79118	2.04064	-0.51843
3275.652	0.84245	-1.77908	2.01779	-0.54399
3279.664	0.79938	-1.75276	2.01077	-0.56299
3283.638	0.80575	-1.77523	1.99074	-0.60308
3287.660	0.71876	-1.72313	1.95743	-0.61553
3291.657	0.63245	-1.73456	1.98670	-0.61075
3295.661	0.63372	-1.74290	2.08272	-0.61166
3299.635	0.62049	-1.73049	2.16667	-0.59953
3303.660	0.63997	-1.67919	2.20666	-0.60922
3307.658	0.63260	-1.65189	2.22408	-0.61989
3311.662	0.62935	-1.67440	2.16850	-0.61326
3315.663	0.63516	-1.67150	2.09514	-0.59849
3319.665	0.51711	-1.49813	1.73532	-0.18524
3323.650	0.35030	0.01252	1.03201	0.43789
3327.617	-0.38181	1.41568	0.78047	1.57482
3331.660	-0.05966	1.39759	0.68789	2.42534
3335.662	-0.33752	1.87816	0.90106	2.45307
3339.660	-0.48669	2.33983	0.77039	2.67734
3343.662	-0.32508	2.26406	0.80486	2.75152
3347.662	-0.36722	2.37908	0.72394	2.74200
3351.664	-0.41906	2.31427	0.70521	2.75520
3355.665	-0.44569	2.31724	0.73223	2.72417
3359.660	-0.49679	2.24776	0.67101	2.80755
3363.661	-0.55702	2.43520	0.63206	2.88163
3367.633	-0.63898	2.46101	0.69399	2.93498
3371.667	-0.59885	2.48657	0.72317	2.91893
3375.662	-0.65608	2.48456	0.79337	2.91469
3379.663	-0.69327	2.50098	0.75434	2.92833
3383.663	-0.77657	2.42621	0.82970	2.92218
3387.660	-0.81124	2.43356	0.87079	2.95394
3391.620	-0.77139	2.32472	0.88004	3.00520
3395.662	-0.83493	2.26567	0.88719	3.06154
3399.664	-0.85672	2.20830	0.88671	3.06627
3403.655	-0.86039	2.20993	0.92505	3.01584
3407.645	-0.85910	2.16515	0.92368	2.95992
3411.658	-0.84168	2.16119	0.88505	2.95024
3415.664	-0.80667	2.08752	0.83334	3.03336
3419.659	-0.76010	2.05796	0.80665	3.04108
3423.662	-0.71171	2.04093	0.76526	3.07744
3427.664	-0.67052	2.05510	0.74340	3.11006
3431.663	-0.62027	2.02563	0.70960	3.15229
3435.666	-0.60138	2.07790	0.63851	3.12687
3439.664	-0.58255	2.10965	0.64583	3.10586
3443.665	-0.56913	2.12826	0.61129	3.09255
3447.666	-0.56406	2.16886	0.60071	3.09196
3451.660	-0.53381	2.16977	0.59868	3.09907
3455.667	-0.51676	2.14851	0.60975	3.05697
3459.664	-0.51374	2.15409	0.61349	3.04225
3463.664	-0.51922	2.17759	0.61389	3.02597
3467.655	-0.53672	2.18180	0.59235	3.00515
3471.663	-0.52868	2.17160	0.57357	2.95141
3475.663	-0.51808	2.18121	0.54491	2.91539
3479.664	-0.51441	2.15905	0.59394	2.92904
3483.654	-0.49408	2.15219	0.61977	2.97539
3487.665	-0.50510	2.16705	0.64382	3.02861
3491.642	-0.50575	2.15829	0.64106	3.10926
3495.659	-0.52766	2.16627	0.65516	3.12912
3499.559	-0.54292	2.17673	0.65099	3.21594
3503.665	-0.55079	2.19100	0.67104	3.27200
3507.663	-0.53684	2.19180	0.65198	3.29790
3511.620	-0.54262	2.19986	0.63054	3.31391
3515.563	-0.53121	2.20820	0.67218	3.34612
3519.668	-0.52654	2.21468	0.69806	3.37505
3523.668	-0.53302	2.22820	0.67196	3.40090
3527.621	-0.53892	2.22293	0.63079	3.41112
3531.657	-0.55649	2.21544	0.59920	3.39829
3535.654	-0.54500	2.21380	0.56007	3.37519
3539.665	-0.52394	2.20753	0.51962	3.37915
3543.667	-0.53525	2.20567	0.50240	3.36294
3547.562	-0.56573	2.19494	0.48148	3.34651
3551.665	-0.60411	2.19773	0.45855	3.33654
3555.668	-0.58235	2.16287	0.45969	3.33758
3559.666	-0.58925	2.12967	0.46646	3.38586
3563.573	-0.65397	2.11359	0.44237	3.42814
3567.664	-0.66322	2.05232	0.44810	3.43638
3571.665	-0.67843	1.99655	0.47438	3.41629
3575.621	-0.69948	1.95855	0.47721	3.43372
3579.549	-0.68580	1.92008	0.48907	3.41653
3583.666	-0.70853	1.91568	0.50992	3.42018
3587.665	-0.71099	1.91734	0.51111	3.39896
3591.667	-0.66925	1.94655	0.47902	3.41406
3595.561	-0.65064	1.93836	0.48545	3.37087
3599.663	-0.66218	1.94171	0.49123	3.36894
3603.665	-0.67191	1.92361	0.51098	3.27244
3607.665	-0.65243	1.93720	0.50478	3.19626
3611.562	-0.67109	1.96744	0.48989	3.09487
3615.647	-0.69077	2.00302	0.44698	3.01406
3619.661	-0.66181	2.08113	0.47140	2.90632
3623.665	-0.68843	2.11569	0.44572	2.81467
3627.535	-0.72878	2.14760	0.41023	2.88459
3631.664	-0.77952	2.17879	0.36144	2.86210
3635.665	-0.84704	2.20188	0.40303	2.79208
3639.666	-0.82327	2.18683	0.42361	2.87635
3643.564	-0.87493	2.20575	0.38884	2.84243
3647.666	-0.90254	2.21722	0.38142	2.83187
3651.667	-0.92683	2.24862	0.38417	2.92068
3655.669	-0.92351	2.27072	0.40710	2.88479
3659.524	-0.89689	2.24501	0.41534	2.93760
3663.667	-0.92458	2.20188	0.38812	2.94108
3667.666	-0.92371	2.17414	0.38956	2.94911
3671.665	-0.90996	2.19241	0.43676	2.92661
3675.529	-0.88882	2.19280	0.47031	2.90722
3679.663	-0.86260	2.15336	0.47309	2.86607
3683.664	-0.85505	2.16937	0.52374	2.83635
3687.665	-0.82367	2.17199	0.51778	2.80458
3691.528	-0.80766	2.18165	0.52384	2.81335
3695.666	-0.78697	2.16462	0.53371	2.77002
3699.643	-0.75243	2.15198	0.53858	2.74991
3703.668	-0.72784	2.14872	0.55036	2.71465
3707.626	-0.72491	2.15073	0.57967	2.70846
3711.668	-0.79660	2.10799	0.60156	2.72015
3715.665	-0.85587	2.08027	0.56054	2.70478
3719.667	-0.90890	2.07227	0.59218	2.74133
3723.530	-0.84821	2.03786	0.55446	2.75186
3727.642	-0.77821	2.03011	0.52453	2.73392
3731.667	-0.66508	2.04046	0.48244	2.76840
3735.668	-0.50939	2.05270	0.56188	2.73812
3739.528	-0.65588	2.07495	0.55089	2.72826
3743.656	-0.69645	2.06300	0.50180	2.73123
3747.665	-0.70114	2.08156	0.47952	2.77086
3751.665	-0.90443	2.10091	0.40713	2.77830
3755.626	-1.15545	2.16483	-0.29590	2.80515
3759.669	-1.85946	2.11510	-2.13960	2.82087
3763.670	-3.04682	2.07855	-2.08612	2.74415
3767.624	-3.37027	2.16410	-2.46724	2.66586
3771.565	-3.42965	2.07182	-2.68321	2.57713
3775.672	-3.56514	1.97995	-2.92099	2.47746
3779.672	-3.67959	1.95820	-3.02492	2.44280
3783.635	-3.76416	1.88861	-3.02930	2.39823
3787.529	-3.62973	1.87802	-2.85220	2.32359
3791.666	-3.61787	1.79592	-2.78203	2.28668
3795.664	-3.79238	1.86440	-2.84044	2.18851
3799.667	-3.85036	1.76756	-2.80895	2.14889
3803.527	-3.97526	1.69485	-2.94859	2.09725
3807.666	-4.00480	1.66571	-3.00173	2.04863
3811.668	-4.01104	1.60004	-2.98787	2.04184
3815.665	-4.14088	1.59750	-3.00631	2.03125
3819.528	-4.15902	1.62637	-2.91240	2.02086
3823.655	-4.18161	1.69585	-2.84405	1.97138
3827.625	-4.22940	1.73660	-2.75512	1.95740
3831.668	-4.21170	1.76950	-2.74977	1.96507
3835.530	-4.23396	1.78722	-2.71404	1.92166
3839.542	-4.22387	1.75070	-2.67070	1.93100
3843.543	-4.21148	1.74315	-2.58994	1.95077
3847.544	-4.15626	1.86002	-2.56998	1.92278
3851.543	-4.21276	1.83906	-2.51804	1.93798
3855.543	-4.19119	1.87964	-2.44829	1.92370
3859.544	-4.11480	1.91678	-2.50873	1.95816
3863.542	-4.06103	1.94548	-2.52840	1.98292
3867.535	-4.10639	1.88927	-2.54402	2.02973
3871.520	-4.06335	1.82985	-2.67786	2.04298
3875.545	-4.03537	1.80763	-2.69477	2.04907
3879.501	-4.05977	1.76486	-2.63955	2.11922
3883.537	-4.01860	1.78335	-2.75014	2.10099
3887.542	-4.02838	1.75106	-2.72533	2.09037
3891.544	-4.10908	1.75561	-2.72996	2.11485
3895.545	-4.07922	1.75290	-2.70025	2.12519
3899.542	-4.07006	1.76038	-2.70750	2.13760
3903.543	-4.05883	1.75213	-2.63752	2.13283
3907.544	-4.02413	1.78982	-2.68512	2.12242
3911.530	-3.94631	1.83700	-2.68598	2.10006
3915.544	-3.96350	1.84223	-2.68353	2.13972
3919.543	-3.97743	1.88398	-2.71934	2.18422
3923.543	-4.02302	1.87820	-2.74779	2.18090
3927.499	-3.94713	1.86728	-2.75363	2.20153
3931.543	-3.99521	1.90778	-2.77631	2.24434
3935.545	-3.95256	1.89292	-2.84101	2.25956
3939.543	-3.89661	1.87289	-2.88195	2.25727
3943.544	-3.89056	1.90176	-2.94131	2.24972
3947.503	-3.74513	1.93024	-2.99198	2.24674
3951.543	-3.78373	1.92899	-3.02326	2.24568
3955.535	-3.77555	1.90528	-3.10594	2.24613
3959.547	-3.66800	1.92293	-3.14481	2.21587
3963.502	-3.66619	1.84564	-3.17042	2.18480
3967.546	-3.64009	1.85794	-3.11663	2.16222
3971.547	-3.67623	1.79410	-3.09443	2.18476
3975.546	-3.79670	1.74978	-3.10287	2.16173
3979.502	-3.61251	1.79298	-3.08317	2.17856
3983.507	-3.71538	1.78639	-3.08812	2.12724
3987.549	-3.68307	1.76356	-3.08859	2.13073
3991.545	-3.79065	1.74360	-3.08352	2.16308
3995.528	-3.84278	1.73079	-2.99341	2.14988
3999.546	-3.95342	1.70453	-2.97257	2.15423
4003.544	-3.86170	1.80176	-2.96401	2.16768
4007.545	-3.97489	1.75125	-3.21500	2.25647
4011.504	-4.78257	1.89202	-4.25233	2.41078
4015.545	-5.72099	1.90646	-5.78811	2.64145
4019.546	-6.89375	2.21018	-6.35013	2.72848
4023.546	-7.20319	2.54685	-6.83381	2.67479
4027.505	-7.03071	2.22500	-6.74410	2.63894
4031.546	-7.45311	2.31827	-6.88859	2.77038
4035.538	-7.72052	2.31440	-7.07058	2.85526
4039.536	-7.90932	2.38684	-7.27865	2.79944
4043.535	-7.78477	2.37837	-7.14871	2.77747
4047.542	-7.52649	2.32209	-7.30627	2.81673
4051.545	-7.83707	2.40726	-7.20704	2.74585
4055.547	-7.87501	2.45331	-7.37868	2.74251
4059.537	-7.90964	2.46807	-7.34602	2.67379
4063.545	-7.85602	2.42775	-7.37577	2.59113
4067.545	-7.94370	2.39667	-7.41653	2.57547
4071.547	-8.03857	2.42824	-7.38478	2.49540
4075.539	-7.98055	2.45273	-7.38185	2.46480
4079.501	-7.90964	2.49536	-7.32993	2.42621
4083.546	-7.95351	2.57234	-7.22480	2.43116
4087.546	-8.00997	2.69606	-7.15359	2.41995
4091.505	-8.04008	2.78939	-7.14563	2.40788
4095.545	-8.02360	2.82252	-7.11354	2.42828
4099.547	-8.02976	2.89461	-7.06760	2.43891
4103.545	-8.11617	3.00718	-7.05234	2.41416
4107.570	-8.02857	2.99114	-7.01890	2.42834
4111.547	-8.02786	3.01142	-7.00607	2.44022
4115.548	-8.03835	3.04429	-7.04394	2.45437
4119.532	-8.06083	3.05747	-7.08759	2.46987
4123.543	-8.07256	3.13698	-7.14863	2.49642
4127.546	-8.04088	3.17680	-7.17123	2.50811
4131.548	-8.03550	3.14583	-7.24104	2.52073
4135.547	-8.04382	3.15651	-7.30998	2.53292
4139.545	-8.02460	3.16034	-7.34072	2.53105
4143.545	-8.03793	3.16504	-7.38310	2.52719
4147.545	-7.98547	3.14808	-7.39942	2.53642
4151.546	-8.00185	3.16994	-7.43322	2.55331
4155.544	-8.00830	3.19123	-7.46121	2.56525
4159.550	-7.99593	3.20624	-7.48829	2.57048
4163.511	-7.97352	3.19194	-7.49154	2.58902
4167.548	-7.96933	3.17134	-7.50064	2.58803
4171.523	-7.95580	3.18658	-7.50988	2.58500
4175.547	-7.92678	3.19559	-7.52486	2.59782
4179.546	-7.90650	3.18942	-7.50891	2.59487
4183.553	-7.91981	3.15774	-7.50771	2.63657
4187.566	-7.92675	3.15287	-7.48639	2.62615
4191.548	-7.95806	3.14817	-7.49520	2.65277
4195.547	-7.98432	3.10616	-7.50066	2.63450
4199.547	-7.99218	3.10892	-7.48729	2.64311
4203.505	-7.98311	3.02667	-7.46158	2.62269
4207.502	-7.99357	3.00276	-7.43713	2.60127
4211.547	-8.02932	2.92417	-7.45047	2.62115
4215.546	-8.09881	2.74874	-7.58464	2.67248
4219.543	-9.41946	2.68077	-8.38474	2.70631
4223.549	-11.10608	2.68559	-10.27936	2.65577
4227.504	-11.22222	2.71112	-10.89884	2.60622
4231.549	-11.41290	2.66095	-11.16891	2.61437
4235.569	-11.80535	2.62736	-11.24220	2.57634
4239.549	-11.70161	2.58275	-10.90561	2.65793
4243.546	-11.77234	2.56043	-10.99126	2.64010
4247.539	-11.72146	2.56542	-11.02794	2.63091
4251.545	-11.68914	2.46865	-11.00910	2.68443
4255.548	-11.73583	2.41330	-11.06253	2.66579
4259.551	-11.82835	2.47565	-11.05091	2.63886
4263.547	-11.90992	2.49474	-11.04967	2.58637
4267.506	-11.98220	2.52035	-10.99547	2.58709
4271.547	-11.99586	2.49388	-10.89240	2.43215
4275.550	-12.06643	2.46099	-10.80702	2.43939
4279.548	-12.03634	2.46582	-10.74408	2.33974
4283.541	-12.10777	2.46539	-10.70265	2.32514
4287.525	-12.08409	2.48343	-10.65618	2.27639
4291.553	-12.15991	2.46202	-10.61337	2.31482
4295.550	-12.16985	2.48336	-10.54766	2.29359
4299.544	-12.21288	2.52744	-10.52602	2.29853
4303.545	-12.19496	2.54688	-10.51902	2.32019
4307.550	-12.17950	2.52987	-10.49291	2.29504
4311.557	-12.18040	2.51543	-10.49054	2.29152
4315.546	-12.17727	2.54058	-10.49044	2.33892
4319.548	-12.16245	2.54608	-10.51338	2.36243
4323.550	-12.17935	2.53491	-10.52218	2.39648
4327.504	-12.12234	2.52643	-10.53917	2.40981
4331.544	-12.16154	2.50371	-10.55661	2.43250
4335.549	-12.14641	2.50368	-10.56898	2.43782
4339.550	-12.14793	2.50044	-10.58224	2.45805
4343.548	-12.17651	2.52689	-10.56927	2.46405
4347.547	-12.20776	2.54719	-10.54087	2.41999
4351.547	-12.22777	2.60103	-10.51499	2.42503
4355.550	-12.18263	2.58901	-10.49397	2.40417
4359.548	-12.19195	2.63243	-10.47885	2.38089
4363.545	-12.17376	2.67742	-10.43138	2.33480
4367.548	-12.11529	2.74923	-10.38989	2.33699
4371.506	-12.12487	2.81772	-10.34905	2.32327
4375.549	-12.06377	2.84363	-10.39393	2.37864
4379.546	-11.92797	2.88839	-10.41930	2.39826
4383.550	-11.92384	2.95665	-10.44693	2.53932
4387.549	-11.92645	2.89476	-10.50359	2.47558
4391.550	-11.84565	2.86362	-10.53135	2.52575
4395.553	-11.80252	2.82382	-10.52374	2.54069
4399.549	-11.74549	2.81594	-10.59913	2.56430
4403.552	-11.71701	2.81652	-10.56522	2.61241
4407.550	-11.69452	2.82430	-10.60224	2.64354
4411.530	-11.79672	2.81735	-10.65985	2.63103
4415.549	-11.76692	2.80589	-10.67241	2.65724
4419.552	-11.72232	2.83938	-10.68132	2.64412
4423.551	-11.76780	2.83078	-10.59721	2.64495
4427.541	-11.84684	2.81056	-10.56891	2.62289
4431.549	-11.81679	2.81851	-10.61301	2.63280
4435.553	-11.85932	2.83051	-10.56183	2.67111
4439.548	-11.96736	2.96452	-10.55637	2.68120
4443.554	-12.04467	3.12286	-10.52245	2.80757
4447.554	-15.40724	6.29120	-10.78297	5.70673
4451.551	-14.26100	5.94649	-15.08562	9.09789
4455.541	-11.94798	3.19768	-11.52369	8.67119
4459.553	NaN	NaN	-10.71255	5.98694
4463.550	NaN	NaN	NaN	NaN
4467.548	NaN	NaN	NaN	NaN
4471.507	NaN	NaN	NaN	NaN
4475.550	NaN	NaN	NaN	NaN
4479.550	NaN	NaN	NaN	NaN
4483.547	NaN	NaN	NaN	NaN
4487.506	NaN	NaN	NaN	NaN
4491.551	NaN	NaN	NaN	NaN
4495.523	NaN	NaN	NaN	NaN
4499.551	NaN	NaN	NaN	NaN
4503.506	NaN	NaN	NaN	NaN
4507.549	NaN	NaN	NaN	NaN
4511.551	NaN	NaN	NaN	NaN
4515.549	NaN	NaN	NaN	NaN
4519.549	NaN	NaN	NaN	NaN
4523.551	NaN	NaN	NaN	NaN
4527.551	NaN	NaN	NaN	NaN
4531.550	NaN	NaN	NaN	NaN
4535.509	NaN	NaN	NaN	NaN
4539.571	NaN	NaN	NaN	NaN
4543.551	NaN	NaN	NaN	NaN
4547.551	NaN	NaN	NaN	NaN
4551.506	NaN	NaN	NaN	NaN
4555.553	NaN	NaN	NaN	NaN
4559.553	NaN	NaN	NaN	NaN
4563.552	NaN	NaN	NaN	NaN
4567.519	NaN	NaN	NaN	NaN
4571.549	NaN	NaN	-11.56131	10.10271
4575.550	-12.72452	6.03270	-12.44597	9.87324
4579.516	-12.58959	4.70234	-11.72117	6.01262
4583.447	-12.62733	2.87644	-11.88720	6.08759
4587.554	-15.91004	5.47037	-11.52588	5.45003
4591.552	-15.40168	5.10591	-12.09258	5.88582
4595.551	-6.32103	4.72210	-12.20809	5.43224
4599.555	-15.68849	4.55996	-12.42224	4.88180
4603.553	-15.13929	3.26752	-11.75929	2.89595
4607.553	-15.29106	3.34012	-12.04744	2.65805
4611.552	-14.65711	2.85485	-11.49927	2.42460
4615.557	-15.01860	2.94075	-12.32265	2.47882
4619.554	-15.26469	3.65983	-12.08058	2.53641
4623.554	-13.46012	3.28935	-11.83569	2.50969
4627.552	-13.91519	3.07097	-11.65030	2.64778
4631.555	-13.56378	2.88046	-11.73181	2.59281
4635.554	-13.57506	2.68809	-11.58055	2.51920
4639.550	-13.20237	2.49220	-11.41860	2.42695
4643.552	-12.25749	2.31019	-11.05820	2.21767
4647.556	-12.50491	2.37562	-11.11310	2.38172
4651.550	-12.38419	2.64414	-10.98375	2.43566
4655.543	-12.22187	2.60142	-11.00661	2.48190
4659.546	-12.31424	2.34089	-10.83891	2.65390
4663.455	-12.49869	2.28769	-10.93925	2.63265
4667.550	-12.31080	2.28721	-10.93832	2.60639
4671.553	-12.32935	2.15850	-11.03262	2.60341
4675.552	-12.17902	2.17724	-10.95636	2.43795
4679.445	-11.97325	2.07873	-10.85507	2.39530
4683.552	-11.90093	2.15747	-10.91854	2.44031
4687.554	-11.92453	2.20448	-10.88185	2.48533
4691.552	-11.78347	2.26372	-10.93272	2.61805
4695.447	-11.85259	2.20320	-10.90983	2.56147
4699.552	-11.84653	2.18435	-10.85397	2.54436
4703.510	-11.81106	2.14473	-10.88286	2.50276
4707.555	-11.79496	2.12275	-10.81437	2.49115
4711.556	-11.76878	2.09586	-10.71025	2.44939
4715.552	-11.72767	2.12030	-10.63185	2.38300
4719.557	-11.82207	2.09094	-10.58958	2.39511
4723.552	-11.90262	2.06820	-10.56833	2.40527
4727.558	-12.05592	2.04919	-10.52976	2.43279
4731.554	-12.03332	1.99674	-10.51628	2.43389
4735.556	-12.09237	1.93832	-10.48413	2.40724
4739.553	-12.20849	1.97944	-10.48814	2.42097
4743.448	-12.13752	1.98048	-10.51542	2.41917
4747.543	-12.21660	1.96551	-10.51842	2.46190
4751.557	-12.20854	2.00979	-10.54531	2.51574
4755.556	-12.24962	2.04176	-10.57757	2.51753
4759.559	-12.18946	2.04169	-10.59208	2.54330
4763.558	-12.20179	1.95703	-10.62056	2.54384
4767.554	-12.17281	1.98493	-10.61202	2.52061
4771.554	-12.16347	2.06307	-10.55315	2.57022
4775.556	-12.17696	2.18131	-10.52732	2.59952
4779.555	-12.11289	2.28627	-10.53447	2.45538
4783.555	-12.08955	2.18960	-10.50354	2.44251
4787.521	-12.07808	2.16523	-10.49575	2.50537
4791.430	-12.02200	2.13209	-10.45106	2.51678
4795.553	-12.02029	2.11233	-10.39227	2.47063
4799.554	-12.07265	2.11842	-10.34160	2.59387
4803.555	-12.06226	2.12780	-10.28210	2.58899
4807.557	-12.09560	2.21742	-10.22675	2.51244
4811.552	-12.03653	2.17627	-10.28126	2.52709
4815.556	-12.05077	2.18773	-10.37506	2.55054
4819.551	-12.02508	2.15959	-10.34117	2.54506
4823.453	-12.02138	2.04977	-10.33882	2.56965
4827.533	-12.05998	2.06059	-10.34285	2.60591
4831.514	-12.11816	2.13009	-10.37885	2.57227
4835.556	-12.19688	2.16487	-10.40312	2.54443
4839.559	-12.16807	2.12591	-10.54907	2.52483
4843.554	-12.16136	2.24019	-10.50230	2.49007
4847.551	-12.20397	2.18606	-10.58881	2.46082
4851.560	-12.15735	2.10981	-10.63974	2.49464
4855.559	-12.13735	2.17807	-10.67253	2.52296
4859.555	-12.14323	2.16221	-10.63631	2.51948
4863.559	-12.11790	2.19106	-10.62591	2.48849
4867.550	-12.14644	2.24819	-10.61437	2.46018
4871.514	-12.11344	2.21939	-10.64786	2.37169
4875.400	-12.09949	2.19420	-10.62408	2.32974
4879.430	-12.04956	2.09200	-10.64990	2.28495
4883.431	-12.05302	2.05712	-10.68420	2.25117
4887.427	-12.06465	2.05349	-10.69625	2.28674
4891.429	-12.08860	2.07583	-10.62356	2.29860
4895.433	-12.09977	2.11575	-10.64657	2.29226
4899.430	-12.12231	2.14226	-10.60759	2.20315
4903.389	-12.10521	2.15014	-10.61639	2.24269
4907.431	-12.12912	2.15676	-10.59649	2.34255
4911.432	-12.06779	2.10530	-10.64192	2.43965
4915.414	-12.04903	2.13360	-10.58709	2.52098
4919.416	-12.08167	2.12745	-10.35191	2.48503
4923.431	-11.98966	2.09628	-10.31979	2.61167
4927.431	-11.99391	2.15300	-10.31828	2.70462
4931.432	-12.05881	2.19531	-10.16658	2.72795
4935.418	-12.00469	2.21111	-10.14405	2.75294
4939.431	-11.97128	2.20760	-10.14739	2.71040
4943.431	-11.90906	2.20038	-10.27057	2.79705
4947.429	-11.92759	2.20706	-10.23476	2.75872
4951.430	-11.86835	2.17847	-10.31809	2.68994
4955.431	-11.96059	2.17288	-10.34948	2.66252
4959.428	-11.88927	2.16556	-10.33099	2.58527
4963.437	-12.03209	2.17880	-10.33300	2.59607
4967.423	-12.06214	2.18247	-10.34213	2.59387
4971.434	-12.11194	2.23696	-10.35714	2.57477
4975.431	-12.00077	2.26036	-10.42267	2.54540
4979.433	-11.95180	2.34621	-10.39820	2.53757
4983.399	-12.02373	2.31899	-10.41611	2.58869
4987.434	-11.90913	2.32213	-10.38997	2.53944
4991.437	-11.94733	2.18883	-10.37160	2.50636
4995.433	-11.99856	2.22220	-10.33608	2.55871
4999.430	-12.06472	2.20955	-10.34179	2.54988
5003.432	-12.04227	2.20777	-10.35207	2.54436
5007.430	-12.04683	2.22018	-10.35656	2.59538
5011.431	-11.93850	2.27639	-10.39667	2.56815
5015.455	-11.93035	2.30224	-10.45305	2.52061
5019.433	-12.10587	2.27932	-10.67344	2.55127
5023.431	-13.07573	2.45036	-10.75342	2.77793
5027.432	-13.76973	2.84588	-11.86350	4.09233
5031.452	-14.11538	3.36681	-11.80775	4.16921
5035.434	-13.98230	3.41256	-11.79166	4.19721
5039.420	-14.03874	3.76144	-11.35730	4.24441
5043.433	-13.79845	3.57801	-11.64835	3.99865
5047.430	-13.61014	3.56104	-11.77753	4.12471
5051.433	-13.68926	3.61589	-11.91842	3.60530
5055.432	-13.80594	3.78255	-11.86350	3.57940
5059.431	-13.82693	3.82739	-11.88701	3.58019
5063.452	-13.86217	3.89147	-11.98268	3.72810
5067.435	-13.81909	3.89483	-12.03054	3.67328
5071.431	-13.76839	3.93651	-12.05366	3.59224
5075.432	-13.70793	3.88552	-12.07334	3.64842
5079.454	-13.67157	3.90348	-12.18981	3.66814
5083.389	-13.65038	3.85426	-12.21807	3.54138
5087.435	-13.55414	3.86354	-12.25242	3.58330
5091.432	-13.56624	3.86957	-12.31912	3.51889
5095.451	-13.44324	3.89071	-12.35782	3.58600
5099.434	-13.51342	3.87664	-12.40162	3.60822
5103.442	-13.50652	3.85753	-12.40969	3.69691
5107.432	-13.51750	3.86341	-12.43902	3.74794
5111.456	-13.56160	3.86888	-12.41234	3.75316
5115.433	-13.57743	3.90089	-12.35171	3.81558
5119.439	-13.54692	3.80837	-12.26495	3.87232
5123.414	-13.50485	3.73730	-12.23666	3.93734
5127.454	-13.48765	3.76250	-12.22936	3.97489
5131.435	-13.51581	3.82522	-12.17485	4.01262
5135.435	-13.48317	3.78244	-12.13657	4.01317
5139.390	-13.51506	3.77970	-12.12582	4.11348
5143.453	-13.51691	3.60251	-12.10967	4.09373
5147.425	-13.52142	3.62470	-12.09377	4.00822
5151.432	-13.52278	3.66867	-12.04650	3.93703
5155.432	-13.52466	3.65815	-12.07331	4.03172
5159.454	-13.51138	3.59362	-12.08525	3.99587
5163.439	-13.49967	3.66580	-12.12478	3.88851
5167.433	-13.55635	3.70866	-12.12535	3.79456
5171.435	-13.58435	3.72886	-12.09681	3.75761
5175.424	-13.54926	3.71219	-12.11453	3.70828
5179.435	-13.61537	3.73025	-12.09911	3.63442
5183.435	-13.66822	3.75572	-12.12357	3.57328
5187.432	-13.68811	3.80156	-12.13379	3.57769
5191.452	-13.70352	3.88240	-12.16733	3.57182
5195.436	-13.74257	3.96231	-12.20046	3.54912
5199.435	-13.72435	3.91313	-12.19574	3.67836
5203.436	-13.67501	3.81403	-12.21414	3.64284
5207.439	-13.67747	3.75469	-12.15858	3.69182
5211.404	-13.65959	3.79447	-12.17485	3.79030
5215.432	-13.62132	3.70279	-12.20050	3.78989
5219.431	-13.58130	3.81039	-12.19382	3.78118
5223.425	-13.58756	3.87226	-12.17577	3.83464
5227.388	-13.40321	3.76290	-12.06399	3.83822
5231.435	-12.72955	3.56133	-11.84549	3.74473
5235.436	-11.86923	3.44114	-10.08147	3.64267
5239.427	-11.24569	3.16874	-9.17154	3.27195
5243.437	-10.93387	3.02146	-9.55784	3.43558
5247.436	-10.68894	2.68998	-9.30140	3.36248
5251.423	-10.73509	2.62477	-9.10364	3.37421
5255.456	-10.79456	2.49205	-9.02973	3.27017
5259.434	-10.86069	2.41031	-9.08580	3.15900
5263.390	-10.90899	2.42222	-9.11890	3.14335
5267.437	-11.04300	2.44498	-9.09418	3.07181
5271.453	-10.97286	2.41829	-9.18364	3.02862
5275.435	-10.86814	2.45207	-9.13294	3.00995
5279.426	-10.86955	2.45944	-9.08307	2.97285
5283.435	-10.87723	2.48366	-9.13456	3.01059
5287.438	-10.88472	2.44919	-9.06017	2.99372
5291.404	-10.82821	2.47786	-9.06412	2.98967
5295.436	-10.90966	2.52036	-9.07467	2.97916
5299.435	-10.89659	2.55437	-9.07457	2.96257
5303.431	-10.89078	2.58012	-9.05889	2.97582
5307.436	-10.89958	2.58213	-9.04994	2.98859
5311.435	-10.91081	2.59475	-9.04919	2.96398
5315.435	-10.88393	2.60845	-9.06039	2.94492
5319.439	-10.92763	2.59297	-9.08573	2.92597
5323.436	-10.95059	2.60392	-9.13136	2.93504
5327.390	-10.91976	2.63893	-9.16271	2.95178
5331.389	-10.89362	2.57739	-9.19998	2.99336
5335.392	-10.83762	2.53542	-9.31226	2.95200
5339.433	-10.84252	2.54064	-9.39752	2.93265
5343.436	-10.82806	2.51830	-9.51573	2.94308
5347.404	-10.80797	2.51162	-9.59595	2.85979
5351.434	-10.77042	2.62008	-9.58084	2.77307
5355.436	-10.71221	2.66015	-9.64219	2.79033
5359.436	-10.66419	2.74515	-9.66156	2.81652
5363.436	-10.68832	2.60342	-9.61795	2.77623
5367.436	-10.75483	2.60309	-9.50950	2.75401
5371.392	-10.74657	2.65045	-9.39996	2.72906
5375.427	-10.79523	2.55163	-9.32202	2.74100
5379.436	-10.88798	2.65431	-9.18047	2.78906
5383.432	-10.91353	2.67631	-9.06487	2.84695
5387.437	-10.90430	2.69867	-9.11198	2.99992
5391.393	-10.91514	2.72531	-9.13417	3.02273
5395.437	-10.92980	2.72895	-9.20596	3.00040
5399.440	-10.92203	2.73732	-9.41380	2.95297
5403.436	-10.94425	2.66299	-9.57597	3.01206
5407.441	-10.93705	2.69830	-9.71659	2.97932
5411.437	-10.90827	2.73304	-9.61636	2.99609
5415.417	-10.84887	2.77629	-9.71143	2.98030
5419.446	-10.81111	2.77674	-9.77977	2.89970
5423.436	-10.78233	2.77520	-9.84510	2.86247
5427.391	-10.76355	2.82140	-9.91156	2.83271
5431.434	-10.69954	2.83707	-9.94847	2.79186
5435.436	-10.68152	2.87670	-9.96713	2.74394
5439.437	-10.62996	2.88389	-9.98066	2.72869
5443.434	-10.62720	2.86179	-9.97910	2.72094
5447.396	-10.61967	2.90267	-9.96499	2.70953
5451.436	-10.64127	2.85435	-9.95083	2.71856
5455.439	-10.64990	2.84770	-9.96843	2.75092
5459.438	-10.68573	2.82953	-9.94065	2.78375
5463.397	-10.68379	2.82419	-9.93393	2.87332
5467.440	-10.71087	2.83919	-9.92649	2.95005
5471.439	-10.69537	2.78533	-9.80925	2.95442
5475.437	-10.75129	2.76382	-9.75263	2.99993
5479.396	-10.78645	2.71430	-9.68585	3.05759
5483.439	-10.82600	2.74399	-9.64519	3.11206
5487.436	-10.83618	2.74560	-9.45901	3.15142
5491.437	-10.84726	2.75804	-9.46908	3.28058
5495.398	-10.87984	2.78068	-9.43221	3.42956
5499.439	-10.87757	2.85215	-9.42745	3.28582
5503.436	-10.83821	2.88057	-9.41530	3.32837
5507.439	-10.86275	2.95725	-9.48497	3.25468
5511.398	-10.84915	2.96863	-9.50349	3.25969
5515.436	-10.83400	3.08725	-9.53533	3.18536
5519.441	-10.80512	3.07047	-9.54631	3.18827
5523.439	-10.78949	3.09652	-9.53504	3.17674
5527.404	-10.77684	3.06389	-9.54843	3.14852
5531.438	-10.81135	3.06833	-9.69677	3.03727
5535.437	-10.79741	3.05455	-9.74979	2.98371
5539.437	-10.78934	3.03789	-9.75844	2.98444
5543.441	-10.79598	2.99637	-9.76486	3.01635
5547.394	-10.82464	3.00723	-9.75996	3.04854
5551.438	-10.73377	2.98157	-9.72235	3.07538
5555.439	-10.72057	2.93858	-9.70716	3.19547
5559.441	-10.76994	2.91095	-9.64212	3.14533
5563.440	-10.74309	2.90860	-9.59296	3.13670
5567.442	-10.83338	2.92930	-9.57071	3.11394
5571.438	-10.79995	2.93048	-9.65505	3.14959
5575.442	-11.09485	3.07919	-9.63867	3.19856
5579.393	-5.54789	2.99698	-9.35107	3.41756
5583.433	-10.85409	3.07873	-3.31702	5.05857
5587.439	-10.92937	7.46374	-13.42068	8.16617
5591.442	NaN	NaN	-10.18974	9.13916
5595.438	NaN	NaN	NaN	NaN
5599.439	NaN	NaN	NaN	NaN
5603.440	NaN	NaN	NaN	NaN
5607.439	NaN	NaN	NaN	NaN
5611.436	NaN	NaN	NaN	NaN
5615.394	NaN	NaN	NaN	NaN
5619.441	NaN	NaN	NaN	NaN
5623.411	NaN	NaN	NaN	NaN
5627.440	NaN	NaN	NaN	NaN
5631.397	NaN	NaN	NaN	NaN
5635.439	NaN	NaN	NaN	NaN
5639.437	NaN	NaN	NaN	NaN
5643.338	NaN	NaN	NaN	NaN
5647.394	NaN	NaN	NaN	NaN
5651.438	NaN	NaN	NaN	NaN
5655.439	NaN	NaN	NaN	NaN
5659.437	NaN	NaN	NaN	NaN
5663.445	-12.09346	8.31749	-12.83776	6.89825
5667.444	-12.10229	5.30915	-11.85345	5.07199
5671.442	-12.12065	3.87805	-12.30322	6.88678
5675.437	-7.38456	1.21071	-12.86244	7.56943
5679.437	-15.58863	4.23827	-12.32499	5.74622
5683.396	-15.70777	4.81031	-12.14731	3.70129
5687.444	-15.98154	4.55777	-12.44609	3.26034
5691.440	-15.66714	4.49098	-12.01806	3.00759
5695.437	-15.02151	3.69665	-12.94966	2.86847
5699.397	-13.55485	3.46051	-11.86590	2.19158
5703.445	-14.63651	2.71370	-11.60335	1.92927
5707.411	-13.86680	2.77309	-11.64425	1.93752
5711.439	-12.86253	2.68743	-11.73057	2.19771
5715.437	-13.15666	2.54449	-11.59422	2.38794
5719.338	-12.44543	2.55688	-11.45341	2.34968
5723.440	-11.99189	2.50959	-11.46475	2.46761
5727.440	-11.93484	2.50846	-11.28178	2.39335
5731.442	-11.93931	2.52885	-11.19939	2.39201
5735.442	-11.92569	2.53027	-11.11334	2.45140
5739.439	-12.01597	2.49437	-11.03874	2.36285
5743.439	-12.00946	2.46209	-10.96672	2.52777
5747.424	-12.05034	2.49689	-11.04730	2.62838
5751.334	-12.00298	2.51363	-10.93839	2.71173
5755.442	-11.94503	2.56219	-10.88152	2.73645
5759.441	-11.93624	2.60194	-10.77835	2.78206
5763.438	-11.91579	2.62213	-10.75634	2.83416
5767.343	-11.94629	2.69847	-10.69400	2.78178
5771.440	-11.96855	2.79683	-10.69127	2.80751
5775.438	-11.95950	2.77178	-10.68619	2.79472
5779.439	-11.98486	2.81621	-10.64978	2.79671
5783.399	-11.98130	2.82042	-10.64722	2.81354
5787.433	-11.94118	2.83822	-10.61857	2.79093
5791.438	-11.91795	2.82331	-10.57474	2.77553
5795.442	-11.90074	2.82683	-10.55260	2.75104
5799.301	-11.88639	2.80845	-10.55819	2.72360
5803.441	-11.84708	2.77253	-10.62593	2.75416
5807.440	-11.81658	2.75379	-10.57694	2.72058
5811.441	-11.78569	2.72039	-10.57618	2.78700
5815.304	-11.78595	2.68583	-10.63607	2.82322
5819.442	-11.79318	2.68816	-10.62360	2.81824
5823.445	-11.77211	2.64708	-10.65963	2.79818
5827.400	-11.73642	2.63870	-10.67770	2.79197
5831.340	-11.74168	2.62219	-10.68765	2.77422
5835.444	-11.75786	2.64316	-10.70833	2.76414
5839.438	-11.77175	2.62819	-10.69652	2.56682
5843.443	-11.81301	2.66792	-10.70371	2.57709
5847.335	-11.90376	2.67155	-10.68240	2.54951
5851.443	-11.86609	2.68868	-10.77339	2.43896
5855.441	-11.83529	2.67896	-10.91674	2.45421
5859.439	-11.81165	2.66167	-10.87410	2.42582
5863.445	-11.88252	2.64191	-10.96313	2.44864
5867.455	-11.84765	2.66074	-10.98863	2.41960
5871.435	-11.88259	2.62975	-11.00314	2.44429
5875.428	-11.88801	2.58828	-11.03339	2.44338
5879.336	-11.94142	2.50935	-11.07365	2.44307
5883.444	-11.94256	2.45418	-11.07766	2.51211
5887.442	-11.93489	2.34664	-11.11707	2.54297
5891.399	-11.90108	2.34332	-11.14811	2.57506
5895.335	-11.97439	2.29905	-11.12799	2.61016
5899.443	-11.98942	2.24961	-11.10252	2.60214
5903.441	-12.00440	2.19104	-11.11088	2.62082
5907.317	-11.99464	2.18134	-11.06973	2.59537
5911.340	-12.09655	2.19007	-11.07302	2.59359
5915.322	-12.12155	2.14853	-11.04814	2.53922
5919.294	-12.16230	2.16892	-11.02701	2.49388
5923.318	-12.13792	2.18287	-10.96574	2.44360
5927.442	-12.15528	2.20572	-10.96311	2.40514
5931.285	-12.14701	2.25653	-10.92854	2.37785
5935.319	-12.14641	2.27468	-10.93155	2.33693
5939.319	-12.16999	2.32939	-10.90140	2.31515
5943.342	-12.19541	2.43243	-10.90540	2.32498
5947.322	-12.20207	2.44473	-10.89255	2.31678
5951.318	-12.26787	2.51426	-10.93550	2.33094
5955.321	-12.15495	2.49882	-10.86598	2.34537
5959.337	-11.91474	2.56633	-10.70323	2.48817
5963.291	-10.62358	2.50364	-9.23183	2.38660
5967.274	-8.39647	2.46526	-8.75642	2.35778
5971.320	-8.26164	2.37443	-8.32733	2.35646
5975.337	-8.30619	2.21275	-8.01238	2.39555
5979.322	-8.67502	2.06626	-7.67055	2.41023
5983.318	-8.60203	1.90897	-7.32954	2.41049
5987.317	-8.59371	1.82379	-7.17087	2.41248
5991.338	-8.74004	1.77197	-7.20262	2.38410
5995.319	-8.79254	1.72172	-7.18066	2.37460
5999.320	-8.73194	1.58060	-7.25174	2.40149
6003.288	-8.74275	1.56590	-7.20438	2.34425
6007.286	-8.69610	1.47884	-7.22365	2.39499
6011.275	-8.70621	1.43785	-7.19608	2.46505
6015.320	-8.68635	1.38304	-7.16432	2.48954
6019.321	-8.67716	1.39598	-7.15613	2.49834
6023.316	-8.65938	1.38768	-7.11178	2.49928
6027.274	-8.62494	1.36077	-7.13211	2.50945
6031.318	-8.67539	1.36744	-7.14814	2.53171
6035.319	-8.59718	1.35142	-7.18118	2.57901
6039.340	-8.53462	1.34331	-7.18279	2.60626
6043.306	-8.61375	1.36769	-7.17306	2.61877
6047.325	-8.59832	1.34667	-7.18205	2.64349
6051.319	-8.57922	1.35632	-7.19129	2.67404
6055.315	-8.57937	1.34897	-7.23118	2.62274
6059.320	-8.60490	1.37187	-7.17453	2.54630
6063.321	-8.59043	1.37440	-7.15039	2.59779
6067.319	-8.59699	1.36502	-7.18179	2.54801
6071.344	-8.63656	1.37858	-7.23892	2.50298
6075.317	-8.65487	1.39405	-7.20421	2.51646
6079.319	-8.66549	1.41466	-7.16820	2.47077
6083.319	-8.70805	1.42599	-7.15196	2.49741
6087.338	-8.64446	1.46340	-7.13268	2.45764
6091.319	-8.63753	1.49166	-7.10186	2.43573
6095.318	-8.65637	1.51822	-7.10223	2.40828
6099.317	-8.68642	1.55681	-7.06371	2.40418
6103.338	-8.69605	1.56796	-7.06733	2.44541
6107.321	-8.70551	1.57237	-7.06051	2.41431
6111.323	-8.71792	1.59097	-7.02607	2.42402
6115.319	-8.70798	1.58119	-6.98834	2.44241
6119.344	-8.70859	1.55409	-6.99326	2.44762
6123.319	-8.70922	1.53949	-7.01702	2.45336
6127.274	-8.70042	1.56429	-7.02223	2.43519
6131.321	-8.70573	1.54198	-7.00389	2.43309
6135.311	-8.71402	1.51126	-6.99027	2.44205
6139.320	-8.71230	1.48270	-6.97969	2.43275
6143.278	-8.68266	1.48201	-7.00223	2.40996
6147.318	-8.65681	1.45987	-7.00658	2.39418
6151.317	-8.62324	1.49813	-6.97585	2.38954
6155.320	-8.64783	1.49444	-6.99335	2.33823
6159.319	-8.62753	1.52345	-6.97998	2.33488
6163.322	-8.62656	1.59702	-6.94941	2.28821
6167.305	-8.56763	1.61279	-6.97526	2.23512
6171.323	-8.56915	1.64374	-6.96524	2.19524
6175.320	-8.57078	1.65132	-6.95095	2.14915
6179.322	-8.54916	1.67987	-6.97565	2.13435
6183.320	-8.58289	1.75214	-6.94736	2.13874
6187.320	-8.54006	1.76108	-6.89214	2.15148
6191.322	-8.54945	1.80650	-6.90062	2.12356
6195.326	-8.55256	1.85936	-6.95565	2.07153
6199.342	-8.51520	1.87624	-7.00223	2.10093
6203.320	-8.56622	1.94707	-7.00199	2.10251
6207.319	-8.54564	1.98006	-7.14072	2.10397
6211.323	-8.53629	2.02142	-6.95770	2.08091
6215.280	-8.13828	1.91697	-6.92853	1.79253
6219.320	-6.94330	1.87015	-6.67294	1.92194
6223.320	-5.36390	1.72808	-5.02984	1.63984
6227.277	-5.06405	0.78984	-4.24902	1.09399
6231.311	-4.53546	0.78897	-4.06685	0.30527
6235.320	-4.41312	0.00654	-3.16305	0.13301
6239.319	-3.96506	-0.21914	-2.53201	0.45796
6243.321	-3.83722	-0.22428	-2.32134	0.09087
6247.281	-3.93952	-0.16151	-2.23281	0.13009
6251.307	-4.06710	-0.03004	-2.38170	0.10080
6255.308	-3.96629	-0.04482	-2.41388	0.11415
6259.324	-3.96288	-0.13912	-2.32000	0.03762
6263.315	-3.79776	-0.19922	-2.23065	0.05962
6267.319	-3.79658	-0.22920	-2.24123	0.02965
6271.327	-3.87354	-0.25811	-2.18439	-0.01838
6275.323	-3.84075	-0.30270	-2.12117	-0.03154
6279.322	-3.80668	-0.28538	-2.10079	-0.02600
6283.324	-3.78798	-0.24599	-2.11527	-0.06414
6287.318	-3.73566	-0.22659	-2.08825	-0.06317
6291.323	-3.66160	-0.19568	-2.09460	-0.04984
6295.314	-3.67771	-0.18874	-2.11053	-0.05883
6299.323	-3.65868	-0.15082	-2.08218	-0.05441
6303.321	-3.59407	-0.15969	-2.08325	-0.05337
6307.321	-3.55528	-0.13227	-2.10498	-0.08547
6311.312	-3.51802	-0.13614	-2.10456	-0.10745
6315.324	-3.51389	-0.17210	-2.12892	-0.11835
6319.320	-3.50472	-0.22880	-2.15680	-0.10342
6323.320	-3.51795	-0.33651	-2.17660	-0.13128
6327.336	-3.50390	-0.42930	-2.19442	-0.13272
6331.279	-3.54499	-0.52447	-2.24391	-0.14498
6335.281	-3.57471	-0.62868	-2.26725	-0.13917
6339.318	-3.57466	-0.59946	-2.25469	-0.13123
6343.322	-3.52245	-0.64240	-2.23345	-0.16060
6347.321	-3.56086	-0.68262	-2.21241	-0.15892
6351.323	-3.63688	-0.77004	-2.25313	-0.17997
6355.323	-3.62749	-0.81257	-2.25798	-0.19774
6359.320	-3.53852	-0.83140	-2.29005	-0.21614
6363.321	-3.36881	-0.85151	-2.29897	-0.20608
6367.324	-3.46988	-0.80872	-2.25803	-0.20884
6371.286	-3.36466	-0.79549	-2.18463	-0.21005
6375.312	-3.42937	-0.78239	-2.14488	-0.24976
6379.315	-3.35313	-0.76077	-2.16285	-0.28727
6383.327	-3.37865	-0.72566	-2.19177	-0.33703
6387.324	-3.41607	-0.68798	-2.24582	-0.34270
6391.318	-3.38558	-0.61781	-2.27503	-0.37862
6395.280	-3.49228	-0.60177	-2.20161	-0.36213
6399.324	-3.56445	-0.57217	-2.22599	-0.38271
6403.325	-3.61636	-0.52103	-2.22832	-0.37285
6407.322	-3.66320	-0.49303	-2.21078	-0.38611
6411.322	-3.67437	-0.49702	-2.24388	-0.38414
6415.324	-3.70910	-0.49714	-2.28140	-0.43977
6419.293	-3.69022	-0.49128	-2.28417	-0.41991
6423.290	-3.73725	-0.49331	-2.29052	-0.45270
6427.323	-3.75237	-0.51668	-2.27419	-0.43148
6431.323	-3.71360	-0.57049	-2.31696	-0.42571
6435.324	-3.70764	-0.65320	-2.32280	-0.44877
6439.321	-3.69111	-0.71037	-2.35291	-0.48444
6443.321	-3.68364	-0.68305	-2.34267	-0.52193
6447.324	-3.65707	-0.70144	-2.25972	-0.64242
6451.325	-3.64677	-0.77569	-2.28583	-0.60333
6455.305	-3.63752	-0.81717	-2.26804	-0.62129
6459.323	-3.63216	-0.81569	-2.28940	-0.62803
6463.326	-3.66745	-0.78501	-2.20483	-0.57672
6467.324	-3.65430	-0.79117	-2.18548	-0.56871
6471.317	-3.62986	-0.76462	-2.22376	-0.53411
6475.325	-3.65084	-0.77910	-2.12967	-0.52406
6479.325	-3.67860	-0.73207	-2.15190	-0.54444
6483.323	-3.73950	-0.67554	-2.12295	-0.50192
6487.316	-3.76023	-0.63988	-2.11856	-0.46899
6491.323	-3.78373	-0.71619	-2.19001	-0.43041
6495.324	-3.81775	-0.74078	-2.23194	-0.35487
6499.326	-3.93398	-0.65199	-2.68499	-0.30414
6503.317	-4.39466	-0.61021	-3.44295	-0.24742
6507.338	-4.87298	-0.54528	-4.02445	-0.20078
6511.326	-5.06843	-0.40293	-3.89308	-0.18571
6515.324	-5.21397	-0.19879	-3.77678	-0.23364
6519.316	-5.32186	-0.16817	-3.92462	-0.39278
6523.325	-5.38026	-0.26340	-3.76369	-0.34939
6527.281	-5.27405	-0.31937	-3.77147	-0.32888
6531.283	-5.49982	-0.28952	-3.74614	-0.35044
6535.321	-5.45095	-0.21709	-3.79317	-0.36810
6539.325	-5.46795	-0.13860	-3.86200	-0.42301
6543.324	-5.49556	-0.15791	-3.86879	-0.41197
6547.323	-5.55504	-0.11555	-3.77288	-0.43693
6551.327	-5.60868	-0.08557	-3.75946	-0.42963
6555.326	-5.65565	-0.09834	-3.71476	-0.43969
6559.328	-5.65245	-0.14211	-3.68774	-0.39140
6563.324	-5.67887	-0.14013	-3.69862	-0.39722
6567.315	-5.66005	-0.08393	-3.74194	-0.37328
6571.324	-5.63294	-0.00561	-3.80436	-0.37032
6575.324	-5.60863	-0.01229	-3.88280	-0.30073
6579.325	-5.57451	-0.00302	-3.97983	-0.29392
6583.319	-5.56935	0.01239	-4.06046	-0.29674
6587.317	-5.56283	0.02968	-4.11900	-0.34458
6591.325	-5.53092	0.03651	-4.11276	-0.34424
6595.327	-5.51742	-0.03510	-4.21664	-0.37713
6599.221	-5.45917	-0.09350	-4.20491	-0.37713
6603.322	-5.42405	-0.12881	-4.26956	-0.41868
6607.325	-5.38491	-0.14980	-4.30704	-0.43204
6611.328	-5.38046	-0.27273	-4.28755	-0.44763
6615.222	-5.38560	-0.35006	-4.30068	-0.46244
6619.325	-5.39293	-0.33462	-4.26329	-0.50543
6623.325	-5.40011	-0.36618	-4.27311	-0.50067
6627.280	-5.38294	-0.39902	-4.31672	-0.50488
6631.292	-5.36693	-0.42738	-4.35200	-0.50223
6635.326	-5.32968	-0.45408	-4.35775	-0.51845
6639.281	-5.32550	-0.46959	-4.34008	-0.52892
6643.328	-5.29671	-0.49811	-4.36138	-0.53661
6647.285	-5.29103	-0.51655	-4.36059	-0.54340
6651.325	-5.28131	-0.53333	-4.37110	-0.55900
6655.326	-5.25220	-0.51136	-4.36424	-0.57429
6659.324	-5.22431	-0.49703	-4.33404	-0.58370
6663.284	-5.18153	-0.51422	-4.31867	-0.59945
6667.307	-5.15544	-0.52488	-4.29340	-0.64550
6671.320	-5.14805	-0.51944	-4.24480	-0.67865
6675.330	-5.13075	-0.50847	-4.20052	-0.68366
6679.286	-5.12144	-0.50063	-4.16850	-0.68686
6683.325	-5.10064	-0.47030	-4.16001	-0.69349
6687.328	-5.10017	-0.44011	-4.14495	-0.69999
6691.324	-5.11839	-0.40701	-4.10594	-0.68836
6695.194	-5.12947	-0.38334	-4.09081	-0.66899
6699.324	-5.14564	-0.36762	-4.10703	-0.62474
6703.282	-5.17339	-0.35800	-4.16890	-0.61237
6707.328	-5.18909	-0.36799	-4.19257	-0.56183
6711.192	-5.19409	-0.34208	-4.22651	-0.57524
6715.327	-5.19603	-0.35536	-4.27099	-0.54173
6719.327	-5.22271	-0.34394	-4.27494	-0.56987
6723.327	-5.27336	-0.34213	-4.29949	-0.51777
6727.187	-5.33901	-0.34388	-4.31025	-0.50003
6731.327	-5.33369	-0.35402	-4.33273	-0.47315
6735.324	-5.35539	-0.36047	-4.37357	-0.47112
6739.326	-5.37451	-0.36459	-4.36636	-0.47779
6743.224	-5.40447	-0.35754	-4.35025	-0.49752
6747.326	-5.42009	-0.34868	-4.31780	-0.45128
6751.306	-5.42965	-0.33717	-4.26605	-0.48372
6755.298	-5.44965	-0.32976	-4.23369	-0.49584
6759.223	-5.45794	-0.34072	-4.19519	-0.49395
6763.283	-5.44488	-0.36249	-4.15443	-0.44553
6767.328	-5.42621	-0.34927	-4.07103	-0.39831
6771.329	-5.42358	-0.36011	-4.02280	-0.38396
6775.224	-5.42806	-0.34635	-3.90333	-0.33265
6779.331	-5.41814	-0.34774	-3.84458	-0.32109
6783.327	-5.41546	-0.36822	-3.86897	-0.24371
6787.326	-5.37743	-0.41471	-3.86104	-0.22008
6791.224	-5.33623	-0.44400	-3.87860	-0.21001
6795.319	-5.32811	-0.49698	-3.86820	-0.17761
6799.328	-5.33185	-0.53725	-3.95142	-0.17038
6803.328	-5.35497	-0.56137	-3.96745	-0.21929
6807.227	-5.35465	-0.54428	-3.97827	-0.20734
6811.285	-5.34417	-0.61524	-4.06411	-0.22647
6815.329	-5.28126	-0.60298	-4.14372	-0.24623
6819.327	-5.25726	-0.60639	-4.18571	-0.33635
6823.223	-5.27757	-0.62518	-4.18657	-0.35382
6827.285	-5.27028	-0.62353	-4.17025	-0.36557
6831.325	-5.22790	-0.58945	-4.22658	-0.38547
6835.296	-5.09746	-0.61162	-4.12436	-0.42032
6839.216	-3.40007	-0.57165	-2.47269	-0.19871
6843.328	-1.56513	-0.53394	-1.56923	0.06150
6847.328	-0.46197	-0.49499	-0.35516	-0.01245
6851.331	0.65412	-0.38476	0.78632	0.11432
6855.225	2.14630	-0.44587	1.94340	0.47662
6859.329	3.14830	-0.21373	2.87346	0.43607
6863.329	3.96246	0.20694	4.82942	1.06289
6867.329	5.64545	0.24605	5.24841	1.75768
6871.223	6.34633	0.67587	6.66423	1.50901
6875.329	7.59476	0.80603	7.63808	2.24167
6879.325	8.50073	1.26313	8.42996	2.25122
6883.330	9.39699	1.95261	9.64687	2.57076
6887.220	9.86820	2.15206	10.50616	2.74159
6891.287	10.07966	2.55601	10.78144	2.87634
6895.329	10.10559	2.67025	10.82167	2.95188
6899.331	9.80551	2.55161	10.73744	2.92444
6903.225	9.82236	2.58710	10.67919	3.07245
6907.329	9.65657	2.60787	10.72891	2.91490
6911.328	9.89412	2.51469	10.63955	3.03498
6915.332	9.86529	2.51750	10.72834	3.09523
6919.229	9.89236	2.69318	10.74606	3.15203
6923.330	9.94421	2.67019	10.75275	3.19180
6927.331	9.91303	2.71399	10.81913	3.29406
6931.341	9.88112	2.73687	10.83735	3.32604
6935.225	9.85645	2.69438	10.85952	3.33275
6939.329	9.78329	2.59750	10.89518	3.43129
6943.204	9.80922	2.59327	10.89688	3.43081
6947.206	9.82821	2.54141	10.98097	3.53705
6951.289	9.86825	2.53719	11.02598	3.65507
6955.196	9.84951	2.48285	11.08512	3.67432
6959.205	9.83337	2.50594	11.11282	3.72202
6963.196	9.84900	2.43055	11.13468	3.71174
6967.197	9.82587	2.34811	11.15463	3.75317
6971.205	9.85599	2.26667	11.16961	3.71907
6975.212	9.89689	2.23386	11.17426	3.70546
6979.206	9.86900	2.22869	11.15126	3.77781
6983.164	9.88398	2.23280	11.13611	3.75241
6987.206	9.93321	2.21777	11.17665	3.79723
6991.204	9.98374	2.20314	11.16423	3.73421
6995.208	9.95647	2.21400	11.15033	3.71587
6999.203	9.94859	2.22999	11.14397	3.69871
7003.207	9.99193	2.28721	11.15472	3.66623
7007.178	10.00593	2.38473	11.15561	3.67537
7011.208	10.01903	2.35628	11.15826	3.64555
7015.231	10.00661	2.38556	11.12859	3.59772
7019.206	9.92478	2.37098	11.12866	3.54739
7023.205	10.02001	2.43331	11.08230	3.42954
7027.163	9.99111	2.45710	11.10928	3.39929
7031.201	9.97175	2.50264	11.07138	3.35479
7035.210	9.92834	2.54206	11.08139	3.34722
7039.206	9.91659	2.55040	11.05142	3.32384
7043.208	9.83093	2.59903	11.05491	3.31429
7047.163	9.80547	2.56954	11.03537	3.26626
7051.201	9.79443	2.57004	11.00644	3.24545
7055.204	9.74562	2.61886	11.02698	3.23672
7059.206	9.72096	2.66290	11.04460	3.22043
7063.204	9.88333	2.73317	11.04078	3.25550
7067.205	9.77520	2.68216	11.14620	3.23051
7071.205	10.04299	2.49535	11.26254	3.19968
7075.205	11.28484	2.18031	11.27966	3.05150
7079.204	11.88478	1.91455	11.59425	2.41355
7083.206	11.81741	2.17773	12.13453	2.31235
7087.207	11.99816	1.72090	12.49415	2.41053
7091.162	11.68755	1.40102	12.80070	2.19133
7095.165	11.70509	1.17018	12.90873	2.20790
7099.206	11.45171	1.25079	12.93790	2.18772
7103.207	11.43717	1.19182	12.97608	2.14536
7107.206	11.55743	1.15230	13.01981	2.09348
7111.194	11.66813	1.14608	13.02351	2.06262
7115.205	11.80326	1.11967	13.09141	2.00150
7119.207	11.96703	1.17229	13.13470	2.01176
7123.206	12.00609	1.10531	13.16736	1.99876
7127.170	12.06930	1.03387	13.16661	2.03941
7131.187	11.90550	1.03377	13.14371	2.01664
7135.207	11.91013	1.11374	13.10890	2.02529
7139.205	11.83709	1.17538	13.08884	2.09261
7143.204	11.77674	1.30703	13.06374	2.09935
7147.204	11.75427	1.31533	12.98916	2.08781
7151.206	11.72481	1.36620	12.94613	2.14832
7155.205	11.75762	1.38157	12.87789	2.27418
7159.203	11.74894	1.43550	12.86331	2.33891
7163.207	11.64985	1.50272	12.79154	2.36982
7167.207	11.83115	1.71526	12.70489	2.37946
7171.196	11.64461	1.66832	12.77721	2.50866
7175.197	11.55795	1.67910	12.84885	2.48596
7179.208	11.55350	1.78931	12.83451	2.52405
7183.207	11.56548	1.74305	12.94681	2.45799
7187.207	11.53529	1.72149	12.96241	2.45946
7191.227	11.52064	1.77201	12.92378	2.45539
7195.209	11.57791	1.65137	12.94926	2.46101
7199.207	11.68279	1.68856	13.05345	2.31168
7203.207	11.61940	1.58709	13.02478	2.29967
7207.199	11.62075	1.42159	13.01765	2.20868
7211.209	11.60951	1.27517	13.00940	2.17824
7215.177	11.55943	1.26095	12.99835	2.15534
7219.206	11.57269	1.22699	12.97165	2.12943
7223.201	11.66153	1.26224	12.98190	2.06106
7227.163	11.71168	1.51143	12.92922	2.07347
7231.206	11.71887	1.54911	12.89192	2.07370
7235.208	11.79910	1.72117	12.87980	2.11253
7239.197	11.71323	1.71183	12.81467	2.10352
7243.209	11.64359	1.74088	12.76090	2.16852
7247.209	11.62016	1.84262	12.69963	2.23732
7251.210	11.59823	1.89317	12.73335	2.33479
7255.199	11.61020	1.86124	12.88843	2.33478
7259.207	11.68617	1.87969	12.96939	2.40449
7263.208	11.71313	1.91205	13.02709	2.40609
7267.206	11.66208	1.89155	13.03279	2.44090
7271.227	11.71820	1.93195	13.12891	2.45669
7275.207	11.66953	1.90985	13.06579	2.46551
7279.211	11.64749	1.94263	13.10327	2.46630
7283.209	11.63880	1.88522	13.10535	2.48425
7287.206	11.61325	1.82246	13.17515	2.45671
7291.210	11.59403	1.73934	13.25491	2.49101
7295.207	11.51023	1.65039	13.23499	2.47214
7299.204	11.48265	1.60697	13.17598	2.48750
7303.205	11.46008	1.58072	13.13576	2.46716
7307.209	11.37624	1.48883	13.06984	2.48444
7311.210	11.37243	1.44176	13.05044	2.47864
7315.209	11.38979	1.38269	13.06782	2.46527
7319.205	11.60489	1.34390	13.17569	2.53650
7323.208	12.30201	1.31853	13.50762	2.50654
7327.209	12.94405	1.30138	14.12424	2.46801
7331.167	12.87190	1.27435	14.43887	2.50201
7335.201	13.08065	1.27679	14.45809	2.46802
7339.189	12.95315	1.27817	14.25650	2.45015
7343.210	12.91241	1.27194	14.24238	2.38774
7347.209	12.83088	1.25814	14.19254	2.31179
7351.168	12.90885	1.25852	14.25333	2.30424
7355.209	12.86426	1.25138	14.14357	2.23641
7359.213	12.85548	1.23777	14.27879	2.33408
7363.209	12.89848	1.24468	14.34222	2.24557
7367.167	12.86404	1.21816	14.29853	2.25356
7371.167	12.82929	1.17612	14.26940	2.24041
7375.211	12.84583	1.17716	14.21043	2.22360
7379.198	12.79076	1.15731	14.21519	2.20217
7383.193	12.75757	1.11659	14.19357	2.18810
7387.211	12.76291	1.13762	14.20891	2.19098
7391.210	12.77733	1.13215	14.23041	2.22266
7395.209	12.76482	1.10256	14.22500	2.21980
7399.168	12.80249	1.12582	14.25942	2.22586
7403.211	12.79548	1.10131	14.24981	2.20451
7407.209	12.80166	1.08219	14.23296	2.20672
7411.208	12.84357	1.09894	14.21596	2.17657
7415.169	12.86789	1.08259	14.19364	2.14321
7419.211	12.87133	1.06332	14.21143	2.14008
7423.182	12.89206	1.04548	14.20437	2.11561
7427.209	12.93264	1.05057	14.21803	2.12840
7431.169	12.95570	1.03471	14.22547	2.13408
7435.211	13.03239	1.05530	14.24452	2.12127
7439.209	13.10820	1.10145	14.30934	2.16274
7443.207	13.11876	1.10317	14.32637	2.17359
7447.169	13.15176	1.07724	14.33499	2.18177
7451.213	13.16939	1.06284	14.45737	2.24977
7455.209	13.23290	1.06477	14.53123	2.31137
7459.208	13.25489	1.06629	14.63281	2.44491
7463.168	13.27993	1.07648	14.56485	2.28737
7467.207	13.29452	1.08923	14.54084	2.29525
7471.210	13.30620	1.09846	14.49411	2.40430
7475.211	13.34270	1.06769	14.41871	2.33296
7479.169	13.30759	1.05878	14.37778	2.38542
7483.211	13.25870	1.03029	14.44746	2.29713
7487.211	13.22006	1.02149	14.43096	2.25624
7491.211	13.27210	1.05202	14.38384	2.25869
7495.169	13.39910	1.10714	14.37596	2.12859
7499.211	13.39668	1.11525	14.38244	2.10151
7503.209	13.31083	1.21591	14.41836	2.05269
7507.205	13.27760	1.22427	14.41399	2.09232
7511.169	13.21272	1.24031	14.46009	2.16688
7515.213	13.21700	1.21964	14.48501	2.10905
7519.211	13.16993	1.23224	14.48227	2.11056
7523.211	13.24541	1.27977	14.48125	2.05230
7527.170	13.17788	1.26247	14.45479	1.98687
7531.211	13.14254	1.25654	14.44297	2.02603
7535.211	13.12637	1.24455	14.47350	2.00696
7539.218	13.08376	1.22897	14.46912	2.04018
7543.171	13.00865	1.20357	14.47073	1.99295
7547.188	12.99981	1.17692	14.42856	2.03594
7551.212	12.99133	1.19455	14.43512	2.03189
7555.212	13.03341	1.15631	14.43410	2.02940
7559.172	13.05484	1.17878	14.45169	2.03486
7563.212	13.03209	1.17028	14.48180	2.01015
7567.212	13.07723	1.17650	14.49111	2.00704
7571.216	13.11377	1.18990	14.50946	2.01689
7575.169	13.11698	1.20497	14.50200	2.03046
7579.213	13.13865	1.21740	14.50539	2.04418
7583.211	13.12681	1.19319	14.51323	2.07003
7587.199	13.18289	1.22840	14.52584	2.03784
7591.172	13.18466	1.22549	14.49948	2.00877
7595.213	13.21011	1.21177	14.55070	2.01133
7599.211	13.21206	1.25001	14.52181	1.98495
7603.211	13.17005	1.23891	14.50183	1.94680
7607.170	13.18110	1.26696	14.39201	1.94362
7611.213	12.82507	1.29948	13.15294	2.03046
7615.211	11.96501	1.39068	12.67745	2.13369
7619.213	11.15451	1.31701	12.20861	2.09629
7623.171	10.95193	1.35181	12.17845	2.12093
7627.169	10.90920	1.41372	12.03429	2.12695
7631.183	10.84717	1.52943	11.95966	2.20980
7635.211	10.83994	1.59792	11.97534	2.18329
7639.172	10.81540	1.63831	12.01452	2.22445
7643.215	10.75272	1.64802	11.96299	2.28398
7647.212	10.65714	1.72472	11.98944	2.26182
7651.212	10.59260	1.72515	11.95332	2.27015
7655.173	10.57457	1.86572	11.85442	2.24653
7659.213	10.51952	1.82212	11.83136	2.19664
7663.213	10.51338	1.92454	11.87712	2.24350
7667.212	10.50949	1.91214	11.89820	2.23886
7671.172	10.51794	1.92224	11.93256	2.31183
7675.213	10.54190	1.94618	11.96356	2.32819
7679.216	10.53559	1.99102	11.93681	2.39308
7683.211	10.49462	1.85622	11.93997	2.36262
7687.172	10.53651	1.81072	11.96011	2.39751
7691.212	10.60136	1.78611	11.95648	2.44166
7695.213	10.63039	1.75110	11.97128	2.47950
7699.213	10.71264	1.61409	12.00637	2.54795
7703.116	10.71331	1.49436	12.04206	2.56704
7707.213	10.77030	1.55785	12.05172	2.60500
7711.212	10.79780	1.59368	12.06135	2.65163
7715.206	10.77026	1.44658	12.04144	2.68251
7719.217	10.77359	1.47674	12.03978	2.72535
7723.216	10.74367	1.45635	12.07336	2.74411
7727.171	10.74755	1.51573	12.07291	2.74622
7731.214	10.75050	1.57071	12.09963	2.68209
7735.117	10.73524	1.60962	12.13256	2.68673
7739.215	10.72153	1.68386	12.16524	2.66653
7743.213	10.66936	1.75685	12.18599	2.60526
7747.219	10.66795	1.85393	12.21034	2.65435
7751.111	10.64585	1.90908	12.21627	2.58715
7755.195	10.65525	1.88421	12.23891	2.51197
7759.214	10.65762	1.94925	12.27593	2.49950
7763.213	10.67068	2.01587	12.27683	2.44028
7767.109	10.67469	2.07906	12.27676	2.43105
7771.216	10.69299	2.08988	12.28697	2.40546
7775.213	10.67675	2.10077	12.27382	2.45997
7779.214	10.71027	2.15443	12.11664	2.45931
7783.109	10.73873	2.12226	12.06957	2.46220
7787.213	10.78609	2.01562	12.14841	2.44675
7791.216	10.77251	1.85956	12.09206	2.42425
7795.171	10.77754	1.83034	12.10879	2.41328
7799.114	10.75696	1.76225	11.98802	2.42189
7803.216	10.75953	1.71674	11.95914	2.41484
7807.213	10.77366	1.59256	11.95638	2.44634
7811.216	10.78803	1.58149	11.94850	2.42232
7815.112	10.77174	1.49698	11.86821	2.42063
7819.218	10.74863	1.48943	11.95494	2.41350
7823.215	10.72314	1.49180	11.89217	2.46396
7827.216	10.68720	1.47411	11.72360	2.38899
7831.081	9.26101	1.57170	10.76805	2.46047
7835.173	8.10165	1.62420	7.94462	2.51846
7839.186	7.04834	1.47105	6.57370	2.56189
7843.215	6.59520	1.60433	6.73933	2.45637
7847.113	6.34648	1.56512	6.53066	2.50093
7851.215	5.84448	1.59497	6.45392	2.44990
7855.217	5.48669	1.61877	6.19052	2.45721
7859.216	4.58991	1.70861	5.42176	2.48476
7863.110	3.83253	1.78974	5.58147	2.42097
7867.217	3.87480	1.75797	5.73006	2.42452
7871.215	3.99235	1.74566	5.84419	2.39901
7875.217	3.88955	1.69557	5.96822	2.40639
7879.116	3.74135	1.68266	5.74323	2.36910
7883.218	3.68752	1.71398	5.56652	2.37242
7887.215	3.64847	1.67815	5.62158	2.40700
7891.213	3.61819	1.67219	5.51526	2.42583
7895.114	3.61411	1.63465	5.46888	2.45219
7899.217	3.58966	1.64012	5.48575	2.41432
7903.215	3.60786	1.62079	5.49340	2.45096
7907.215	3.65873	1.58412	5.49650	2.49156
7911.110	3.64867	1.54746	5.51467	2.47455
7915.218	3.66817	1.51757	5.49937	2.49263
7919.215	3.73149	1.49405	5.46699	2.48729
7923.179	3.78123	1.44951	5.46335	2.48938
7927.113	3.88359	1.41311	5.46463	2.50394
7931.217	3.88344	1.38737	5.42407	2.50280
7935.177	3.95599	1.38405	5.38897	2.49805
7939.219	4.04552	1.37954	5.37288	2.47585
7943.112	4.03707	1.39769	5.29455	2.50481
7947.218	4.07841	1.36777	5.28795	2.45502
7951.217	4.09792	1.41963	5.23086	2.42039
7955.221	4.10890	1.39266	5.18552	2.42986
7959.111	4.09478	1.38476	5.15436	2.44191
7963.195	4.08293	1.41230	5.14562	2.42314
7967.215	4.02769	1.47056	5.15903	2.40775
7971.215	3.93082	1.58372	5.11716	2.32536
7975.115	3.90615	1.64775	5.09116	2.23706
7979.219	3.87287	1.68651	5.08739	2.20225
7983.095	3.85083	1.71462	5.13813	2.18384
7987.092	3.88216	1.72340	5.16415	2.06709
7991.095	3.88940	1.76978	5.16698	1.95408
7995.092	3.89419	1.73807	5.19495	2.02214
7999.091	3.95871	1.76579	5.24863	2.03207
8003.093	4.00764	1.77772	5.20996	2.08303
8007.089	4.01512	1.82644	5.18589	2.07661
8011.065	4.05310	1.83834	5.20927	2.07644
8015.092	4.13268	1.81491	5.19881	2.08700
8019.093	4.18808	1.79438	5.21191	2.12232
8023.114	4.21177	1.75333	5.22564	2.15077
8027.049	4.26652	1.72545	5.16959	2.23940
8031.093	4.27363	1.69518	5.12541	2.24045
8035.093	4.24154	1.67547	5.18562	2.30813
8039.081	4.28318	1.67508	5.10581	2.30402
8043.093	4.23668	1.69063	5.08552	2.29221
8047.094	4.25983	1.64351	5.09414	2.26112
8051.094	4.28382	1.60053	5.09163	2.23607
8055.056	4.27479	1.55288	4.98893	2.20827
8059.096	4.05596	1.49419	4.94154	2.15985
8063.093	3.45237	1.53396	4.46961	2.24656
8067.094	2.20136	1.51329	1.67566	2.32780
8071.088	0.53803	1.69481	1.27314	2.34422
8075.049	0.14972	1.52339	0.29947	2.30942
8079.095	-0.51920	1.73337	0.15035	2.28674
8083.098	-0.76876	1.78721	-0.09791	2.37516
8087.093	-0.67230	1.76843	-0.12612	2.34978
8091.088	-0.99194	1.82718	-0.18963	2.42617
8095.082	-1.12129	1.88600	-0.11225	2.42197
8099.091	-1.07959	1.89161	-0.03122	2.45990
8103.091	-1.12717	1.94625	-0.12044	2.50086
8107.091	-1.19281	1.97894	-0.08669	2.50583
8111.093	-1.32892	2.05506	-0.18777	2.50807
8115.093	-1.37372	2.05360	-0.19459	2.50185
8119.090	-1.42754	2.13098	-0.30188	2.49201
8123.096	-1.52126	2.16170	-0.30250	2.51577
8127.051	-1.53213	2.20614	-0.30205	2.50118
8131.092	-1.61652	2.20015	-0.31267	2.44691
8135.086	-1.70512	2.26037	-0.31317	2.32745
8139.049	-1.73561	2.27685	-0.31997	2.23530
8143.092	-1.75136	2.35509	-0.38479	2.17889
8147.093	-1.81768	2.40662	-0.39715	2.19365
8151.089	-1.84751	2.39029	-0.48078	2.05606
8155.098	-1.86181	2.39342	-0.46487	2.08892
8159.094	-1.88226	2.39942	-0.51860	1.97594
8163.095	-1.90810	2.36676	-0.53525	1.98206
8167.115	-1.94409	2.34714	-0.49575	2.09447
8171.095	-1.96023	2.29515	-0.51781	2.07478
8175.080	-1.97004	2.26499	-0.50957	2.14816
8179.094	-1.92597	2.30219	-0.49977	2.25034
8183.088	-1.85140	2.31826	-0.53972	2.17723
8187.095	-1.72880	2.25959	-0.53247	2.20066
8191.095	-1.63509	2.20172	-0.49257	2.15025
8195.095	-1.56238	2.19500	-0.40070	2.20186
8199.091	-1.47273	2.16259	-0.38100	2.26263
8203.049	-1.54319	2.11817	-0.36439	2.29035
8207.102	-1.55326	2.10080	-0.31454	2.31110
8211.093	-1.57235	2.07587	-0.29925	2.33747
8215.087	-1.58495	2.10431	-0.27274	2.35673
8219.057	-1.63586	2.10927	-0.25294	2.41942
8223.096	-1.67045	2.05836	-0.24383	2.35386
8227.050	-1.66009	2.02160	-0.26396	2.42028
8231.090	-1.74380	2.00433	-0.19832	2.50011
8235.094	-1.79321	1.99956	-0.20745	2.57900
8239.097	-1.86885	1.96616	-0.16253	2.64397
8243.094	-1.87213	1.90421	-0.18273	2.73078
8247.084	-1.88427	1.88902	-0.20561	2.72319
8251.093	-1.92813	1.89492	-0.18956	2.85510
8255.099	-1.88450	1.95433	-0.18276	2.89312
8259.073	-1.92369	1.90544	-0.21929	2.91416
8263.068	-1.90316	1.89964	-0.15744	2.92118
8267.097	-1.85423	1.91877	-0.19474	2.94398
8271.097	-1.77511	2.00670	-0.17464	2.99436
8275.094	-1.70931	2.03061	-0.20338	2.95790
8279.088	-1.65309	2.06850	-0.23408	2.93220
8283.099	-1.57243	2.12380	-0.27510	2.89303
8287.096	-1.56928	2.15419	-0.29371	2.84491
8291.095	-1.58646	2.21792	-0.29473	2.93298
8295.086	-1.59360	2.21478	-0.30746	2.82263
8299.092	-1.63145	2.29929	-0.35375	2.79016
8303.091	-1.57902	2.34455	-0.32099	2.71106
8307.097	-1.59276	2.31776	-0.29161	2.70596
8311.087	-1.61756	2.32673	-0.29436	2.75706
8315.096	-1.89838	2.36987	-0.29563	2.95553
8319.097	-1.85160	2.48747	0.00298	3.01943
8323.093	-2.00212	2.94755	0.46448	2.76385
8327.099	-1.85304	11.13358	-3.03898	2.90670
8331.051	-1.61399	10.37830	0.74362	13.90906
8335.074	NaN	NaN	NaN	NaN
8339.096	NaN	NaN	NaN	NaN
8343.094	NaN	NaN	NaN	NaN
8347.092	NaN	NaN	NaN	NaN
8351.096	NaN	NaN	NaN	NaN
8355.092	NaN	NaN	NaN	NaN
8359.052	NaN	NaN	NaN	NaN
8363.095	NaN	NaN	NaN	NaN
8367.053	NaN	NaN	NaN	NaN
8371.052	NaN	NaN	NaN	NaN
8375.095	NaN	NaN	NaN	NaN
8379.095	NaN	NaN	NaN	NaN
8383.088	-13.35752	10.32576	NaN	NaN
8387.053	-11.26913	4.73923	-10.32942	8.43728
8391.096	-11.40379	2.46357	-9.85744	7.71899
8395.098	-11.69155	3.07595	-10.21887	4.40204
8399.096	-9.80580	2.06336	-9.82024	4.49145
8403.081	-10.69108	2.91707	-1.99746	1.63855
8407.098	-4.88614	1.58142	-2.41351	1.02242
8411.097	-7.72529	1.60236	-4.37359	1.24826
8415.098	-9.12115	1.91407	-6.57083	1.48201
8419.086	-8.69515	1.90531	-6.71865	1.54383
8423.098	-8.73397	1.81278	-6.93073	1.80401
8427.062	-8.70253	1.93152	-7.61746	2.07423
8431.098	-8.87028	2.08438	-7.34184	2.15802
8435.082	-8.72694	1.93525	-7.41675	2.35492
8439.098	-8.66818	2.00440	-7.35073	2.46015
8443.105	-8.58187	2.04189	-7.39147	2.34984
8447.098	-8.57816	2.03923	-7.40745	2.53551
8451.091	-8.55120	2.13158	-7.46416	2.50619
8455.097	-8.61353	2.16778	-7.43564	2.64197
8459.096	-8.62535	2.22917	-7.50412	2.68278
8463.098	-8.69445	2.22312	-7.55718	2.68735
8467.095	-8.79220	2.28283	-7.56671	2.71850
8471.099	-8.85284	2.32766	-7.45399	2.69243
8475.097	-8.96428	2.33572	-7.47766	2.65893
8479.098	-8.99978	2.36962	-7.24151	2.65653
8483.057	-9.06775	2.41028	-7.28752	2.64475
8487.102	-9.08459	2.43662	-7.05596	2.66683
8491.097	-9.12222	2.41413	-6.92997	2.65411
8495.055	-9.15889	2.38371	-6.97502	2.63875
8499.095	-9.20076	2.36954	-6.82990	2.62956
8503.100	-9.21544	2.34613	-6.70200	2.60336
8507.096	-9.19442	2.31953	-6.81527	2.58086
8511.089	-9.16245	2.31467	-6.85348	2.59171
8515.066	-9.15137	2.30007	-6.81759	2.60360
8519.076	-9.10625	2.28040	-6.85123	2.62688
8523.099	-9.10519	2.30914	-6.96947	2.61547
8527.096	-9.11273	2.26673	-6.89588	2.61218
8531.095	-9.10531	2.23545	-7.04653	2.57106
8535.100	-9.09248	2.26527	-7.07363	2.45756
8539.097	-9.09265	2.25868	-7.17087	2.42313
8543.099	-8.97506	2.28902	-7.37199	2.40712
8547.108	-8.95477	2.30052	-7.50595	2.30923
8551.100	-8.93898	2.31346	-7.33420	2.37475
8555.096	-8.97392	2.29905	-7.36528	2.35918
8559.097	-8.96448	2.24647	-7.41680	2.20920
8563.105	-8.85129	2.29916	-7.46238	2.26366
8567.102	-8.81654	2.23178	-7.54201	2.20426
8571.099	-8.77764	2.35985	-7.33515	2.22969
8575.100	-8.74830	2.34278	-7.36557	2.16378
8579.058	-8.70400	2.28361	-7.65295	2.15849
8583.100	-8.68613	2.38996	-7.86081	2.24879
8587.101	-8.74775	2.54967	-7.74376	2.39389
8591.084	-8.80488	2.45124	-5.59725	1.93414
8595.102	-4.52974	2.69496	-1.38349	1.76637
8599.102	-3.97832	2.71359	-1.60823	2.23525
8603.100	-8.88530	2.94411	-1.48191	2.00813
8607.096	-17.30697	8.80289	-10.77538	10.37027
8611.097	-19.99291	-12.07748	-8.12045	6.84113
8615.100	-19.99333	-12.07745	NaN	NaN
8619.097	-19.99346	-12.07744	NaN	NaN
8623.099	-19.99352	-12.07744	NaN	NaN
8627.097	-19.99357	-12.07743	NaN	NaN
8631.055	-19.99359	-12.07743	NaN	NaN
8635.063	-19.99361	-12.07743	NaN	NaN
8639.056	-19.99363	-12.07743	NaN	NaN
8643.056	-19.99363	-12.07743	NaN	NaN
8647.089	-19.99366	-12.07743	NaN	NaN
8651.101	NaN	NaN	NaN	NaN
8655.099	NaN	NaN	NaN	NaN
8659.098	NaN	NaN	NaN	NaN
8663.056	NaN	NaN	NaN	NaN
8667.096	NaN	NaN	NaN	NaN
8671.099	NaN	NaN	NaN	NaN
8675.076	NaN	NaN	NaN	NaN
8679.055	NaN	NaN	NaN	NaN
8683.106	NaN	NaN	NaN	NaN
8687.097	NaN	NaN	NaN	NaN
8691.098	NaN	NaN	-13.69460	5.64820
8695.100	-11.21852	6.21753	-13.59178	9.78539
8699.059	-10.90774	2.18946	-13.50746	9.41162
8703.100	-11.15241	0.76071	-3.99879	5.27035
8707.102	-15.53902	4.94928	-4.16475	2.98157
8711.101	-11.80307	3.99298	-4.31361	2.30981
8715.061	-12.25268	3.38559	-4.27822	1.60824
8719.092	-12.84600	3.31434	-5.16637	1.11019
8723.102	-13.50746	3.23106	-9.54532	2.31291
8727.100	-12.85727	2.83560	-10.86763	2.45011
8731.060	-12.54956	2.45122	-10.74566	2.11363
8735.101	-11.98405	1.87915	-10.03313	2.36067
8739.100	-11.50460	1.99598	-10.57246	2.36803
8743.100	-11.62830	2.23082	-10.43870	2.31245
8747.059	-11.58889	2.46178	-10.33608	2.25448
8751.101	-11.52922	2.81514	-10.42603	2.18041
8755.100	-11.51533	2.32403	-10.33579	2.11957
8759.077	-11.75857	2.37742	-10.18870	2.17475
8762.968	-11.73940	2.30516	-10.16762	2.21299
8767.102	-11.81039	2.35631	-10.09540	2.26796
8771.103	-11.76069	2.12413	-9.96289	2.20494
8775.101	-11.69145	2.18578	-9.86594	2.28007
8779.062	-11.64023	2.30907	-9.94197	2.22400
8783.101	-11.68450	2.38471	-9.92112	2.24315
8787.101	-11.72070	2.48410	-9.94816	2.19419
8791.100	-11.75210	2.44841	-9.87594	2.23662
8795.060	-11.68957	2.38941	-9.91676	2.26914
8799.082	-11.66220	2.40028	-9.86478	2.29858
8803.097	-11.48961	2.35266	-9.94847	2.32976
8807.101	-11.39446	2.40118	-9.95009	2.35695
8810.970	-11.28288	2.36746	-9.97794	2.40018
8815.097	-11.29639	2.37493	-10.00827	2.44041
8819.104	-11.27159	2.40684	-10.04307	2.43368
8823.103	-11.21446	2.37646	-10.06850	2.52309
8827.103	-11.16693	2.33489	-10.06244	2.53852
8831.102	-11.14577	2.26545	-10.06465	2.57711
8835.103	-11.13936	2.23288	-10.10745	2.59969
8839.103	-11.18656	2.19087	-10.09840	2.60335
8843.103	-11.18358	2.21822	-10.14102	2.60694
8847.102	-11.23597	2.23121	-10.09684	2.64321
8851.104	-11.27768	2.25609	-10.08419	2.64836
8855.101	-11.31963	2.29807	-10.08060	2.61165
8859.107	-11.34599	2.37965	-10.08580	2.60558
8863.102	-11.37901	2.39579	-10.06220	2.56860
8867.104	-11.39520	2.49669	-10.00957	2.53835
8871.102	-11.45887	2.51803	-10.06694	2.50740
8875.000	-11.46857	2.48311	-10.10329	2.50387
8879.103	-11.46616	2.47696	-10.11216	2.49838
8883.105	-11.47679	2.51067	-10.10555	2.46813
8887.106	-11.51328	2.48425	-10.11276	2.42812
8891.106	-11.48261	2.52467	-10.16488	2.35480
8895.098	-11.47238	2.54890	-10.18120	2.32826
8899.105	-11.44490	2.50719	-10.11981	2.39987
8903.102	-11.44614	2.47531	-10.09006	2.36748
8907.001	-11.44852	2.47315	-10.06792	2.42499
8911.103	-11.49779	2.44457	-10.14143	2.38574
8915.104	-11.50096	2.44739	-10.17901	2.44217
8919.103	-11.48063	2.49455	-10.15196	2.42267
8923.100	-11.45832	2.54863	-10.11671	2.39185
8927.092	-11.45631	2.59967	-10.04891	2.29734
8931.106	-11.50472	2.64461	-10.04492	2.31210
8935.103	-11.54794	2.59659	-10.08488	2.29605
8939.106	-11.50770	2.57803	-9.98807	2.37837
8943.102	-11.51752	2.62399	-10.03231	2.34406
8947.104	-11.52562	2.60515	-10.09573	2.46766
8951.104	-11.50808	2.57421	-10.10899	2.41057
8955.063	-11.56996	2.61674	-9.94017	2.64560
8959.103	-11.58170	2.86718	-10.13010	3.21806
8963.071	-15.81213	6.50201	-12.50633	6.58952
8967.075	-11.48656	2.98415	-13.46716	7.96575
8970.986	-15.07868	11.61105	-12.46062	6.53474
8975.102	NaN	NaN	NaN	NaN
8979.105	NaN	NaN	NaN	NaN
8983.103	NaN	NaN	NaN	NaN
8987.106	NaN	NaN	NaN	NaN
8991.101	NaN	NaN	NaN	NaN
8995.059	NaN	NaN	NaN	NaN
8999.102	NaN	NaN	NaN	NaN
9003.103	NaN	NaN	NaN	NaN
9007.090	NaN	NaN	NaN	NaN
9011.059	NaN	NaN	NaN	NaN
9015.104	NaN	NaN	NaN	NaN
9019.078	NaN	NaN	NaN	NaN
9022.978	NaN	NaN	NaN	NaN
9027.057	NaN	NaN	NaN	NaN
9030.977	NaN	NaN	NaN	NaN
9034.986	NaN	NaN	NaN	NaN
9038.979	NaN	NaN	NaN	NaN
9042.933	NaN	NaN	NaN	NaN
9046.984	NaN	NaN	NaN	NaN
9050.974	NaN	NaN	NaN	NaN
9054.956	NaN	NaN	-11.58279	10.08987
9058.939	-13.31403	14.03638	-11.21837	5.64753
9062.982	-11.95014	7.33416	-12.38656	6.29357
9066.979	-13.78174	5.89848	-13.38341	6.85114
9070.978	-15.54356	5.66806	-4.05893	1.49062
9075.002	-12.89921	4.09285	-3.93648	1.89598
9078.934	-13.79344	5.75675	-3.93233	1.35359
9082.980	-5.76192	3.21408	-4.06085	0.84195
9086.979	-11.67808	3.74756	-4.95746	1.13507
9091.003	-10.67818	3.24334	-6.72957	1.53006
9094.981	-12.79064	3.43858	-8.13959	2.17374
9098.981	-12.38346	3.25860	-8.40448	2.22726
9102.980	-10.22375	3.09187	-9.09701	2.25914
9106.999	-10.66946	3.09281	-10.05288	2.37413
9110.979	-11.77658	3.06481	-9.64752	2.55513
9114.981	-11.01249	2.90545	-9.68469	2.55370
9118.978	-11.05089	2.90485	-9.83462	2.72482
9122.998	-10.80881	2.93906	-9.92649	2.84477
9126.980	-10.92818	2.96721	-9.63988	2.77283
9130.982	-10.88240	2.95739	-9.88203	2.89443
9134.983	-10.89604	2.93737	-9.83199	2.85702
9138.979	-10.91964	2.87837	-9.86103	2.83127
9142.978	-10.95143	2.85606	-9.89684	2.84215
9146.971	-11.01529	2.82997	-9.84515	2.95302
9150.979	-10.95057	2.84536	-9.85785	2.92434
9154.977	-10.86711	2.89044	-9.89246	2.89415
9158.979	-10.83429	2.90553	-9.82231	2.78617
9162.981	-10.80855	2.92623	-9.84975	2.70841
9166.981	-10.83127	2.90274	-9.83284	2.62978
9171.005	-10.85555	2.90426	-9.88959	2.50984
9174.982	-10.85940	2.88591	-9.81477	2.51539
9178.982	-10.89487	2.91188	-9.74253	2.47003
9182.973	-10.95681	3.00181	-9.74567	2.49078
9186.979	-10.98121	2.94772	-9.72821	2.62019
9190.982	-10.96131	3.00223	-9.75256	2.57697
9194.982	-10.97224	3.00847	-9.76213	2.76090
9198.981	-10.99812	2.86337	-9.88550	2.74412
9202.978	-11.02751	2.93503	-9.78040	2.61485
9206.952	-11.08641	3.03634	-9.81800	2.61089
9210.938	-11.11475	3.08270	-9.93328	2.58948
9214.979	-11.10904	2.90836	-9.89330	2.75648
9219.002	-11.11948	2.93138	-9.92023	2.73633
9222.976	-12.79010	3.49931	-10.41921	3.25193
9226.937	-13.83973	4.69162	-4.64396	2.74045
9230.982	-5.84488	3.22563	-11.93111	7.04910
9235.000	-11.18260	3.60494	-11.24433	9.10891
9238.982	-15.96103	7.05157	-11.33454	7.25402
9242.983	NaN	NaN	NaN	NaN
9246.982	NaN	NaN	NaN	NaN
9250.981	NaN	NaN	NaN	NaN
9254.986	NaN	NaN	NaN	NaN
9258.986	NaN	NaN	NaN	NaN
9262.951	NaN	NaN	NaN	NaN
9267.006	NaN	NaN	NaN	NaN
9270.981	NaN	NaN	NaN	NaN
9274.980	NaN	NaN	NaN	NaN
9278.978	NaN	NaN	NaN	NaN
9282.937	NaN	NaN	NaN	NaN
9286.983	NaN	NaN	NaN	NaN
9290.981	NaN	NaN	NaN	NaN
9294.981	NaN	NaN	NaN	NaN
9298.936	NaN	NaN	NaN	NaN
9302.968	NaN	NaN	NaN	NaN
9306.971	NaN	NaN	NaN	NaN
9310.982	NaN	NaN	NaN	NaN
9314.938	NaN	NaN	NaN	NaN
9318.982	NaN	NaN	-7.26053	6.73389
9322.981	NaN	NaN	NaN	NaN
9326.982	-7.36591	4.66093	-4.24900	4.40908
9330.938	-5.96051	4.66614	-4.46238	4.06586
9334.938	1.58594	1.33270	-4.17667	3.68485
9338.982	-6.19429	1.74804	1.27408	2.15776
9342.985	-5.57847	1.73386	-1.74980	2.24228
9346.953	-2.16025	1.71008	-1.80977	3.01674
9350.985	-2.14694	1.52649	-2.00108	2.19631
9355.005	-2.04659	1.41573	-1.63621	1.56204
9358.981	-1.87872	1.49294	-1.25222	1.66951
9362.981	-2.10275	1.48050	-1.56504	1.81298
9366.985	-2.88888	1.54985	-1.81969	1.96038
9370.973	-3.33292	1.63663	-1.70943	1.94646
9374.984	-4.47442	1.67302	-2.81902	2.16099
9378.984	-4.45367	1.54684	-2.65102	1.96275
9382.985	-4.05638	1.45849	-2.87933	1.97194
9386.958	-3.93048	1.44517	-2.98052	1.90352
9390.987	-4.09016	1.42348	-2.90723	1.89224
9394.984	-3.99119	1.39365	-3.03479	1.91855
9398.984	-4.01917	1.56230	-2.60555	1.89485
9403.002	-4.01376	1.50160	-2.89123	1.92940
9406.984	-4.02828	1.52993	-2.86004	1.97309
9410.984	-4.01095	1.50354	-2.88755	1.95700
9414.987	-4.11174	1.47516	-2.95099	1.89291
9419.007	-4.00554	1.43126	-2.82011	1.83263
9422.984	-4.05389	1.43742	-2.82407	1.81969
9426.982	-4.07419	1.47848	-2.80268	1.82252
9430.981	-4.00981	1.46123	-2.84227	1.82576
9434.988	-4.00924	1.51092	-2.80144	1.76711
9438.984	-4.01137	1.53524	-2.90963	1.85394
9442.984	-4.11174	1.52371	-2.94067	1.88983
9446.988	-4.05530	1.53575	-2.97015	1.92295
9450.988	-4.02690	1.52721	-2.94252	2.01109
9454.986	-4.04658	1.50704	-2.88136	2.00899
9458.982	-4.12673	1.52581	-2.82083	2.03907
9462.973	-4.12841	1.49576	-2.84262	2.05821
9466.976	-4.08955	1.52922	-2.81870	2.08882
9470.963	-4.06517	1.50562	-2.79085	2.09967
9474.984	-4.01238	1.55062	-2.81377	2.14209
9478.987	-3.92121	1.51247	-2.72840	2.14470
9483.006	-4.01727	1.56258	-2.72308	2.05654
9486.984	-3.76794	1.51239	-2.71312	1.99336
9490.994	-3.76243	1.44332	-2.75093	2.06236
9494.985	-3.91091	1.47069	-2.81330	2.03315
9498.981	-3.83537	1.47370	-2.83967	2.00049
9502.983	-3.78007	1.41715	-2.81078	1.99335
9506.983	-3.96760	1.47637	-2.83813	1.99400
9510.985	-3.97444	1.44365	-2.87755	1.99730
9514.982	-3.94251	1.44762	-2.86472	1.93627
9518.986	-3.96805	1.44166	-2.86165	2.01897
9522.985	-3.98445	1.46330	-2.89797	2.02973
9526.941	-3.94110	1.42976	-2.91577	2.04507
9530.977	-3.89602	1.44223	-2.87022	2.07531
9534.984	-3.94204	1.48332	-2.87683	2.10036
9538.985	-3.88787	1.48401	-2.81459	2.11438
9542.984	-3.87455	1.47482	-2.78879	2.09425
9546.988	-3.94777	1.48802	-2.80597	2.14052
9550.985	-3.87732	1.48559	-2.81387	2.12516
9554.985	-3.79455	1.48641	-2.78055	2.13405
9558.987	-3.84053	1.46133	-2.72716	2.17923
9562.986	-3.86074	1.36131	-2.74346	2.10801
9566.987	-3.72585	1.30366	-2.77418	2.02522
9570.986	-3.76784	1.30169	-2.74071	2.02302
9574.941	-3.69966	1.27658	-2.72360	2.03014
9578.979	-3.60576	1.23383	-2.69896	2.07748
9582.989	-3.80184	1.32847	-2.70636	2.06080
9586.988	-3.66955	1.22698	-2.72276	2.21939
9590.980	-3.60029	1.23022	-2.71241	2.26907
9594.976	-3.62766	1.26075	-2.67791	2.42503
9598.981	-3.73104	1.21740	-2.70317	2.37602
9602.984	-3.58356	1.22043	-2.70139	2.38625
9606.983	-3.72894	1.44231	-2.68527	2.39711
9610.988	-3.79556	1.53194	-2.62254	2.41324
9614.981	-3.82049	1.64435	-2.63816	2.47600
9618.984	-3.91380	1.65460	-2.68108	2.48339
9622.942	-3.97891	1.62165	-2.70966	2.48737
9626.990	-3.92139	1.59808	-2.73600	2.49309
9630.984	-4.01761	1.69699	-2.72835	2.46923
9634.985	-4.06179	1.67320	-2.76279	2.46140
9638.986	-4.11076	1.67461	-2.76455	2.47401
9642.987	-3.97607	1.62515	-2.84509	2.50654
9646.985	-4.20921	1.77817	-3.34242	2.45745
9650.986	-6.53715	1.72307	-6.23256	2.48850
9654.987	-6.91850	1.70439	-6.97323	2.51861
9658.945	-7.88772	1.71002	-8.03611	2.43371
9662.986	-9.34715	1.78697	-8.61569	2.39293
9666.986	-9.58306	1.93880	-9.13942	2.37294
9670.991	-10.29161	1.95050	-9.82831	2.27950
9674.948	-10.61850	1.87819	-9.99282	2.34516
9678.984	-10.74923	1.96290	-9.74439	2.32646
9682.985	-10.66253	1.99849	-9.56574	2.27221
9686.986	-10.83019	2.03497	-9.59054	2.28586
9690.948	-10.76851	2.03122	-9.45039	2.39861
9694.984	-10.83422	2.09351	-9.74829	2.27386
9698.987	-10.83790	2.15824	-9.78766	2.20658
9702.985	-11.02856	2.19446	-9.85999	2.27427
9706.946	-10.98736	2.16975	-9.88735	2.33758
9710.945	-10.96110	2.17328	-9.78443	2.38387
9714.987	-11.00355	2.17952	-9.80783	2.45471
9718.986	-10.96012	2.19867	-9.76387	2.44533
9722.992	-10.96760	2.19621	-9.64996	2.53925
9726.942	-10.99989	2.29935	-9.69077	2.59409
9730.985	-10.89793	2.28334	-9.84862	2.48877
9734.987	-10.98248	2.31724	-9.78546	2.50031
9738.989	-11.05208	2.36527	-9.76483	2.39985
9742.986	-11.08036	2.35557	-9.74603	2.40615
9746.989	-11.03191	2.35966	-9.73800	2.39780
9750.987	-11.08495	2.39738	-9.74733	2.46960
9754.979	-10.95241	2.32583	-9.67924	2.44028
9758.986	-10.99209	2.37133	-9.72686	2.47873
9762.948	-11.00745	2.37250	-9.74482	2.50204
9766.986	-10.93624	2.40139	-9.73123	2.25987
9770.988	-10.89523	2.30416	-9.76440	2.24155
9774.988	-10.95169	2.30967	-9.77332	2.33953
9778.977	-10.96358	2.28510	-9.76534	2.28976
9782.986	-10.90908	2.28932	-9.78631	2.35516
9786.885	-10.85373	2.31956	-9.70921	2.27112
9790.988	-10.85416	2.33796	-9.69858	2.31851
9794.990	-10.80637	2.33163	-9.63503	2.27150
9798.986	-10.84633	2.37524	-9.66004	2.25416
9802.982	-10.86991	2.34536	-9.62603	2.22802
9806.989	-10.87898	2.35520	-9.60140	2.15679
9810.990	-10.92693	2.36308	-9.59614	2.17346
9814.999	-10.94399	2.38555	-9.58154	2.19318
9818.991	-10.95146	2.37090	-9.56723	2.13601
9822.986	-10.95825	2.36746	-9.61450	2.12652
9826.987	-10.96949	2.38230	-9.66791	2.07346
9830.985	-11.00156	2.33568	-9.78327	2.06575
9834.855	-11.06636	2.31809	-9.72448	1.98906
9838.990	-11.02320	2.30850	-9.70610	1.97579
9842.981	-11.02198	2.27281	-9.72549	1.91733
9846.984	-10.95995	2.24683	-9.66238	1.91370
9850.883	-10.97530	2.23320	-9.76042	1.90840
9854.991	-10.97660	2.24948	-9.59925	1.99526
9858.987	-10.95464	2.28195	-9.59624	2.06898
9862.990	-11.01603	2.32188	-9.52838	2.13356
9866.886	-10.98348	2.30138	-9.55536	2.19283
9870.990	-10.97724	2.28163	-9.46295	2.17783
9874.989	-11.03150	2.28058	-9.47213	2.30689
9878.994	-10.97282	2.26230	-9.45752	2.35468
9882.886	-11.00266	2.24364	-9.44921	2.43517
9886.966	-11.01613	2.24017	-9.47324	2.45785
9890.989	-11.05132	2.23581	-9.52895	2.49735
9894.991	-11.02287	2.23201	-9.55673	2.55134
9898.993	-11.01242	2.20754	-9.62017	2.54830
9902.993	-11.05395	2.21127	-9.72571	2.53789
9906.989	-11.04508	2.18979	-9.81036	2.52346
9910.989	-11.06146	2.20011	-9.83277	2.48796
9914.992	-11.10388	2.20785	-9.93133	2.50087
9918.991	-11.11153	2.21843	-9.99814	2.45607
9922.989	-11.12758	2.22788	-10.10641	2.45337
9926.975	-11.19762	2.30710	-10.00025	2.42196
9930.886	-11.32423	2.37378	-10.28013	2.47703
9934.993	-11.73102	2.41754	-10.68818	2.42112
9938.990	-12.85586	2.46009	-13.75439	2.43898
9942.988	-13.78483	2.46653	-13.75256	2.40254
9946.887	-13.90733	2.52768	-13.55904	2.33436
9950.945	-14.27690	2.64018	-13.42239	2.39365
9954.990	-14.27655	2.65528	-13.42775	2.41160
9958.990	-14.13780	2.70891	-13.20555	2.41606
9962.889	-14.27012	2.79611	-12.99401	2.38050
9966.992	-14.16900	2.81457	-13.02113	2.31943
9970.955	-14.33781	2.85776	-12.95595	2.45764
9974.994	-14.34946	2.86678	-13.07003	2.44331
9978.885	-14.47385	2.90054	-13.07269	2.49265
9982.990	-14.43466	2.93218	-12.98054	2.56202
9986.990	-14.47596	2.99122	-12.91703	2.64431
9990.991	-14.47322	2.97847	-12.84390	2.66977
9994.995	-14.48057	2.99943	-12.82344	2.69987
9998.991	-14.44218	2.98903	-12.80204	2.67691
10002.990	-14.45840	3.02239	-12.78710	2.68277
10006.990	-14.41666	2.97829	-12.81502	2.71282
10010.994	-14.39692	3.00550	-12.81228	2.77329
10014.991	-14.39899	3.07400	-12.80926	2.75429
10018.991	-14.33781	3.07357	-12.77214	2.74215
10023.002	-14.28781	3.08582	-12.76234	2.72719
10026.993	-14.22643	3.10554	-12.73649	2.68948
10030.990	-14.20539	3.09069	-12.74886	2.64678
10034.991	-14.23680	3.15484	-12.75637	2.62653
10038.991	-14.24322	3.24030	-12.76709	2.59861
10042.993	-14.28093	3.23376	-12.79628	2.59659
10046.992	-14.32132	3.29037	-12.79562	2.59317
10050.991	-14.32731	3.33954	-12.79279	2.58159
10054.863	-14.32572	3.35507	-12.78370	2.56369
10058.824	-14.26275	3.27365	-12.81516	2.55379
10062.868	-14.35631	3.23347	-12.83319	2.56865
10066.869	-14.39087	3.21912	-12.87765	2.55468
10070.867	-14.41275	3.18169	-12.91581	2.50462
10074.868	-14.46936	3.03721	-12.91668	2.50492
10078.824	-14.45695	2.95044	-12.93653	2.48983
10082.867	-14.44683	2.82578	-12.96107	2.49237
10086.864	-14.43396	2.73265	-12.95633	2.49802
10090.860	-14.41462	2.84931	-12.97116	2.52214
10094.869	-14.40048	2.76778	-12.96413	2.53483
10098.869	-14.43352	2.86969	-12.99491	2.58395
10102.863	-14.50423	2.95898	-13.05522	2.66152
10106.889	-14.49476	2.92563	-13.10930	2.73712
10110.866	-14.48981	3.01287	-13.16576	2.77497
10114.869	-14.49567	3.13453	-13.18670	2.81210
10118.865	-14.43335	3.17370	-13.24339	2.84728
10122.887	-14.40568	3.18352	-13.27066	2.80874
10126.870	-14.39348	3.19524	-13.33452	2.73202
10130.867	-14.40696	3.22064	-13.32099	2.68027
10134.868	-14.50379	3.21195	-13.30341	2.55747
10138.865	-14.57039	3.24688	-13.31492	2.48482
10142.865	-14.57566	3.21705	-13.27315	2.42637
10146.863	-14.56560	3.19029	-13.27156	2.44435
10150.867	-14.54523	3.16790	-13.24854	2.43598
10154.865	-14.46559	3.16863	-13.24381	2.39696
10158.865	-14.46100	3.14394	-13.30320	2.35273
10162.869	-14.41771	3.11355	-13.29370	2.26943
10166.866	-14.41366	3.07447	-13.29375	2.22363
10170.865	-14.39883	3.06942	-13.27595	2.17940
10174.867	-14.53726	3.08360	-13.28667	2.13357
10178.867	-14.45058	3.09764	-13.28799	2.12042
10182.847	-14.47608	3.09522	-13.28453	2.12675
10186.843	-14.45553	3.06533	-13.32428	2.19524
10190.868	-14.43838	3.03480	-13.33241	2.17189
10194.869	-14.44953	3.03815	-13.30924	2.23162
10198.868	-14.51107	3.05429	-13.24882	2.26589
10202.888	-14.48229	3.06493	-13.23506	2.38319
10206.869	-14.42930	3.06170	-13.20136	2.47483
10210.870	-14.40090	3.09730	-13.21446	2.49732
10214.865	-14.45055	3.13665	-13.23572	2.63318
10218.890	-14.46789	3.14274	-13.23854	2.65623
10222.864	-14.39376	3.09673	-13.29462	2.66647
10226.823	-14.37240	3.11608	-13.35179	2.68290
10230.868	-14.30867	3.15268	-13.35301	2.66062
10234.872	-14.30086	3.16782	-13.41598	2.62309
10238.867	-14.21913	3.11820	-13.45097	2.62353
10242.867	-14.21097	3.02226	-13.52665	2.59011
10246.868	-14.19037	3.01806	-13.49373	2.54356
10250.864	-14.19312	2.98970	-13.50108	2.54131
10254.868	-14.18365	3.00391	-13.48995	2.58238
10258.867	-14.19431	2.86734	-13.43451	2.58331
10262.824	-14.19413	2.83228	-13.39631	2.57885
10266.865	-14.24653	2.90672	-13.22702	2.48826
10270.870	-14.15283	2.89757	-13.14496	2.39680
10274.867	-13.74875	2.99677	-12.74678	2.48341
10278.859	-12.22303	2.95970	-10.14497	2.57119
10282.861	-11.26304	2.97942	-9.97828	2.64224
10286.869	-10.83486	3.07435	-9.81841	2.56328
10290.870	-10.70239	2.85213	-9.63455	2.64312
10294.873	-10.55217	2.82738	-9.41431	2.70087
10298.868	-10.15860	2.76694	-8.84840	2.68651
10302.870	-10.08681	2.84151	-8.95450	2.67292
10306.870	-10.23046	2.79147	-8.87629	2.73304
10310.872	-10.29644	2.65897	-8.87559	2.77925
10314.866	-10.24091	2.62227	-8.67476	2.75408
10318.869	-9.98596	2.48445	-8.66023	2.80828
10322.870	-9.85693	2.32186	-8.60174	2.81756
10326.824	-9.83571	2.36241	-8.53702	2.76641
10330.827	-9.87329	2.39286	-8.49280	2.76820
10334.824	-9.84310	2.41887	-8.46092	2.73957
10338.869	-9.83790	2.36829	-8.42034	2.69931
10342.869	-9.85809	2.34722	-8.40526	2.67283
10346.830	-9.84462	2.28653	-8.37973	2.63905
10350.833	-9.79614	2.30573	-8.33294	2.61761
10354.867	-9.73164	2.20597	-8.26663	2.60539
10358.868	-9.81448	2.17875	-8.22005	2.63006
10362.828	-9.78522	2.14001	-8.15066	2.59535
10366.868	-9.90376	2.16224	-8.17627	2.59677
10370.826	-9.98360	2.17555	-8.13259	2.62281
10374.871	-9.98752	2.13591	-8.14784	2.64645
10378.856	-10.01467	2.10420	-8.12807	2.69721
10382.867	-10.03375	2.09233	-8.08299	2.72977
10386.870	-10.05811	2.10580	-8.14324	2.75449
10390.849	-10.08527	2.09847	-8.11211	2.75974
10394.832	-10.06511	2.06231	-8.12233	2.76141
10398.870	-10.08226	2.06953	-8.13339	2.72850
10402.871	-10.03486	2.08428	-8.20457	2.72978
10406.870	-10.03573	2.11155	-8.25260	2.72407
10410.828	-10.01113	2.14604	-8.30337	2.70986
10414.870	-10.00086	2.17480	-8.28250	2.67475
10418.871	-9.99956	2.19277	-8.30570	2.69719
10422.872	-9.98213	2.23721	-8.30767	2.65674
10426.829	-9.96670	2.29474	-8.33880	2.63033
10430.864	-9.93128	2.30261	-8.31499	2.59643
10434.870	-9.91336	2.35421	-8.27820	2.61012
10438.871	-9.92540	2.39605	-8.24835	2.61005
10442.868	-9.88054	2.40464	-8.22939	2.59164
10446.872	-9.83650	2.39142	-8.15256	2.61914
10450.870	-9.77570	2.40327	-8.16199	2.52661
10454.871	-9.76232	2.39689	-8.08732	2.51237
10458.867	-9.71411	2.37503	-8.07898	2.50903
10462.865	-9.68896	2.39695	-8.06467	2.44618
10466.869	-9.60217	2.37118	-8.04730	2.43209
10470.872	-9.55179	2.38912	-8.02550	2.41707
10474.892	-9.63122	2.39430	-8.00774	2.33216
10478.873	-9.51341	2.32112	-8.08350	2.38320
10482.872	-9.04088	2.20206	-7.98393	2.22659
10486.872	-6.41405	1.60489	-6.15191	2.03601
10490.867	-5.01952	0.63033	-5.25180	1.05906
10494.873	-4.11782	0.01014	-4.24616	0.73615
10498.871	-3.11663	-0.45135	-3.66320	0.30150
10502.871	-2.28165	-0.77769	-1.89637	0.23395
10506.869	-1.53133	-0.99773	-1.83712	-0.11745
10510.872	-1.34604	-1.11746	-0.84659	-0.20680
10514.870	-0.89852	-1.33432	-0.25463	-0.30248
10518.867	-0.84756	-1.27627	-0.08934	-0.41239
10522.869	-0.73806	-1.31495	0.01278	-0.62282
10526.828	-0.79866	-1.40267	0.01276	-0.66300
10530.872	-0.86828	-1.36944	-0.02884	-0.66546
10534.870	-0.75191	-1.39188	-0.00933	-0.80956
10538.863	-0.62970	-1.41933	0.01948	-0.85992
10542.874	-0.58086	-1.46352	0.11304	-0.91544
10546.872	-0.65650	-1.52374	0.13513	-0.98360
10550.871	-0.63526	-1.56881	0.13501	-0.98892
10554.865	-0.64029	-1.52697	0.16737	-1.06555
10558.872	-0.67863	-1.46759	0.20410	-1.10775
10562.871	-0.63786	-1.37500	0.22693	-1.11660
10566.871	-0.57875	-1.35321	0.25723	-1.12106
10570.872	-0.64017	-1.28880	0.24626	-1.16453
10574.872	-0.65642	-1.31684	0.27051	-1.20271
10578.873	-0.71116	-1.40928	0.31600	-1.23539
10582.829	-0.78791	-1.48096	0.30655	-1.26373
10586.872	-0.85364	-1.51880	0.30300	-1.29656
10590.875	-0.84560	-1.58100	0.29401	-1.35955
10594.873	-0.83704	-1.57294	0.31548	-1.40062
10598.851	-0.81193	-1.62382	0.34620	-1.43049
10602.841	-0.79895	-1.73288	0.34757	-1.45838
10606.829	-0.75111	-1.80029	0.37261	-1.50285
10610.873	-0.75178	-1.83127	0.34246	-1.50509
10614.872	-0.67764	-1.87387	0.30245	-1.49543
10618.870	-0.80622	-1.90174	0.34518	-1.50397
10622.873	-0.79461	-1.92803	0.31987	-1.51033
10626.831	-0.74007	-1.94106	0.33022	-1.53673
10630.874	-0.70871	-1.92888	0.36137	-1.56200
10634.873	-0.68513	-1.90266	0.40025	-1.59775
10638.831	-0.79136	-1.89418	0.37568	-1.51735
10642.864	-0.82367	-1.82049	0.35010	-1.49334
10646.874	-0.91949	-1.79235	0.37633	-1.48271
10650.870	-0.95844	-1.74137	0.30741	-1.42046
10654.875	-0.96852	-1.71833	0.29550	-1.45911
10658.874	-0.99635	-1.71720	0.33481	-1.46675
10662.883	-0.97904	-1.70859	0.32670	-1.43313
10666.864	-0.93931	-1.71124	0.37152	-1.45624
10670.874	-0.98211	-1.74823	0.37695	-1.39445
10674.873	-1.01489	-1.82819	0.31603	-1.36483
10678.871	-0.98427	-1.90214	0.29637	-1.34321
10682.864	-0.91257	-1.87486	0.27403	-1.37231
10686.876	-0.82173	-1.79947	0.29657	-1.39248
10690.874	-0.78173	-1.79154	0.30908	-1.41172
10694.874	-0.70685	-1.78534	0.31617	-1.50479
10698.866	-0.75454	-1.84835	0.32206	-1.55277
10702.831	-0.77481	-1.86507	0.36003	-1.70742
10706.874	-0.75588	-1.88101	0.30116	-1.63262
10710.874	-0.83893	-1.84556	0.24634	-1.63576
10714.872	-0.87622	-1.77914	0.22753	-1.66863
10718.875	-0.90629	-1.70113	0.19169	-1.70997
10722.858	-0.96609	-1.67650	0.15809	-1.70824
10726.830	-1.00978	-1.65347	0.16265	-1.73900
10730.870	-1.02439	-1.66595	0.15188	-1.76390
10734.873	-1.08840	-1.69098	0.13114	-1.77393
10738.876	-1.09936	-1.71322	0.12265	-1.77865
10742.873	-1.10423	-1.72888	0.10523	-1.80199
10746.873	-1.05739	-1.73444	0.09235	-1.76480
10750.874	-1.08669	-1.74343	0.12918	-1.84500
10754.877	-1.04550	-1.73239	0.17114	-1.86746
10758.875	-0.99725	-1.74607	0.25470	-1.87403
10762.770	-0.93827	-1.78683	0.25014	-1.85633
10766.845	-0.87220	-1.81064	0.30449	-1.88574
10770.875	-0.82521	-1.85403	0.36983	-1.83057
10774.871	-0.83066	-1.87232	0.46889	-1.80210
10778.871	-0.79431	-1.89996	0.52386	-1.80092
10782.874	-0.81764	-1.89945	0.58595	-1.79720
10786.875	-0.81434	-1.88920	0.64332	-1.76836
10790.873	-0.81540	-1.86331	0.70558	-1.64796
10794.866	-0.74769	-1.82614	0.75702	-1.66535
10798.876	-0.71675	-1.81806	0.77719	-1.64615
10802.877	-0.72650	-1.74584	0.77471	-1.59756
10806.855	-0.75479	-1.66885	0.75379	-1.59775
10810.763	-0.73017	-1.55224	0.70918	-1.60106
10814.873	-0.72784	-1.53278	0.61340	-1.60872
10818.877	-0.73960	-1.52520	0.52006	-1.66153
10822.872	-0.71858	-1.51344	0.43979	-1.69114
10826.775	-0.74337	-1.58186	0.40278	-1.70555
10830.876	-0.70164	-1.63061	0.59925	-1.65659
10834.838	-0.73186	-1.77583	0.48939	-1.71032
10838.879	-0.76811	-1.72671	0.46711	-1.71973
10842.772	-0.75099	-1.62394	0.41393	-1.69092
10846.869	-0.71970	-1.59679	0.36807	-1.71059
10850.879	-0.71992	-1.69999	0.38516	-1.71831
10854.876	-0.79536	-1.69257	0.35839	-1.78338
10858.771	-0.77387	-1.71023	0.38109	-1.68907
10862.875	-0.82466	-1.74823	0.37755	-1.69632
10866.875	-0.84994	-1.78278	0.35052	-1.68272
10870.887	-0.66953	-1.70212	0.40584	-1.63948
10874.771	-0.63062	-1.65799	0.36422	-1.62052
10878.874	-0.49493	-1.65461	0.35650	-1.64888
10882.873	-0.42765	-1.63238	0.42822	-1.59831
10886.874	-0.49922	-1.61563	0.48552	-1.61903
10890.770	-0.55719	-1.63495	0.47937	-1.63266
10894.865	-0.71389	-1.65302	0.46061	-1.71643
10898.836	-0.56994	-1.44135	0.44532	-1.64210
10902.875	-0.70156	-1.41191	0.50937	-1.58111
10906.879	-0.76082	-1.47504	0.61255	-1.50890
10910.874	-3.43744	-1.02982	0.64436	-1.44888
10914.878	-3.38273	-0.88676	2.74913	-1.27296
10918.876	-1.14020	2.08552	3.16560	-1.16495
10922.771	NaN	NaN	-2.24515	0.69506
10926.874	NaN	NaN	0.49991	11.59697
10930.859	NaN	NaN	NaN	NaN
10934.874	NaN	NaN	NaN	NaN
10938.875	NaN	NaN	NaN	NaN
10942.874	NaN	NaN	NaN	NaN
10946.876	NaN	NaN	NaN	NaN
10950.873	NaN	NaN	NaN	NaN
10954.878	NaN	NaN	NaN	NaN
10958.875	NaN	NaN	NaN	NaN
10962.833	NaN	NaN	NaN	NaN
10966.874	NaN	NaN	NaN	NaN
10970.877	NaN	NaN	NaN	NaN
10974.876	NaN	NaN	NaN	NaN
10978.834	NaN	NaN	NaN	NaN
10982.781	NaN	NaN	NaN	NaN
10986.873	NaN	NaN	NaN	NaN
10990.877	NaN	NaN	NaN	NaN
10994.879	NaN	NaN	NaN	NaN
10998.881	3.70364	-1.78864	NaN	NaN
11002.881	3.43716	-0.77698	-0.87806	1.08712
11006.875	1.19857	-1.33188	1.18210	-2.74803
11010.880	1.37798	-1.16016	1.34819	-2.64950
11014.832	0.92932	-1.47549	1.41769	-2.61041
11018.765	-0.57955	-1.49660	0.87433	-2.87387
11022.876	-1.44976	-1.83916	0.30386	-2.87240
11026.877	-1.37121	-1.67229	0.02102	-2.80251
11030.877	-1.92560	-1.49957	-0.32431	-2.79575
11034.836	-2.72672	-1.58082	-0.76900	-2.80008
11038.875	-2.39334	-1.76795	-1.12350	-2.67628
11042.874	-2.66105	-1.89470	-1.20762	-2.57929
11046.878	-2.43538	-1.88116	-1.22563	-2.59152
11050.738	-2.20136	-1.88797	-1.25791	-2.56508
11054.873	-2.44660	-1.84432	-1.15836	-2.59478
11058.870	-2.57674	-1.85750	-1.23449	-2.56929
11062.876	-2.44787	-1.84943	-1.06629	-2.50391
11066.741	-2.53328	-1.80266	-1.08706	-2.46347
11070.877	-2.71664	-1.83580	-1.27358	-2.51548
11074.878	-2.73184	-1.88236	-1.20551	-2.42724
11078.835	-2.59458	-1.86464	-1.23129	-2.40274
11082.779	-2.51963	-1.92238	-1.17619	-2.44398
11086.879	-2.47668	-1.92934	-1.14546	-2.41050
11090.755	-2.62491	-1.92510	-1.19125	-2.37239
11094.752	-2.58816	-1.88908	-1.15081	-2.40462
11098.712	-2.56763	-1.99389	-1.15441	-2.35908
11102.735	-2.54638	-1.94002	-1.18326	-2.32914
11106.752	-2.66632	-1.94695	-1.20358	-2.12599
11110.754	-2.62756	-1.92286	-1.33026	-2.21906
11114.711	-2.72493	-1.93667	-1.19204	-2.21891
11118.752	-2.53749	-1.96436	-1.37483	-2.19756
11122.753	-2.59557	-2.01284	-1.30538	-2.17795
11126.752	-2.61350	-1.89871	-1.19586	-1.98449
11130.712	-2.63215	-2.10716	-1.38138	-2.09414
11134.750	-2.61384	-1.90412	-1.16602	-2.12185
11138.753	-2.54593	-2.01002	-1.47506	-2.11804
11142.754	-2.63012	-1.95601	-1.43771	-2.09113
11146.712	-2.71981	-1.96735	-1.30732	-1.97563
11150.751	-2.61637	-2.05064	-1.44711	-2.03903
11154.754	-2.56807	-2.02109	-1.28256	-2.17361
11158.754	-2.60332	-2.06296	-1.28804	-2.01495
11162.712	-2.54920	-2.01792	-1.30494	-1.96215
11166.752	-2.53756	-2.03924	-1.24592	-2.05257
11170.711	-2.52493	-2.06214	-1.43404	-2.14073
11174.754	-2.55938	-2.01880	-1.32361	-2.12093
11178.713	-2.57008	-2.01789	-1.34686	-2.16862
11182.756	-2.63546	-2.02674	-1.31228	-2.16946
11186.730	-2.57939	-2.01490	-1.27036	-2.19403
11190.752	-2.56280	-2.04632	-1.27004	-2.13045
11194.741	-2.57560	-2.02544	-1.24925	-2.04120
11198.754	-2.61243	-2.02288	-1.34805	-1.89840
11202.756	-2.63779	-1.98979	-1.25709	-1.85089
11206.755	-2.60617	-1.90199	0.04688	-1.69901
11210.713	-2.13651	-1.88324	0.89284	-1.82860
11214.755	-1.94280	-1.83673	-0.84811	2.69569
11218.760	-0.31317	11.66743	-0.71930	3.55952
11222.756	NaN	NaN	-6.35035	-1.64603
11226.712	NaN	NaN	NaN	NaN
11230.743	NaN	NaN	NaN	NaN
11234.755	NaN	NaN	NaN	NaN
11238.753	NaN	NaN	NaN	NaN
11242.753	NaN	NaN	NaN	NaN
11246.711	NaN	NaN	NaN	NaN
11250.754	NaN	NaN	NaN	NaN
11254.752	NaN	NaN	NaN	NaN
11258.753	NaN	NaN	NaN	NaN
11262.710	NaN	NaN	NaN	NaN
11266.755	NaN	NaN	NaN	NaN
11270.711	NaN	NaN	NaN	NaN
11274.753	NaN	NaN	NaN	NaN
11278.708	NaN	NaN	NaN	NaN
11282.755	NaN	NaN	NaN	NaN
11286.754	-7.60483	7.33309	NaN	NaN
11290.756	-9.03924	3.75511	-9.77074	6.01152
11294.753	-4.48924	2.85381	-9.21715	2.94230
11298.759	-11.22890	2.18120	-4.55837	2.32765
11302.756	-4.37182	0.49027	-3.52022	0.82673
11306.761	-3.48296	1.53609	-4.91733	1.05634
11310.763	-4.11515	2.05962	-3.12917	0.75015
11314.760	-11.81903	2.52990	-7.62794	2.75832
11318.755	-11.74546	2.66882	-3.15847	0.33996
11322.755	-10.79466	1.88797	-7.32551	1.38150
11326.716	-9.38788	2.24724	-6.97956	1.17197
11330.754	-10.25386	2.05416	-8.50127	1.21670
11334.758	-9.92928	1.81861	-8.29851	1.60298
11338.757	-9.36530	1.80079	-7.93111	1.88065
11342.778	-9.25364	1.91198	-7.92493	1.28110
11346.757	-9.32545	1.86437	-8.19776	2.23875
11350.759	-9.08331	1.84723	-7.94401	1.87304
11354.750	-9.23652	1.73321	-7.88164	1.90204
11358.750	-9.00954	1.82292	-8.03032	1.82064
11362.755	-9.07760	1.68189	-8.00713	1.61125
11366.758	-9.18349	1.70651	-7.98671	1.83875
11370.714	-9.03890	1.67062	-8.10258	1.88372
11374.715	-9.02856	1.60711	-8.10537	1.76045
11378.756	-9.01075	1.57724	-8.07484	1.75238
11382.759	-8.99828	1.62983	-8.12972	1.97846
11386.760	-9.04805	1.63443	-8.08307	2.23502
11390.715	-8.94084	1.64411	-8.00949	2.29230
11394.733	-8.99528	1.62680	-7.98279	2.21083
11398.749	-9.00886	1.64587	-7.86123	2.13095
11402.757	-9.04294	1.58774	-7.75909	2.18606
11406.780	-9.05214	1.57417	-7.73950	2.22262
11410.758	-8.97269	1.57336	-7.73082	2.27737
11414.759	-8.97106	1.52748	-7.69907	2.43463
11418.756	-9.03060	1.55204	-7.68384	2.47554
11422.755	-9.04294	1.58262	-7.75151	2.48495
11426.758	-9.01832	1.57809	-7.73911	2.45025
11430.762	-9.03694	1.58429	-7.80241	2.18971
11434.750	-9.03890	1.48477	-7.74993	2.14829
11438.749	-9.05291	1.48002	-7.74179	2.19502
11442.758	-8.98600	1.48721	-7.76713	2.19772
11446.756	-9.00089	1.52166	-7.84727	2.25818
11450.759	-8.92612	1.56304	-7.88081	2.17274
11454.784	-9.00380	1.53862	-7.89849	1.80401
11458.758	-9.05044	1.53918	-7.90377	2.08433
11462.761	-9.00784	1.54231	-7.82696	2.02998
11466.757	-9.04074	1.51482	-7.99785	2.02558
11470.754	-9.03745	1.52683	-7.94000	1.82490
11474.758	-9.05940	1.54076	-7.87180	1.79043
11478.759	-9.02622	1.63858	-7.87601	2.02215
11482.757	-9.06431	1.62776	-7.92062	2.03840
11486.781	-9.09197	1.66262	-7.98766	1.64656
11490.758	-9.07661	1.59525	-7.84635	1.56822
11494.759	-9.19699	1.59115	-7.86975	1.77886
11498.756	-9.09674	1.57319	-7.94039	2.06721
11502.781	-9.01767	1.54923	-7.98094	1.80763
11506.760	-9.06097	1.52055	-7.96337	1.78403
11510.758	-8.86597	1.55375	-7.79863	1.90978
11514.761	-8.15144	1.41671	-7.36030	1.65628
11518.770	-5.16022	1.52363	-4.90213	1.78254
11522.752	-3.22153	1.32575	-3.96787	1.40269
11526.715	-2.47464	0.96762	-2.95168	1.04750
11530.756	-1.08535	0.48759	-1.58113	0.98616
11534.755	-0.06463	-0.26405	-0.32374	0.83491
11538.758	0.70186	-0.44925	0.50627	0.43774
11542.760	3.03618	-0.79336	1.85812	0.21697
11546.759	2.92916	-1.02373	2.61835	0.57772
11550.756	3.16983	-0.99111	3.59458	0.11495
11554.759	3.43210	-1.34369	3.99129	0.14695
11558.757	3.27304	-1.35549	4.19435	-0.04917
11562.759	3.26213	-1.37150	3.93275	-0.22921
11566.753	3.11608	-1.38739	3.92820	-0.27141
11570.760	3.03370	-1.38201	3.91005	-0.29970
11574.757	3.13301	-1.42645	3.96661	-0.36914
11578.759	3.14761	-1.48544	4.04011	-0.49013
11582.757	3.23247	-1.64772	4.20987	-0.58352
11586.760	3.32197	-1.84486	4.13831	-0.68250
11590.717	3.37418	-1.89804	4.21898	-0.70513
11594.763	3.36048	-1.87482	4.28851	-0.84054
11598.753	3.27878	-1.86187	4.21701	-1.03488
11602.739	3.27393	-1.91617	4.23285	-1.04070
11606.759	3.33901	-1.99801	4.29663	-1.06836
11610.759	3.35800	-1.93434	4.30438	-1.02564
11614.751	3.42319	-2.00938	4.37680	-1.12333
11618.759	3.40791	-1.99336	4.40700	-1.06689
11622.758	3.36483	-2.05455	4.43172	-1.13248
11626.713	3.29817	-1.99145	4.35657	-1.24365
11630.758	3.30599	-2.00385	4.40246	-1.30511
11634.759	3.25209	-1.93433	4.37759	-1.36828
11638.758	3.26483	-1.92219	4.35615	-1.22396
11642.761	3.24204	-1.87465	4.34842	-1.18351
11646.718	3.32867	-1.92110	4.41484	-1.18160
11650.757	3.24340	-1.89559	4.40342	-1.27084
11654.760	3.25382	-1.86109	4.37273	-1.16220
11658.758	3.31994	-1.85515	4.45579	-1.17918
11662.718	3.25874	-1.81702	4.44975	-1.19632
11666.760	3.35451	-1.84629	4.42257	-1.18158
11670.760	3.32563	-1.86024	4.47763	-1.16713
11674.769	3.28266	-1.87252	4.42757	-1.20374
11678.718	3.39193	-1.91089	4.46490	-1.19206
11682.759	3.39404	-1.88407	4.51371	-1.24260
11686.731	3.33777	-1.92418	4.51119	-1.30680
11690.758	3.43096	-1.94010	4.49479	-1.35808
11694.743	3.44354	-1.88583	4.46386	-1.33373
11698.759	3.36238	-1.90879	4.54834	-1.33003
11702.765	3.34170	-1.93249	4.42424	-1.33546
11706.760	3.38857	-1.98366	4.45940	-1.40012
11710.718	3.42267	-1.98003	4.46941	-1.40250
11714.760	3.36953	-1.96296	4.38990	-1.42427
11718.760	3.42495	-1.97073	4.39072	-1.41664
11722.760	3.36881	-1.93849	4.34504	-1.45196
11726.718	3.37705	-1.93731	4.43172	-1.45127
11730.716	3.39495	-1.99240	4.32187	-1.43626
11734.762	3.39579	-1.98179	4.39928	-1.44126
11738.761	3.41718	-1.94069	4.52915	-1.43996
11742.759	3.47796	-1.93068	4.43280	-1.45773
11746.762	3.45319	-1.92459	4.43623	-1.46253
11750.760	3.41558	-1.91233	4.43386	-1.45486
11754.761	3.44419	-1.89612	4.45032	-1.49206
11758.757	3.43442	-1.89834	4.49119	-1.52089
11762.717	3.50551	-1.91356	4.50266	-1.62409
11766.762	3.54981	-1.83609	4.48433	-1.52180
11770.725	3.44164	-1.85496	4.45422	-1.50693
11774.651	3.47994	-1.82132	4.47950	-1.46737
11778.762	3.39911	-1.80388	4.47837	-1.48619
11782.762	3.41567	-1.80712	4.43505	-1.53742
11786.759	3.50338	-1.74679	4.43934	-1.61715
11790.656	3.53018	-1.81963	4.45525	-1.57632
11794.762	3.55256	-1.78768	4.46722	-1.55969
11798.762	3.53449	-1.80726	4.45412	-1.50020
11802.770	3.55488	-1.85026	4.47267	-1.42983
11806.657	3.58007	-1.78730	4.48774	-1.46092
11810.738	3.55629	-1.78185	4.49166	-1.52790
11814.763	3.56198	-1.80882	4.51998	-1.62945
11818.762	3.59802	-1.89417	4.50064	-1.53325
11822.753	3.65235	-1.87543	4.48653	-1.57244
11826.762	3.73954	-1.81557	4.52414	-1.51226
11830.764	3.74325	-1.97027	4.55800	-1.38401
11834.719	3.71923	-1.95321	4.57667	-1.48492
11838.753	3.70154	-2.02544	4.60244	-1.47690
11842.763	3.73460	-1.97777	4.59374	-1.44541
11846.764	3.73576	-2.01417	4.53571	-1.51800
11850.764	3.74014	-2.03165	4.54360	-1.46001
11854.752	3.73512	-2.00593	4.58126	-1.47259
11858.763	3.76720	-1.97603	4.54200	-1.43818
11862.763	3.78563	-2.02074	4.56861	-1.46514
11866.766	3.74651	-1.98903	4.58528	-1.49448
11870.656	3.69291	-2.05895	4.62259	-1.52193
11874.768	3.64454	-2.02944	4.60552	-1.54644
11878.762	3.62909	-2.07274	4.59800	-1.53045
11882.763	3.61673	-2.04419	4.62106	-1.53327
11886.659	3.58719	-2.07561	4.66287	-1.55411
11890.762	3.56680	-2.06340	4.71250	-1.54010
11894.732	3.51923	-2.09251	4.70024	-1.56603
11898.765	3.38172	-2.10118	4.51307	-1.54216
11902.658	2.10850	-2.04408	2.14411	-1.48371
11906.764	0.77280	-1.95032	1.28536	-1.22494
11910.763	-0.15521	-1.61399	-1.45026	-1.06539
11914.764	-1.40435	-1.35916	-1.58331	-0.95304
11918.657	-2.51462	-1.12801	-2.88492	-0.91046
11922.762	-3.61206	-0.96385	-3.29265	-0.72691
11926.763	-4.31605	-0.84680	-3.65112	-0.50831
11930.765	-4.86645	-0.72970	-4.48172	-0.25709
11934.750	-5.03056	-0.38919	-4.62786	-0.05070
11938.764	-5.02578	-0.22256	-4.45414	-0.08089
11942.762	-4.98389	-0.22082	-4.57692	-0.06752
11946.765	-4.97137	-0.22235	-4.61016	-0.11634
11950.662	-5.04004	-0.30359	-4.65345	-0.08166
11954.766	-5.06035	-0.21119	-4.68932	-0.03703
11958.763	-5.12287	-0.13350	-4.66696	0.13164
11962.764	-5.11797	-0.13521	-4.74779	0.08137
11966.658	-5.17260	-0.10048	-4.78141	0.16049
11970.764	-5.22571	-0.10826	-4.81557	0.20834
11974.759	-5.29393	-0.08059	-4.78989	0.18351
11978.766	-5.28145	-0.13621	-4.76973	0.20318
11982.674	-5.34922	-0.19654	-4.77808	0.21269
11986.762	-5.44849	-0.20504	-4.76187	0.26603
11990.760	-5.50405	-0.22165	-4.75282	0.25950
11994.764	-5.55116	-0.20751	-4.73190	0.32530
11998.663	-5.60308	-0.23291	-4.70993	0.33846
12002.765	-5.60457	-0.25868	-4.70138	0.34055
12006.765	-5.65344	-0.26343	-4.67781	0.35767
12010.768	-5.67868	-0.26985	-4.66327	0.34483
12014.624	-5.72583	-0.24945	-4.63523	0.32825
12018.719	-5.72116	-0.19469	-4.60804	0.34034
12022.762	-5.73411	-0.14642	-4.59943	0.30377
12026.721	-5.74645	-0.08970	-4.59692	0.29113
12030.662	-5.73785	-0.01708	-4.61763	0.25269
12034.765	-5.73694	0.00227	-4.60587	0.28083
12038.762	-5.76509	0.02705	-4.60772	0.27310
12042.766	-5.74404	-0.02228	-4.58449	0.27184
12046.663	-5.78239	0.03414	-4.57551	0.25476
12050.765	-5.78661	0.03130	-4.58395	0.22530
12054.764	-5.79108	0.03256	-4.50256	0.22823
12058.755	-5.74765	-0.00485	-4.49931	0.24629
12062.661	-5.71205	-0.02883	-4.45572	0.24613
12066.762	-5.71686	-0.08117	-4.48401	0.25256
12070.765	-5.70097	-0.15667	-4.46468	0.24692
12074.766	-5.65658	-0.17569	-4.43776	0.25240
12078.664	-5.63854	-0.17234	-4.45365	0.25416
12082.767	-5.60185	-0.17996	-4.47272	0.23787
12086.764	-5.55086	-0.21540	-4.48606	0.24307
12090.769	-5.51469	-0.23891	-4.52261	0.21440
12094.663	-5.51954	-0.24944	-4.53763	0.18160
12098.764	-5.55238	-0.30213	-4.62209	0.11743
12102.730	-5.63800	-0.31754	-4.64241	0.07567
12106.769	-5.63107	-0.33396	-4.65331	0.05018
12110.658	-5.66929	-0.35167	-4.64638	0.01404
12114.766	-5.64688	-0.31870	-4.66014	0.06006
12118.767	-5.69180	-0.29862	-4.64916	0.00215
12122.768	-5.68283	-0.25654	-4.68028	-0.03821
12126.626	-5.66288	-0.26384	-4.69083	-0.07383
12130.640	-5.62296	-0.21861	-4.72987	-0.07964
12134.641	-5.65309	-0.17080	-4.75176	-0.05978
12138.640	-5.70097	-0.09468	-4.77180	-0.03051
12142.751	-5.69023	-0.04072	-4.78006	-0.01409
12146.635	-5.73844	0.01652	-4.72349	0.01587
12150.629	-5.80622	0.06235	-4.69541	0.03487
12154.598	-5.78873	0.05397	-4.65180	0.06588
12158.600	-5.86622	0.02205	-4.59889	0.04362
12162.641	-5.80816	0.12017	-4.60197	0.09950
12166.640	-5.73003	0.03642	-4.55376	0.13517
12170.640	-5.74868	-0.01827	-4.54476	0.17726
12174.598	-5.78050	-0.03066	-4.50320	0.20199
12178.641	-5.75323	-0.05588	-4.48320	0.22823
12182.639	-5.80229	-0.12858	-4.43813	0.22750
12186.641	-5.81589	-0.12398	-4.42104	0.27726
12190.599	-5.75259	-0.25592	-4.45639	0.29317
12194.642	-5.72006	-0.29225	-4.53662	0.31586
12198.645	-5.69981	-0.32740	-4.53640	0.33577
12202.640	-5.71834	-0.35703	-4.63232	0.35968
12206.637	-5.75500	-0.40317	-4.66696	0.33370
12210.640	-5.76065	-0.41172	-4.70993	0.29007
12214.641	-5.73996	-0.43188	-4.76352	0.23552
12218.638	-5.70119	-0.40850	-4.86793	0.23333
12222.600	-5.71976	-0.39797	-4.90356	0.20918
12226.608	-5.70126	-0.38276	-4.90698	0.23753
12230.641	-5.66828	-0.38441	-4.95824	0.19434
12234.629	-5.68074	-0.31453	-4.96514	0.14769
12238.627	-5.67366	-0.28839	-4.91893	0.12421
12242.642	-5.68303	-0.24358	-4.93888	0.04642
12246.640	-5.66649	-0.23058	-4.90942	0.07323
12250.639	-5.69067	-0.21505	-4.83343	0.14213
12254.600	-5.72111	-0.24812	-4.85677	0.11667
12258.642	-5.80381	-0.20633	-4.84886	0.07294
12262.643	-5.82486	-0.20726	-4.78750	0.03440
12266.597	-5.89154	-0.22834	-4.75228	-0.02407
12270.642	-5.93551	-0.25519	-4.79213	-0.07169
12274.606	-5.94369	-0.26057	-4.79967	-0.19832
12278.643	-5.94352	-0.30578	-4.80376	-0.22969
12282.642	-5.92847	-0.31184	-4.84447	-0.23200
12286.640	-6.10077	-0.02024	-5.33783	0.24014
12290.644	-6.75355	0.63959	-7.52330	2.19378
12294.641	-8.97056	2.01193	-8.25848	3.65682
12298.641	-10.10170	2.91315	-8.77170	4.07833
12302.663	-10.65923	3.38697	-9.65529	4.54688
12306.645	-11.23387	4.01531	-10.66860	5.71400
12310.641	-12.36817	5.59813	-10.91248	6.07115
12314.619	-13.50797	6.73678	-11.72362	8.18897
12318.632	-14.36576	8.04941	-12.19830	9.23374
12322.644	-14.45407	8.23787	-12.45979	9.77414
12326.600	-14.88280	8.36048	-12.67721	9.96027
12330.639	-15.06565	8.54003	-12.49100	10.02970
12334.665	-14.83555	8.50564	-12.36101	10.13647
12338.633	-14.90718	8.51465	-12.22639	10.08344
12342.643	-14.80957	8.34272	-12.27522	9.95449
12346.643	-15.15022	8.40881	-12.45355	9.90452
12350.665	-15.19965	8.46767	-12.53724	9.72250
12354.639	-15.35593	8.48347	-12.48189	9.88379
12358.634	-15.06718	8.44521	-12.51149	9.83453
12362.643	-15.08636	8.49270	-12.49587	9.97237
12366.663	-15.01876	8.46561	-12.57701	9.87838
12370.602	-14.89240	8.54872	-12.56642	9.96972
12374.643	-14.97539	8.48655	-12.55907	9.94242
12378.643	-14.93793	8.49170	-12.56183	9.97587
12382.666	-15.03080	8.53535	-12.65248	10.04208
12386.644	-15.03689	8.60381	-12.63823	10.08635
12390.645	-15.02290	8.65042	-12.65467	10.02669
12394.646	-14.98625	8.63600	-12.61800	10.02575
12398.635	-15.03941	8.63571	-12.59304	10.09606
12402.645	-14.98560	8.65716	-12.58044	10.11159
12406.647	-15.02582	8.67704	-12.64685	10.09107
12410.652	-15.04274	8.65357	-12.69871	10.08323
12414.666	-15.03344	8.69212	-12.64087	10.18340
12418.645	-15.01506	8.61512	-12.62421	10.12943
12422.644	-14.96047	8.60511	-12.68902	10.04166
12426.643	-14.86611	8.62254	-12.67617	10.01669
12430.666	-14.85217	8.58218	-12.75351	9.95804
12434.601	-14.82145	8.53142	-12.72683	9.95041
12438.631	-14.80268	8.57451	-12.79472	9.88375
12442.641	-14.79929	8.56992	-12.77197	10.06880
12446.662	-14.75758	8.54557	-12.77948	10.10527
12450.643	-14.76665	8.51058	-12.73477	9.96224
12454.645	-14.74820	8.42257	-12.69249	9.86893
12458.645	-14.74456	8.49162	-12.70170	9.96913
12462.668	-14.72531	8.50214	-12.70839	9.83303
12466.642	-14.78971	8.61224	-12.72461	9.86721
12470.646	-14.86363	8.56064	-12.68413	9.89059
12474.644	-14.83814	8.58860	-12.54930	9.84334
12478.668	-14.83933	8.74579	-12.48334	9.85996
12482.610	-14.84250	8.68835	-12.45213	9.99955
12486.648	-14.86469	8.75299	-12.48140	9.98823
12490.645	-14.87522	8.81972	-12.44240	9.98036
12494.669	-14.85825	8.89336	-12.47269	10.01635
12498.644	-14.86221	9.01497	-12.47534	10.09202
12502.648	-14.88516	8.95672	-12.49304	10.10527
12506.645	-14.90487	8.93632	-12.53358	10.10738
12510.670	-14.89075	8.84911	-12.51544	10.18463
12514.600	-14.86854	8.90152	-12.51236	10.21159
12518.645	-14.90174	8.94503	-12.50340	10.20319
12522.642	-14.89594	8.94076	-12.56311	10.26940
12526.669	-14.90429	8.87055	-12.58349	10.26980
12530.645	-14.91221	8.95095	-12.51217	10.30006
12534.650	-14.87128	8.92412	-12.54455	10.29351
12538.645	-14.89935	8.90908	-12.52109	10.36155
12542.646	-14.89427	8.87846	-12.50508	10.34645
12546.646	-14.88704	8.88011	-12.51090	10.31939
12550.647	-14.88642	8.91382	-12.52934	10.36832
12554.644	-14.83694	8.88876	-12.49930	10.36426
12558.645	-14.83620	8.85694	-12.46408	10.34122
12562.640	-14.83610	8.89465	-12.46571	10.34273
12566.648	-14.82240	8.87176	-12.41350	10.35552
12570.646	-14.84399	8.89330	-12.41535	10.37480
12574.667	-14.81542	8.86969	-12.42299	10.31713
12578.646	-14.84742	8.86819	-12.39312	10.33659
12582.602	-14.79401	8.90175	-12.39232	10.37173
12586.647	-14.78978	9.01995	-12.42285	10.29376
12590.669	-14.80189	9.09148	-12.40193	10.26739
12594.646	-14.82551	9.15802	-12.34711	10.33219
12598.647	-14.93219	8.99775	-12.35647	10.31075
12602.649	-14.90482	9.08907	-12.36895	10.38903
12606.651	-14.95130	9.06927	-12.35772	10.35057
12610.648	-14.56325	9.54399	-12.31739	10.74575
12614.646	-14.82926	11.73327	-12.29348	14.26339
12618.648	-14.82226	14.02092	NaN	NaN
12622.652	-14.50414	13.95595	NaN	NaN
12626.643	NaN	NaN	NaN	NaN
12630.644	NaN	NaN	NaN	NaN
12634.648	NaN	NaN	NaN	NaN
12638.649	NaN	NaN	NaN	NaN
12642.649	-13.22225	14.03253	NaN	NaN
12646.628	-13.96624	14.06265	NaN	NaN
12650.642	-13.84731	14.06237	NaN	NaN
12654.649	NaN	NaN	NaN	NaN
12658.647	NaN	NaN	NaN	NaN
12662.647	NaN	NaN	NaN	NaN
12666.648	NaN	NaN	NaN	NaN
12670.651	NaN	NaN	NaN	NaN
12674.647	-13.05119	14.43694	NaN	NaN
12678.647	NaN	NaN	NaN	NaN
12682.648	-12.72997	14.36629	NaN	NaN
12686.653	NaN	NaN	NaN	NaN
12690.612	-12.63461	14.52159	NaN	NaN
12694.646	NaN	NaN	NaN	NaN
12698.602	-12.56512	14.66024	NaN	NaN
12702.645	NaN	NaN	NaN	NaN
12706.649	NaN	NaN	NaN	NaN
12710.650	NaN	NaN	NaN	NaN
12714.648	NaN	NaN	NaN	NaN
12718.650	NaN	NaN	NaN	NaN
12722.647	NaN	NaN	NaN	NaN
12726.648	NaN	NaN	NaN	NaN
12730.648	NaN	NaN	NaN	NaN
12734.616	NaN	NaN	NaN	NaN
12738.645	NaN	NaN	NaN	NaN
12742.647	NaN	NaN	NaN	NaN
12746.649	NaN	NaN	NaN	NaN
12750.651	NaN	NaN	NaN	NaN
12754.648	NaN	NaN	NaN	NaN
12758.647	NaN	NaN	NaN	NaN
12762.605	NaN	NaN	NaN	NaN
12766.651	NaN	NaN	NaN	NaN
12770.643	NaN	NaN	NaN	NaN
12774.637	-13.71167	14.13182	NaN	NaN
12778.638	NaN	NaN	NaN	NaN
12782.643	-13.43381	14.56590	NaN	NaN
12786.648	NaN	NaN	NaN	NaN
12790.648	NaN	NaN	NaN	NaN
12794.651	NaN	NaN	NaN	NaN
12798.651	-13.03472	14.42644	NaN	NaN
12802.649	NaN	NaN	NaN	NaN
12806.648	NaN	NaN	NaN	NaN
12810.653	NaN	NaN	NaN	NaN
12814.653	NaN	NaN	NaN	NaN
12818.648	NaN	NaN	NaN	NaN
12822.648	-12.86518	14.51849	NaN	NaN
12826.985	NaN	NaN	NaN	NaN
12830.682	NaN	NaN	NaN	NaN
12834.642	-12.82389	14.45553	NaN	NaN
12838.648	NaN	NaN	NaN	NaN
12842.649	NaN	NaN	NaN	NaN
12846.652	-12.91993	14.12652	NaN	NaN
12850.649	-12.89584	14.57117	NaN	NaN
12854.650	-12.82977	14.18866	NaN	NaN
12858.652	-12.69665	13.57155	NaN	NaN
12862.652	-12.81082	14.29486	NaN	NaN
12866.651	-12.78266	14.42963	NaN	NaN
12870.649	-12.69606	13.58579	NaN	NaN
12874.649	-12.66552	13.96445	NaN	NaN
12878.652	-12.62691	14.24278	NaN	NaN
12882.655	-12.66478	14.27635	NaN	NaN
12886.649	-12.55408	13.86718	NaN	NaN
12890.650	NaN	NaN	NaN	NaN
12894.655	-12.27465	13.61986	NaN	NaN
12898.653	-12.15445	13.45239	NaN	NaN
12902.650	-12.42794	14.08748	NaN	NaN
12906.649	-12.05746	13.53986	NaN	NaN
12910.655	-12.13588	13.66984	NaN	NaN
12914.653	-12.21295	13.95276	NaN	NaN
12918.650	-12.07946	12.41473	NaN	NaN
12922.650	-12.29865	13.84289	NaN	NaN
12926.653	-12.13311	13.27431	NaN	NaN
12930.652	NaN	NaN	NaN	NaN
12934.650	NaN	NaN	NaN	NaN
12938.628	NaN	NaN	NaN	NaN
12942.546	NaN	NaN	NaN	NaN
12946.650	-12.49424	13.98691	NaN	NaN
12950.649	-12.44863	13.53650	NaN	NaN
12954.650	NaN	NaN	NaN	NaN
12958.653	-12.53660	13.33711	NaN	NaN
12962.640	-12.53474	13.68234	NaN	NaN
12966.651	-12.35351	13.41258	NaN	NaN
12970.651	NaN	NaN	NaN	NaN
12974.547	-12.36492	13.58457	NaN	NaN
12978.647	NaN	NaN	NaN	NaN
12982.653	-12.46088	13.91889	NaN	NaN
12986.652	NaN	NaN	NaN	NaN
12990.653	-12.45421	13.56324	NaN	NaN
12994.607	NaN	NaN	NaN	NaN
12998.652	-12.51572	14.01493	NaN	NaN
13002.651	-12.54337	14.01915	NaN	NaN
13006.655	NaN	NaN	NaN	NaN
13010.654	-12.95284	14.32938	NaN	NaN
13014.607	-12.84864	14.34536	NaN	NaN
13018.607	-12.88482	13.95347	NaN	NaN
13022.548	-13.14953	14.24882	NaN	NaN
13026.651	-13.29697	14.26051	NaN	NaN
13030.650	-13.31890	14.46212	NaN	NaN
13034.653	-13.43651	14.48588	NaN	NaN
13038.655	-13.29217	14.39610	NaN	NaN
13042.661	NaN	NaN	NaN	NaN
13046.650	NaN	NaN	NaN	NaN
13050.652	-13.34218	14.29837	NaN	NaN
13054.655	-13.32642	14.48590	NaN	NaN
13058.650	-13.31568	14.23405	NaN	NaN
13062.635	NaN	NaN	NaN	NaN
13066.653	NaN	NaN	NaN	NaN
13070.654	-13.21630	14.52829	NaN	NaN
13074.651	NaN	NaN	NaN	NaN
13078.651	NaN	NaN	NaN	NaN
13082.654	-13.06687	14.35408	NaN	NaN
13086.654	NaN	NaN	NaN	NaN
13090.652	-13.04787	14.49441	NaN	NaN
13094.651	NaN	NaN	NaN	NaN
13098.653	NaN	NaN	NaN	NaN
13102.657	-12.82012	14.68943	NaN	NaN
13106.616	-12.66906	14.40306	NaN	NaN
13110.656	NaN	NaN	NaN	NaN
13114.655	-12.60325	14.35036	NaN	NaN
13118.656	-12.57323	14.50477	NaN	NaN
13122.651	-12.55176	14.34927	NaN	NaN
13126.653	NaN	NaN	NaN	NaN
13130.653	-12.47752	14.36234	NaN	NaN
13134.655	-12.37468	14.11561	NaN	NaN
13138.652	-12.43485	14.33356	NaN	NaN
13142.650	-12.38952	13.99539	NaN	NaN
13146.655	-12.31431	14.04201	NaN	NaN
13150.655	-12.38666	14.16681	NaN	NaN
13154.652	-12.41170	14.26824	NaN	NaN
13158.650	-12.40998	14.40643	NaN	NaN
13162.656	NaN	NaN	NaN	NaN
13166.485	NaN	NaN	NaN	NaN
13170.525	-12.45083	14.33743	NaN	NaN
13174.525	-11.84791	14.05017	NaN	NaN
13178.527	NaN	NaN	NaN	NaN
13182.512	NaN	NaN	NaN	NaN
13186.529	NaN	NaN	NaN	NaN
13190.529	NaN	NaN	NaN	NaN
13194.496	NaN	NaN	NaN	NaN
13198.486	NaN	NaN	NaN	NaN
13202.528	NaN	NaN	NaN	NaN
13206.528	NaN	NaN	NaN	NaN
