time (ms)	lx (deg)	ly (deg)	rx (deg)	ry (deg)
0.000	-0.48366	0.36044	0.39164	0.81908
4.027	-0.50872	0.37177	0.42867	0.93752
8.002	-0.52647	0.32056	0.42604	0.95066
12.004	-0.50480	0.36613	0.48470	0.95242
16.001	-0.48450	0.40760	0.51870	0.98091
20.025	-0.48808	0.37376	0.61821	0.98241
24.002	-0.46214	0.38967	0.62742	0.99873
28.006	-0.42852	0.43946	0.59652	0.98716
32.002	-0.42117	0.44642	0.57766	0.98423
35.996	-0.38586	0.41084	0.69268	0.94200
39.995	-0.35906	0.39402	0.64769	0.98369
44.005	-0.34655	0.37837	0.65079	1.00786
48.002	-0.33134	0.39007	0.66213	1.00853
51.964	-0.33394	0.38686	0.63146	0.94432
56.002	-0.31111	0.40612	0.58173	1.00693
60.007	-0.34784	0.41109	0.57697	1.01627
64.002	-0.33779	0.43994	0.54433	1.07480
68.027	-0.34801	0.47780	0.54349	1.06370
72.002	-0.36509	0.46543	0.58151	1.11307
75.961	-0.34514	0.50526	0.63647	1.09418
79.974	-0.34685	0.51480	0.61962	1.07106
83.971	-0.36410	0.52896	0.65136	1.08804
88.001	-0.36670	0.53197	0.71714	1.07623
92.000	-0.37248	0.48044	0.72377	1.04148
96.006	-0.38107	0.49721	0.74496	1.08981
100.030	-0.39703	0.44244	0.77178	1.11012
104.003	-0.37631	0.43447	0.79129	1.06183
108.010	-0.39333	0.38746	0.80960	1.05944
111.961	-0.36640	0.33379	0.79506	1.05155
115.996	-0.37102	0.27952	0.80181	1.00383
119.987	-0.38355	0.24511	0.80176	0.98776
123.998	-0.39107	0.19148	0.79828	0.95348
128.007	-0.41202	0.13923	0.80344	0.96098
132.030	-0.39584	0.11860	0.77503	0.88093
136.002	-0.38861	0.10456	0.78677	0.90271
140.001	-0.33052	0.04247	0.82218	0.88959
144.006	-0.31823	0.02808	0.87716	0.84225
147.995	-0.29813	-0.01126	0.87284	0.84032
152.004	-0.28468	-0.04706	0.93936	0.82788
156.005	-0.25691	-0.06008	1.00171	0.79142
160.009	-0.28332	-0.06687	1.04620	0.80579
163.995	-0.26721	-0.07430	1.03171	0.79070
168.004	-0.27964	-0.05576	1.11368	0.84142
172.000	-0.33752	-0.05862	1.21422	0.83071
175.961	-0.41311	-0.08145	1.19825	0.83173
179.965	-0.41651	-0.08558	1.21588	0.76148
183.962	-0.51329	-0.04905	1.17493	0.73415
188.005	-0.51729	-0.01625	1.14866	0.74988
192.002	-0.59488	0.03879	0.98008	0.71385
195.965	-0.67732	0.07231	1.06585	0.75979
200.004	-0.73712	0.14796	1.00092	0.72172
203.986	-0.72886	0.21796	0.94554	0.76317
208.005	-0.72154	0.26604	0.99164	0.78777
211.966	-0.75176	0.27133	0.98544	0.79453
216.000	-0.70727	0.30574	0.92748	0.74581
220.005	-0.67404	0.34774	0.86339	0.72885
224.001	-0.70042	0.34522	0.79034	0.74144
227.963	-0.69682	0.34431	0.74027	0.73158
232.004	-0.65620	0.28724	0.73570	0.70763
236.006	-0.60727	0.30908	0.74322	0.75630
239.999	-0.53545	0.32506	0.68092	0.73609
243.964	-0.47823	0.28839	0.65444	0.70350
247.993	-0.41117	0.30052	0.65151	0.67662
252.002	-0.35104	0.28292	0.62923	0.59471
256.002	-0.26567	0.30022	0.60930	0.52263
259.995	-0.22229	0.32129	0.59250	0.52358
264.005	-0.18864	0.29329	0.58317	0.50157
268.003	-0.08721	0.27592	0.63637	0.39152
272.003	-0.02757	0.19683	0.66297	0.43229
275.992	-0.10461	0.29125	0.66848	0.36421
280.007	-0.11247	0.31747	0.63434	0.25615
284.008	-0.22552	0.31145	0.63764	0.24738
288.006	-0.20834	0.29331	0.64005	0.31114
292.008	-0.20882	0.22995	0.66072	0.44692
296.008	-0.26505	0.20262	0.67052	0.40364
299.975	-0.35598	0.13697	0.64374	0.51990
303.970	-0.37134	0.12608	0.64868	0.81288
308.010	-0.45907	0.09659	0.69896	0.89823
312.010	-0.50413	0.11649	0.70707	0.68963
316.015	-0.50850	0.12193	0.66307	0.93664
320.004	-0.48793	0.04589	0.67178	0.98595
324.001	-0.57942	0.12685	0.66883	0.89158
328.006	-0.56426	0.10307	0.67228	1.05384
332.002	-0.60970	0.07812	0.61843	0.85495
336.005	-0.61201	0.14367	0.58332	0.72177
340.006	-0.61749	0.16141	0.53997	0.81600
344.007	-0.62585	0.18837	0.51518	0.76903
348.007	-0.62513	0.19580	0.55436	0.82256
352.005	-0.64124	0.21543	0.48741	0.61937
356.007	-0.59394	0.22251	0.46435	0.86170
360.009	-0.63382	0.28778	0.42174	0.42729
364.004	-0.63692	0.30798	0.40623	0.47358
368.011	-0.61533	0.29077	0.41132	0.68099
371.924	-0.61320	0.30413	0.40055	0.71555
376.007	-0.59337	0.33142	0.37459	0.76226
380.006	-0.58878	0.33112	0.38137	0.90687
384.005	-0.60938	0.36225	0.34710	0.78964
388.010	-0.61148	0.35524	0.32642	0.73516
392.007	-0.57682	0.34280	0.26284	0.82726
396.009	-0.52019	0.34002	0.19782	0.81591
400.005	-0.53490	0.30493	0.17678	1.00044
403.904	-0.52279	0.26364	0.09103	1.06069
408.007	-0.55533	0.17617	0.11697	1.02211
411.992	-0.51250	0.18047	0.11508	0.90366
416.007	-0.48398	0.17277	0.14523	0.89939
420.011	-0.45924	0.10431	0.18117	1.03040
424.007	-0.45199	0.08918	0.30337	1.11674
428.009	-0.40472	0.06403	0.42281	1.09730
432.006	-0.39765	0.03315	0.42130	1.11692
436.009	-0.40611	0.05499	0.41326	1.09295
439.966	-0.38861	0.09117	0.51101	1.09629
444.007	-0.35514	0.13557	0.55900	1.14228
448.008	-0.29188	0.15026	0.58074	1.08031
452.003	-0.28950	0.19546	0.53108	1.06330
456.000	-0.29560	0.22488	0.48247	1.07692
460.010	-0.33146	0.16589	0.39303	1.06248
464.009	-0.38474	0.16726	0.35417	1.00885
468.000	-0.37819	0.20055	0.33196	1.01559
472.010	-0.52848	0.17744	0.28672	0.99375
476.008	-0.53540	0.15115	0.26173	0.80679
480.008	-0.55684	0.09626	0.26011	0.78165
484.000	-0.63387	0.06478	0.26463	0.76672
488.007	-0.70355	0.00887	0.27788	0.64321
492.009	-0.75183	-0.07829	0.26592	0.55108
496.008	-0.81225	-0.14786	0.30987	0.49016
499.918	-0.83146	-0.12513	0.31729	0.47726
504.008	-0.81263	-0.17909	0.35759	0.46302
508.004	-0.82734	-0.25030	0.36097	0.38584
512.006	-0.83081	-0.33396	0.36640	0.33143
516.011	-0.77603	-0.35036	0.36164	0.30501
520.007	-0.74992	-0.36500	0.34313	0.34316
524.006	-0.70300	-0.30184	0.36357	0.40701
528.011	-0.76005	-0.35978	0.34407	0.39233
532.011	-0.79196	-0.41829	0.35772	0.55085
536.007	-0.76461	-0.37916	0.36983	0.62860
540.006	-0.73578	-0.38691	0.35181	0.63719
544.010	-0.76126	-0.37218	0.36288	0.63334
547.905	-0.75987	-0.31645	0.38646	0.60442
552.010	-0.73977	-0.30231	0.42239	0.70052
556.008	-0.63082	-0.22288	0.45152	0.69021
560.012	-0.67605	-0.25839	0.45688	0.74687
563.908	-0.61072	-0.26286	0.54024	0.76075
568.009	-0.56960	-0.26018	0.55436	0.77173
572.005	-0.44306	-0.26990	0.59297	0.80256
575.967	-0.35417	-0.28854	0.59759	0.78728
579.970	-0.37045	-0.23459	0.64173	0.81224
584.013	-0.31481	-0.24662	0.62245	0.77597
588.009	-0.27054	-0.23032	0.66171	0.78262
592.008	-0.18650	-0.24079	0.70245	0.82815
595.874	-0.12612	-0.18552	0.55004	0.85781
600.012	-0.22137	-0.18818	0.43713	0.83992
604.010	-0.16184	-0.15098	0.43490	0.86292
608.007	-0.27863	-0.15043	0.36261	0.84939
611.968	-0.36382	-0.19136	0.44830	0.83259
616.011	-0.31563	-0.13930	0.33908	0.83767
620.012	-0.40527	-0.12544	0.24728	0.81042
624.010	-0.43673	-0.17357	0.20234	0.76682
627.876	-0.51783	-0.15001	0.22631	0.77343
632.013	-0.62791	-0.07136	0.18770	0.71420
636.008	-0.64915	-0.08816	0.20628	0.69882
640.008	-0.70833	-0.10153	0.28374	0.70878
643.873	-0.71863	-0.08734	0.23264	0.78451
648.009	-0.72690	-0.08344	0.25378	0.72933
652.008	-0.70151	-0.04415	0.22075	0.83536
656.010	-0.66876	-0.00475	0.18626	0.90262
659.969	-0.66476	0.05976	0.19544	0.95543
664.008	-0.65573	0.01660	0.21152	1.02946
668.008	-0.69543	-0.02373	0.22269	1.06689
672.009	-0.66722	0.01277	0.23805	1.10497
676.013	-0.65417	-0.03171	0.27458	1.13589
680.007	-0.62518	-0.05909	0.27165	1.12725
684.013	-0.60617	-0.07765	0.26344	1.14901
688.006	-0.58461	-0.13440	0.29113	1.10352
692.012	-0.60258	-0.17205	0.35960	1.10411
696.011	-0.59528	-0.21642	0.39318	1.06596
700.011	-0.59955	-0.19652	0.45110	1.03862
703.981	-0.62838	-0.23876	0.54002	0.95537
707.895	-0.62342	-0.20176	0.57213	0.92841
712.009	-0.62295	-0.18074	0.58890	0.85950
716.014	-0.61287	-0.13679	0.56513	0.77983
719.969	-0.59692	-0.13458	0.52629	0.73315
723.915	-0.61384	-0.12300	0.52500	0.68575
728.011	-0.61332	-0.08436	0.47882	0.68103
732.013	-0.59004	-0.04453	0.48103	0.62764
736.010	-0.57734	-0.00107	0.44398	0.64695
740.007	-0.59888	0.04724	0.24185	0.62025
743.887	-0.62196	0.09196	0.31593	0.59898
747.888	-0.64176	0.10774	0.28910	0.62400
751.880	-0.64811	0.11375	0.29587	0.61203
755.876	-0.67134	0.08662	0.24142	0.61611
759.882	-0.70265	0.07017	0.29121	0.62395
763.886	-0.71737	0.04664	0.33124	0.61988
767.886	-0.72645	0.02987	0.32764	0.59853
771.878	-0.73434	-0.00822	0.32265	0.51808
775.887	-0.76685	-0.11340	0.38869	0.53172
779.887	-0.79121	-0.18921	0.36663	0.43469
783.892	-0.78364	-0.31573	0.44376	0.34139
787.881	-0.78935	-0.28733	0.45212	0.19493
791.856	-0.83310	-0.29038	0.48944	0.22376
795.887	-0.86756	-0.35187	0.50123	0.17714
799.888	-0.86183	-0.34141	0.76774	0.20233
803.890	-0.84836	-0.29910	0.58091	0.19908
807.885	-0.82034	-0.30213	0.60349	0.18228
811.890	-0.77883	-0.29461	0.68672	0.24875
815.890	-0.77796	-0.33148	0.71556	0.29777
819.909	-0.78573	-0.33540	0.74213	0.31344
823.884	-0.79496	-0.27798	0.77464	0.36341
827.889	-0.77506	-0.26914	0.68397	0.38098
831.876	-0.81317	-0.28457	0.67124	0.31404
835.880	-0.79588	-0.30256	0.66015	0.26626
839.886	-0.79109	-0.34780	0.62972	0.24937
843.850	-0.80005	-0.31953	0.50969	0.04649
847.891	-0.78920	-0.36591	0.41068	-0.05057
851.909	-0.83714	-0.34367	0.40343	0.06195
855.885	-0.90066	-0.33515	0.36010	0.02020
859.889	-0.96477	-0.35213	0.28046	-0.03432
863.887	-0.96946	-0.32284	0.25969	0.01906
867.888	-0.96035	-0.32552	0.22934	0.05042
871.885	-0.94368	-0.32933	0.18886	0.09067
875.846	-0.88006	-0.29097	0.19713	0.28439
879.888	-0.83488	-0.28630	0.21574	0.34875
883.911	-0.74268	-0.26445	0.25577	0.56433
887.887	-0.58012	-0.25725	0.33216	0.58979
891.889	-0.51575	-0.22495	0.34362	0.50993
895.890	-0.60129	-0.21774	0.26798	0.43380
899.887	-0.47205	-0.20562	0.35648	0.48764
903.888	-0.43271	-0.15900	0.44031	0.58799
907.885	-0.40375	-0.18274	0.45145	0.57415
911.892	-0.39951	-0.19041	0.42897	0.54225
915.899	-0.40117	-0.17369	0.51746	0.60125
919.883	-0.31473	-0.16403	0.53247	0.51397
923.891	-0.32233	-0.16924	0.56106	0.44683
927.847	-0.38370	-0.20289	0.38410	0.32425
931.889	-0.44222	-0.22749	0.46411	0.39623
935.889	-0.45219	-0.24354	0.39358	0.35287
939.889	-0.40452	-0.27418	0.45929	0.43551
943.889	-0.46495	-0.26975	0.39055	0.43879
947.847	-0.53873	-0.18852	0.41762	0.43698
951.890	-0.66474	-0.13599	0.40963	0.37287
955.899	-0.75982	-0.05732	0.43018	0.40184
959.880	-0.80151	-0.00522	0.46443	0.36897
963.846	-0.80684	-0.00870	0.45257	0.41523
967.887	-0.83329	0.13020	0.54639	0.44455
971.889	-0.82702	0.12187	0.53612	0.46030
975.888	-0.74595	0.09998	0.56625	0.45540
979.876	-0.67685	0.18476	0.61637	0.45642
983.887	-0.56295	0.16797	0.59215	0.41890
987.887	-0.43879	0.19337	0.57806	0.40245
991.895	-0.36305	0.20257	0.53798	0.35147
995.849	-0.48289	0.20621	0.52195	0.39247
999.866	-0.58391	0.17229	0.47073	0.49288
1003.847	-0.51113	0.09271	0.30364	0.44180
1007.889	-0.43016	0.06326	0.35270	0.49632
1011.882	-0.41035	0.04063	0.32970	0.44921
1015.896	-0.36454	0.01715	0.39651	0.40930
1019.890	-0.34451	-0.05186	0.43378	0.30091
1023.885	-0.36678	-0.07783	0.44788	0.32489
1027.874	-0.43157	-0.04704	0.45512	0.28205
1031.889	-0.46311	-0.11910	0.71829	0.35702
1035.890	-0.50572	-0.06483	0.69365	0.35283
1039.876	-0.54195	-0.05608	0.73518	0.23284
1043.849	-0.49808	-0.10021	0.74883	0.12592
1047.890	-0.46118	-0.03851	0.78570	0.12607
1051.888	-0.47200	-0.00800	0.82215	0.05966
1055.892	-0.41800	-0.00517	0.83535	-0.05071
1059.878	-0.40690	-0.00201	0.84716	-0.07449
1063.892	-0.40998	0.04112	0.83439	-0.15748
1067.888	-0.41738	0.08908	0.80764	-0.14468
1071.888	-0.39698	0.13540	0.59736	-0.21729
1075.848	-0.42100	0.15573	0.58158	-0.23275
1079.891	-0.43728	0.17180	0.45949	0.02830
1083.857	-0.36856	0.12541	0.45247	-0.14800
1087.889	-0.29912	0.10491	0.50592	-0.15115
1091.890	-0.26108	0.04488	0.47942	-0.04045
1095.848	-0.26173	0.02281	0.45070	0.14360
1099.888	-0.27818	0.02972	0.40440	0.14775
1103.891	-0.27379	0.06379	0.35422	0.16499
1107.916	-0.26763	0.02830	0.23683	0.16124
1111.891	-0.29017	-0.04962	0.23946	0.26854
1115.891	-0.43768	-0.15090	0.35851	0.18815
1119.889	-0.48535	-0.22050	0.36186	0.23368
1123.882	-0.64424	-0.32734	0.34171	0.18388
1127.888	-0.44470	-0.00278	0.41596	0.14469
1131.895	-0.55118	-0.21722	0.45334	0.18234
1135.889	-0.52307	-0.15165	0.41291	0.16472
1139.885	-0.50743	-0.14785	0.42405	0.16574
1143.891	-0.50317	-0.32305	0.40457	0.06833
1147.892	-0.48905	-0.24624	0.43120	0.06682
1151.893	-0.40886	-0.25194	0.40023	0.08140
1155.885	-0.26900	-0.10854	0.42204	0.05494
1159.894	-0.22820	0.03663	0.41537	0.06006
1163.891	-0.29354	0.11252	0.52828	0.15542
1167.887	-0.22976	0.11107	0.57255	0.10573
1171.884	-0.14163	0.12618	0.55170	0.14022
1175.890	-0.12377	0.18786	0.50049	0.11405
1179.849	-0.12692	0.23505	0.45728	0.14929
1183.850	-0.19554	0.08409	0.44745	0.15247
1187.890	-0.28071	0.16813	0.51294	0.31157
1191.891	-0.36521	0.05588	0.45363	0.31987
1195.891	-0.13315	0.00542	0.54885	0.39868
1199.896	-0.23378	0.09259	0.60990	0.34309
1203.884	-0.33201	0.04306	0.60543	0.41895
1207.860	-0.23966	-0.00485	0.56811	0.32319
1211.889	-0.25847	-0.10866	0.57118	0.36002
1215.893	-0.25798	0.09035	0.53009	0.25241
1219.918	-0.24557	-0.15299	0.59553	0.24371
1223.892	-0.25927	-0.18194	0.63022	0.22663
1227.890	-0.24912	-0.06841	0.66816	0.25232
1231.894	-0.11642	-0.04197	0.69203	0.24989
1235.896	-0.07239	0.06958	0.74672	0.25207
1239.850	-0.13198	0.14181	0.81727	0.27376
1243.889	-0.13548	-0.04252	0.74826	0.31953
1247.893	-0.16216	0.47565	0.67660	0.31238
1251.896	-0.22512	0.32833	0.06105	0.44929
1255.891	-1.25736	0.98742	-0.70330	0.55502
1259.890	-0.88163	1.12293	-1.31359	0.81255
1263.895	-1.70720	1.36080	-1.32900	0.64277
1267.886	-2.17918	1.45415	-1.46861	0.71732
1271.891	-2.26321	1.07669	-1.37330	0.75722
1275.895	-1.83355	1.20486	-1.35564	0.75836
1279.894	-1.78067	1.09725	-1.22310	0.78488
1283.897	-1.96628	1.23183	-1.11177	0.84597
1287.892	-2.02624	1.22702	-1.17589	0.83626
1291.891	-2.06471	1.29455	-1.10685	0.90660
1295.893	-2.08384	1.33918	-1.06805	0.95418
1299.900	-2.14052	1.26314	-1.04989	0.93719
1303.898	-2.15227	1.29644	-0.99504	0.90892
1307.899	-2.18379	1.34853	-0.97638	0.93232
1311.895	-2.21301	1.34091	-0.94956	0.90838
1315.896	-2.21516	1.32651	-0.92805	0.89418
1319.896	-2.22089	1.38904	-0.90205	0.90437
1323.893	-2.23853	1.44029	-0.87768	0.91354
1327.895	-2.26480	1.43493	-0.93515	0.95600
1331.872	-2.28891	1.41590	-0.97204	1.02812
1335.890	-2.29431	1.32331	-1.13918	1.03202
1339.891	-2.33442	1.31595	-1.22945	1.01403
1343.897	-2.31720	1.26773	-1.29256	1.03717
1347.888	-2.33945	1.24627	-1.35524	1.00131
1351.893	-2.35642	1.07972	-1.42791	1.01770
1355.890	-2.38239	1.04942	-1.48421	1.06833
1359.850	-2.38303	1.08596	-1.55068	1.05854
1363.888	-2.36383	1.02576	-1.57243	1.10129
1367.898	-2.37872	0.96437	-1.62547	1.09237
1371.894	-2.38018	0.95429	-1.65895	1.08418
1375.852	-2.36973	0.93456	-1.71930	1.08186
1379.888	-2.31760	0.96836	-1.74548	1.07323
1383.889	-2.29892	0.96132	-1.71719	1.06073
1387.891	-2.32592	0.97907	-1.74055	1.10941
1391.892	-2.33819	1.00505	-1.76867	1.12856
1395.854	-2.30553	0.97946	-1.75962	1.13636
1399.890	-2.29072	0.97493	-1.78905	1.15730
1403.890	-2.27441	0.96836	-1.79901	1.17507
1407.898	-2.26497	0.93630	-1.76274	1.20275
1411.852	-2.27265	0.95424	-1.75840	1.21889
1415.866	-2.28581	0.93566	-1.70757	1.27895
1419.893	-2.24118	0.94128	-1.61429	1.33869
1423.857	-2.14265	0.97599	-1.52878	1.39781
1427.889	-2.24792	0.99253	-1.41608	1.33643
1431.893	-2.20850	0.97496	-1.60647	1.26400
1435.896	-2.18255	0.96092	-1.63955	1.23609
1439.892	-2.21462	0.99037	-1.63402	1.21738
1443.793	-2.11950	1.03727	-1.65560	1.19969
1447.896	-2.12699	1.09270	-1.59638	1.15577
1451.894	-2.08235	1.14955	-1.64970	1.14979
1455.884	-2.12830	1.23016	-1.54418	1.13961
1459.798	-2.11217	1.19585	-1.57329	1.11663
1463.896	-2.11651	1.25043	-1.61885	1.17997
1467.891	-2.18706	1.19706	-1.64117	1.23959
1471.895	-2.14858	1.19103	-1.63668	1.18753
1475.793	-2.16706	1.16495	-1.58212	1.30912
1479.895	-2.14032	1.19029	-1.53163	1.36203
1483.893	-2.08991	1.15354	-1.50542	1.42364
1487.895	-2.02646	1.13487	-1.52154	1.47090
1491.793	-1.97783	1.09039	-1.53627	1.47372
1495.897	-1.94563	1.03364	-1.55526	1.45683
1499.859	-1.99067	1.01214	-1.54096	1.44470
1503.894	-1.95629	1.05280	-1.60332	1.50974
1507.795	-2.00765	1.04323	-1.61736	1.47083
1511.897	-1.98157	1.10467	-1.66718	1.32612
1515.890	-1.96905	1.24185	-1.68106	1.30854
1519.899	-1.95963	1.22582	-1.72408	1.21109
1523.794	-2.00212	1.21236	-1.77139	1.20523
1527.895	-1.94236	1.19776	-1.78615	1.19506
1531.893	-1.59093	1.29303	-1.39621	1.34918
1535.894	-1.87562	1.49508	-1.06408	1.23197
1539.882	-1.88888	3.31877	-0.38675	1.16564
1543.897	-2.05358	12.38177	0.53647	3.84245
1547.895	NaN	NaN	NaN	NaN
1551.854	NaN	NaN	NaN	NaN
1555.895	NaN	NaN	NaN	NaN
1559.852	NaN	NaN	NaN	NaN
1563.891	NaN	NaN	NaN	NaN
1567.893	NaN	NaN	NaN	NaN
1571.891	NaN	NaN	NaN	NaN
1575.852	NaN	NaN	NaN	NaN
1579.891	NaN	NaN	NaN	NaN
1583.891	NaN	NaN	NaN	NaN
1587.891	NaN	NaN	NaN	NaN
1591.892	NaN	NaN	NaN	NaN
1595.853	NaN	NaN	NaN	NaN
1599.892	NaN	NaN	NaN	NaN
1603.900	NaN	NaN	13.96253	6.34477
1607.897	15.92147	10.08169	17.66409	6.41286
1611.859	14.75180	7.61923	14.59400	6.28208
1615.900	10.87654	6.21414	7.69551	3.94862
1619.797	3.63547	0.97875	3.42512	2.97998
1623.866	0.79965	3.00085	3.31019	2.66584
1627.893	0.83511	1.80860	11.08094	1.39087
1631.899	0.59660	1.32922	7.37201	0.89536
1635.791	0.43400	0.90289	2.27124	0.76868
1639.895	0.42954	0.88414	1.62078	0.58196
1643.896	0.38164	0.51323	3.00410	0.50951
1647.897	2.36356	0.69110	4.08878	0.41803
1651.898	2.57548	0.59176	5.01440	0.33673
1655.899	3.65781	0.54215	4.77983	0.28784
1659.894	3.65603	0.40091	4.50421	0.34166
1663.886	4.10942	0.27886	4.65634	0.31134
1667.900	3.85773	0.40781	4.73875	0.34444
1671.893	3.76235	0.40696	4.74311	0.26386
1675.898	3.73500	0.36758	4.85058	0.26008
1679.856	3.76302	0.42231	4.84558	0.27850
1683.795	3.76856	0.38908	4.86310	0.33160
1687.895	3.73329	0.42947	4.98925	0.32112
1691.896	3.86059	0.39536	5.07397	0.37912
1695.896	3.88206	0.32760	5.04063	0.49406
1699.858	3.89451	0.23634	5.10529	0.54336
1703.898	3.90434	0.23681	5.16659	0.54140
1707.863	3.88520	0.23947	5.20979	0.55747
1711.895	3.88418	0.19179	5.21872	0.56402
1715.759	3.92655	0.16729	5.27070	0.58829
1719.903	3.94226	0.15816	5.24981	0.61758
1723.898	3.96459	0.12680	5.23893	0.63568
1727.898	3.96051	0.14155	5.26199	0.67349
1731.758	3.98472	0.16232	5.24649	0.70448
1735.901	3.97323	0.19266	5.22303	0.77802
1739.855	3.99889	0.24699	5.21105	0.80846
1743.896	4.01818	0.35161	5.18766	0.86933
1747.762	4.04164	0.37862	5.16285	0.93399
1751.900	4.03468	0.46776	5.10913	0.94857
1755.896	4.00692	0.44214	5.09409	0.98779
1759.898	3.97496	0.48965	5.05764	1.00994
1763.763	3.97760	0.43854	5.03964	1.05313
1767.901	4.04073	0.44711	4.94521	1.05060
1771.897	4.05777	0.42343	4.90907	1.03608
1775.899	4.07683	0.38946	4.87887	1.05977
1779.762	3.99341	0.27240	4.84120	1.05079
1783.776	4.02574	0.28593	4.81776	1.02858
1787.772	4.01756	0.22322	4.79095	1.02065
1791.775	4.00176	0.22377	4.76487	1.00363
1795.904	4.01243	0.17357	4.79462	1.02537
1799.773	4.04749	0.16583	4.78664	1.07407
1803.776	4.04186	0.11417	4.79312	1.09401
1807.772	4.05740	0.12220	4.82715	1.11015
1811.732	4.00815	0.11351	4.93344	1.12306
1815.773	3.99546	0.09737	4.99613	1.11907
1819.774	4.00729	0.08413	5.03654	1.14478
1823.775	4.02035	0.07030	5.10032	1.17589
1827.733	4.01141	0.03731	5.12747	1.16461
1831.773	3.99907	0.03416	5.19020	1.14186
1835.757	3.97763	-0.01492	5.19101	1.09058
1839.778	3.99010	-0.04903	5.21776	1.09550
1843.765	3.98817	-0.08379	5.26827	1.06368
1847.775	3.98642	-0.07538	5.24907	1.01674
1851.772	3.95446	-0.08354	5.20543	0.97745
1855.772	3.94636	-0.10937	5.24555	0.97667
1859.732	3.92107	-0.13281	5.22259	0.93804
1863.771	3.91578	-0.13184	5.19948	0.91239
1867.776	3.92487	-0.11052	5.17757	0.84636
1871.774	3.87611	-0.11823	5.19266	0.80492
1875.737	3.87149	-0.14747	5.17691	0.78572
1879.741	3.85637	-0.13668	5.17971	0.77958
1883.774	3.85812	-0.11672	5.15539	0.76597
1887.773	3.81152	-0.10277	5.12543	0.73253
1891.748	3.80100	-0.09457	5.08456	0.70642
1895.773	3.80802	-0.09489	5.08311	0.68019
1899.773	3.82531	-0.08145	5.03462	0.62670
1903.773	3.83967	-0.00860	5.01393	0.60722
1907.754	3.82410	0.02142	4.96706	0.61130
1911.774	3.81951	0.05532	4.93733	0.62529
1915.775	3.84352	0.10049	4.92676	0.57141
1919.751	3.86669	0.10480	4.94398	0.55250
1923.773	3.86321	0.14432	4.96448	0.48340
1927.774	3.88670	0.17335	5.01310	0.42215
1931.779	3.92734	0.14413	5.06523	0.36576
1935.773	3.97005	0.09636	5.12277	0.34602
1939.778	4.03957	0.08120	5.20578	0.22052
1943.773	3.94320	0.20707	5.25638	0.23322
1947.774	3.92223	0.19701	5.32105	0.32733
1951.772	3.95300	0.13255	5.38508	0.29744
1955.772	3.87102	0.09282	5.48388	0.26064
1959.772	4.00028	0.13230	5.57026	0.27907
1963.765	3.95488	0.16339	5.55738	0.37167
1967.774	4.01539	0.09303	5.57611	0.37624
1971.748	3.83722	0.18243	5.55494	0.33690
1975.734	3.88295	0.28622	5.53377	0.32316
1979.776	3.85476	0.31653	5.56731	0.27769
1983.776	3.80984	0.34124	5.48327	0.42005
1987.735	3.80928	0.33442	5.48708	0.46786
1991.775	3.84888	0.19800	5.49328	0.41814
1995.778	3.82499	0.03808	5.21171	0.40190
1999.775	3.81817	0.10019	5.43179	0.42330
2003.735	3.81526	0.08916	5.31362	0.40525
2007.775	3.82042	0.16156	5.29053	0.33752
2011.774	3.83198	0.21831	5.28465	0.24637
2015.772	3.94107	0.19128	5.19884	0.29760
2019.737	4.00922	0.09997	5.18862	0.35777
2023.779	3.97457	0.06842	5.23881	0.33245
2027.777	3.97800	0.06026	5.27833	0.24194
2031.773	3.97061	-0.08951	5.23088	0.20687
2035.751	3.89463	-0.09151	5.26972	0.15915
2039.735	3.91926	-0.05028	5.32479	0.12010
2043.761	3.95831	-0.01862	5.27503	0.14584
2047.733	4.02734	0.07268	5.28761	0.22739
2051.734	4.04549	0.02176	5.25589	0.16470
2055.775	4.17386	0.02563	5.36339	0.25341
2059.777	4.11253	0.01569	5.34484	0.27547
2063.775	4.03120	0.05069	5.45917	0.19364
2067.773	3.97459	0.00285	5.49281	0.20834
2071.778	3.98240	-0.10969	5.52131	0.20752
2075.735	4.00749	-0.16140	5.59917	0.18627
2079.775	4.02371	-0.07550	5.49347	0.21129
2083.779	4.06997	-0.13110	5.52524	0.33746
2087.743	4.10804	-0.11899	5.61089	0.33066
2091.777	4.13490	-0.03091	5.65980	0.31427
2095.778	4.12977	-0.01894	5.65041	0.30794
2099.772	4.12011	-0.06642	5.65629	0.30593
2103.779	4.12883	-0.16368	5.65083	0.30648
2107.775	4.18154	-0.07626	5.60634	0.37199
2111.778	4.15416	-0.04642	5.52416	0.35834
2115.778	4.15280	-0.05961	5.54361	0.38974
2119.780	4.03181	-0.06013	5.54934	0.57158
2123.777	4.12762	-0.06593	5.57675	0.50330
2127.758	4.83540	0.14463	5.49596	0.66334
2131.803	0.18402	0.15337	2.34780	0.62796
2135.781	0.14166	3.84585	1.98697	0.80922
2139.777	9.91454	4.06660	6.29018	0.57516
2143.776	NaN	NaN	NaN	NaN
2147.769	NaN	NaN	NaN	NaN
2151.790	NaN	NaN	NaN	NaN
2155.774	NaN	NaN	NaN	NaN
2159.775	NaN	NaN	NaN	NaN
2163.775	NaN	NaN	NaN	NaN
2167.733	NaN	NaN	NaN	NaN
2171.732	NaN	NaN	NaN	NaN
2175.772	NaN	NaN	NaN	NaN
2179.776	NaN	NaN	NaN	NaN
2183.735	NaN	NaN	NaN	NaN
2187.774	NaN	NaN	NaN	NaN
2191.775	NaN	NaN	NaN	NaN
2195.774	NaN	NaN	NaN	NaN
2199.777	NaN	NaN	NaN	NaN
2203.733	NaN	NaN	NaN	NaN
2207.777	NaN	NaN	NaN	NaN
2211.747	NaN	NaN	NaN	NaN
2215.800	NaN	NaN	NaN	NaN
2219.781	12.67388	4.13482	6.22459	9.09888
2223.782	2.59943	4.22072	10.07949	4.17624
2227.777	0.15782	4.70900	6.39594	4.57984
2231.772	0.23852	5.01457	9.64919	4.81106
2235.736	0.00069	4.46288	1.98953	2.45839
2239.778	0.17906	4.35328	0.92058	3.97329
2243.782	-0.11175	3.69156	3.69548	2.58245
2247.802	0.37248	3.95728	1.33969	2.18172
2251.781	-0.13012	3.56553	3.93371	3.96795
2255.777	0.04574	3.09624	3.70285	3.58410
2259.777	0.78627	3.00160	3.85582	3.10435
2263.803	2.48522	3.14227	4.37443	3.06054
2267.738	2.57115	2.96644	4.19585	3.02458
2271.778	3.09196	2.81015	4.27597	3.09745
2275.780	2.99413	2.76094	4.45010	2.95900
2279.772	2.67964	2.98903	4.43534	3.01011
2283.783	2.93886	2.87067	4.36883	2.99879
2287.777	2.96146	2.80469	4.29483	3.01883
2291.776	2.94658	2.77703	4.37542	3.03306
2295.774	2.96770	2.75137	4.46174	3.03713
2299.740	2.99091	2.88061	4.47918	3.03760
2303.781	3.03054	2.92939	4.51623	3.02907
2307.780	3.05407	2.92683	4.49531	3.06507
2311.776	3.11381	2.95673	4.58757	3.06068
2315.783	3.12512	3.02655	4.53714	3.10091
2319.781	3.13662	3.05381	4.54742	3.10297
2323.783	3.17396	3.01929	4.65193	3.06080
2327.775	3.20325	3.07068	4.69748	3.05739
2331.780	3.22470	3.13308	4.73059	3.08085
2335.758	3.26065	3.15874	4.77478	3.09949
2339.779	3.26923	3.21140	4.82096	3.12899
2343.773	3.27672	3.22327	4.77113	3.10400
2347.784	3.26656	3.23401	4.79147	3.12586
2351.780	3.22547	3.24022	4.79403	3.12657
2355.779	3.16527	3.26396	4.72709	3.17418
2359.774	3.11492	3.32911	4.64672	3.11189
2363.781	3.04912	3.43547	4.55149	3.14407
2367.781	3.05808	3.45003	4.50752	3.20993
2371.782	2.89272	3.48217	4.52880	3.22499
2375.771	2.83952	3.56536	4.47580	3.22624
2379.772	2.86769	3.51792	4.52089	3.25987
2383.780	2.81011	3.42210	4.58703	3.22952
2387.781	2.79842	3.33342	4.65459	3.27025
2391.784	2.80580	3.27940	4.65045	3.29362
2395.778	2.80555	3.34304	4.68161	3.32640
2399.779	2.85400	3.22813	4.82520	3.34992
2403.776	2.86343	3.17827	4.80675	3.40222
2407.749	2.87807	3.18808	4.87712	3.39990
2411.779	2.88750	3.24540	4.88759	3.41312
2415.782	2.91785	3.18957	4.90205	3.45234
2419.781	2.96708	3.15210	4.92156	3.49519
2423.784	2.98215	3.17732	4.88998	3.53533
2427.782	3.00962	3.18404	4.86973	3.50234
2431.781	3.01655	3.26966	4.82843	3.44144
2435.780	3.01103	3.32794	4.80492	3.38469
2439.774	3.00749	3.34744	4.81404	3.32332
2443.782	3.00898	3.35671	4.78072	3.34298
2447.782	3.06724	3.40233	4.76519	3.35554
2451.782	3.03610	3.37691	4.76036	3.38269
2455.678	2.97242	3.23847	4.79051	3.37679
2459.764	3.03704	3.00862	4.77653	3.43909
2463.774	2.76599	3.08433	4.76980	3.46592
2467.779	0.22001	3.38484	3.70282	3.21531
2471.679	-0.14863	5.97021	2.73833	2.57149
2475.782	-0.01643	12.74562	7.52386	1.40186
2479.785	3.19133	7.25085	NaN	NaN
2483.779	NaN	NaN	4.82939	12.41722
2487.679	NaN	NaN	NaN	NaN
2491.780	NaN	NaN	NaN	NaN
2495.782	NaN	NaN	NaN	NaN
2499.781	NaN	NaN	NaN	NaN
2503.776	NaN	NaN	NaN	NaN
2507.790	NaN	NaN	NaN	NaN
2511.737	NaN	NaN	NaN	NaN
2515.781	NaN	NaN	NaN	NaN
2519.774	NaN	NaN	NaN	NaN
2523.776	NaN	NaN	NaN	NaN
2527.781	NaN	NaN	NaN	NaN
2531.737	NaN	NaN	NaN	NaN
2535.780	NaN	NaN	NaN	NaN
2539.778	NaN	NaN	NaN	NaN
2543.757	NaN	NaN	NaN	NaN
2547.739	NaN	NaN	NaN	NaN
2551.784	NaN	NaN	NaN	NaN
2555.739	NaN	NaN	NaN	NaN
2559.779	NaN	NaN	NaN	NaN
2563.738	NaN	NaN	NaN	NaN
2567.779	NaN	NaN	NaN	NaN
2571.783	NaN	NaN	NaN	NaN
2575.785	-2.35992	12.03960	NaN	NaN
2579.787	-2.13331	7.81383	NaN	NaN
2583.786	-1.75486	4.31699	0.15826	9.48123
2587.773	-1.26795	4.18968	NaN	NaN
2591.780	-0.95896	4.38034	2.64975	4.62833
2595.788	-0.93467	4.59214	-2.38521	3.00095
2599.785	-0.54543	4.49459	-2.14937	3.16654
2603.783	-0.82525	4.50267	-2.53989	3.88267
2607.780	-0.31009	4.46015	-2.84356	3.50741
2611.787	-1.90349	4.61564	-2.47417	4.47024
2615.786	-1.66378	4.87275	2.46830	3.57674
2619.784	-0.58295	5.02718	1.94181	4.86027
2623.785	-1.21524	4.76975	0.83860	5.88783
2627.788	-1.40556	5.07585	-1.27817	5.70831
2631.786	-0.55577	5.03521	0.74526	5.99868
2635.783	-0.81836	5.14262	0.02114	5.80293
2639.781	-0.55136	5.24991	0.71005	4.75059
2643.787	-0.31213	5.23354	0.48242	4.66679
2647.788	-0.49230	5.22822	0.12265	5.29707
2651.792	-0.89885	5.32114	0.64804	5.21891
2655.783	-1.25533	5.42464	0.30056	5.58264
2659.787	-1.63410	5.39344	0.51488	5.66821
2663.786	-1.41965	5.34347	0.72982	5.65223
2667.782	-1.06361	5.34908	0.87416	5.66461
2671.758	-1.44123	5.30941	0.45728	5.67847
2675.684	-1.26244	5.21523	0.48197	5.68300
2679.743	-1.32089	5.17435	0.47155	5.75320
2683.781	-1.48545	5.19065	0.61292	5.67353
2687.782	-1.55797	5.11187	0.95557	5.61827
2691.788	-1.44031	5.14938	0.84925	5.62577
2695.785	-1.43302	5.11142	1.20653	5.65599
2699.786	-1.37168	5.06532	1.26483	5.57964
2703.783	-1.41442	5.01950	1.55100	5.63622
2707.787	-1.35680	5.02665	1.43106	5.64247
2711.750	-1.33835	5.04291	1.48337	5.70416
2715.785	-1.35782	5.06387	1.43979	5.74428
2719.785	-1.30357	5.10679	1.46665	5.81602
2723.786	-1.41288	5.12990	1.47025	5.82941
2727.787	-1.48798	5.13407	1.44475	5.81917
2731.786	-1.39475	5.17146	1.33698	5.93084
2735.784	-1.15677	5.16183	1.36670	6.00144
2739.745	-1.37682	5.20269	1.16627	5.90414
2743.784	-1.43687	5.20783	1.11718	6.00107
2747.788	-1.33244	5.22033	0.83895	5.94427
2751.759	-1.38123	5.07168	0.83783	5.98247
2755.675	-1.38188	5.13480	0.89322	5.94608
2759.783	-1.16967	5.09251	0.87964	5.85827
2763.785	-1.18145	5.08546	0.89634	5.85180
2767.782	-1.09591	5.14706	1.01404	5.88686
2771.787	-1.14650	5.17634	1.35407	5.95469
2775.783	-1.09795	5.11435	1.51149	5.93074
2779.784	-1.04610	5.18223	0.77538	6.01596
2783.783	-1.01633	5.15591	0.72345	5.96759
2787.787	-0.94562	5.14934	0.87674	6.05293
2791.777	-0.95698	5.20522	0.94681	6.09149
2795.780	-0.97663	5.26718	0.94261	6.18984
2799.782	-0.99335	5.26902	0.83238	6.12118
2803.686	-1.01585	5.26492	0.12828	6.26924
2807.788	-1.23206	5.45283	0.27503	6.37260
2811.786	-3.77073	5.47552	-1.30355	6.74739
2815.659	-3.99465	6.70887	-3.12145	7.47588
2819.620	-4.80374	6.90627	-5.11310	8.44316
2823.660	-5.72237	6.21502	-5.01420	7.36107
2827.663	-6.55513	6.80544	-6.15213	7.50633
2831.659	-8.43885	6.57546	-7.65656	8.01101
2835.686	-8.92379	6.81919	-8.13332	8.02070
2839.640	-9.34756	7.15629	-8.63714	8.52661
2843.626	-10.15028	7.46652	-8.75972	8.77199
2847.663	-10.37438	7.22915	-8.76879	8.94266
2851.654	-10.56893	7.09724	-8.42156	8.99483
2855.660	-10.50897	7.56206	-8.32364	8.83345
2859.664	-10.45512	7.17766	-8.41587	8.68451
2863.661	-10.58299	7.16760	-8.36431	8.80340
2867.620	-10.63293	7.20317	-8.30257	8.92781
2871.660	-10.55318	7.35060	-8.39329	8.76001
2875.620	-10.45754	7.46488	-8.43120	8.73902
2879.655	-10.52466	7.63245	-8.44096	8.67161
2883.683	-10.63216	7.31614	-8.37400	8.86998
2887.662	-10.50661	7.27605	-8.38063	8.71682
2891.660	-10.48509	7.20906	-8.30007	8.82569
2895.660	-10.63979	7.05780	-8.35085	8.90038
2899.682	-10.59455	7.10271	-8.40208	9.00719
2903.661	-10.54145	7.20944	-8.49272	8.92646
2907.664	-10.56809	7.27192	-8.50146	9.15814
2911.662	-10.69697	7.24378	-8.50022	9.19028
2915.688	-10.71116	7.14365	-8.53896	9.21092
2919.662	-10.57642	7.18917	-8.44404	9.17134
2923.618	-10.48799	7.10803	-8.47044	9.11464
2927.664	-10.62782	7.17089	-8.43652	9.18246
2931.689	-10.72323	7.11599	-8.46323	9.16691
2935.661	-10.73291	7.21106	-8.47187	9.13710
2939.665	-10.56654	7.28657	-8.42962	9.14750
2943.663	-10.63669	7.30508	-8.39537	9.04828
2947.684	-10.69930	7.30609	-8.37237	9.17186
2951.661	-10.69525	7.32778	-8.34171	9.10462
2955.663	-10.66632	7.22030	-8.42306	9.04208
2959.664	-10.58057	7.24055	-8.47250	8.99582
2963.678	-10.54979	7.20960	-8.54571	9.05204
2967.652	-10.61075	7.27931	-8.52336	9.16711
2971.667	-10.53576	7.25003	-8.55855	9.17396
2975.620	-10.50743	7.25944	-8.61962	9.03698
2979.662	-10.54694	7.22720	-8.58519	9.09515
2983.661	-10.43344	7.19610	-8.63102	9.15385
2987.662	-10.49371	7.20248	-8.62979	9.10287
2991.665	-10.50093	7.21107	-8.67110	9.20108
2995.689	-10.38754	7.20694	-8.67781	9.31080
2999.663	-10.43743	7.24923	-8.60839	9.27152
3003.660	-10.48706	7.27903	-8.60230	9.32477
3007.634	-10.55186	7.22961	-8.50913	9.20557
3011.658	-10.42951	7.26310	-8.61295	9.25188
3015.662	-10.55025	7.16552	-8.57034	9.32417
3019.665	-10.59404	7.25886	-8.55137	9.41113
3023.664	-10.60639	7.31841	-8.55901	9.37395
3027.690	-10.65764	7.40883	-8.53144	9.30108
3031.659	-10.61512	7.40133	-8.58575	9.39126
3035.664	-10.68581	7.44129	-8.53979	9.36862
3039.666	-10.69184	7.29116	-8.52222	9.31774
3043.688	-10.64060	7.40528	-8.58990	9.17652
3047.646	-10.65721	7.20737	-8.18570	9.04513
3051.621	-11.90878	7.47648	-8.75759	8.74839
3055.664	-10.75179	7.43784	-8.57466	9.34831
3059.687	-12.91824	7.97164	-8.86740	12.26217
3063.663	-14.50709	9.24475	-9.85221	14.94153
3067.664	-14.57908	8.68461	-9.44993	12.56733
3071.665	NaN	NaN	NaN	NaN
3075.626	NaN	NaN	NaN	NaN
3079.661	NaN	NaN	NaN	NaN
3083.663	NaN	NaN	NaN	NaN
3087.621	NaN	NaN	NaN	NaN
3091.656	NaN	NaN	NaN	NaN
3095.661	NaN	NaN	NaN	NaN
3099.659	NaN	NaN	NaN	NaN
3103.620	NaN	NaN	NaN	NaN
3107.662	NaN	NaN	NaN	NaN
3111.659	NaN	NaN	NaN	NaN
3115.663	NaN	NaN	NaN	NaN
3119.624	NaN	NaN	NaN	NaN
3123.677	NaN	NaN	NaN	NaN
3127.663	NaN	NaN	NaN	NaN
3131.636	NaN	NaN	NaN	NaN
3135.647	NaN	NaN	NaN	NaN
3139.665	NaN	NaN	NaN	NaN
3143.664	NaN	NaN	NaN	NaN
3147.667	NaN	NaN	NaN	NaN
3151.622	NaN	NaN	NaN	NaN
3155.661	NaN	NaN	NaN	NaN
3159.693	NaN	NaN	NaN	NaN
3163.664	NaN	NaN	NaN	NaN
3167.622	-5.26964	5.30569	NaN	NaN
3171.655	NaN	NaN	-8.07891	14.33035
3175.632	-5.10044	7.26650	-7.90501	12.39063
3179.666	-12.37681	10.24553	-7.01573	13.98070
3183.666	-2.42894	5.15297	-6.70773	14.18425
3187.668	-2.48423	6.97618	-2.09180	10.29161
3191.694	-13.28900	9.05858	-1.13563	6.69082
3195.665	-13.65903	8.96340	-0.78637	6.40042
3199.664	-13.73207	8.95783	-2.54982	9.10571
3203.664	-13.36215	8.89924	-4.20699	9.38867
3207.691	-10.29068	7.14536	-4.31146	8.70069
3211.674	-11.21107	7.98747	-5.66681	9.80127
3215.629	-7.57427	7.88754	-6.19746	9.33501
3219.668	-8.53540	8.19880	-6.11182	9.05942
3223.688	-7.60812	7.72756	-6.58793	9.35577
3227.664	-10.49754	8.00663	-6.96553	9.20630
3231.664	-10.74649	7.69360	-7.07539	9.30890
3235.622	-10.83249	7.77691	-7.05002	9.32348
3239.664	-10.81260	7.82308	-6.90226	9.40977
3243.669	-10.80955	7.89509	-6.93885	9.47675
3247.665	-10.41676	7.82775	-6.92748	9.65457
3251.669	-10.14552	7.83530	-6.97482	9.89967
3255.677	-10.02526	7.96917	-7.00744	9.93058
3259.664	-9.86447	7.75960	-7.01934	10.03265
3263.663	-9.97481	7.74596	-7.02858	10.01279
3267.668	-9.99448	7.82321	-7.00326	10.06773
3271.662	-9.62075	7.64673	-6.95396	10.08448
3275.664	-9.59971	7.68960	-6.95499	10.21063
3279.664	-9.68575	7.80736	-6.94100	10.18871
3283.668	-9.44324	7.64895	-6.94878	10.28770
3287.691	-9.47493	7.70603	-6.93706	10.20071
3291.662	-9.54986	7.70285	-6.93611	10.31751
3295.661	-9.57920	7.77071	-6.99118	10.28213
3299.628	-9.54957	7.63934	-7.09326	10.36536
3303.667	-9.70772	7.62120	-7.04831	10.34100
3307.676	-9.53185	7.54565	-7.02629	10.28355
3311.662	-9.65401	7.52448	-7.08622	10.48165
3315.669	-9.53132	7.62298	-7.13852	10.38605
3319.667	-9.38904	7.68763	-7.15428	10.42505
3323.665	-9.50694	7.68209	-7.14668	10.47386
3327.663	-9.40605	7.77541	-7.12992	10.51789
3331.671	-9.55806	7.80234	-7.14607	10.52034
3335.670	-9.47621	7.71337	-7.12740	10.61824
3339.638	-9.39286	7.87796	-7.07268	10.69809
3343.665	-9.24281	7.84443	-7.01731	10.52242
3347.669	-9.33553	7.89834	-7.04193	10.73612
3351.659	-9.36085	7.88681	-7.07630	10.62077
3355.667	-9.26778	7.75532	-7.07610	10.54679
3359.663	-9.40245	7.83728	-7.17688	10.63069
3363.667	-9.37554	7.76884	-7.15963	10.56664
3367.670	-9.26633	7.64357	-7.08598	10.46730
3371.673	-7.76404	7.78538	-6.64741	10.26436
3375.670	-5.55076	6.49192	-4.38970	8.36752
3379.668	-4.46551	3.51672	-3.78484	6.45443
3383.626	-2.58551	2.88876	-2.80471	4.42206
3387.667	-2.83576	1.56505	-2.62477	3.80454
3391.665	-2.90272	1.05806	-2.45564	2.81574
3395.664	-2.75561	0.88855	-2.24916	2.25447
3399.627	-2.17943	0.72473	-2.02388	2.62137
3403.666	-2.40033	0.82436	-1.93876	2.72073
3407.671	-2.29044	0.83490	-1.59266	2.50543
3411.667	-2.18362	0.84077	-1.31022	2.41050
3415.639	-2.18733	0.74941	-1.29983	2.47672
3419.665	-2.27627	0.79881	-1.47801	2.19635
3423.670	-2.23608	0.85204	-1.18043	2.01808
3427.669	-2.16263	0.82375	-1.15756	1.98383
3431.659	-2.13338	0.67786	-1.06160	1.93587
3435.671	-2.00306	0.66167	-1.06659	1.90100
3439.667	-1.97448	0.62997	-0.83324	1.59928
3443.666	-2.05668	0.62736	-0.94644	1.71707
3447.652	-2.03918	0.61130	-0.71263	1.65871
3451.667	-2.01997	0.45311	-0.41757	1.49348
3455.667	-2.13628	0.53146	-0.94299	1.50121
3459.671	-2.10411	0.53316	-0.86141	1.40798
3463.637	-1.96400	0.53559	-0.53535	1.44116
3467.665	-2.15338	0.51417	-0.85870	1.53198
3471.670	-2.06852	0.45885	-0.74464	1.54042
3475.669	-2.14610	0.46238	-0.87029	1.47902
3479.640	-2.23955	0.43551	-0.64662	1.51167
3483.668	-2.24374	0.51029	-0.87332	1.59715
3487.668	-2.19422	0.57040	-0.76578	1.59074
3491.670	-2.10454	0.61445	-0.94172	1.60261
3495.628	-2.32575	0.49112	-0.90381	1.60342
3499.666	-2.23734	0.49143	-0.85689	1.59857
3503.665	-2.06458	0.39722	-0.85292	1.66491
3507.661	-2.30702	0.40488	-0.92415	1.67123
3511.629	-2.32942	0.48968	-0.82233	1.63277
3515.667	-2.19725	0.43513	-0.85761	1.60225
3519.675	-2.26834	0.60622	-0.90726	1.65535
3523.666	-2.03219	0.48608	-0.85453	1.54490
3527.639	-2.31359	0.56640	-0.83600	1.57137
3531.672	-2.43597	0.54453	-0.81203	1.53545
3535.668	-2.32741	0.41634	-0.72769	1.50904
3539.672	-2.27196	0.58137	-0.84689	1.45939
3543.628	-2.40875	0.49224	-0.69049	1.34658
3547.667	-2.43674	0.58847	-0.74126	1.38006
3551.672	-2.29552	0.58059	-0.62196	1.46356
3555.669	-2.01040	0.49480	-0.73962	1.29580
3559.630	-2.02240	0.45733	-0.74677	1.25912
3563.669	-1.74499	0.40313	-0.63124	1.23943
3567.668	-2.21051	0.39162	-0.68754	1.32517
3571.665	-2.27285	0.33306	-0.63104	1.34158
3575.628	-1.96025	0.36963	-0.69159	1.26768
3579.668	-1.79537	0.34384	-0.71116	1.23894
3583.669	-1.74489	0.32686	-0.61662	1.22975
3587.658	-1.88147	0.38977	-0.61181	1.24343
3591.674	-1.84057	0.30250	-0.55106	1.26804
3595.673	-1.86605	0.30031	-0.53545	1.20654
3599.668	-1.86479	0.28114	-0.53178	1.25855
3603.668	-2.01568	0.26264	-0.52468	1.25701
3607.572	-1.92726	0.27179	-0.52835	1.28913
3611.668	-1.97572	0.22905	-0.50128	1.25856
3615.669	-1.96219	0.21877	-0.48120	1.23074
3619.669	-1.96526	0.21144	-0.55019	1.23647
3623.675	-2.08290	0.23829	-0.54525	1.08834
3627.668	-2.08483	0.19883	-0.56242	1.15925
3631.640	-2.21487	0.20021	-0.54890	1.09099
3635.667	-2.35370	0.31288	-0.70265	1.06488
3639.675	-2.30541	0.23126	-0.71439	0.97901
3643.666	-2.28450	0.39784	-0.77786	0.95845
3647.671	-2.39101	0.45657	-0.71556	1.08659
3651.668	-2.36173	0.41003	-0.73774	1.02930
3655.675	-2.39210	0.55155	-0.70580	1.04836
3659.672	-2.44811	0.50878	-0.68533	1.11220
3663.672	-2.50853	0.58377	-0.55796	1.10840
3667.672	-2.38556	0.43070	-0.55828	1.01098
3671.578	-2.35868	0.49603	-0.65196	0.97336
3675.674	-2.39701	0.66217	-0.75816	0.96251
3679.629	-2.38363	0.48415	-0.67620	0.96613
3683.645	-2.34748	0.59268	-0.75119	1.05859
3687.674	-2.43263	0.67856	-0.64019	1.08591
3691.671	-2.35050	0.49288	-0.76082	1.07436
3695.669	-2.36740	0.50097	-0.78555	1.07631
3699.671	-2.29825	0.34674	-0.79756	1.09819
3703.673	-2.32273	0.37404	-0.72434	0.99600
3707.670	-2.29857	0.26659	-0.79776	1.14856
3711.667	-2.35204	0.35352	-0.79501	1.19555
3715.664	-2.35380	0.46276	-0.78248	1.27947
3719.552	-2.32922	0.33307	-0.76821	1.16777
3723.668	-2.43954	0.36951	-0.71409	1.33512
3727.669	-2.35910	0.35022	-0.74332	1.35277
3731.675	-2.33264	0.30139	-0.81171	1.38091
3735.674	-2.28911	0.32807	-0.75479	1.41162
3739.629	-2.39383	0.40699	-0.70062	1.34196
3743.668	-2.33621	0.38283	-0.73603	1.33152
3747.675	-2.36574	0.42266	-0.71769	1.32725
3751.571	-2.36695	0.51474	-0.79543	1.38146
3755.642	-2.30308	0.46342	-0.77161	1.41315
3759.667	-2.39230	0.50865	-0.76841	1.31822
3763.673	-2.39829	0.47243	-0.78605	1.34901
3767.574	-2.31844	0.56496	-0.79766	1.38047
3771.671	-2.47940	0.38683	-0.74337	1.32458
3775.671	-2.40191	0.54010	-0.74878	1.25415
3779.674	-2.38633	0.49483	-0.77444	1.28936
3783.675	-2.44633	0.47842	-0.84426	1.14368
3787.672	-2.39307	0.43614	-0.89981	1.23973
3791.671	-2.38831	0.40508	-0.88098	1.24348
3795.668	-2.27384	0.39190	-0.80806	1.20749
3799.675	-2.26705	0.44906	-0.64409	1.13154
3803.675	-2.33090	0.47280	-0.68461	1.13791
3807.670	-2.34000	0.59191	-0.79985	1.14081
3811.672	-2.31168	0.58897	-0.97127	1.10328
3815.664	-2.24381	0.60414	-0.96202	1.30847
3819.674	-2.20800	0.57573	-1.01310	1.32936
3823.667	-2.19569	0.65509	-0.66752	1.51591
3827.672	-2.24579	0.81246	-0.65317	1.79430
3831.674	-2.17576	0.95303	1.77767	1.76187
3835.671	-1.81910	2.86270	-0.05162	1.32566
3839.650	-1.90948	13.87232	-0.07277	10.45618
3843.634	NaN	NaN	NaN	NaN
3847.569	NaN	NaN	NaN	NaN
3851.545	NaN	NaN	NaN	NaN
3855.544	NaN	NaN	NaN	NaN
3859.549	NaN	NaN	NaN	NaN
3863.546	NaN	NaN	NaN	NaN
3867.546	NaN	NaN	NaN	NaN
3871.544	NaN	NaN	NaN	NaN
3875.503	NaN	NaN	NaN	NaN
3879.545	NaN	NaN	NaN	NaN
3883.543	NaN	NaN	NaN	NaN
3887.546	NaN	NaN	NaN	NaN
3891.504	NaN	NaN	NaN	NaN
3895.545	NaN	NaN	NaN	NaN
3899.547	NaN	NaN	NaN	NaN
3903.540	NaN	NaN	6.45336	4.23205
3907.551	NaN	NaN	5.38833	2.21628
3911.551	NaN	NaN	3.88868	2.56081
3915.548	1.31654	7.75269	3.32169	2.69861
3919.575	4.98721	4.81174	0.72161	1.24847
3923.548	1.60667	4.43007	3.49945	1.54355
3927.509	-0.98467	3.92898	0.62826	1.08854
3931.546	-0.86749	1.04996	3.02784	1.64445
3935.574	1.17952	0.69582	3.09498	1.88185
3939.549	-1.10673	0.24946	4.77111	1.67044
3943.547	-0.32354	0.51247	4.17023	1.52639
3947.550	-0.71491	0.39161	4.22024	1.55705
3951.574	-0.53185	0.48776	3.36082	1.70001
3955.506	0.86674	0.54335	3.23173	1.42770
3959.549	1.34690	0.39409	3.36149	1.39323
3963.552	1.54892	0.47389	3.34247	1.52154
3967.582	1.45462	0.57692	3.38647	1.50888
3971.548	1.77511	0.56252	3.52746	1.51679
3975.549	2.47774	0.56820	3.81590	1.39226
3979.551	2.16466	0.60500	3.58784	1.37343
3983.572	2.01454	0.50806	3.55231	1.48815
3987.549	1.70948	0.56964	3.50969	1.50418
3991.550	1.51794	0.33095	3.48674	1.33928
3995.553	2.25251	0.46900	3.49191	1.28634
3999.544	2.31430	0.55007	3.56114	1.39603
4003.549	2.15898	0.64698	3.57332	1.41775
4007.550	2.14701	0.66695	3.62786	1.37082
4011.517	2.15499	0.66017	3.61760	1.38283
4015.543	2.03556	0.65724	3.65430	1.32000
4019.549	2.09375	0.67951	3.64271	1.41791
4023.547	1.97508	0.67248	3.66461	1.46722
4027.550	1.94982	0.70800	3.71221	1.46447
4031.573	2.01722	0.76277	3.73522	1.41365
4035.549	2.08022	0.74236	3.70633	1.45667
4039.548	1.98983	0.82804	3.72862	1.58271
4043.551	1.95661	0.72106	3.59224	1.57908
4047.542	1.93564	0.65266	3.55750	1.57020
4051.533	1.94523	0.63217	3.53770	1.51960
4055.550	1.82361	0.75005	3.64649	1.62696
4059.554	1.84909	0.68932	3.50949	1.65863
4063.545	1.89823	0.64128	3.52101	1.62793
4067.547	1.93058	0.60826	3.45262	1.62956
4071.546	2.02354	0.56830	3.31623	1.49769
4075.516	1.90698	0.58160	3.33668	1.45797
4079.573	1.90549	0.64366	3.36515	1.41766
4083.547	1.87795	0.58844	3.36963	1.42187
4087.550	1.97074	0.64957	3.34076	1.35525
4091.540	1.94788	0.64242	3.40912	1.28536
4095.511	1.88866	0.72986	3.41822	1.28168
4099.547	1.90738	0.68905	3.43447	1.25446
4103.550	1.97634	0.68075	3.35219	1.24252
4107.547	1.83127	0.63984	3.36015	1.14082
4111.573	1.85700	0.60831	3.40388	1.13767
4115.551	1.95539	0.61203	3.32847	1.13627
4119.552	1.82200	0.46379	3.40633	1.15780
4123.550	1.79715	0.56798	3.39357	1.18068
4127.510	1.74628	0.50131	3.40121	1.08473
4131.552	1.72907	0.53062	3.38731	1.11245
4135.526	1.75852	0.45010	3.32456	1.11044
4139.547	1.82983	0.29940	3.39297	1.17934
4143.545	1.67715	0.36323	3.49554	1.17592
4147.550	1.69599	0.34455	3.53669	1.24401
4151.548	1.73450	0.37696	3.53955	1.39879
4155.550	1.89074	0.35120	3.36725	1.38295
4159.544	1.81929	0.26910	3.40195	1.42867
4163.552	1.79440	0.28542	3.55347	1.34136
4167.551	1.62515	0.30040	3.43959	1.38768
4171.552	1.87877	0.22767	3.43083	1.26495
4175.544	1.73105	0.28841	3.57941	1.40783
4179.509	1.80390	0.31374	3.37761	1.49670
4183.510	1.79767	0.29290	3.35345	1.49999
4187.548	1.94042	0.25947	3.61824	1.45758
4191.542	1.77144	0.19487	3.38926	1.46557
4195.548	1.85423	0.13471	3.37885	1.48805
4199.553	1.78245	0.29032	3.49109	1.51831
4203.551	1.78996	0.34560	3.60892	1.46736
4207.545	1.98710	0.27767	3.55194	1.48455
4211.551	1.86905	0.43959	3.53515	1.57093
4215.554	1.81838	0.31940	3.65028	1.56300
4219.515	1.89478	0.26738	3.69758	1.60405
4223.551	1.72527	0.27741	3.75484	1.60635
4227.551	1.85450	0.29570	3.96973	1.68659
4231.554	1.13434	0.72825	3.28729	1.83952
4235.555	-0.73536	0.56891	2.35016	1.77113
4239.553	-0.85344	3.71214	2.26381	2.43768
4243.510	2.05635	3.72963	4.44751	5.08275
4247.521	9.13850	9.28951	NaN	NaN
4251.553	NaN	NaN	NaN	NaN
4255.546	NaN	NaN	NaN	NaN
4259.530	NaN	NaN	NaN	NaN
4263.553	NaN	NaN	NaN	NaN
4267.548	NaN	NaN	NaN	NaN
4271.552	NaN	NaN	NaN	NaN
4275.554	NaN	NaN	NaN	NaN
4279.510	NaN	NaN	NaN	NaN
4283.552	NaN	NaN	NaN	NaN
4287.550	NaN	NaN	NaN	NaN
4291.548	NaN	NaN	NaN	NaN
4295.512	NaN	NaN	NaN	NaN
4299.527	NaN	NaN	NaN	NaN
4303.520	NaN	NaN	NaN	NaN
4307.551	NaN	NaN	NaN	NaN
4311.551	NaN	NaN	NaN	NaN
4315.507	NaN	NaN	NaN	NaN
4319.580	NaN	NaN	NaN	NaN
4323.547	-13.35936	4.24428	NaN	NaN
4327.548	-11.53618	1.56382	-14.11535	6.86547
4331.550	-10.93966	-0.34222	-13.16981	-0.00617
4335.556	-16.53413	1.70125	-7.45892	-0.33090
4339.552	-16.52830	2.00150	-12.13543	0.39397
4343.533	-16.93346	0.45921	-12.76666	-0.05572
4347.551	-17.12781	0.03211	-14.01246	0.54520
4351.555	-15.91757	-0.22551	-6.58604	-2.30524
4355.551	-13.24155	-0.50603	-14.53067	-0.25728
4359.557	-13.12347	-0.63825	-14.45630	-0.68654
4363.512	-12.97394	-0.91919	-14.30676	-1.24396
4367.558	-12.77185	-1.05272	-12.77849	-1.14634
4371.555	-12.85520	-1.14510	-12.69823	-1.48600
4375.557	-12.70662	-1.20465	-13.14315	-1.67941
4379.553	-12.66795	-1.02996	-12.92743	-1.34262
4383.538	-12.65075	-1.04382	-12.69018	-1.08022
4387.550	-12.63341	-1.27700	-12.56576	-1.19169
4391.546	-12.72560	-1.46910	-12.44290	-1.40811
4395.554	-12.73703	-1.33242	-12.40638	-1.41039
4399.555	-12.62544	-1.34204	-12.22779	-1.44138
4403.553	-12.59640	-1.38466	-12.10077	-1.56900
4407.561	-12.51735	-1.33524	-12.04911	-1.57873
4411.555	-12.52587	-1.36271	-11.87643	-1.53631
4415.556	-12.63955	-1.31553	-11.84991	-1.45886
4419.552	-12.63218	-1.28084	-11.86239	-1.36345
4423.555	-12.67475	-1.36856	-11.89585	-1.23598
4427.554	-12.68668	-1.44845	-11.86393	-1.02124
4431.512	-12.66942	-1.41877	-11.75988	-1.02231
4435.557	-12.64224	-1.41712	-11.89297	-1.36371
4439.557	-12.68257	-1.39066	-11.87256	-1.29399
4443.555	-12.56663	-1.36771	-11.99771	-1.28809
4447.556	-12.57115	-1.38208	-11.97078	-1.23921
4451.554	-12.62218	-1.53459	-11.88104	-1.17536
4455.552	-12.71425	-1.43945	-11.92671	-1.17395
4459.556	-12.69972	-1.50794	-12.08077	-1.18841
4463.558	-12.56493	-1.54155	-12.13489	-1.20929
4467.533	-12.54758	-1.55058	-12.19361	-1.22913
4471.555	-12.50699	-1.53875	-12.08691	-1.26102
4475.556	-12.54715	-1.52411	-12.03819	-1.26147
4479.557	-12.43606	-1.48999	-12.10089	-1.20362
4483.552	-12.57980	-1.59068	-12.19297	-1.20937
4487.558	-12.70121	-1.59603	-12.05696	-1.15011
4491.556	-12.56001	-1.60353	-12.00039	-1.13616
4495.558	-12.62712	-1.55603	-11.94023	-1.15185
4499.553	-12.53738	-1.63322	-12.12855	-1.17450
4503.556	-12.47681	-1.65057	-12.15393	-1.17861
4507.545	-12.65219	-1.57129	-11.96741	-1.23367
4511.557	-12.63629	-1.56077	-11.99574	-1.18307
4515.555	-12.51958	-1.53484	-13.00928	-1.29419
4519.514	-12.60427	-1.54534	-14.67140	-1.47374
4523.554	-12.57368	-1.53399	-11.81329	-1.22889
4527.565	-12.63761	-1.47606	-11.95151	-1.33875
4531.554	-12.55460	-1.47811	-11.98716	-1.38396
4535.558	-12.52279	-1.43742	-12.01240	-1.41400
4539.555	-12.47061	-1.40430	-11.97261	-1.32191
4543.554	-12.47541	-1.33070	-11.95118	-1.38159
4547.553	-12.47619	-1.25339	-11.91331	-1.39804
4551.558	-12.41085	-1.25700	-11.94056	-1.43179
4555.560	-12.39741	-1.22342	-12.00141	-1.46001
4559.514	-12.36845	-1.20798	-12.05893	-1.46810
4563.555	-12.41518	-1.21480	-11.99695	-1.44058
4567.560	-12.40874	-1.20479	-11.96401	-1.50905
4571.555	-12.38507	-1.27270	-11.96377	-1.42280
4575.512	-12.34382	-1.27938	-11.98434	-1.42289
4579.554	-12.38820	-1.19969	-11.99540	-1.36973
4583.558	-12.41106	-1.24538	-12.01858	-1.46762
4587.556	-12.38517	-1.25873	-11.89823	-1.41340
4591.552	-12.38751	-1.27550	-12.01623	-1.29976
4595.561	-12.36502	-1.32661	-12.01127	-1.24979
4599.558	-12.43109	-1.29843	-11.95838	-1.17143
4603.554	-12.38805	-1.29597	-11.83757	-1.03352
4607.556	-12.36156	-1.26554	-11.83562	-0.99844
4611.557	-12.45291	-1.31304	-12.03795	-0.98399
4615.457	-12.36674	-1.13918	-11.97206	-0.79246
4619.558	-12.39381	-1.17463	-11.94636	-0.75471
4623.557	-12.39440	-1.20641	-11.93888	-0.82829
4627.557	-12.38026	-1.11217	-11.98097	-0.67510
4631.517	-12.36172	-1.17392	-11.86155	-0.49329
4635.553	-12.32696	-1.16345	-11.65282	-0.65213
4639.554	-12.36835	-1.14182	-11.75693	-0.59878
4643.556	-12.35772	-1.11466	-11.96821	-0.63816
4647.427	-12.36468	-1.13647	-11.60454	-0.67113
4651.559	-12.34162	-1.12670	-11.37002	-0.41631
4655.553	-12.35704	-1.17057	-11.55557	-0.56231
4659.560	-12.36137	-1.13156	-11.57410	-0.72794
4663.516	-12.36078	-1.08459	-11.82487	-0.74321
4667.556	-12.30940	-1.06924	-11.76735	-0.95953
4671.557	-12.32049	-1.15392	-11.53241	-0.92800
4675.514	-12.32679	-1.11361	-11.65732	-0.85739
4679.444	-12.36866	-1.12884	-11.79211	-0.84785
4683.559	-12.40560	-1.04231	-11.70440	-0.88094
4687.556	-12.31218	-1.07173	-12.04422	-1.00545
4691.555	-12.40167	-1.04000	-11.96617	-1.15747
4695.456	-12.39153	-1.07779	-11.90131	-1.25654
4699.560	-12.35291	-1.09057	-11.83072	-1.09177
4703.554	-12.47787	-1.11172	-11.87389	-1.13290
4707.556	-12.54521	-1.10404	-11.89209	-1.00779
4711.561	-12.47271	-1.16079	-11.77379	-1.03473
4715.550	-12.57522	-1.17087	-11.93707	-1.09295
4719.550	-12.50981	-1.08423	-11.98614	-1.03186
4723.558	-12.39625	-1.04526	-12.06088	-1.04231
4727.457	-12.37309	-1.03133	-12.13980	-1.25832
4731.559	-12.54032	-0.96075	-11.97249	-1.21233
4735.555	-12.49469	-0.88685	-11.86253	-1.15777
4739.564	-12.43705	-0.93399	-11.70635	-1.00485
4743.561	-12.41656	-0.89136	-11.70445	-1.09872
4747.557	-12.36393	-0.88649	-11.76017	-1.15856
4751.557	-11.94482	-0.80122	-11.40951	-1.11716
4755.558	-9.45556	-0.79047	-9.25789	-0.75958
4759.454	-7.82582	-0.76399	-7.57820	-0.61566
4763.556	-6.59096	-0.72654	-7.04670	-0.17448
4767.556	-5.44903	-0.76672	-5.71237	0.41079
4771.558	-4.06258	-0.74088	-4.90752	0.54887
4775.456	-2.37672	-0.68790	-3.10841	0.84607
4779.560	-2.17249	-0.61880	-1.71679	1.15841
4783.560	-0.37196	-0.42751	-1.16478	1.01363
4787.558	0.48741	-0.18181	0.05775	1.09725
4791.459	0.79553	0.02765	0.51815	1.32216
4795.562	1.18468	-0.01021	2.41415	1.57005
4799.544	2.24750	0.16008	3.17693	1.79545
4803.557	2.47336	0.24148	3.24996	2.16402
4807.564	2.50999	0.36984	3.49443	2.07185
4811.561	2.29528	0.53024	3.50726	2.18608
4815.560	2.10424	0.74446	3.37366	2.18733
4819.555	2.12803	0.55992	3.45368	2.16297
4823.563	2.18709	0.55955	2.98762	2.07465
4827.562	2.28779	0.49121	3.12551	2.16948
4831.557	2.32315	0.57164	3.40227	2.10897
4835.555	2.32791	0.49775	3.53750	2.21330
4839.461	2.36056	0.51383	3.51913	2.07742
4843.525	2.34488	0.53302	3.64130	1.99410
4847.558	2.34354	0.68180	3.40469	2.17502
4851.556	2.26978	0.50346	3.45062	2.08275
4855.458	2.24644	0.66345	3.56724	2.02966
4859.516	2.33440	0.51468	3.56808	2.13537
4863.557	2.30444	0.50988	3.54967	1.99737
4867.561	2.29666	0.51467	3.38481	2.00684
4871.461	2.28883	0.52177	3.43605	2.02167
4875.518	2.28789	0.58548	3.52089	2.02877
4879.559	2.31131	0.55923	3.31751	2.04320
4883.537	2.10677	0.55330	3.35278	2.07776
4887.395	2.26547	0.68671	3.30750	2.09185
4891.426	2.28157	0.59847	3.38471	2.06701
4895.433	2.24502	0.67852	3.36893	2.03938
4899.434	2.28554	0.57394	3.34828	2.06206
4903.394	2.17356	0.55384	3.23482	2.03549
4907.438	2.29877	0.55742	3.22633	2.06326
4911.436	2.32181	0.62196	3.24224	2.09727
4915.434	2.46402	0.65806	3.28130	2.01391
4919.433	2.38291	0.70954	3.26567	2.06469
4923.434	2.34114	0.66376	3.42515	2.05246
4927.437	2.44504	0.67763	3.37254	2.06548
4931.436	2.37458	0.67471	3.44439	2.08888
4935.435	2.37203	0.57437	3.47213	2.05751
4939.394	2.42230	0.54662	3.41553	2.00967
4943.435	2.38898	0.58683	3.52559	2.02866
4947.435	2.41744	0.59642	3.53241	2.02064
4951.443	2.40317	0.59958	3.48607	2.03910
4955.431	2.46206	0.55212	3.64555	1.98909
4959.437	2.39621	0.60291	3.57471	1.95724
4963.435	2.43761	0.57787	3.63270	1.93066
4967.431	2.52171	0.58823	3.58452	1.67311
4971.418	2.43313	0.57867	3.68799	1.88974
4975.392	2.37548	0.58577	3.62336	1.89543
4979.434	2.36752	0.57102	3.74251	1.74075
4983.435	2.34793	0.67815	3.64681	1.78107
4987.434	2.36410	0.65469	3.60101	1.82279
4991.437	2.37188	0.64205	3.58504	1.52686
4995.438	2.44856	0.66393	3.68028	1.61974
4999.459	2.39522	0.67103	3.70383	1.61816
5003.435	2.40768	0.59516	3.74856	1.74827
5007.435	2.41001	0.55631	3.85827	1.69325
5011.435	2.36039	0.48163	3.80676	1.80346
5015.429	2.40630	0.49472	3.77300	1.61927
5019.436	2.31738	0.55026	3.71283	1.67587
5023.437	2.40511	0.56326	3.53992	1.49092
5027.438	2.41891	0.51703	3.51965	1.66731
5031.436	2.47975	0.57016	3.61231	1.53449
5035.435	2.45743	0.48832	3.64009	1.69504
5039.438	2.39554	0.50503	3.66122	1.71004
5043.437	2.24626	0.39628	3.57955	1.70943
5047.428	2.33561	0.44184	3.63104	1.50931
5051.438	2.40716	0.48720	3.58166	1.63954
5055.409	2.33821	0.57074	3.61476	1.65658
5059.439	2.30566	0.58525	3.54813	1.69286
5063.435	2.47046	0.58622	3.47191	1.68618
5067.435	2.39279	0.62320	3.55990	1.61344
5071.431	2.43112	0.64731	3.55046	1.72459
5075.394	2.44551	0.58822	3.57765	1.72449
5079.429	2.46620	0.56470	3.59364	1.70620
5083.434	2.46880	0.62065	3.61963	1.63038
5087.433	2.52322	0.67943	3.68812	1.51444
5091.434	2.56654	0.65791	3.56962	1.65267
5095.427	2.58633	0.62640	3.67981	1.69615
5099.429	2.50380	0.66869	3.55696	1.65978
5103.436	2.57764	0.62296	3.56405	1.60528
5107.435	2.51559	0.61207	3.62432	1.57618
5111.395	2.59188	0.55881	3.57592	1.57101
5115.437	2.52731	0.50912	3.62613	1.54141
5119.439	2.52196	0.49229	3.69370	1.47473
5123.436	2.48304	0.49429	3.62739	1.61401
5127.429	2.46508	0.44152	3.57068	1.53372
5131.441	2.48302	0.41655	3.58583	1.62256
5135.437	2.49307	0.40887	3.64667	1.60127
5139.408	2.43332	0.39330	3.68888	1.55508
5143.396	2.45564	0.36221	3.73977	1.64775
5147.438	2.40768	0.38241	3.83092	1.62778
5151.438	2.41715	0.39770	3.79850	1.62302
5155.436	2.41222	0.41113	3.81837	1.57796
5159.434	2.44938	0.43314	3.79514	1.64656
5163.439	2.47462	0.42074	3.91988	1.69801
5167.445	2.48022	0.41372	3.83438	1.67609
5171.437	2.48921	0.41972	3.79134	1.63824
5175.465	2.47833	0.44261	3.56789	1.63840
5179.415	2.44531	0.47030	3.63023	1.59773
5183.442	2.49305	0.53438	3.65729	1.52998
5187.437	2.53516	0.59180	3.58517	1.53679
5191.430	2.60788	0.63215	3.56091	1.47810
5195.435	2.66810	0.59330	3.60321	1.54938
5199.437	2.66642	0.55464	3.52573	1.64554
5203.438	2.63180	0.52350	3.59940	1.58120
5207.431	2.62378	0.58978	3.56737	1.48996
5211.438	2.65510	0.68882	3.30574	1.47666
5215.440	2.44925	0.75438	3.06345	1.61425
5219.440	0.67089	1.13103	0.55478	1.86426
5223.432	-0.55267	1.57298	-0.77156	2.36299
5227.437	-0.93969	1.71953	-1.53798	2.74431
5231.439	-2.53067	1.95306	-1.74251	3.15851
5235.438	-2.85777	2.25989	-1.49894	3.41690
5239.440	-2.84083	2.64223	-1.81034	3.46616
5243.443	-2.81098	2.72001	-1.88241	3.57810
5247.441	-2.60144	2.83962	-1.74268	3.51293
5251.436	-2.58076	2.63170	-1.66480	3.62226
5255.462	-2.59046	2.72048	-1.71565	3.67025
5259.437	-2.69995	2.68366	-1.88234	3.73823
5263.419	-2.55029	2.66109	-1.81557	3.87476
5267.435	-2.62791	2.78043	-1.87790	3.91616
5271.463	-2.62774	2.82634	-1.87711	4.07938
5275.438	-2.64703	2.84643	-1.87103	4.11184
5279.439	-2.68400	2.89836	-1.88415	3.99668
5283.440	-2.75839	2.87961	-1.66740	3.91218
5287.460	-2.85182	2.92365	-1.72480	3.91068
5291.439	-2.98104	2.94534	-1.66041	3.80703
5295.438	-2.93903	2.95778	-1.43932	3.91220
5299.441	-3.11383	2.91684	-1.51303	3.87227
5303.433	-2.88010	3.03461	-1.35127	3.88359
5307.445	-2.87210	3.11622	-1.58371	3.72566
5311.443	-2.93005	3.13412	-1.50929	3.91542
5315.440	-2.99960	3.15139	-1.38582	3.73616
5319.433	-2.95609	3.17608	-1.40204	3.73638
5323.441	-2.95146	3.14547	-1.39247	3.77038
5327.441	-2.95319	3.12658	-1.47853	3.74461
5331.438	-2.97616	3.10319	-1.47642	3.79651
5335.433	-2.84952	3.10059	-1.54316	3.84531
5339.441	-2.88695	3.08005	-1.68786	3.85520
5343.441	-2.82694	3.08112	-1.75838	3.85807
5347.439	-2.82182	3.07849	-1.83541	3.79605
5351.441	-2.82526	3.06004	-1.70375	3.67451
5355.437	-2.81093	3.09324	-1.80824	3.76529
5359.443	-2.76799	3.18402	-1.87227	3.69346
5363.398	-2.79132	3.20012	-1.82879	3.61121
5367.465	-2.75183	3.24736	-1.91558	3.57152
5371.441	-2.71337	3.30914	-1.88318	3.64056
5375.407	-2.66479	3.35605	-1.87874	3.69755
5379.440	-2.72122	3.37484	-1.96774	3.70755
5383.432	-2.74115	3.39715	-1.93130	3.85253
5387.438	-2.80112	3.44577	-1.93603	4.34307
5391.439	-2.90483	3.44081	-1.90760	3.91810
5395.440	-2.84848	3.38739	-1.68429	3.81628
5399.441	-2.82194	3.34663	-1.75334	3.67189
5403.440	-2.83031	3.31722	-1.66658	3.46404
5407.446	-2.85403	3.24851	-1.87267	3.66655
5411.439	-2.85695	3.18692	-1.80799	3.99714
5415.444	-2.84309	3.13493	-1.87773	3.98888
5419.439	-3.02650	3.12991	-1.91640	4.01976
5423.442	-3.00121	3.07493	-1.88750	4.03663
5427.442	-2.92651	3.09932	-1.87314	4.23254
5431.449	-2.96770	3.11563	-1.81795	4.00239
5435.443	-2.96022	3.04085	-1.74469	3.82291
5439.443	-2.92000	3.05781	-1.80075	3.81051
5443.445	-2.90646	3.02830	-1.89300	3.73823
5447.443	-2.95619	2.99847	-1.93903	3.82552
5451.441	-2.83700	3.04163	-1.94469	3.83094
5455.443	-2.87195	3.12233	-1.91330	4.08540
5459.444	-2.98037	3.07440	-1.83191	3.84063
5463.446	-2.85831	3.07671	-1.78049	3.83825
5467.448	-3.08389	3.12660	-2.13470	4.00429
5471.417	-4.29870	3.31565	-3.12578	5.79001
5475.400	-5.50496	4.08446	-5.98078	6.47704
5479.446	-7.80696	6.20364	-6.74946	7.65588
5483.439	-8.17279	6.81823	-8.04234	7.94880
5487.440	-9.24046	6.90681	-8.64728	8.27269
5491.441	-10.11101	7.26904	-8.68916	8.36115
5495.444	-10.60641	7.66496	-9.25681	8.90603
5499.440	-11.38340	7.84458	-9.26737	9.92110
5503.443	-10.54735	8.02754	-9.15904	10.19949
5507.443	-10.87441	8.04426	-9.08566	10.15246
5511.434	-10.57248	7.87707	-9.00179	9.26875
5515.442	-10.76884	7.98288	-8.83672	9.74956
5519.441	-10.95445	7.98844	-8.99624	9.75623
5523.445	-11.05706	8.07844	-9.29287	10.10004
5527.442	-10.84674	8.15840	-9.31216	9.87364
5531.442	-10.96495	8.40012	-9.23937	9.93201
5535.444	-10.84434	8.33807	-9.33548	9.98588
5539.445	-10.97282	8.13220	-9.15693	10.01925
5543.449	-10.85212	7.90794	-9.24020	9.98811
5547.442	-10.87256	8.14534	-9.19408	9.98663
5551.399	-10.96626	8.23074	-9.36042	9.95162
5555.408	-10.94359	8.14631	-9.29974	9.96014
5559.439	-11.00580	8.28280	-9.30387	9.92641
5563.442	-11.07166	8.39962	-9.24868	10.07404
5567.443	-10.99221	8.31903	-9.15089	10.02577
5571.443	-11.01342	8.22815	-9.10371	10.11696
5575.405	-11.03255	8.30943	-9.12464	10.11459
5579.443	-11.10527	8.25794	-9.02806	10.13077
5583.440	-11.21111	8.31338	-9.03757	10.11579
5587.445	-11.17816	8.41480	-8.96724	10.11141
5591.445	-11.28011	8.52614	-8.98336	10.14034
5595.442	-11.12694	8.45376	-8.94813	10.25617
5599.441	-11.19542	8.44879	-8.88460	10.27587
5603.445	-11.25877	8.43838	-8.89419	10.29707
5607.339	-11.25041	8.35576	-8.90056	10.26255
5611.443	-11.25278	8.37099	-8.92619	10.25400
5615.443	-11.22991	8.42584	-8.91575	10.32553
5619.446	-11.14218	8.48574	-8.91636	10.20501
5623.446	-11.11313	8.58983	-8.92304	10.24051
5627.443	-11.07577	8.46608	-8.91260	10.22582
5631.441	-11.08101	8.51257	-8.94539	10.18229
5635.441	-11.06619	8.47332	-8.96128	10.19724
5639.347	-11.08029	8.51132	-9.03474	10.14079
5643.401	-11.09508	8.49325	-9.06959	10.14491
5647.444	-11.07271	8.47113	-9.13161	10.10341
5651.447	-11.09308	8.54923	-9.09001	10.14033
5655.342	-11.09769	8.57280	-9.09115	10.21653
5659.444	-11.11513	8.52587	-9.10272	10.18878
5663.442	-11.13874	8.55144	-9.09502	10.22453
5667.445	-11.18160	8.53826	-9.11319	10.25025
5671.448	-11.17961	8.52501	-9.11919	10.29842
5675.448	-11.12390	8.47613	-9.14956	10.27011
5679.403	-11.07845	8.48275	-9.18226	10.30426
5683.444	-11.14039	8.52850	-9.15773	10.29966
5687.345	-11.09477	8.63048	-9.14034	10.30048
5691.445	-11.12861	8.55348	-9.10134	10.32092
5695.442	-11.17689	8.51977	-9.10555	10.34217
5699.457	-11.04367	8.48780	-9.07322	10.36835
5703.446	-10.95473	8.57092	-9.00169	10.35310
5707.441	-10.83668	8.50417	-8.89017	10.31419
5711.444	-9.67630	8.46921	-8.38976	10.25560
5715.445	-9.51563	8.35606	-7.69558	10.26627
5719.434	-9.92933	8.35120	-7.68320	10.28135
5723.435	-9.92598	8.35852	-8.23658	10.19019
5727.442	-9.60565	7.85632	-8.29059	10.22605
5731.446	-9.53834	8.07153	-8.10425	10.12631
5735.448	-9.91970	8.14843	-7.98797	10.01620
5739.448	-9.95420	8.15192	-7.94672	9.70537
5743.450	-9.66045	8.11073	-7.82779	9.74573
5747.447	-9.60142	8.06863	-7.78092	9.71877
5751.448	-9.63655	7.91729	-7.70950	9.76609
5755.445	-9.62746	7.72995	-7.67355	9.84484
5759.442	-9.63245	7.78015	-7.75098	9.91543
5763.412	-9.55712	7.60633	-7.84976	9.67984
5767.323	-9.60560	7.58249	-7.77232	9.82494
5771.445	-9.62574	7.72792	-7.74588	9.75867
5775.447	-9.63426	7.82636	-7.73046	9.76550
5779.446	-9.53537	7.65910	-7.65666	9.77200
5783.450	-9.55850	7.60823	-7.62918	9.93320
5787.444	-9.52333	7.52363	-7.60824	9.93746
5791.445	-9.54406	7.58965	-7.58351	10.00831
5795.445	-9.49504	7.55067	-7.59817	9.91861
5799.450	-9.56940	7.55976	-7.59580	9.87445
5803.435	-9.53525	7.55899	-7.63903	9.90672
5807.442	-9.70979	7.61299	-7.62650	9.82221
5811.444	-9.68484	7.75077	-7.64837	9.89140
5815.447	-10.02148	7.76896	-7.59771	9.85356
5819.444	-9.71076	7.72253	-7.58863	9.81323
5823.442	-9.68783	7.72896	-7.66027	9.72833
5827.448	-9.67256	7.69232	-7.69675	9.55811
5831.448	-9.70203	7.60710	-7.76547	9.60786
5835.444	-9.73721	7.77581	-7.80920	9.68332
5839.444	-9.65983	7.78889	-7.80981	9.66457
5843.415	-9.62046	7.80491	-7.81164	9.69049
5847.350	-9.56851	7.86162	-7.80986	9.71488
5851.444	-9.66699	7.94162	-7.77666	9.77406
5855.446	-9.56940	7.90456	-7.83244	9.82678
5859.404	-9.56332	8.00673	-7.83303	9.71983
5863.349	-9.49465	7.84057	-7.84820	9.69013
5867.448	-9.60562	7.83704	-7.83407	9.76703
5871.445	-9.59551	7.95691	-7.85025	9.75652
5875.405	-9.60002	7.99626	-7.80246	9.74442
5879.348	-9.60671	7.98856	-7.79393	9.74770
5883.447	-9.64547	7.94806	-7.78967	9.69785
5887.418	-9.59353	7.92182	-7.83787	9.65793
5891.449	-9.60557	7.96554	-7.96412	9.60839
5895.451	-9.54361	7.93256	-7.91991	9.55882
5899.446	-9.57006	7.90421	-8.00336	9.56559
5903.444	-9.46305	7.85069	-7.91110	9.63011
5907.448	-9.62813	7.93294	-7.87745	9.74152
5911.450	-9.56591	8.05734	-7.97892	9.68566
5915.445	-9.62589	8.01466	-8.08346	9.64618
5919.444	-9.59199	8.00827	-7.99194	9.70274
5923.448	-9.60162	8.00737	-8.04514	9.75630
5927.347	-9.64275	8.22070	-7.94365	9.73392
5931.417	-9.69684	8.20263	-8.01068	9.77286
5935.288	-9.67625	8.13105	-7.79183	9.84684
5939.322	-10.02572	8.10289	-8.74425	10.65474
5943.348	-2.85143	6.94939	-9.96496	13.01091
5947.326	-2.61327	6.06595	-5.99068	12.33156
5951.322	-2.87725	6.37250	-6.92092	13.49822
5955.325	-2.85222	3.57464	-3.34581	11.23907
5959.346	-3.33695	4.37419	NaN	NaN
5963.320	-4.19766	4.47539	NaN	NaN
5967.319	-3.70196	8.44160	NaN	NaN
5971.326	-3.93539	8.31038	NaN	NaN
5975.281	NaN	NaN	NaN	NaN
5979.349	1.36427	4.38971	NaN	NaN
5983.324	-2.55269	12.32484	NaN	NaN
5987.320	-2.08761	9.67366	NaN	NaN
5991.322	-3.41244	5.51516	1.27780	5.43826
5995.325	-1.41834	0.43231	1.75007	6.86008
5999.352	-1.71208	2.96523	0.99695	4.55873
6003.324	-1.07748	2.91887	-0.44413	0.82918
6007.326	-2.75477	0.94088	-0.73059	0.47069
6011.323	-3.01549	0.60918	-0.98152	0.36416
6015.339	-2.72860	0.65949	-0.89071	0.36943
6019.313	-2.52760	0.90834	-0.19526	0.41003
6023.323	-2.42099	1.21512	-1.19053	0.46944
6027.319	-1.58659	1.63100	-1.23997	0.55635
6031.349	-1.43245	1.61419	-2.02349	0.79262
6035.322	-0.68171	1.39036	-1.57686	0.85358
6039.325	-1.03702	1.97495	-1.11001	0.79050
6043.322	-1.01677	1.47854	-0.12252	0.85375
6047.317	-1.32215	1.40946	-0.70216	1.04831
6051.337	-1.27435	1.39823	-0.03559	1.57082
6055.325	-1.22486	1.49238	0.91949	1.33108
6059.294	-1.16612	1.51178	0.78158	1.55160
6063.317	-1.03538	1.51622	1.04910	1.14133
6067.327	-1.06974	1.37529	0.81367	1.81020
6071.325	-1.00742	1.45935	0.70439	1.54232
6075.282	-1.07185	1.48069	0.63119	1.67262
6079.353	-1.06309	1.43568	0.79717	1.57084
6083.322	-1.08815	1.42696	0.60012	1.60152
6087.328	-1.07133	1.44030	0.53205	1.57743
6091.319	-1.02538	1.39106	0.64737	1.53010
6095.347	-1.12750	1.50214	0.51716	1.43207
6099.307	-1.13266	1.56401	0.18221	1.48460
6103.326	-1.09348	1.53558	-0.42068	1.37868
6107.323	-1.14548	1.44781	0.23408	1.39164
6111.323	-1.08686	1.47686	0.35402	1.42006
6115.323	-1.01923	1.41015	0.08001	1.38147
6119.326	-0.96065	1.30459	0.14580	1.36825
6123.324	-0.93817	1.29638	-0.11297	1.40576
6127.351	-0.84099	1.20552	0.03120	1.52041
6131.322	-0.87441	1.24661	-0.05862	1.59898
6135.324	-0.79335	1.22690	-0.15010	1.77184
6139.322	-0.78419	1.19258	-0.38278	1.74763
6143.343	-0.72146	1.19773	-0.06770	1.83915
6147.323	-0.77603	1.44511	-3.49671	1.79594
6151.325	-0.75223	1.32513	-3.12168	2.07766
6155.324	-1.52290	1.27966	-2.97921	1.83768
6159.351	-1.02494	1.42634	-2.37087	5.07243
6163.324	-1.49068	2.81777	-0.11533	7.94585
6167.328	-1.88658	8.74684	-2.88866	8.15946
6171.323	NaN	NaN	NaN	NaN
6175.284	NaN	NaN	NaN	NaN
6179.328	NaN	NaN	NaN	NaN
6183.283	NaN	NaN	NaN	NaN
6187.321	NaN	NaN	NaN	NaN
6191.325	NaN	NaN	NaN	NaN
6195.319	NaN	NaN	NaN	NaN
6199.282	NaN	NaN	NaN	NaN
6203.321	NaN	NaN	NaN	NaN
6207.281	NaN	NaN	NaN	NaN
6211.323	NaN	NaN	NaN	NaN
6215.282	NaN	NaN	NaN	NaN
6219.322	NaN	NaN	NaN	NaN
6223.315	NaN	NaN	NaN	NaN
6227.313	NaN	NaN	NaN	NaN
6231.321	NaN	NaN	NaN	NaN
6235.282	NaN	NaN	NaN	NaN
6239.354	NaN	NaN	NaN	NaN
6243.286	NaN	NaN	NaN	NaN
6251.324	0.69498	5.02547	9.14506	1.65818
6255.331	-1.37860	5.89060	0.06140	2.14189
6259.327	NaN	NaN	NaN	NaN
6267.323	0.02685	1.14192	-0.26014	0.48782
6271.317	-0.98844	0.83271	-0.84307	0.24536
6275.327	-0.95738	0.61058	-0.90654	0.02942
6279.323	-0.48033	0.56570	-1.00777	-0.02852
6283.327	-0.07706	0.31411	-0.84836	-0.05441
6287.284	0.16360	0.27321	-0.66623	-0.10796
6291.325	0.31444	0.31605	-0.02531	0.11224
6295.326	0.80067	0.19425	0.07396	0.19792
6299.326	1.87835	0.21018	1.26594	0.25024
6304.050	1.17145	0.33062	1.70740	0.16202
6308.884	0.97417	0.21233	1.89711	0.31350
6311.332	1.05555	0.21555	2.04106	0.42757
6315.327	1.24880	0.24783	2.18263	0.58604
6319.352	1.30310	0.23881	2.33155	0.40224
6323.329	1.30605	0.33075	2.18416	0.52104
6327.325	1.56776	0.38352	2.15990	0.56979
6331.324	1.72587	0.34172	2.20991	0.62953
6335.320	1.70157	0.38387	2.17036	0.63014
6339.329	1.61942	0.41910	2.19331	0.70367
6343.323	1.59016	0.43578	2.18045	0.56335
6347.326	1.46157	0.41009	2.23258	0.60015
6351.321	1.53448	0.46664	2.31993	0.52722
6355.325	1.62019	0.47655	2.33807	0.56575
6359.327	1.73068	0.41138	2.42386	0.57237
6363.285	1.68835	0.36023	2.31584	0.55555
6367.327	1.67700	0.27752	2.30650	0.61713
6371.329	1.64246	0.29729	2.34248	0.67880
6375.323	1.59040	0.37785	2.34741	0.67522
6379.326	1.56838	0.51005	2.30922	0.64329
6383.327	1.53954	0.40240	2.34572	0.57203
6387.329	1.61059	0.57404	2.35605	0.56487
6391.327	1.61101	0.55686	2.40719	0.58121
6395.325	1.60598	0.37644	2.40483	0.64824
6399.321	1.56786	0.33961	2.35749	0.68689
6403.329	1.52255	0.48895	2.28970	0.72649
6407.330	1.45306	0.59520	2.28863	0.64899
6411.327	1.52796	0.71780	2.26415	0.51635
6415.320	1.55145	0.63538	2.25907	0.55880
6419.330	1.53391	0.51845	2.33363	0.49348
6423.329	1.54046	0.47938	2.37602	0.46186
6427.333	1.55380	0.48906	2.30761	0.51216
6431.322	1.51799	0.53060	2.21591	0.55798
6435.331	1.44520	0.45414	2.22089	0.51760
6439.327	1.38721	0.55393	1.96087	0.41269
6443.329	0.89763	0.50536	1.94099	0.37550
6447.334	1.06915	0.41026	2.00252	0.32681
6451.331	1.33163	0.34237	2.11356	0.30648
6455.326	1.26971	0.20153	2.13670	0.35589
6459.330	1.23377	0.19326	2.01637	0.34911
6463.332	1.08024	0.09861	2.06914	0.34190
6467.335	1.22635	0.21194	2.01360	0.35825
6471.331	1.34770	0.16192	1.97359	0.34420
6475.298	1.29754	0.14955	2.02765	0.32283
6479.323	1.43560	0.24414	2.00886	0.31554
6483.285	1.54941	0.15537	2.06540	0.32655
6487.284	1.58465	0.26176	2.05291	0.28886
6491.284	1.50571	0.28922	2.05177	0.24448
6495.320	1.50529	0.31696	2.02143	0.22075
6499.328	1.38431	0.30595	1.99823	0.18665
6503.330	1.51588	0.38765	2.01580	0.12092
6507.328	1.54621	0.43750	2.03105	0.13318
6511.324	1.45832	0.27745	2.03957	0.13899
6515.311	0.70598	0.41400	1.93455	0.19458
6519.327	-0.28977	0.49686	-0.96184	0.15996
6523.328	-2.01238	0.38715	-3.50761	0.27754
6527.332	-3.29122	0.42950	-3.99126	0.33202
6531.330	-4.29747	0.39696	-4.95879	0.37631
6535.330	-5.22254	0.36807	-5.99480	0.44325
6539.326	-5.77389	0.33232	-6.86677	0.37366
6543.323	-7.00670	0.28064	-7.41333	0.34044
6547.329	-7.14184	0.20100	-7.40674	0.32845
6551.290	-7.32458	0.21615	-7.31694	0.29615
6555.331	-7.43503	0.29120	-7.27553	0.18171
6559.321	-7.40335	0.28503	-7.15017	-0.04746
6563.329	-7.49673	0.33846	-7.14846	-0.09317
6567.329	-7.60466	0.32845	-7.05670	-0.06816
6571.332	-7.65344	0.46937	-7.17790	-0.10656
6575.333	-7.80555	0.42600	-7.15064	-0.07328
6579.341	-7.97296	0.46434	-7.16813	-0.05335
6583.329	-7.88814	0.44804	-7.17258	-0.05685
6587.330	-7.87918	0.55684	-7.15367	-0.03203
6591.331	-7.98907	0.51973	-7.11044	0.05112
6595.329	-8.02394	0.52542	-7.06112	0.15334
6599.306	-8.01307	0.53727	-7.02616	0.21434
6603.333	-8.01472	0.50356	-6.88543	0.23861
6607.331	-8.01535	0.44428	-6.82679	0.16032
6611.325	-8.04509	0.51299	-6.91716	0.09386
6615.331	-8.02698	0.55309	-6.85904	0.02783
6619.331	-8.01440	0.60025	-6.92750	-0.14073
6623.332	-8.07316	0.48895	-7.00301	-0.11229
6627.332	-7.95701	0.47801	-6.94895	-0.05173
6631.328	-7.86247	0.47674	-6.96333	-0.06443
6635.331	-7.90233	0.27409	-6.99438	-0.06255
6639.326	-7.89181	0.34018	-7.07434	0.07255
6643.321	-7.87092	0.40639	-7.07053	0.12791
6647.329	-7.76594	0.42732	-7.19205	0.00370
6651.335	-7.83773	0.37518	-7.25777	0.04230
6655.334	-7.78501	0.31139	-7.25164	0.04235
6659.334	-7.92252	0.19781	-7.34514	-0.00688
6663.330	-7.82177	0.14960	-7.38070	0.13842
6667.332	-7.79166	0.17514	-7.37799	0.13300
6671.333	-7.77210	0.16895	-7.37643	0.14865
6675.330	-7.74898	0.18041	-7.36655	0.23542
6679.333	-7.75963	0.24528	-7.33928	0.21624
6683.290	-7.94423	0.20466	-7.30346	0.16013
6687.222	-7.74216	0.15367	-7.24564	0.12606
6691.327	-7.78976	0.13204	-7.18398	0.08133
6695.329	-7.78791	0.18571	-7.14929	0.05427
6699.331	-7.90645	0.27478	-7.12564	0.03104
6703.231	-7.82321	0.36673	-7.11396	0.04113
6707.330	-7.85901	0.46663	-7.09358	-0.02952
6711.329	-7.82681	0.50750	-7.05469	-0.02178
6715.333	-8.01289	0.44525	-7.19776	0.19686
6719.232	-8.38112	0.34707	-9.16649	0.08137
6723.314	-10.26686	0.23984	-11.04723	0.06290
6727.328	-11.03600	0.25972	-11.71080	0.05703
6731.334	-12.04521	0.18000	-12.56640	0.09973
6735.225	-12.80147	0.20509	-13.12637	-0.15248
6739.290	-13.17586	0.16511	-14.65848	-0.40027
6743.330	-14.40344	0.18951	-15.45336	-0.60933
6747.334	-14.03075	-0.04236	-15.66949	-0.87834
6751.337	-14.28844	-0.00383	-15.53538	-0.74396
6755.330	-14.25147	0.05696	-15.10094	-0.89664
6759.331	-14.08776	0.10940	-14.72578	-0.80222
6763.334	-14.16933	0.04517	-14.71579	-0.74629
6767.234	-14.07590	-0.03697	-14.47008	-0.82682
6771.332	-14.23657	-0.02748	-14.57529	-0.74859
6775.332	-14.43934	0.08293	-14.60451	-0.76109
6779.334	-14.45458	0.08826	-14.80291	-0.73117
6783.201	-14.61401	0.11018	-14.67342	-0.72117
6787.335	-14.56488	0.11703	-14.48832	-0.77220
6791.330	-14.67623	0.10382	-14.56437	-0.71407
6795.334	-14.74100	0.09113	-14.52291	-0.74035
6799.334	-14.79015	0.01730	-14.44373	-0.65653
6803.335	-14.80208	-0.07046	-14.47024	-0.68214
6807.310	-14.90327	-0.11219	-14.40325	-0.76645
6811.332	-14.92454	-0.15672	-14.22036	-0.71014
6815.226	-14.90841	-0.27739	-14.14833	-0.70066
6819.329	-14.81398	-0.13095	-14.16826	-0.69272
6823.331	-14.82228	-0.17930	-14.05320	-0.68697
6827.334	-14.77707	-0.18744	-13.92863	-0.69832
6831.233	-14.85901	-0.19580	-13.92814	-0.53937
6835.332	-14.80127	-0.07388	-13.84499	-0.50786
6839.330	-14.76721	-0.13105	-13.81256	-0.47121
6843.191	-14.76087	-0.09898	-13.77350	-0.46504
6847.322	-14.76514	-0.12550	-13.72856	-0.41275
6851.324	-14.79795	-0.06263	-13.77036	-0.40317
6855.335	-14.79732	-0.08892	-13.79079	-0.38824
6859.290	-14.84325	-0.10754	-13.80725	-0.40518
6863.234	-14.83525	-0.18671	-13.82386	-0.42872
6867.336	-14.89488	-0.11644	-13.86942	-0.41342
6871.334	-14.96114	-0.11929	-13.93417	-0.37327
6875.337	-14.91807	0.05081	-13.97891	-0.41315
6879.237	-14.89298	-0.01727	-14.04633	-0.41903
6883.332	-14.88491	-0.01201	-14.20628	-0.39674
6887.331	-14.86824	-0.06016	-14.21512	-0.42313
6891.337	-14.83926	-0.08462	-14.33341	-0.40791
6895.337	-14.80370	-0.13579	-14.39415	-0.36792
6899.331	-14.77619	-0.16235	-14.45181	-0.35959
6903.332	-14.70832	-0.16548	-14.57002	-0.34254
6907.336	-14.69836	-0.16616	-14.66782	-0.32234
6911.335	-14.67026	-0.10303	-14.73894	-0.28818
6915.332	-14.63876	-0.07600	-14.76535	-0.27827
6919.333	-14.66547	-0.17385	-14.69662	-0.22962
6923.336	-14.67272	-0.21327	-14.63871	-0.18366
6927.338	-14.66775	-0.21227	-14.60279	-0.15419
6931.338	-14.70275	-0.22826	-14.44913	-0.10605
6935.333	-14.73755	-0.24974	-14.32528	-0.04591
6939.337	-14.75593	-0.28511	-14.44022	-0.00209
6943.338	-14.80730	-0.31596	-14.28907	-0.04551
6947.334	-14.77157	-0.30400	-14.19074	-0.03382
6951.336	-14.78967	-0.33900	-14.25725	-0.05079
6955.335	-14.76479	-0.32811	-14.15757	-0.08240
6959.169	-14.84809	-0.37155	-14.14425	-0.15853
6963.208	-14.78677	-0.37843	-14.13080	-0.17022
6967.207	-14.74172	-0.30358	-14.18829	-0.23457
6971.214	-14.79844	-0.32332	-14.26648	-0.31370
6975.203	-14.76570	-0.33563	-14.23443	-0.31972
6979.186	-14.84925	-0.30338	-14.28005	-0.34713
6983.209	-14.92669	-0.26805	-14.20835	-0.34375
6987.209	-14.91555	-0.23784	-14.26177	-0.32570
6991.204	-14.92718	-0.18627	-14.22468	-0.32144
6995.211	-14.85839	-0.16743	-14.21640	-0.27578
6999.210	-14.87390	-0.16026	-14.24226	-0.32385
7003.210	-14.88285	-0.14515	-14.28247	-0.30874
7007.168	-14.85693	-0.14363	-14.25935	-0.33714
7011.209	-14.80630	-0.18631	-14.28788	-0.38511
7015.207	-14.68937	-0.19854	-14.24841	-0.41374
7019.197	-14.71946	-0.19626	-14.28501	-0.49126
7023.168	-14.66503	-0.19486	-14.29974	-0.54877
7027.210	-14.67959	-0.19750	-14.37878	-0.50749
7031.208	-14.71210	-0.17350	-14.21276	-0.52138
7035.210	-14.69258	-0.14030	-14.21264	-0.52478
7039.200	-14.69002	-0.12413	-14.20115	-0.57741
7043.213	-14.66255	-0.05395	-14.29277	-0.61187
7047.208	-14.76795	-0.04287	-14.19818	-0.70118
7051.213	-14.83051	-0.05897	-14.19135	-0.81778
7055.187	-14.91858	-0.06169	-14.02080	-0.63980
7059.210	-14.81639	-0.12614	-13.99375	-0.58442
7063.174	-14.83077	-0.12080	-14.02218	-0.49190
7067.211	-14.80718	-0.14880	-14.04629	-0.48194
7071.198	-14.81087	-0.07219	-14.04916	-0.46217
7075.213	-14.82198	-0.24995	-14.10854	-0.43680
7079.210	-14.72503	-0.17099	-14.10205	-0.43413
7083.213	-14.71633	-0.06898	-14.09887	-0.35271
7087.199	-14.75296	-0.18883	-14.10270	-0.49978
7091.214	-14.72972	-0.20980	-14.07611	-0.57209
7095.211	-14.70744	-0.31392	-13.96341	-0.35839
7099.212	-14.65716	-0.28930	-13.94179	-0.29936
7103.170	-14.60365	-0.20331	-13.98225	-0.28771
7107.210	-14.55941	-0.11299	-14.07737	-0.30466
7111.209	-14.57453	-0.03485	-14.07188	-0.32867
7115.220	-14.57604	-0.18395	-14.09707	-0.26525
7119.199	-14.59128	-0.26226	-14.17264	-0.19580
7123.215	-14.61083	-0.09488	-14.06280	-0.15673
7127.209	-14.62024	-0.08259	-14.02853	-0.15251
7131.208	-14.66670	-0.07183	-14.04769	-0.19359
7135.197	-14.68647	-0.09204	-14.05416	-0.24985
7139.215	-14.76168	-0.05803	-13.94850	-0.17506
7143.210	-14.71545	-0.02723	-13.87229	-0.18363
7147.203	-13.89407	0.03338	-13.80582	-0.18470
7151.171	-11.67817	0.04950	-11.79693	-0.13724
7155.210	-9.50399	-0.04181	-10.18957	0.04803
7159.211	-7.98707	-0.01351	-9.14762	0.07095
7163.211	-7.05327	0.08525	-7.14714	0.19005
7167.171	-4.98982	0.05780	-6.33601	0.52219
7171.208	-4.02826	-0.01210	-4.69766	1.11117
7175.211	-2.71711	0.10221	-3.51649	0.89626
7179.216	-1.46107	0.13608	-2.36425	1.46927
7183.208	0.01305	0.22063	-0.21884	1.63792
7187.188	1.30037	0.36262	0.70089	1.43483
7191.209	1.79336	0.26176	1.65322	1.71644
7195.211	2.94364	0.48510	2.18523	1.79830
7199.210	4.02181	0.49540	2.74509	1.83736
7203.213	3.75138	0.59483	3.61325	1.84885
7207.212	3.19289	0.71882	3.10364	1.87113
7211.212	2.52899	0.76258	2.87750	1.91460
7215.172	2.81709	0.74078	3.14776	1.93229
7219.208	3.13489	0.69180	3.31855	1.95967
7223.215	3.49839	0.74603	3.61367	1.99396
7227.202	3.42614	0.75558	3.49967	2.01950
7231.202	3.21203	0.90996	3.44485	2.06681
7235.203	3.24274	0.89604	3.48076	2.04531
7239.170	3.24145	0.80528	3.58190	2.04914
7243.212	3.22658	0.84950	3.63174	2.03531
7247.172	3.24120	0.79209	3.57891	2.01111
7251.209	3.13078	0.73281	3.60395	1.91048
7255.216	3.15877	0.65700	3.67727	1.81669
7259.212	3.18539	0.67812	3.74809	1.76744
7263.202	3.17294	0.67061	3.77735	1.74878
7267.212	3.09879	0.72502	3.79816	1.67593
7271.212	3.06162	0.71743	3.85748	1.62451
7275.215	3.07100	0.68601	3.88626	1.64953
7279.209	3.07219	0.61756	3.90770	1.65635
7283.215	3.10913	0.61811	3.89869	1.62835
7287.213	3.09235	0.64580	3.92260	1.62518
7291.217	3.08139	0.63859	3.94962	1.61993
7295.206	3.09770	0.60459	3.97363	1.65951
7299.215	3.11660	0.65604	3.96624	1.70260
7303.217	3.09866	0.67674	3.96545	1.71882
7307.220	3.11725	0.69094	3.92077	1.74125
7311.205	3.13091	0.65392	3.92077	1.73103
7315.212	3.19588	0.62200	3.94100	1.70257
7319.213	3.17084	0.62690	3.91190	1.63142
7323.224	3.20347	0.66814	3.92862	1.48872
7327.206	3.08278	0.71436	3.90607	1.55151
7331.214	3.07181	0.73873	3.90691	1.53789
7335.211	3.06382	0.72693	3.83515	1.60427
7339.214	3.07261	0.76456	3.76181	1.62915
7343.204	3.09362	0.77630	3.78763	1.63391
7347.214	3.10938	0.79231	3.78830	1.61793
7351.211	3.15139	0.80955	3.83729	1.62475
7355.206	3.21364	0.86933	3.78818	1.52576
7359.214	3.19949	0.79143	3.75375	1.67101
7363.214	3.17114	0.74682	3.72449	1.73172
7367.214	3.08248	0.79836	3.62684	1.76124
7371.217	3.05603	0.72390	3.59043	1.80103
7375.209	3.10401	0.73002	3.51485	1.75338
7379.211	3.12890	0.74293	3.51990	1.74509
7383.214	3.14709	0.73890	3.50007	1.70189
7387.218	3.06857	0.70794	3.52756	1.68209
7391.208	3.06338	0.74546	3.54645	1.67556
7395.190	3.08854	0.73609	3.57276	1.62806
7399.210	3.01123	0.70992	3.61147	1.66509
7403.215	2.96129	0.80026	3.51008	1.59090
7407.214	2.84465	0.81576	3.43074	1.46370
7411.215	2.75893	0.73219	3.37561	1.33541
7415.214	2.69938	0.71572	3.20602	1.18179
7419.217	2.66097	0.63538	3.23816	1.06659
7423.214	2.55995	0.67273	3.21748	0.96948
7427.215	2.46625	0.59516	3.27509	1.07602
7431.214	2.43915	0.52110	3.18967	1.04620
7435.203	2.46565	0.42958	3.05590	0.93006
7439.207	2.31906	0.29139	3.01059	0.92661
7443.215	2.38571	0.40622	3.02229	0.81895
7447.213	2.36334	0.38329	2.89240	0.83537
7451.217	2.26448	0.36159	2.87331	0.84273
7455.210	2.28284	0.32335	2.96138	0.86353
7459.217	2.27902	0.27786	2.93059	0.91861
7463.213	2.33180	0.23905	2.87455	0.91148
7467.216	2.30437	0.29623	2.78773	0.94490
7471.208	2.37838	0.27581	2.66840	0.94693
7475.214	2.27030	0.35191	2.69747	0.92527
7479.213	2.25432	0.38672	2.74603	0.90287
7483.173	2.36410	0.41209	2.83709	0.82846
7487.175	2.32969	0.40654	2.87297	0.79643
7491.173	2.22733	0.38539	2.67090	0.73981
7495.214	2.25652	0.38235	2.71184	0.64997
7499.213	2.27694	0.39776	2.70307	0.63833
7503.175	2.28385	0.39898	2.71062	0.66072
7507.217	2.22907	0.39008	2.79907	0.56996
7511.215	2.19621	0.35766	2.83633	0.53096
7515.217	2.15408	0.31623	2.87940	0.35752
7519.175	2.12117	0.32649	2.86628	0.40892
7523.213	2.13581	0.32718	2.85957	0.37741
7527.216	2.13182	0.30317	2.77849	0.33539
7531.215	2.08741	0.31830	2.73444	0.40835
7535.182	2.10233	0.27561	2.76921	0.37751
7539.212	2.11507	0.23176	2.79189	0.52653
7543.212	2.08783	0.33226	2.85071	0.50373
7547.215	2.02626	0.38802	2.97242	0.45362
7551.175	2.10855	0.45283	3.04427	0.45674
7555.181	2.16278	0.51032	2.84771	0.42280
7559.213	2.10741	0.54664	2.84120	0.49308
7563.215	2.14548	0.48118	2.82209	0.51592
7567.209	2.13891	0.51207	2.90463	0.57877
7571.217	2.15817	0.46089	3.04590	0.57311
7575.214	2.19256	0.36618	3.15750	0.58970
7579.216	2.16010	0.42963	3.15050	0.63173
7583.217	2.15423	0.51869	3.03145	0.68107
7587.219	2.14954	0.45488	3.03571	0.67839
7591.216	2.16954	0.47310	2.99613	0.61507
7595.219	2.13212	0.41625	2.87346	0.73358
7599.214	2.10986	0.38013	2.91532	0.74561
7603.194	2.09383	0.41971	2.97646	0.78455
7607.214	2.11631	0.41869	3.01049	0.78579
7611.174	2.12050	0.37660	2.98039	0.75877
7615.208	2.11804	0.37605	2.94512	0.72705
7619.216	2.11053	0.35860	2.96262	0.67469
7623.218	2.11965	0.41119	2.97163	0.67052
7627.215	2.12429	0.42832	2.99158	0.60661
7631.213	2.16518	0.37684	3.03846	0.53379
7635.216	2.16756	0.29487	3.04147	0.57507
7639.217	2.22664	0.33017	3.10124	0.54244
7643.205	2.22614	0.28036	3.18244	0.53185
7647.217	2.25050	0.23554	3.17651	0.48497
7651.214	2.24901	0.28192	3.20053	0.47960
7655.218	2.29101	0.30473	3.22178	0.48983
7659.220	2.33588	0.33950	3.22948	0.48772
7663.118	2.28670	0.25120	3.18249	0.51025
7667.214	2.30345	0.24111	3.11757	0.55461
7671.219	2.23970	0.25056	3.12041	0.63909
7675.218	2.21145	0.18017	3.12539	0.65459
7679.120	2.25798	0.16845	3.09738	0.60263
7683.177	2.22627	0.15122	3.07335	0.65135
7687.220	2.20411	0.21421	3.00297	0.64234
7691.218	2.27791	0.20941	2.99584	0.74975
7695.210	2.31517	0.22472	2.98401	0.54580
7699.217	2.23997	0.11390	2.96228	0.55249
7703.220	2.18701	0.11102	2.91156	0.73782
7707.216	2.17410	0.10213	2.75707	0.72097
7711.218	2.19083	0.09083	2.63041	0.80183
7715.218	2.20862	0.05085	2.66984	0.69017
7719.219	2.23551	0.08480	2.77114	0.71565
7723.220	2.26277	0.18036	2.64039	0.58227
7727.120	2.20176	0.11675	2.58150	0.56103
7731.219	2.16830	0.06712	2.50417	0.67668
7735.220	2.13133	0.06034	2.49265	0.53294
7739.216	2.13727	0.09362	2.44583	0.42922
7743.119	2.14798	0.09456	2.47125	0.51485
7747.217	2.20203	0.05892	2.54717	0.47724
7751.227	2.21187	0.08775	2.68675	0.45416
7755.223	2.25085	0.12869	2.77847	0.41781
7759.121	2.26331	0.13170	2.80367	0.35918
7763.215	2.31421	0.19324	2.86235	0.26741
7767.216	2.31079	0.14073	2.90534	0.28274
7771.209	2.37491	0.14417	2.93728	0.27402
7775.116	2.40773	0.17354	2.97878	0.30322
7779.216	2.44541	0.21237	3.03853	0.31278
7783.176	2.43456	0.21559	3.08221	0.39232
7787.217	2.44472	0.25139	3.11502	0.41314
7791.116	2.43932	0.29876	3.08844	0.58214
7795.218	2.45158	0.32232	3.06800	0.69440
7799.196	2.46605	0.33736	3.03130	0.80128
7803.221	2.48160	0.41933	3.00475	0.97030
7807.121	2.45584	0.41720	3.00396	1.06189
7811.190	2.46580	0.51275	3.02457	1.13643
7815.217	2.56414	0.70788	3.04291	1.14636
7819.220	2.77656	0.98498	3.35370	1.28375
7823.115	-0.01814	0.85606	2.94260	1.31251
7827.217	0.09515	2.90158	-0.02477	1.36406
7831.215	2.24636	3.08810	0.23760	1.34433
7835.221	0.33861	13.43411	8.09885	1.71902
7839.116	NaN	NaN	NaN	NaN
7843.074	NaN	NaN	NaN	NaN
7847.219	NaN	NaN	NaN	NaN
7851.175	NaN	NaN	NaN	NaN
7855.219	NaN	NaN	NaN	NaN
7859.216	NaN	NaN	NaN	NaN
7863.189	NaN	NaN	NaN	NaN
7867.218	NaN	NaN	NaN	NaN
7871.219	NaN	NaN	NaN	NaN
7875.214	NaN	NaN	NaN	NaN
7879.216	NaN	NaN	NaN	NaN
7883.176	NaN	NaN	NaN	NaN
7887.219	NaN	NaN	NaN	NaN
7891.218	NaN	NaN	NaN	NaN
7895.217	NaN	NaN	NaN	NaN
7899.218	NaN	NaN	NaN	NaN
7903.221	NaN	NaN	NaN	NaN
7907.217	-4.39799	14.47799	NaN	NaN
7911.223	-1.43689	10.12348	3.28125	13.12124
7915.224	-0.94145	2.26538	-0.00132	1.63272
7919.223	0.03365	1.42644	-1.31709	1.21224
7923.219	-1.14970	1.36634	-1.56828	0.17584
7927.178	-0.37762	1.20227	-1.88239	0.88738
7931.225	-0.60687	1.00496	-0.05581	0.23269
7935.222	-1.12075	0.92026	-1.53624	-0.18993
7939.218	-1.35509	0.76984	0.00891	-0.40784
7943.219	-1.32041	0.77310	-1.03134	0.18902
7947.117	-0.75454	0.68602	-1.81892	0.58588
7951.222	-1.08450	0.62147	-1.30030	0.59665
7955.220	-2.01779	0.72364	-1.52394	0.60489
7959.222	-3.50929	0.68499	-1.65314	0.60311
7963.224	-3.13343	0.65317	-1.68627	0.72134
7967.224	-2.12632	0.62125	-1.76309	0.72278
7971.223	-2.30137	0.60295	-1.77119	0.76457
7975.218	-2.36175	0.58401	-1.86142	0.73468
7979.224	-2.37191	0.51740	-1.78322	0.77075
7983.179	-2.38995	0.46695	-1.63769	0.77803
7987.179	-2.30355	0.46909	-1.79753	0.81291
7991.179	-2.25893	0.53812	-1.71781	0.79248
7995.104	-2.23526	0.58044	-1.80556	0.77677
7999.092	-2.42768	0.49037	-1.79262	0.76516
8003.099	-2.27104	0.49080	-1.77377	0.70425
8007.095	-2.29760	0.46509	-1.77618	0.65048
8011.055	-2.24470	0.37870	-1.77419	0.57787
8015.093	-2.23023	0.34462	-1.71927	0.55047
8019.096	-2.18756	0.33661	-1.71989	0.56264
8023.096	-2.27127	0.35729	-1.73628	0.61794
8027.120	-2.30454	0.37149	-1.75143	0.78705
8031.095	-2.30989	0.41908	-1.74903	0.69020
8035.101	-2.38008	0.36990	-1.72785	0.74365
8039.098	-2.39002	0.39078	-1.70581	0.71774
8043.089	-2.36463	0.40434	-1.65795	0.63227
8047.098	-2.51824	0.47566	-1.59097	0.56888
8051.052	-2.56825	0.43074	-1.52684	0.65742
8055.097	-2.42891	0.34333	-1.50497	0.69461
8059.122	-2.32922	0.38173	-1.50390	0.66863
8063.097	-2.25840	0.43387	-1.48399	0.66916
8067.063	-2.29800	0.40995	-1.42722	0.71545
8071.098	-2.22936	0.36664	-1.45006	0.61077
8075.090	-2.30209	0.37040	-1.41477	0.64332
8079.097	-2.24247	0.29448	-1.43466	0.54560
8083.099	-2.18342	0.26005	-1.45073	0.56239
8087.098	-2.29126	0.21164	-1.50457	0.47502
8091.122	-2.23298	0.24376	-1.52486	0.56910
8095.099	-2.14679	0.24990	-1.55271	0.55595
8099.098	-2.19886	0.27569	-1.55817	0.58146
8103.096	-2.28279	0.23352	-1.63092	0.59366
8107.091	-2.32934	0.19475	-1.62790	0.69591
8111.096	-2.36733	0.14666	-1.66299	0.75252
8115.096	-2.50992	0.16050	-1.69011	0.67885
8119.097	-2.60104	0.15986	-1.67596	0.52661
8123.097	-2.64606	0.33113	-1.54619	0.57423
8127.097	-2.62856	0.25227	-1.63241	0.50243
8131.096	-2.58876	0.34453	-1.61200	0.51260
8135.100	-2.68839	0.25961	-1.49093	0.46461
8139.090	-2.75811	0.22336	-1.51211	0.62178
8143.097	-2.71505	0.16553	-1.59628	0.49859
8147.088	-2.72937	0.16161	-1.54782	0.52220
8151.099	-2.74534	0.18471	-1.45894	0.44798
8155.120	-2.71112	0.28837	-1.45259	0.30900
8159.100	-2.61305	0.26938	-1.43711	0.26694
8163.098	-2.50860	0.33573	-1.41921	0.29869
8167.097	-2.39252	0.26163	-1.47551	0.27653
8171.056	-2.42485	0.21264	-1.34648	0.25242
8175.096	-2.49632	0.15285	-1.26956	0.23700
8179.098	-2.44871	0.16187	-1.28259	0.26686
8183.100	-2.49491	0.09128	-1.33567	0.25550
8187.058	-2.41484	0.12088	-1.26723	0.25936
8191.071	-2.35400	0.08841	-1.31352	0.21471
8195.098	-2.38769	0.16915	-1.32359	0.21720
8199.097	-2.35380	0.16049	-1.32480	0.20115
8203.096	-2.34711	0.13963	-1.28450	0.25290
8207.100	-2.47333	0.19891	-1.21196	0.24106
8211.107	-2.53464	0.24673	-1.15131	0.20449
8215.095	-2.51373	0.25036	-1.22853	0.18036
8219.124	-2.51339	0.20295	-1.23409	0.19544
8223.100	-2.54492	0.18221	-1.26108	0.21387
8227.097	-2.50107	0.20543	-1.18165	0.22248
8231.096	-2.50781	0.08590	-1.18577	0.22459
8235.098	-2.47383	0.17708	-1.21531	0.22739
8239.058	-2.46714	0.17810	-1.24230	0.23929
8243.092	-2.48745	0.11040	-1.23044	0.27377
8247.098	-2.50900	0.09799	-1.37836	0.29306
8251.126	-2.47482	0.08252	-1.46640	0.39596
8255.097	-2.46617	0.09858	-1.42169	0.46368
8259.105	-2.41908	0.15822	-1.56459	0.64099
8263.098	-2.03685	0.29557	-1.50150	0.95988
8267.122	0.44934	0.41317	-1.20609	0.98873
8271.098	-2.45651	0.30747	-1.25649	0.95896
8275.096	-0.69414	3.14467	-1.07582	1.08651
8279.097	-2.34359	3.13431	1.32714	1.88387
8283.060	NaN	NaN	-3.30618	9.06197
8287.097	NaN	NaN	NaN	NaN
8291.099	NaN	NaN	NaN	NaN
8295.099	NaN	NaN	NaN	NaN
8299.102	NaN	NaN	NaN	NaN
8303.101	NaN	NaN	NaN	NaN
8307.058	NaN	NaN	NaN	NaN
8311.100	NaN	NaN	NaN	NaN
8315.077	NaN	NaN	NaN	NaN
8319.100	NaN	NaN	NaN	NaN
8323.056	NaN	NaN	NaN	NaN
8327.114	NaN	NaN	NaN	NaN
8331.096	NaN	NaN	NaN	NaN
8335.094	NaN	NaN	NaN	NaN
8339.053	NaN	NaN	NaN	NaN
8343.097	NaN	NaN	NaN	NaN
8347.098	NaN	NaN	NaN	NaN
8351.097	NaN	NaN	NaN	NaN
8355.056	NaN	NaN	NaN	NaN
8359.092	NaN	NaN	NaN	NaN
8363.060	NaN	NaN	NaN	NaN
8367.099	NaN	NaN	NaN	NaN
8371.058	NaN	NaN	NaN	NaN
8375.097	-1.98945	8.98081	-1.79239	9.59563
8379.099	-0.17251	5.51815	-0.42983	7.96064
8383.128	0.50547	3.55323	0.23348	9.89445
8387.100	0.72387	6.28091	-1.32691	8.28453
8391.100	1.37228	4.68236	-1.87555	4.56893
8395.100	3.76305	5.43773	-1.84607	4.07382
8399.125	-0.71692	3.06848	-1.87691	3.39659
8403.102	0.06341	2.52899	-1.91913	2.97207
8407.102	0.25292	2.55714	-0.61737	2.81997
8411.100	0.79655	2.69448	-1.81151	3.20249
8415.104	0.98182	2.67595	0.26776	2.60071
8419.104	0.22534	2.62341	-1.36538	3.14864
8423.103	0.67340	2.89670	0.22959	3.09696
8427.104	-2.47509	4.01100	-0.99221	3.05322
8431.095	-2.57892	3.37038	-0.12999	2.90934
8435.104	-2.99910	3.28000	-1.52084	3.05731
8439.104	-3.14649	3.22538	-1.29050	3.06791
8443.102	-2.97718	3.29500	-0.95544	2.95620
8447.095	-2.96908	3.09603	-0.85359	2.99035
8451.116	-2.88834	3.32205	-0.95482	3.01582
8455.058	-2.74326	3.25844	-0.92527	3.05313
8459.108	-2.66820	3.28051	-0.90383	3.10039
8463.125	-2.63435	3.29965	-0.97159	3.06704
8467.099	-2.59688	3.27296	-0.99392	3.07851
8471.101	-2.61488	3.23332	-1.05714	3.19098
8475.102	-2.65642	3.23735	-1.14208	3.25561
8479.106	-2.55297	3.19225	-1.08887	3.19251
8483.098	-2.52352	3.15206	-1.07966	3.23034
8487.100	-2.49399	3.16030	-1.12695	3.26206
8491.105	-2.45302	3.20096	-1.23784	3.29789
8495.104	-2.44175	3.20450	-1.28130	3.29694
8499.099	-2.44578	3.18204	-1.29690	3.29328
8503.100	-2.45403	3.25674	-1.34343	3.26568
8507.103	-2.46533	3.27086	-1.37300	3.28345
8511.096	-2.48106	3.28340	-1.41010	3.36210
8515.099	-2.52354	3.28732	-1.44694	3.36836
8519.103	-2.49285	3.22982	-1.40631	3.40469
8523.078	-2.47536	3.17249	-1.39599	3.51732
8527.062	-2.50256	3.10585	-1.42191	3.57175
8531.104	-2.55624	3.04354	-1.43064	3.53806
8535.100	-2.59222	2.98842	-1.42350	3.58439
8539.101	-2.61880	3.02846	-1.40668	3.60189
8543.061	-2.64379	3.08197	-1.39855	3.60972
8547.103	-2.60409	3.07140	-1.39505	3.62251
8551.061	-2.57456	2.95705	-1.38141	3.53325
8555.103	-2.48698	2.88571	-1.36551	3.55872
8559.062	-2.44509	2.91681	-1.31947	3.52995
8563.090	-2.32585	2.98275	-1.30878	3.48178
8567.092	-2.43159	2.99005	-1.25691	3.38209
8571.102	-2.54162	2.98577	-1.26128	3.31415
8575.061	-2.55037	2.94415	-1.27006	3.32691
8579.100	-2.53412	2.92052	-1.26435	3.24271
8583.104	-2.56706	2.76424	-1.24999	3.26231
8587.103	-2.56916	2.79145	-1.27271	3.34568
8591.063	-2.57295	2.85266	-1.25304	3.30837
8595.107	-2.60968	2.67209	-1.22759	3.39716
8599.102	-2.62140	2.66911	-1.23092	3.38574
8603.101	-2.48364	2.67983	-1.27214	3.33110
8607.108	-2.39354	2.65689	-1.28172	3.38545
8611.101	-2.47620	2.60520	-1.30647	3.37537
8615.106	-2.50964	2.52172	-1.27594	3.40927
8619.101	-2.61667	2.54251	-1.23714	3.39469
8623.092	-2.75470	2.47234	-1.13881	3.39261
8627.106	-2.66810	2.45639	-1.11827	3.33299
8631.105	-2.53872	2.42986	-1.10336	3.33385
8635.103	-2.67122	2.49102	-1.11879	3.41192
8639.063	-2.69205	2.49804	-1.16304	3.33081
8643.107	-2.74294	2.54421	-1.12754	3.27831
8647.102	-2.72491	2.56486	-1.11420	3.28563
8651.101	-2.80451	2.58871	-1.20281	3.32774
8655.098	-2.87547	2.60837	-1.29705	3.34971
8659.110	-2.92520	2.66897	-1.25118	3.38220
8663.106	-2.90884	2.69600	-1.34552	3.38294
8667.103	-2.88532	2.74945	-1.34611	3.46539
8671.105	-2.88861	2.73726	-1.41854	3.48219
8675.108	-2.84011	2.78415	-1.42985	3.45938
8679.103	-2.71912	2.80578	-1.44669	3.39010
8683.060	-2.79894	2.75550	-1.47637	3.43342
8687.001	-2.56451	2.72306	-1.51531	3.42650
8691.104	-2.51566	2.72266	-1.51278	3.53976
8695.107	-2.56902	2.61805	-1.49837	3.58865
8699.102	-2.43830	2.64744	-1.42799	3.58339
8703.107	-2.39535	2.61898	-1.42305	3.64494
8707.103	-2.40749	2.52307	-1.38726	3.63386
8711.106	-2.37944	2.46732	-1.40685	3.69929
8715.102	-2.34547	2.42783	-1.41360	3.65173
8719.109	-2.40417	2.40567	-1.41742	3.69950
8723.103	-2.42763	2.34118	-1.41159	3.70332
8727.107	-2.30947	2.42893	-1.40842	3.65933
8731.083	-2.36755	2.41899	-1.40075	3.64745
8735.073	-2.33782	2.45577	-1.40117	3.58631
8739.105	-2.32065	2.57225	-1.35789	3.55284
8743.064	-2.39772	2.58016	-1.38550	3.48479
8747.064	-2.46555	2.63792	-1.35628	3.37832
8751.108	-2.42042	2.78431	-1.39366	3.29228
8755.103	-2.42188	2.52575	-1.39272	3.26463
8759.106	-2.49176	2.52760	-1.37975	3.26249
8763.110	-2.47142	2.64240	-1.39470	3.25507
8767.107	-2.47811	2.47720	-1.38359	3.22851
8771.096	-2.50977	2.45903	-1.35928	3.29624
8775.104	-2.55247	2.45815	-1.38342	3.33741
8779.115	-2.59636	2.51914	-1.32783	3.36605
8783.066	-2.65788	2.51979	-1.32416	3.35938
8787.104	-2.63846	2.40181	-1.09304	3.33661
8791.105	-2.64074	2.41663	-1.03320	3.27494
8795.106	-2.66895	2.41915	-0.92517	3.37419
8799.004	-2.68749	2.48688	-1.08517	3.37566
8803.064	-2.69700	2.61052	-0.99040	3.35551
8807.105	-2.65141	2.59206	-0.98608	3.48445
8811.110	-2.66456	2.66610	-1.11053	3.54916
8815.108	-2.69411	2.84642	-1.04446	3.50637
8819.104	-2.62655	2.77285	-1.00484	3.54450
8823.104	-2.60941	2.85149	-1.06493	3.56240
8827.105	-2.47236	2.79622	-1.13218	3.58925
8831.004	-2.39720	2.84348	-1.05394	3.57875
8835.103	-2.28442	2.90751	-1.08788	3.60039
8839.106	-2.31728	2.99815	-1.15034	3.60177
8842.981	-2.38933	3.05910	-1.17642	3.60577
8847.010	-2.38945	3.04605	-1.14198	3.53199
8851.106	-2.33328	2.96498	-1.19324	3.46166
8855.089	-2.36381	3.01573	-1.20777	3.42206
8859.105	-2.29200	2.94897	-1.19326	3.40270
8863.003	-2.34166	2.97346	-1.24481	3.38515
8867.110	-2.31886	2.95021	-1.22003	3.38001
8871.105	-2.44110	2.91993	-1.04838	3.27822
8875.109	-2.54365	2.92654	-1.09991	3.26828
8879.075	-2.62573	2.97195	-1.14568	3.26221
8883.106	-2.63643	2.84771	-1.12926	3.24039
8887.105	-2.64317	2.70374	-1.11745	3.22579
8891.107	-2.63073	2.76524	-1.21360	3.27774
8895.010	-2.70287	2.75237	-1.22003	3.33881
8899.101	-2.74883	2.72233	-1.18832	3.35430
8903.105	-2.76351	2.75184	-1.17897	3.38308
8907.110	-2.74952	2.69774	-1.13935	3.37904
8911.010	-2.76205	2.70546	-1.15372	3.40022
8915.104	-2.67041	2.75525	-1.20787	3.43112
8919.104	-2.51911	2.74658	-1.22916	3.43939
8923.110	-2.46322	2.74157	-1.20333	3.42283
8927.112	-2.45832	2.74364	-1.21633	3.40690
8931.111	-2.29285	2.82809	-1.21596	3.37992
8935.106	-2.25608	2.83539	-1.17892	3.36776
8939.111	-2.24522	2.85619	-1.19390	3.41332
8943.111	-2.27017	2.90144	-1.21129	3.41064
8947.106	-2.27771	2.93003	-1.20661	3.40795
8951.109	-2.29889	2.96540	-1.21521	3.33461
8955.110	-2.35831	3.00319	-1.21591	3.29551
8959.109	-2.51935	3.03996	-1.19773	3.27481
8963.110	-2.34907	2.96884	-1.20539	3.30464
8967.108	-2.37828	2.91757	-1.25818	3.35894
8971.112	-2.39274	2.92653	-1.29286	3.44586
8975.112	-2.45230	2.94158	-1.37409	3.42921
8979.097	-2.43265	2.94556	-1.27505	3.44831
8983.098	-2.49491	2.93022	-1.04277	3.30584
8987.117	-2.39490	2.89542	-1.15086	3.30294
8991.108	-2.39723	2.92736	-1.15181	3.35479
