time (ms)	lx (deg)	ly (deg)	rx (deg)	ry (deg)
0.000	-0.91723	0.21104	0.23217	0.39626
3.997	-0.95532	0.13546	0.19219	0.48544
8.000	-0.91408	0.21959	0.14367	0.51533
12.025	-0.87582	0.17358	0.06413	0.56291
16.000	-0.91500	0.11837	0.05537	0.55233
19.998	-0.93343	0.18724	0.07080	0.51464
24.001	-1.02394	0.23036	0.12560	0.42869
27.988	-1.08882	0.21707	0.05969	0.36364
31.958	-1.21588	0.25753	-0.00874	0.32892
35.996	-1.16185	0.19532	-0.00243	0.40523
39.975	-1.16339	0.19706	-0.02924	0.35382
43.968	-1.17924	0.15490	-0.03750	0.27836
48.000	-1.06676	0.14666	-0.02311	0.33464
51.997	-1.09760	0.11734	-0.08557	0.30249
55.998	-1.03826	0.14472	-0.06276	0.35847
60.022	-1.07190	0.15357	-0.07033	0.33700
64.000	-1.10725	0.01493	-0.05889	0.32535
67.997	-1.14752	0.02790	-0.01013	0.36871
71.998	-1.19103	-0.05940	0.09964	0.42327
76.001	-1.14603	-0.04688	0.05189	0.39676
79.988	-1.24667	-0.00788	0.02164	0.39288
83.986	-1.43448	-0.14410	0.05926	0.37186
87.998	-1.46993	-0.10617	-0.07066	0.31543
91.988	-1.53143	-0.08416	-0.04159	0.30897
95.957	-1.60444	-0.05899	0.01730	0.30505
99.999	-1.64895	-0.06793	-0.01961	0.28464
103.997	-1.63256	-0.03537	-0.04202	0.37457
107.992	-1.68211	-0.10159	-0.09947	0.45379
111.999	-1.54755	-0.03184	-0.09992	0.48678
115.997	-1.36712	0.02502	-0.21703	0.56597
120.001	-1.40165	-0.04571	-0.28354	0.44928
124.002	-1.37784	-0.06044	-0.18794	0.36103
128.002	-1.24498	-0.01990	-0.20703	0.70871
131.998	-1.31910	0.02161	-0.22135	0.79047
135.996	-1.11378	0.00099	-0.28213	0.80416
139.991	-1.05019	0.11680	-0.29654	0.81230
144.000	-0.96926	0.13966	-0.21221	0.82677
148.000	-0.89197	0.14110	-0.15238	0.80980
152.002	-0.80121	0.15686	-0.21447	0.72158
156.002	-0.79260	0.34768	-0.13943	0.75018
160.004	-0.74201	0.39645	-0.02933	0.69649
163.980	-0.72104	0.36376	0.05785	0.76700
167.999	-0.64570	0.26289	0.09322	0.76225
171.996	-0.64605	0.30204	0.20373	0.81196
176.000	-0.58128	0.14046	0.13853	0.74578
179.999	-0.57061	0.13147	0.15397	0.72968
183.996	-0.58806	0.07280	0.15844	0.62714
187.989	-0.73223	-0.00045	0.16777	0.62868
192.001	-0.69538	0.02015	0.15149	0.57228
195.958	-0.82017	-0.02919	0.18343	0.58445
199.998	-0.88232	-0.03138	0.21018	0.58761
203.995	-0.94006	-0.08269	0.27113	0.40515
207.995	-0.84081	-0.17601	0.28225	0.47386
212.000	-0.86141	-0.19601	0.34161	0.59255
216.002	-0.71948	-0.20874	0.37454	0.36241
220.007	-0.60114	-0.19486	0.46130	0.40433
224.003	-0.47711	-0.18927	0.53366	0.39274
228.001	-0.70469	-0.11350	0.59436	0.39975
231.999	-0.56188	-0.06311	0.70727	0.45875
235.992	-0.40383	-0.03618	0.65632	0.56606
240.007	-0.38060	0.01593	0.63300	0.55207
243.998	-0.26215	0.15804	0.65072	0.59662
247.977	-0.19261	0.03258	0.64273	0.65085
251.999	-0.20385	0.05914	0.67836	0.63155
256.004	-0.34948	0.09236	0.69965	0.60844
259.999	-0.35725	0.13866	0.72161	0.64041
263.999	-0.39266	0.15120	0.69838	0.54459
267.995	-0.45192	0.15597	0.75533	0.50848
271.959	-0.36938	0.05492	0.69322	0.42652
276.000	-0.47840	0.02949	0.61320	0.49498
280.004	-0.59280	-0.03171	0.64982	0.55048
283.994	-0.61501	-0.14347	0.70717	0.54215
287.989	-0.71972	-0.18049	0.73230	0.47994
291.990	-0.72565	-0.16797	0.71025	0.47258
295.999	-0.75491	-0.22320	0.70141	0.46252
300.003	-0.71141	-0.32030	0.68469	0.40207
303.959	-0.64831	-0.35437	0.64211	0.38416
308.003	-0.59593	-0.40109	0.59660	0.56947
311.998	-0.43586	-0.45126	0.60129	0.75732
316.003	-0.42852	-0.49621	0.63948	0.81231
320.005	-0.30801	-0.56248	0.68928	0.88415
324.000	-0.12091	-0.61735	0.67054	0.77467
328.000	-0.15995	-0.55459	0.68196	0.88678
331.901	-0.14476	-0.53335	0.74809	0.78479
335.958	-0.18497	-0.41100	0.83927	0.76967
340.000	-0.17918	-0.41214	0.75211	0.63834
344.005	-0.19308	-0.20918	0.77580	0.60157
348.003	-0.18688	-0.12549	0.79347	0.55918
352.003	-0.25006	0.07288	0.72402	0.58461
356.003	-0.24207	0.08404	0.70771	0.57544
360.001	-0.27483	0.10441	0.64764	0.53967
364.006	-0.30612	0.19305	0.63871	0.47647
368.004	-0.30756	0.25206	0.60625	0.41035
372.002	-0.33456	0.31394	0.57935	0.41401
376.001	-0.35166	0.35811	0.62856	0.40573
379.906	-0.29478	0.34363	0.55840	0.34968
384.006	-0.26138	0.38590	0.58220	0.40586
388.000	-0.22207	0.37854	0.53664	0.39093
392.001	-0.18549	0.38697	0.52265	0.45108
395.905	-0.15052	0.37807	0.57205	0.40986
399.960	-0.13488	0.42079	0.60233	0.36744
403.960	-0.11304	0.44869	0.68570	0.39397
408.003	-0.10734	0.44171	0.67685	0.45753
411.903	-0.13411	0.44554	0.69263	0.52260
416.000	-0.13129	0.40054	0.76024	0.47911
420.006	-0.13114	0.26884	0.84228	0.57053
424.000	-0.14992	0.29752	0.73595	0.53554
427.903	-0.12173	0.25418	0.67712	0.57214
432.001	-0.08341	0.15834	0.79769	0.62162
436.006	-0.14484	0.06346	0.89582	0.60863
439.998	-0.15702	0.03725	0.93041	0.60378
443.903	-0.19544	-0.07214	0.99640	0.62707
448.001	-0.19479	-0.08113	1.07463	0.65960
452.006	-0.19904	-0.11850	0.98082	0.53081
455.980	-0.20134	-0.16308	0.92738	0.53348
459.888	-0.23530	-0.17618	0.90321	0.55420
464.008	-0.23671	-0.14765	0.85285	0.53182
468.006	-0.19628	-0.16572	0.84441	0.55540
472.002	-0.19196	-0.20421	0.86803	0.61202
476.004	-0.21460	-0.21040	0.87200	0.63994
480.002	-0.18904	-0.20307	0.70288	0.54610
484.006	-0.16308	-0.19462	0.63804	0.58594
488.003	-0.12329	-0.19544	0.57697	0.65727
492.006	-0.09364	-0.24113	0.60039	0.63344
496.005	-0.10406	-0.28842	0.50041	0.71753
500.004	-0.11399	-0.32475	0.56267	0.75973
504.010	-0.07939	-0.34100	0.55674	0.79511
508.008	-0.08274	-0.33951	0.54637	0.83610
512.002	-0.09562	-0.36068	0.49771	0.90199
516.006	-0.10468	-0.38868	0.47880	0.91854
519.999	-0.08900	-0.39524	0.49852	0.96027
524.008	-0.07976	-0.39487	0.52356	1.02701
528.005	-0.10044	-0.40486	0.52659	1.06159
532.007	-0.13823	-0.42432	0.53615	1.08558
536.002	-0.14355	-0.38921	0.39373	1.12122
539.902	-0.11915	-0.34850	0.43385	1.13354
544.002	-0.06634	-0.31218	0.32960	1.16616
548.003	-0.06783	-0.29965	0.28217	1.17690
552.002	-0.01779	-0.25182	0.25689	1.19968
555.903	-0.04234	-0.27590	0.21763	1.23334
560.003	-0.04606	-0.27749	0.21388	1.30842
564.008	-0.12575	-0.32992	0.15933	1.31247
568.003	-0.17524	-0.36021	0.13240	1.30095
571.901	-0.21571	-0.40198	0.12141	1.26779
576.002	-0.24304	-0.51868	0.13183	1.15923
579.988	-0.34806	-0.52857	0.20147	1.08249
583.999	-0.36491	-0.53704	0.31682	1.09172
587.841	-0.47676	-0.61082	0.39780	0.96217
591.963	-0.49470	-0.63281	0.46837	0.91283
596.005	-0.48547	-0.69239	0.56925	0.85145
600.004	-0.52369	-0.70232	0.56587	0.84281
604.008	-0.57071	-0.70443	0.52399	0.88271
608.001	-0.58525	-0.68184	0.54947	0.80808
612.004	-0.57190	-0.64353	0.55116	0.77993
616.006	-0.60977	-0.64080	0.57054	0.78910
619.905	-0.64106	-0.65637	0.51855	0.80197
623.999	-0.61600	-0.63118	0.44085	0.86396
628.001	-0.64945	-0.66111	0.36955	0.89006
632.008	-0.64747	-0.67003	0.39812	1.04854
636.008	-0.64000	-0.64015	0.43249	0.95029
640.002	-0.63719	-0.59704	0.51451	0.98461
644.004	-0.62655	-0.49548	0.55257	0.99630
647.965	-0.61786	-0.43609	0.51200	1.02324
651.908	-0.57419	-0.33306	0.62287	0.99391
656.011	-0.49743	-0.33587	0.71908	0.96165
660.011	-0.43219	-0.22038	0.81483	0.96610
663.986	-0.32402	-0.18972	0.79655	0.98503
667.898	-0.33067	-0.23102	0.90758	0.96788
671.869	-0.24051	-0.13664	0.95800	0.94254
675.877	-0.16893	-0.09808	0.97603	0.94303
679.882	-0.11630	-0.05805	1.00228	0.95055
683.874	-0.01837	-0.00258	0.99886	0.95350
687.880	-0.03122	-0.01255	0.97990	1.01724
691.880	0.03484	0.00949	1.02436	1.02242
695.840	0.11620	0.00301	0.99670	1.03589
699.872	0.19303	0.03201	0.98440	1.10271
703.881	0.21159	0.01250	0.99722	1.08594
707.880	0.19787	0.01210	0.98958	1.09764
711.855	0.22830	0.03780	0.97375	1.02072
715.841	0.26304	-0.03325	0.87609	0.89953
719.880	0.14139	-0.06978	0.88627	0.87283
723.879	-0.01330	-0.06173	0.82553	0.73599
727.838	-0.18866	-0.01108	0.82935	0.44291
731.873	-0.06150	-0.00204	0.89575	0.76561
735.882	-0.02718	-0.00999	0.92785	0.42930
739.880	-0.28905	-0.04329	0.97246	0.56254
743.881	-0.41527	-0.21824	0.91505	0.55464
747.840	-0.46636	-0.33955	0.90158	0.55867
751.859	-0.55781	-0.40705	0.88103	0.52625
755.884	-0.61076	-0.47997	0.75163	0.47121
759.880	-0.74290	-0.21393	0.84235	0.33915
763.841	-0.68886	0.06567	0.76967	0.13753
767.880	-0.70087	-0.10230	0.94400	0.23213
771.885	-0.66739	-0.19836	0.96100	0.41256
775.882	-0.66374	-0.32383	0.96544	0.27091
779.871	-0.75007	-0.41794	0.98484	0.29787
783.885	-0.92224	-0.47196	0.78913	0.24789
787.883	-0.86476	-0.39540	-1.43617	0.22879
791.884	-1.92996	-0.84714	-2.58928	0.21835
795.869	-3.15666	-1.21513	-3.61616	0.01183
799.886	-4.61040	-1.28038	-5.64132	-0.23292
803.881	-5.93691	-1.31557	-5.58346	-0.46516
807.882	-6.09901	-1.00697	-6.16731	-0.26247
811.907	-7.21642	-1.03211	-6.92648	-0.30857
815.882	-8.40239	-1.41438	-7.70475	-0.37927
819.880	-8.97692	-1.29820	-8.20727	-0.42268
823.885	-9.36977	-1.46282	-8.08100	-0.53605
827.905	-9.56026	-1.44509	-7.78416	-0.62242
831.883	-9.53929	-1.42588	-8.04200	-0.80396
835.852	-9.46049	-1.32288	-7.97179	-0.84304
839.881	-9.16895	-1.33938	-8.03278	-0.97465
843.906	-9.04284	-1.28425	-8.18361	-0.85839
847.887	-9.04197	-1.24407	-8.14706	-0.79492
851.881	-9.39726	-1.41067	-8.00243	-0.88158
855.880	-9.34031	-1.36787	-8.00518	-0.93147
859.875	-9.56911	-1.34680	-7.99021	-0.89957
863.885	-9.56663	-1.21321	-8.06119	-0.91692
867.884	-9.61180	-1.23639	-8.12741	-0.95047
871.880	-9.36090	-1.28876	-8.11999	-0.95034
875.894	-9.45600	-1.16747	-8.19504	-0.96130
879.881	-9.42202	-1.21304	-8.11503	-0.93704
883.885	-9.55736	-1.14072	-8.29416	-0.91867
887.881	-9.43214	-1.15669	-8.21198	-0.96406
891.910	-9.50013	-1.05769	-8.26867	-0.96542
895.839	-9.48533	-1.13501	-8.18358	-0.99801
899.840	-9.56038	-1.44531	-8.22586	-0.95163
903.840	-9.53340	-1.39240	-8.16119	-0.99863
907.874	-9.56909	-1.34631	-8.14193	-0.98712
911.883	-9.61296	-1.24292	-8.17736	-0.91154
915.888	-9.68083	-1.19970	-8.14001	-0.83527
919.849	-9.69031	-1.27500	-8.16727	-0.87881
923.856	-9.67249	-1.30832	-8.19564	-0.82603
927.879	-9.58055	-1.39485	-8.08907	-0.82957
931.884	-9.59872	-1.37127	-8.09764	-0.79413
935.879	-9.58668	-1.54221	-8.06458	-0.76507
939.908	-9.47461	-1.51298	-8.04446	-0.78484
943.883	-9.47292	-1.49917	-7.98376	-0.87016
947.887	-9.51507	-1.42226	-8.02608	-0.84684
951.884	-9.54329	-1.40289	-8.02762	-0.83090
955.876	-9.64183	-1.41543	-8.07625	-0.84972
959.861	-9.60671	-1.43963	-8.11926	-0.82601
963.843	-9.67531	-1.44876	-8.07453	-0.85523
967.842	-9.79701	-1.46617	-8.11321	-0.86951
971.877	-9.75651	-1.49995	-8.11632	-0.77252
975.883	-9.90219	-1.52823	-8.11583	-0.76055
979.882	-9.85845	-1.48368	-8.19314	-0.69457
983.885	-9.87965	-1.42093	-8.18261	-0.79760
987.883	-9.79809	-1.31348	-8.24900	-0.78176
991.884	-9.80269	-1.29060	-8.22934	-0.75453
995.884	-9.74600	-1.29513	-8.25161	-0.67794
999.881	-9.71613	-1.29319	-8.32842	-0.67080
1003.878	-9.79125	-1.32597	-8.30916	-0.71433
1007.888	-9.85404	-1.31801	-8.35656	-0.71697
1011.883	-9.86777	-1.28218	-8.36047	-0.75369
1015.885	-9.96766	-1.28722	-8.37395	-0.85377
1019.878	-9.89805	-1.22397	-8.48512	-0.82210
1023.890	-9.88694	-1.21364	-8.50617	-0.88817
1027.886	-10.01657	-1.22742	-8.55709	-0.91471
1031.888	-10.09520	-1.25913	-8.56166	-0.89109
1035.875	-10.05507	-1.30135	-8.59992	-0.88405
1039.885	-10.15064	-1.32812	-8.61919	-0.94352
1043.854	-10.16875	-1.37840	-8.57352	-0.95726
1047.886	-10.10502	-1.38147	-8.51559	-0.97625
1051.884	-9.99332	-1.41396	-8.50520	-0.97006
1055.885	-9.99217	-1.42646	-8.50814	-0.96079
1059.883	-9.92663	-1.37506	-8.60531	-0.92385
1063.887	-9.91560	-1.41444	-8.58735	-0.93775
1067.884	-9.86423	-1.41141	-8.56260	-0.91939
1071.883	-9.81542	-1.41017	-8.58095	-0.90677
1075.883	-9.75577	-1.41963	-8.57231	-0.91934
1079.888	-9.74330	-1.42524	-8.59160	-0.93415
1083.875	-9.70716	-1.41521	-8.55163	-0.97852
1087.877	-9.52294	-1.41657	-8.45210	-0.99283
1091.885	-8.24927	-1.51727	-7.75480	-1.05047
1095.855	-6.68891	-1.66117	-6.89045	-1.13927
1099.911	-6.34113	-2.56915	-5.75109	-1.47370
1103.885	-5.66671	-3.31227	-5.29174	-2.34801
1107.885	-4.55135	-3.85401	-4.60515	-3.34957
1111.888	-4.48399	-4.41108	-3.66567	-3.75395
1115.879	-4.10298	-5.08065	-3.00678	-3.89129
1119.884	-3.89995	-5.26719	-2.25320	-4.34753
1123.889	-3.57879	-5.60634	-2.42614	-4.53438
1127.853	-3.30898	-5.81896	-1.96335	-4.96096
1131.914	-2.85668	-6.23906	-1.74241	-5.06613
1135.897	-2.66731	-6.70077	-1.54237	-5.29830
1139.882	-2.65201	-7.00987	-1.26031	-5.45285
1143.887	-2.59854	-6.98234	-1.07679	-5.47356
1147.876	-2.65897	-6.98139	-0.89741	-5.50571
1151.883	-2.55767	-6.89577	-0.77493	-5.71592
1155.887	-2.53734	-6.89236	-0.69754	-5.79453
1159.889	-2.50221	-7.00592	-0.73784	-5.81649
1163.881	-2.43939	-6.97384	-0.62863	-5.87087
1167.865	-2.43057	-7.05922	-0.78042	-6.03188
1171.882	-2.40845	-7.10383	-0.90589	-6.15638
1175.886	-2.45022	-7.12520	-1.02362	-6.17874
1179.880	-2.46471	-7.12436	-1.10879	-6.23094
1183.884	-2.44175	-7.06850	-1.25180	-6.27169
1187.884	-2.43412	-7.05284	-1.19825	-6.29101
1191.889	-2.41556	-7.01772	-1.21487	-6.35179
1195.848	-2.44492	-7.00241	-1.25520	-6.38875
1199.887	-2.45230	-6.99488	-1.33197	-6.41579
1203.887	-2.42257	-6.97931	-1.35368	-6.44490
1207.885	-2.44601	-6.98376	-1.37352	-6.49061
1211.882	-2.40417	-6.93512	-1.39939	-6.49662
1215.889	-2.39507	-6.92017	-1.37538	-6.51015
1219.885	-2.36970	-6.89962	-1.37776	-6.51920
1223.890	-2.36240	-6.88725	-1.32853	-6.55275
1227.881	-2.36331	-6.88700	-1.30002	-6.59614
1231.888	-2.34176	-6.87321	-1.26490	-6.66538
1235.886	-2.32719	-6.87450	-1.27423	-6.65734
1239.890	-2.30397	-6.88130	-1.27544	-6.69471
1243.884	-2.27255	-6.88690	-1.28824	-6.67513
1247.885	-2.24440	-6.87081	-1.28209	-6.67419
1251.856	-2.21169	-6.85047	-1.29494	-6.66430
1255.890	-2.23437	-6.84104	-1.32361	-6.66317
1259.890	-2.21011	-6.81773	-1.30176	-6.65117
1263.887	-2.21613	-6.86778	-1.24570	-6.65122
1267.887	-2.21819	-6.90086	-1.25322	-6.61320
1271.888	-2.30055	-6.91043	-1.22878	-6.62564
1275.880	-2.36230	-6.90558	-1.26048	-6.65799
1279.891	-2.35204	-6.95266	-1.25791	-6.67724
1283.888	-2.37912	-6.93855	-1.23397	-6.63651
1287.847	-2.35013	-6.94645	-1.13732	-6.63547
1291.847	-2.33247	-6.93276	-1.10177	-6.64440
1295.886	-2.50363	-6.88272	-1.18202	-6.60073
1299.886	-2.86504	-6.36259	-3.01759	-6.19194
1303.890	-4.27538	-4.78876	-3.60942	-4.92947
1307.893	-5.58840	-4.48959	-4.53781	-3.88360
1311.886	-6.56794	-3.41846	-6.07194	-3.05530
1315.886	-6.75316	-2.50273	-6.72288	-1.97836
1319.891	-7.84744	-1.74681	-6.95695	-1.31687
1323.891	-8.40186	-0.61203	-7.00096	-0.68429
1327.890	-8.63534	-0.62681	-7.22168	-0.30581
1331.891	-8.56554	-0.65005	-7.40921	-0.04635
1335.853	-8.70978	-0.56165	-7.53710	0.05952
1339.894	-8.75659	-0.53850	-7.64296	0.13235
1343.889	-8.73494	-0.45599	-7.81607	0.03732
1347.899	-8.85579	-0.37909	-7.89547	0.15100
1351.885	-8.88467	-0.33669	-7.87759	0.02954
1355.889	-8.91880	-0.35281	-7.78784	0.10385
1359.887	-8.95196	-0.30403	-7.85407	0.12030
1363.885	-9.00215	-0.26524	-7.93284	0.15471
1367.886	-9.06993	-0.28945	-7.97315	0.19884
1371.883	-9.07859	-0.30760	-8.01392	0.17894
1375.886	-9.13325	-0.29816	-7.99888	0.15062
1379.889	-9.16799	-0.24549	-7.98554	0.14059
1383.889	-9.18448	-0.21651	-8.00416	0.12670
1387.891	-9.20443	-0.20018	-8.01314	0.15229
1391.890	-9.22535	-0.17324	-7.95996	0.15551
1395.891	-9.19307	-0.14279	-7.95543	0.19516
1399.848	-9.17263	-0.09582	-7.95343	0.22243
1403.858	-9.17986	-0.08826	-7.95840	0.20323
1407.892	-9.18593	-0.05056	-7.96101	0.18753
1411.889	-9.15253	0.03042	-7.95572	0.19457
1415.881	-9.11015	-0.00005	-7.96746	0.21331
1419.886	-9.03909	0.01480	-7.98985	0.28080
1423.887	-9.02474	-0.01409	-8.02173	0.31800
1427.849	-8.99249	-0.06403	-8.00275	0.33800
1431.886	-8.98736	-0.07091	-7.98092	0.35581
1435.849	-8.95922	-0.14337	-8.00031	0.34526
1439.890	-8.95806	-0.20621	-8.00598	0.33940
1443.895	-8.95222	-0.26434	-8.01358	0.31845
1447.888	-8.95377	-0.26900	-8.01000	0.29432
1451.887	-8.93026	-0.35368	-8.01895	0.32817
1455.889	-8.91536	-0.40505	-8.02859	0.33606
1459.859	-8.91875	-0.44140	-8.02219	0.31185
1463.891	-8.96186	-0.47824	-7.98423	0.32611
1467.760	-8.95588	-0.47508	-7.95470	0.34190
1471.891	-8.99223	-0.40568	-7.93895	0.34352
1475.889	-8.96346	-0.46179	-7.95054	0.34562
1479.887	-9.00748	-0.38605	-7.92271	0.36905
1483.759	-9.02835	-0.36333	-7.90275	0.39302
1487.893	-9.03631	-0.30099	-7.88125	0.43818
1491.890	-9.00816	-0.31193	-7.91061	0.43497
1495.893	-9.00077	-0.22599	-7.94981	0.43291
1499.753	-9.07046	-0.23849	-7.91280	0.45660
1503.892	-9.08123	-0.21176	-7.90172	0.48671
1507.889	-9.11661	-0.16331	-7.97305	0.46628
1511.889	-9.12565	-0.14127	-7.99905	0.47203
1515.886	-9.09200	-0.17615	-8.01014	0.44687
1519.892	-9.13250	-0.11426	-8.01041	0.43319
1523.848	-9.15580	-0.11111	-8.01735	0.44325
1527.893	-9.16211	-0.11044	-8.02796	0.41834
1531.755	-9.21636	-0.09367	-7.97778	0.42501
1535.894	-9.24815	-0.10568	-7.92164	0.44015
1539.892	-9.23048	-0.13090	-7.88312	0.46951
1543.856	-9.19541	-0.13663	-7.91638	0.46684
1547.758	-9.17602	-0.14387	-7.84674	0.47169
1551.891	-9.14111	-0.14521	-7.86841	0.48193
1555.889	-9.12512	-0.17498	-7.80596	0.48011
1559.890	-9.10088	-0.17818	-7.79693	0.49568
1563.862	-9.09529	-0.21104	-7.81244	0.54171
1567.893	-9.10170	-0.25932	-7.85945	0.56253
1571.888	-9.09655	-0.27184	-7.85478	0.59935
1575.888	-9.06881	-0.29873	-7.85765	0.55256
1579.753	-9.06533	-0.26369	-7.93939	0.55698
1583.871	-9.18985	-0.21336	-8.07895	0.51310
1587.896	-10.36624	-0.08653	-8.83750	0.66239
1591.890	-10.65002	0.46909	-8.94828	0.74058
1595.755	-11.01218	0.56945	-9.10407	0.83370
1599.894	-10.97329	0.89141	-9.17609	0.94579
1603.890	-10.82679	0.89261	-9.26986	1.04763
1607.891	-10.60387	0.92999	-9.31968	1.03100
1611.752	-10.60042	1.00130	-9.45737	1.11113
1615.894	-10.73318	0.89118	-9.39313	1.10735
1619.892	-10.87917	0.90187	-9.41962	1.21236
1623.880	-10.96868	1.01052	-9.41562	1.24790
1627.742	-10.90334	1.02725	-9.46027	1.29360
1631.893	-10.96464	1.06345	-9.44390	1.30212
1635.891	-10.98987	0.99057	-9.38866	1.34339
1639.891	-11.03927	0.91625	-9.38156	1.41563
1643.756	-10.95770	0.86504	-9.30962	1.46663
1647.896	-10.91614	0.86012	-9.24191	1.56576
1651.899	-10.98884	0.77394	-9.25835	1.44471
1655.896	-11.03688	0.73862	-9.22078	1.45261
1659.752	-11.03399	0.74958	-9.27037	1.42924
1663.894	-11.03853	0.73481	-9.29292	1.45116
1667.863	-10.99927	0.73220	-9.37614	1.44358
1671.888	-11.01335	0.72751	-9.30878	1.40458
1675.757	-10.93112	0.70398	-9.21938	1.41107
1679.894	-10.85258	0.74403	-9.28613	1.43009
1683.892	-10.87465	0.75884	-9.20160	1.35335
1687.890	-10.84243	0.78503	-9.34399	1.28595
1691.755	-10.79670	0.72780	-9.38900	1.24043
1695.727	-10.88515	0.76928	-9.39699	1.21153
1699.771	-10.88522	0.78694	-9.40859	1.12489
1703.766	-10.87264	0.82545	-9.40537	1.10635
1707.759	-10.80486	0.78200	-9.40784	1.07145
1711.767	-10.84173	0.81866	-9.37102	1.03198
1715.768	-10.83639	0.84956	-9.33451	0.99167
1719.765	-10.81712	0.88444	-9.42088	1.01120
1723.884	-10.85308	0.91080	-9.44047	1.00464
1727.774	-10.78192	0.94875	-9.47215	0.99622
1731.767	-10.75138	0.98082	-9.48181	1.02645
1735.768	-10.78295	1.05705	-9.47297	1.05005
1739.746	-10.71212	1.11365	-9.46039	1.08113
1743.768	-10.64353	1.19358	-9.44894	1.10663
1747.768	-10.65690	1.20168	-9.46413	1.11633
1751.765	-10.73591	1.23163	-9.45904	1.13921
1755.727	-10.72879	1.21775	-9.47526	1.17554
1759.766	-10.78499	1.22238	-9.51145	1.20231
1763.766	-10.82275	1.23071	-9.50803	1.18838
1767.768	-10.81631	1.21620	-9.52014	1.21502
1771.727	-10.85409	1.23697	-9.51278	1.16759
1775.765	-10.89054	1.27973	-9.53907	1.12640
1779.770	-10.90983	1.30193	-9.52789	1.12208
1783.767	-10.88077	1.31482	-9.53607	1.09633
1787.727	-10.90265	1.32660	-9.57056	1.09798
1791.769	-10.89784	1.30194	-9.58369	1.10222
1795.757	-10.94323	1.23721	-9.56074	1.08858
1799.760	-10.91734	1.27442	-9.47053	1.08600
1803.727	-10.93648	1.28614	-9.41743	1.09693
1807.765	-10.90825	1.25107	-9.38648	1.13085
1811.771	-10.88388	1.28044	-9.35752	1.15329
1815.770	-10.91440	1.24785	-9.33333	1.21104
1819.728	-10.91595	1.14575	-9.28683	1.28283
1823.766	-10.89540	1.12629	-9.25959	1.33627
1827.767	-10.82514	1.11584	-9.22895	1.40174
1831.769	-10.90655	1.08605	-9.23406	1.40637
1835.768	-10.76784	0.99960	-9.26810	1.47173
1839.740	-10.61469	0.99928	-9.29935	1.46537
1843.768	-10.42259	1.01050	-9.44960	1.51657
1847.767	-10.32147	0.99560	-9.39141	1.42255
1851.729	-10.60812	0.90832	-9.42151	1.42478
1855.771	-10.49402	0.86197	-9.44329	1.33071
1859.768	-10.53382	0.86028	-9.46413	1.27110
1863.769	-10.36802	0.78119	-9.47365	1.24735
1867.762	-10.42651	0.79575	-9.49142	1.16054
1871.772	-10.34470	0.74654	-9.47270	1.11143
1875.771	-10.33627	0.71496	-9.42308	1.05675
1879.754	-10.42917	0.74939	-9.33379	1.06533
1883.769	-10.60603	0.76027	-9.36568	1.04278
1887.770	-10.58366	0.74760	-9.30788	1.00272
1891.769	-10.57920	0.72334	-9.27078	1.01798
1895.770	-10.58100	0.73779	-9.21732	1.01559
1899.793	-10.57601	0.75238	-9.29256	1.05307
1903.770	-10.66582	0.71671	-9.28978	1.02337
1907.772	-10.61600	0.71282	-9.29865	0.98422
1911.767	-10.57956	0.67600	-9.36926	1.12877
1915.763	-10.64223	0.67901	-9.38815	1.25303
1919.769	-10.70081	0.67632	-9.44684	1.26994
1923.767	-10.69431	0.64330	-9.48582	1.30318
1927.768	-10.65556	0.58935	-9.50274	1.34442
1931.761	-10.57690	0.57743	-9.54469	1.32628
1935.772	-10.51573	0.66039	-9.54300	1.45694
1939.768	-10.53164	0.69497	-9.58386	1.42187
1943.769	-10.49051	0.70439	-9.53786	1.38790
1947.763	-10.44396	0.74464	-9.43953	1.47061
1951.774	-10.38951	0.75310	-9.33572	1.50219
1955.767	-10.40420	0.82210	-9.24573	1.52841
1959.767	-10.45850	0.90431	-9.20485	1.53611
1963.766	-10.38771	0.87573	-9.12701	1.49281
1967.773	-10.33399	0.91848	-9.05725	1.50843
1971.770	-10.31544	0.96886	-9.03975	1.44856
1975.769	-10.26542	0.96838	-8.98121	1.44424
1979.770	-10.28705	0.86572	-8.99627	1.43324
1983.773	-10.28349	0.80139	-8.98763	1.43344
1987.777	-10.34520	0.69883	-8.98668	1.46950
1991.771	-10.41914	0.71003	-9.00232	1.47246
1995.771	-10.46688	0.70403	-9.16743	1.45778
1999.771	-10.41597	0.66930	-9.25398	1.43152
2003.760	-10.48636	0.66123	-9.25760	1.40155
2007.766	-10.57567	0.65767	-9.41772	1.43930
2011.742	-10.63303	0.53567	-9.40653	1.43101
2015.772	-10.58059	0.43259	-9.44851	1.36837
2019.770	-10.66040	0.38422	-9.55123	1.30979
2023.771	-10.63195	0.43642	-9.48200	1.22515
2027.797	-10.61845	0.41727	-9.44515	1.04720
2031.774	-10.58507	0.41035	-9.45674	1.06836
2035.770	-10.51297	0.35475	-9.44105	0.94924
2039.769	-10.53559	0.29783	-9.34756	0.91542
2043.766	-10.54401	0.31345	-9.34640	0.94425
2047.744	-10.51544	0.30188	-9.30510	0.84630
2051.768	-10.46213	0.25404	-9.26868	0.76900
2055.771	-10.49536	0.18291	-9.23328	0.74924
2059.765	-10.46407	0.22136	-9.16874	0.76115
2063.773	-10.41870	0.25862	-9.10414	0.76472
2067.771	-10.40680	0.28331	-9.07457	0.81022
2071.773	-10.35145	0.25564	-9.02989	0.85333
2075.772	-10.35073	0.27292	-9.01406	0.86051
2079.775	-10.36689	0.24233	-8.99886	0.87758
2083.772	-10.33584	0.26216	-8.99300	0.86527
2087.730	-10.30910	0.23680	-9.01585	0.75046
2091.748	-10.34549	0.19805	-9.10557	0.77757
2095.747	-10.38418	0.19229	-9.14832	0.72521
2099.770	-10.37618	0.20708	-9.09933	0.75193
2103.771	-10.41549	0.19728	-9.08832	0.70686
2107.773	-10.41647	0.21387	-9.12570	0.63913
2111.771	-10.42968	0.17911	-9.08135	0.61175
2115.769	-10.45831	0.15397	-9.11385	0.57686
2119.770	-10.48917	0.10380	-9.17070	0.52847
2123.797	-10.45586	0.12998	-9.15739	0.49601
2127.775	-10.46705	0.12606	-9.20427	0.43904
2131.770	-10.45586	0.08809	-9.25671	0.40528
2135.771	-10.43460	0.05956	-9.20884	0.40151
2139.773	-10.39184	0.03121	-9.24385	0.41778
2143.776	-10.32983	0.01882	-9.33611	0.40119
2147.769	-10.29808	-0.02076	-9.40963	0.38171
2151.771	-10.26391	-0.06514	-9.44791	0.36018
2155.773	-10.23353	-0.09569	-9.60384	0.35565
2159.775	-10.22517	-0.10109	-9.63238	0.34886
2163.773	-10.19298	-0.08760	-9.55784	0.29199
2167.770	-10.19178	-0.10482	-9.64099	0.28329
2171.765	-10.17906	-0.11598	-9.64335	0.29527
2175.775	-10.17993	-0.09915	-9.62164	0.31959
2179.773	-10.16932	-0.08353	-9.68452	0.35397
2183.772	-10.19572	-0.02284	-9.66721	0.32293
2187.775	-10.22305	-0.01607	-9.64642	0.39480
2191.774	-10.27133	0.03961	-9.54978	0.33706
2195.733	-10.34456	0.07788	-9.50638	0.40288
2199.787	-10.40137	0.14229	-9.45373	0.40279
2203.775	-10.47024	0.19289	-9.40685	0.43246
2207.774	-10.52142	0.20547	-9.37068	0.43954
2211.773	-10.59138	0.21815	-9.35904	0.47795
2215.774	-10.58109	0.26647	-9.29258	0.46443
2219.774	-10.69230	0.28678	-9.26744	0.46679
2223.776	-10.71116	0.28901	-9.24097	0.48022
2227.772	-10.75370	0.26036	-9.20315	0.52852
2231.775	-10.77253	0.26847	-9.18124	0.46968
2235.775	-10.80060	0.25402	-9.16213	0.49051
2239.774	-10.79466	0.21800	-9.18767	0.48007
2243.771	-10.82581	0.16143	-9.15575	0.52066
2247.772	-10.79763	0.17206	-9.14902	0.52337
2251.770	-10.80888	0.14787	-9.17282	0.56332
2255.746	-10.78079	0.14561	-9.14019	0.51080
2259.772	-10.77660	0.15337	-9.13833	0.53762
2263.775	-10.61087	0.10153	-9.25797	0.62045
2267.772	-10.49994	0.10047	-9.32705	0.60811
2271.775	-10.62250	0.17365	-9.34297	0.60012
2275.772	-10.53919	0.12386	-9.18688	0.68670
2279.775	-10.50381	0.25009	-8.98549	0.87417
2283.768	-12.25299	0.54009	-9.28129	0.88048
2287.777	-5.12051	0.22703	-9.03687	0.98803
2291.773	-3.02863	1.02334	-10.96550	4.37354
2295.757	-9.91440	0.40376	-13.09850	7.31134
2299.768	-10.09730	0.39463	-13.67480	5.07210
2303.782	-10.67356	9.79165	NaN	NaN
2307.774	NaN	NaN	NaN	NaN
2311.774	NaN	NaN	NaN	NaN
2315.768	NaN	NaN	NaN	NaN
2319.772	NaN	NaN	NaN	NaN
2323.730	NaN	NaN	NaN	NaN
2327.773	NaN	NaN	NaN	NaN
2331.780	NaN	NaN	NaN	NaN
2335.772	NaN	NaN	NaN	NaN
2339.732	NaN	NaN	NaN	NaN
2343.734	NaN	NaN	NaN	NaN
2347.771	NaN	NaN	NaN	NaN
2351.770	NaN	NaN	NaN	NaN
2355.772	NaN	NaN	NaN	NaN
2359.738	NaN	NaN	NaN	NaN
2363.772	-15.10260	3.51027	NaN	NaN
2367.776	-18.86526	7.08618	-10.54109	7.54673
2371.769	-15.62514	2.66433	-15.00619	7.30900
2375.777	-16.28597	3.80353	-17.77191	11.13868
2379.753	-5.79236	-0.36354	-14.00099	7.65752
2383.776	-5.42001	3.42274	-14.07576	5.55076
2387.778	-5.30267	0.37962	-14.40928	5.78221
2391.778	-15.65854	1.95178	-4.65193	1.76659
2395.734	-15.70873	1.69360	-5.33753	-0.19056
2399.773	-14.12333	1.08014	-4.84294	-0.47331
2403.778	-12.58914	0.71667	-9.58021	0.16076
2407.780	-12.68961	0.80118	-9.59122	0.09085
2411.775	-13.05107	0.83993	-9.20697	0.00981
2415.774	-12.44093	1.09005	-9.22888	0.15011
2419.767	-12.18685	0.97577	-9.63086	0.26339
2423.778	-11.81308	0.81975	-9.69086	0.46583
2427.777	-11.75936	0.86982	-10.27657	0.74497
2431.781	-11.70968	0.89931	-9.89318	0.79209
2435.780	-11.66308	0.81138	-9.85021	0.75535
2439.778	-11.55578	0.80873	-9.94934	0.71399
2443.773	-11.64651	0.82438	-9.91423	0.73589
2447.777	-11.53182	0.82065	-9.90472	0.81034
2451.681	-11.52953	0.84868	-9.99773	0.96168
2455.778	-11.47400	0.84417	-10.02353	0.97696
2459.774	-11.43946	0.82109	-10.03582	1.05112
2463.733	-11.39444	0.84504	-9.99469	1.10434
2467.662	-11.41872	0.84969	-10.01130	1.15332
2471.777	-11.45395	0.88073	-9.94987	1.19883
2475.777	-11.47410	0.89281	-9.93846	1.21460
2479.772	-11.50110	0.84998	-9.98189	1.23755
2483.676	-11.51590	0.80509	-9.95334	1.27693
2487.777	-11.46561	0.67431	-9.96463	1.33537
2491.774	-11.45002	0.64571	-10.00531	1.36697
2495.779	-11.44954	0.66809	-10.08486	1.34245
2499.677	-11.42332	0.58250	-10.22404	1.31699
2503.760	-11.40927	0.56979	-10.18233	1.29423
2507.776	-11.44692	0.50002	-10.28099	1.28230
2511.776	-11.40851	0.42212	-10.35628	1.19349
2515.675	-11.38411	0.37473	-10.27588	1.08946
2519.735	-11.37445	0.33611	-10.31953	1.02357
2523.776	-11.34144	0.25718	-10.38600	0.84226
2527.778	-11.39194	0.21393	-10.43944	0.74490
2531.679	-11.49986	0.22468	-10.44513	0.68922
2535.781	-11.53277	0.20179	-10.54656	0.58362
2539.777	-11.55288	0.16852	-10.65563	0.43448
2543.775	-11.76321	0.14049	-10.62250	0.41341
2547.680	-11.72120	0.09589	-10.61308	0.36811
2551.778	-11.85064	0.07038	-10.66855	0.35635
2555.776	-11.85742	0.03762	-10.66189	0.35541
2559.776	-11.85492	0.03303	-10.63713	0.30022
2563.674	-11.91816	0.01682	-10.62437	0.27686
2567.780	-11.96206	-0.00909	-10.57421	0.28069
2571.780	-12.00690	0.00122	-10.54032	0.31697
2575.777	-11.97745	0.00656	-10.52015	0.32992
2579.675	-12.05430	-0.10386	-10.48483	0.36446
2583.781	-12.07982	-0.08155	-10.41918	0.42091
2587.756	-12.07621	-0.13991	-10.34520	0.47743
2591.778	-12.10635	-0.17622	-10.30648	0.50162
2595.661	-12.21435	-0.19971	-10.29113	0.44974
2599.778	-12.27671	-0.13860	-10.25884	0.42934
2603.776	-12.29678	-0.16786	-10.25355	0.49515
2607.775	-12.32613	-0.13451	-10.25732	0.40917
2611.678	-12.35441	-0.06678	-10.30884	0.39143
2615.778	-12.40212	-0.08603	-10.34177	0.41036
2619.778	-12.41708	-0.11916	-10.32589	0.38432
2623.779	-12.35500	-0.04692	-10.32114	0.36677
2627.679	-12.36648	-0.06170	-10.33980	0.34370
2631.771	-12.32030	-0.04273	-10.38843	0.37938
2635.779	-12.22644	-0.05263	-10.37731	0.40362
2639.779	-12.19425	-0.03845	-10.35505	0.46993
2643.680	-12.06617	-0.07057	-10.32301	0.50895
2647.776	-12.06973	-0.07720	-10.32856	0.61346
2651.783	-11.97028	-0.08314	-10.29906	0.73626
2655.739	-11.88549	-0.09620	-10.31862	0.80392
2659.678	-11.85074	-0.08590	-10.34165	0.88574
2663.777	-11.78338	-0.06814	-10.31758	1.04858
2667.780	-11.70564	-0.06531	-10.31319	1.02537
2671.778	-11.65535	-0.03176	-10.18899	1.07856
2675.664	-11.62006	0.00947	-10.21067	1.06047
2679.776	-11.60146	-0.00545	-10.20548	1.07340
2683.780	-11.58074	-0.22208	-10.35284	0.85071
2687.777	-11.56781	-1.06059	-10.38444	-0.74591
2691.675	-11.55733	-1.31651	-10.41798	-1.05870
2695.780	-11.51285	-1.67273	-10.45574	-1.22638
2699.781	-11.50193	-1.71508	-10.35116	-1.42564
2703.777	-11.41492	-2.15634	-10.01691	-1.75498
2707.677	-10.83295	-2.55270	-9.69258	-2.47213
2711.737	-10.16613	-3.56236	-9.22313	-3.11325
2715.781	-9.12164	-4.24793	-8.49343	-4.00733
2719.779	-8.27331	-5.07067	-7.98544	-4.35539
2723.681	-8.42056	-5.61023	-7.03628	-5.03218
2727.778	-6.95964	-6.05515	-6.70489	-5.31940
2731.782	-5.78794	-6.47446	-5.85357	-5.95228
2735.783	-5.44136	-7.03155	-3.91911	-7.14653
2739.681	-5.12100	-8.23854	-3.14377	-7.25985
2743.653	-4.86507	-8.64045	-3.35632	-7.50596
2747.657	-4.45180	-8.60092	-3.01621	-7.98879
2751.656	-4.07332	-8.88715	-2.65065	-8.29709
2755.615	-3.89481	-8.98817	-2.52976	-8.17826
2759.654	-4.02878	-9.15313	-2.27020	-8.25208
2763.650	-4.12967	-9.23622	-2.21479	-8.24045
2767.653	-4.45740	-9.38581	-2.00628	-8.30710
2771.649	-3.89893	-9.38770	-1.98945	-8.45740
2775.655	-3.86837	-9.34567	-1.65592	-8.67105
2779.653	-3.87477	-9.36059	-1.48719	-8.72410
2783.657	-3.67534	-9.42438	-1.43064	-8.84613
2787.647	-3.68982	-9.47451	-1.31320	-8.89341
2791.656	-3.60853	-9.48703	-1.25252	-9.01880
2795.658	-3.75627	-9.50500	-1.23414	-9.06158
2799.647	-3.64259	-9.48111	-1.29511	-9.14702
2803.648	-3.61933	-9.47884	-1.29911	-9.14090
2807.656	-3.57335	-9.47822	-1.23337	-9.20892
2811.657	-3.50393	-9.44984	-1.23427	-9.23041
2815.658	-3.50373	-9.43473	-1.23935	-9.24509
2819.655	-3.49930	-9.43750	-1.27440	-9.24346
2823.654	-3.47398	-9.48303	-1.35321	-9.24115
2827.656	-3.60450	-9.48550	-1.35286	-9.24153
2831.659	-3.53147	-9.52074	-1.52707	-9.19878
2835.617	-3.56168	-9.53952	-1.48133	-9.18938
2839.615	-3.46118	-9.55729	-1.59182	-9.13296
2843.623	-3.50407	-9.61773	-1.63087	-9.11555
2847.656	-3.55177	-9.62575	-1.65944	-9.07960
2851.645	-3.59678	-9.67444	-1.74342	-9.03501
2855.665	-3.63001	-9.69987	-1.79249	-9.02702
2859.656	-3.60299	-9.72965	-1.86322	-9.00354
2863.653	-3.54986	-9.73760	-1.93274	-8.98850
2867.614	-3.54299	-9.69731	-1.95292	-8.95689
2871.654	-3.58606	-9.69096	-1.97074	-8.95098
2875.654	-3.58581	-9.63430	-2.00480	-8.96011
2879.655	-3.54737	-9.61587	-2.01142	-8.89822
2883.616	-3.46800	-9.50036	-1.97902	-8.89488
2887.655	-3.46721	-9.51441	-1.96020	-8.84445
2891.656	-3.40408	-9.47529	-1.93507	-8.84844
2895.657	-3.40279	-9.38514	-1.88298	-8.88153
2899.678	-3.41258	-9.37821	-1.85132	-8.87429
2903.655	-3.45049	-9.34194	-1.72679	-8.92575
2907.658	-3.58163	-9.33613	-1.42464	-8.97972
2911.654	-3.51619	-9.36926	-1.00114	-9.11990
2915.656	-3.60160	-9.39093	-1.38664	-9.08805
2919.659	-3.52477	-9.45564	-1.31699	-9.15331
2923.656	-3.49908	-9.46755	-1.28033	-9.21343
2927.648	-3.61248	-9.49013	-1.05786	-9.26699
2931.655	-3.56895	-9.49803	-1.21965	-9.28412
2935.661	-3.60390	-9.48100	-1.24302	-9.32246
2939.654	-3.61678	-9.49059	-1.20132	-9.31309
2943.657	-3.62047	-9.50594	-1.03987	-9.36258
2947.651	-3.66419	-9.50735	-1.09237	-9.35355
2951.655	-3.65089	-9.49706	-1.17304	-9.36064
2955.658	-3.57703	-9.43576	-1.21789	-9.30897
2959.659	-3.62032	-9.39711	-1.26215	-9.35887
2963.639	-3.59881	-9.31263	-1.25468	-9.35633
2967.633	-3.69504	-9.27308	-1.35216	-9.34444
2971.652	-3.70250	-9.20911	-1.44517	-9.36593
2975.657	-3.73122	-9.20367	-1.57371	-9.36256
2979.652	-3.74903	-9.11936	-1.66448	-9.32839
2983.656	-3.77360	-9.09121	-1.69247	-9.33189
2987.656	-3.62155	-9.02660	-1.69760	-9.30172
2991.656	-3.50494	-9.06908	-1.71238	-9.22709
2995.620	-3.59172	-9.10561	-1.74571	-9.24607
2999.657	-3.71471	-9.27457	-1.78704	-9.40595
3003.659	-3.86496	-9.98938	-1.89315	-9.74729
3007.644	-4.11313	-10.27263	-1.98819	-10.29769
3011.617	-4.41998	-10.48153	-2.04991	-10.52579
3015.657	-3.83393	-10.56270	-2.22386	-10.60697
3019.655	-4.33189	-10.65421	-2.28080	-10.37851
3023.661	-4.39560	-10.74473	-2.49050	-10.49601
3027.617	-4.57317	-10.82966	-2.30144	-10.47219
3031.660	-4.62029	-10.88286	-2.35687	-10.50754
3035.662	-4.67305	-10.93632	-2.40246	-10.51015
3039.660	-4.75524	-10.97807	-2.48829	-10.49994
3043.651	-4.83802	-11.01881	-2.47603	-10.58315
3047.659	-4.85292	-11.03937	-2.47402	-10.58242
3051.623	-4.87461	-11.06633	-2.44730	-10.57524
3055.655	-4.96576	-11.09191	-2.51192	-10.62986
3059.618	-4.94822	-11.14819	-2.50794	-10.72460
3063.657	-4.96110	-11.16406	-2.53652	-10.76559
3067.656	-5.02718	-11.18763	-2.50526	-10.84086
3071.656	-5.06594	-11.18550	-2.52733	-10.91452
3075.616	-5.10069	-11.22818	-2.56032	-10.90649
3079.656	-5.06747	-11.22234	-2.54720	-10.89860
3083.656	-5.01561	-11.23281	-2.54752	-10.88359
3087.658	-5.04676	-11.22271	-2.57154	-10.84671
3091.619	-5.00876	-11.20563	-2.56929	-10.78348
3095.658	-4.96007	-11.25279	-2.59475	-10.69267
3099.659	-4.78703	-11.26252	-2.58043	-10.66215
3103.658	-4.81020	-11.25012	-2.53392	-10.57720
3107.618	-4.81012	-11.21649	-2.48096	-10.52464
3111.657	-4.86202	-11.20009	-2.50979	-10.41853
3115.658	-4.88136	-11.19975	-2.40365	-10.41031
3119.658	-4.90979	-11.16124	-2.39413	-10.36914
3123.617	-5.02691	-11.16478	-2.44118	-10.37138
3127.659	-5.02610	-11.16156	-2.45386	-10.39768
3131.655	-5.00603	-11.18822	-2.46144	-10.42178
3135.654	-5.12720	-11.19549	-2.48606	-10.43552
3139.619	-4.96162	-11.19446	-2.51841	-10.46797
3143.660	-5.08855	-11.18959	-2.54375	-10.48385
3147.661	-5.16413	-11.18966	-2.52788	-10.51499
3151.618	-5.09113	-11.22220	-2.62932	-10.54042
3155.653	-5.08542	-11.22716	-2.56399	-10.58898
3159.659	-4.75950	-11.23500	-2.61833	-10.66464
3163.659	-4.89523	-11.22966	-2.64121	-10.68058
3167.658	-4.75327	-11.23243	-2.66162	-10.74241
3171.650	-4.71807	-11.22991	-2.66243	-10.77836
3175.632	-4.68526	-11.30732	-2.73031	-10.78846
3179.672	-4.58910	-11.35011	-2.72025	-10.85887
3183.658	-4.60279	-11.38975	-2.69611	-10.88154
3187.647	-4.66211	-11.46934	-2.68143	-10.91377
3191.660	-4.58003	-11.50983	-2.67120	-10.93510
3195.662	-4.48347	-11.53825	-2.65805	-10.99900
3199.660	-4.48142	-11.57757	-2.63252	-11.01780
3203.618	-4.52799	-11.63301	-2.60882	-11.02305
3207.659	-4.50158	-11.66377	-2.59098	-11.04540
3211.661	-4.41166	-11.67842	-2.54900	-11.05651
3215.644	-4.44358	-11.72171	-2.50060	-11.06022
3219.649	-4.42104	-11.72389	-2.46617	-11.05528
3223.663	-4.52451	-11.74134	-2.45225	-11.02935
3227.659	-4.48897	-11.75734	-2.43251	-11.04718
3231.661	-4.54789	-11.76458	-2.41635	-11.03280
3235.619	-4.51899	-11.76081	-2.41019	-11.05380
3239.658	-4.61802	-11.83088	-2.41452	-11.04104
3243.657	-4.61726	-11.86306	-2.43246	-11.05924
3247.662	-4.65530	-11.90798	-2.45044	-11.03527
3251.619	-4.56974	-11.92801	-2.41819	-11.01664
3255.620	-4.79282	-11.98544	-2.44915	-11.03108
3259.627	-4.84935	-12.04241	-2.54036	-11.01380
3263.662	-4.91467	-12.08413	-2.53476	-11.01253
3267.634	-5.08522	-12.08431	-2.60027	-11.02069
3271.660	-5.17260	-12.11091	-2.63346	-10.98132
3275.664	-5.18961	-12.09401	-2.69190	-10.97318
3279.662	-5.29147	-12.07374	-2.72753	-10.97861
3283.622	-5.18847	-11.98621	-2.68502	-10.95590
3287.661	-5.37106	-11.93415	-2.76765	-10.91975
3291.660	-5.33359	-11.86275	-2.74167	-10.94035
3295.661	-5.42707	-11.80794	-2.79421	-10.94006
3299.620	-5.37273	-11.76862	-2.78671	-10.90130
3303.658	-5.40720	-11.70930	-2.76968	-10.90796
3307.661	-5.39935	-11.61556	-2.70847	-10.91094
3311.660	-5.34683	-11.56606	-2.68319	-10.91052
3315.620	-5.23078	-11.51348	-2.67558	-10.89752
3319.660	-5.25320	-11.48312	-2.67858	-10.88392
3323.663	-5.21956	-11.46773	-2.58975	-10.87378
3327.660	-5.13712	-11.46844	-2.60433	-10.85963
3331.620	-5.07658	-11.42461	-2.57048	-10.83154
3335.660	-5.10756	-11.40198	-2.50984	-10.78631
3339.660	-5.16575	-11.40170	-2.55728	-10.75809
3343.660	-5.04986	-11.33391	-2.71609	-10.58582
3347.621	-5.16462	-9.51185	-4.35173	-9.70661
3351.661	-5.56512	-8.05612	-5.08377	-7.93419
3355.659	-6.76148	-7.20505	-6.34917	-6.23923
3359.660	-7.73402	-5.39439	-6.50619	-5.89763
3363.661	-7.81968	-4.31138	-6.75517	-4.23277
3367.666	-8.15737	-3.14174	-7.00411	-2.93859
3371.661	-8.15226	-2.27646	-7.28505	-2.25418
3375.663	-8.61669	-1.17068	-7.73061	-0.51981
3379.661	-9.08762	-0.08117	-8.08224	0.03592
3383.634	-8.60664	0.27235	-7.81651	0.19042
3387.663	-9.07058	0.33772	-8.11741	0.40873
3391.670	-9.10780	0.23667	-8.05905	0.65271
3395.662	-9.15360	0.30482	-8.15078	0.59250
3399.621	-9.40272	0.07181	-8.12050	0.64772
3403.662	-9.41496	0.22448	-8.16017	0.74947
3407.620	-9.40808	0.29913	-8.24670	0.94354
3411.560	-9.43006	0.31526	-8.29771	0.94767
3415.660	-9.48408	0.35404	-8.30332	1.11542
3419.664	-9.54315	0.36186	-8.27691	1.17533
3423.645	-9.57020	0.38849	-8.24881	1.44957
3427.561	-9.67516	0.44939	-8.19849	1.56175
3431.661	-9.70316	0.46343	-8.20758	1.59947
3435.665	-9.76365	0.47917	-8.12972	1.43429
3439.667	-9.79652	0.57679	-8.08302	1.50627
3443.560	-9.80614	0.63950	-8.03314	1.46603
3447.662	-9.82718	0.69782	-7.90888	1.40548
3451.664	-9.91787	0.78427	-7.83597	1.33725
3455.664	-9.95596	0.85284	-7.83149	1.42473
3459.664	-9.98851	0.92224	-7.83843	1.25581
3463.624	-10.00897	0.98912	-7.81663	1.24925
3467.630	-9.99101	1.00211	-7.81242	1.14805
3471.663	-9.89229	1.05542	-7.85132	1.11876
3475.663	-9.86194	1.08437	-7.81702	1.05778
3479.662	-9.83062	1.11294	-7.88892	0.93394
3483.665	-9.72375	1.06125	-7.87411	0.87300
3487.661	-9.69070	0.95890	-7.94908	0.87075
3491.564	-9.48999	0.93776	-7.98364	0.85306
3495.663	-9.45402	0.88007	-8.04117	0.83884
3499.660	-9.44373	0.82228	-8.12931	0.82058
3503.673	-9.43989	0.76666	-8.15971	0.80808
3507.568	-9.41025	0.74263	-8.22047	0.78376
3511.662	-9.39593	0.68133	-8.25712	0.82760
3515.662	-9.41274	0.70983	-8.31635	0.87509
3519.664	-9.45237	0.70380	-8.43001	0.92005
3523.568	-9.50141	0.71989	-8.45322	0.98312
3527.667	-9.51322	0.73058	-8.36229	1.00311
3531.663	-9.57867	0.76816	-8.33445	0.99748
3535.668	-9.55280	0.79890	-8.36389	0.99972
3539.540	-9.57850	0.83541	-8.36355	1.06637
3543.664	-9.68643	0.92247	-8.18414	1.05451
3547.660	-9.69501	0.92639	-8.07728	1.08165
3551.656	-9.81513	0.91825	-7.98569	1.13259
3555.567	-9.78076	0.99215	-7.92257	1.11422
3559.661	-9.77720	0.99287	-7.94080	1.00422
3563.664	-9.81590	0.96032	-7.99029	1.03955
3567.667	-9.67297	0.94254	-8.37361	1.06322
3571.564	-9.53035	0.93547	-8.56716	1.05578
3575.662	-9.62495	0.93709	-8.21568	1.08219
3579.662	-9.59464	1.00649	-8.23901	1.06612
3583.621	-9.61004	0.93902	-8.09124	1.06784
3587.668	-9.56895	0.96738	-8.20056	0.77585
3591.637	-9.38011	0.89396	-8.07608	0.96170
3595.636	-9.51749	0.97110	-8.15457	1.04881
3599.667	-9.45822	0.92522	-8.30641	0.97083
3603.558	-9.36481	0.90910	-8.30187	0.99801
3607.662	-9.37257	0.91244	-8.39712	1.11314
3611.662	-9.46044	0.89282	-8.34886	0.89212
3615.666	-9.39665	0.92737	-8.33630	0.94075
3619.563	-9.51495	0.98419	-8.33107	1.06665
3623.665	-9.42008	1.00916	-8.33967	1.03524
3627.665	-9.32270	0.95579	-8.38046	0.97200
3631.652	-9.47563	1.03316	-8.39015	1.00378
3635.560	-9.38554	1.09725	-8.41871	0.91988
3639.667	-9.27030	0.96473	-8.38410	1.11765
3643.665	-9.47058	1.05618	-8.40698	0.90204
3647.629	-9.39086	1.08231	-8.38563	0.92657
3651.671	-9.16388	0.99933	-8.33406	1.20841
3655.670	-9.47575	1.10956	-8.31355	0.82615
3659.670	-9.40839	1.08730	-8.29815	0.81532
3663.666	-9.28439	1.05018	-8.16588	1.20189
3667.530	-9.57544	0.99609	-8.18828	1.03451
3671.669	-9.67292	1.04885	-8.24935	0.73020
3675.631	-9.47029	1.05834	-8.20569	0.89869
3679.668	-9.47447	0.96919	-8.20654	1.02940
3683.527	-9.38264	0.97731	-8.17612	1.23212
3687.666	-9.63324	0.95634	-8.12897	1.06240
3691.664	-9.66928	0.97387	-8.13848	0.92322
3695.669	-9.58644	1.14248	-8.17877	0.98870
3699.626	-9.60577	1.14251	-8.13775	1.05800
3703.663	-9.62179	1.10342	-8.18006	1.12728
3707.665	-9.66253	1.06480	-8.22445	1.01158
3711.624	-9.59670	1.00054	-8.23850	1.15194
3715.562	-9.45525	1.00117	-8.17809	1.39614
3719.670	-9.50829	0.96115	-8.14225	1.44617
3723.663	-9.51010	0.95110	-8.13969	1.51946
3727.665	-9.56289	0.94077	-8.15589	1.75456
3731.567	-9.55280	0.93851	-8.17206	1.77228
3735.668	-9.54346	0.99998	-8.17235	1.84088
3739.671	-9.56706	0.92635	-8.15752	1.96587
3743.665	-9.56243	0.92702	-8.11627	2.08732
3747.567	-9.71090	1.08198	-8.10333	2.17885
3751.668	-11.10029	1.58245	-8.18098	2.06713
3755.657	-4.69682	0.88577	-8.17213	2.18923
3759.658	-2.60310	2.36359	-10.77078	5.55197
3763.500	-13.00360	3.45622	-11.51049	5.54249
3767.665	-9.71117	10.89060	-14.27378	7.74908
3771.540	NaN	NaN	NaN	NaN
3775.544	NaN	NaN	NaN	NaN
3779.542	NaN	NaN	NaN	NaN
3783.541	NaN	NaN	NaN	NaN
3787.541	NaN	NaN	NaN	NaN
3791.540	NaN	NaN	NaN	NaN
3795.540	NaN	NaN	NaN	NaN
3799.499	NaN	NaN	NaN	NaN
3803.523	NaN	NaN	NaN	NaN
3807.537	NaN	NaN	NaN	NaN
3811.541	NaN	NaN	NaN	NaN
3815.499	NaN	NaN	NaN	NaN
3819.537	NaN	NaN	NaN	NaN
3823.541	NaN	NaN	NaN	NaN
3827.539	-1.34008	8.64659	0.72059	7.38609
3831.543	-0.97018	-1.62658	0.46244	5.81484
3835.502	0.41971	-0.57761	-0.22703	0.46464
3839.537	-0.07088	-1.78238	0.26083	0.29550
3843.540	1.01638	-1.95233	0.01159	-0.23062
3847.536	0.81612	-1.80513	0.78883	-1.32278
3851.539	-3.36070	-0.70268	-0.99057	-0.12510
3855.501	-4.28979	-1.10089	-3.10260	-0.14773
3859.542	-4.01460	-1.16407	-2.82311	-0.13350
3863.542	-3.88493	-1.40161	-2.40563	-0.19335
3867.540	-3.62600	-1.33781	-2.37553	-0.13881
3871.538	-3.62593	-1.44349	-2.41326	-0.09457
3875.541	-3.72657	-1.23518	-2.46991	-0.13061
3879.542	-3.73636	-1.30486	-2.40097	-0.07197
3883.544	-3.82422	-1.16393	-2.55629	-0.12377
3887.532	-3.88362	-1.14715	-2.55777	-0.07154
3891.540	-3.97227	-1.09373	-2.56959	-0.10525
3895.543	-3.97748	-1.16692	-2.59495	-0.10078
3899.501	-4.05070	-1.20348	-2.52849	-0.10667
3903.536	-4.03695	-1.18485	-2.53181	-0.18288
3907.545	-4.12382	-1.15122	-2.47103	-0.26951
3911.542	-4.18376	-1.12948	-2.46521	-0.33359
3915.541	-4.21960	-1.11105	-2.38628	-0.41764
3919.524	-4.20277	-1.09326	-2.41187	-0.52270
3923.542	-4.28567	-1.10221	-2.41868	-0.58873
3927.533	-4.29880	-1.10797	-2.44398	-0.70519
3931.535	-4.30588	-1.09926	-2.46018	-0.71734
3935.502	-4.28589	-1.10008	-2.45691	-0.74234
3939.544	-4.26862	-1.06119	-2.46845	-0.76792
3943.544	-4.30581	-1.07826	-2.49654	-0.80032
3947.557	-4.37549	-1.08034	-2.46441	-0.80151
3951.503	-4.39375	-1.12472	-2.48700	-0.77062
3955.542	-4.45047	-1.15200	-2.50781	-0.74601
3959.543	-4.35294	-1.15252	-2.53630	-0.76394
3963.542	-4.37475	-1.22411	-2.57830	-0.72569
3967.543	-4.28241	-1.29041	-2.63579	-0.73176
3971.514	-4.18516	-1.30454	-2.66419	-0.67906
3975.540	-4.05510	-1.38056	-2.67511	-0.70866
3979.543	-4.05584	-1.26960	-2.67838	-0.72074
3983.503	-3.94764	-1.27472	-2.67147	-0.73755
3987.542	-3.90768	-1.20315	-2.64725	-0.69274
3991.545	-4.01421	-1.28919	-2.65570	-0.69380
3995.547	-3.84999	-1.32406	-2.73821	-0.71917
3999.525	-3.80186	-1.16057	-2.74937	-0.74676
4003.545	-3.95493	-1.27836	-2.74789	-0.69919
4007.545	-3.80950	-1.13260	-2.73286	-0.76950
4011.527	-4.22634	-1.18840	-2.73714	-0.80067
4015.504	-4.08826	-1.17622	-2.65003	-0.78186
4019.546	-4.07468	-1.06356	-2.63898	-0.77877
4023.543	-4.05801	-1.10137	-2.65008	-0.77563
4027.549	-4.17815	-1.09835	-2.59755	-0.71612
4031.504	-4.25359	-1.09753	-2.64418	-0.80420
4035.544	-4.36565	-1.09865	-2.66791	-0.72442
4039.545	-4.39525	-1.12972	-2.66087	-0.73220
4043.549	-4.35556	-1.11811	-2.62174	-0.66985
4047.543	-4.23290	-1.13320	-2.59866	-0.76199
4051.542	-4.32992	-1.10245	-2.64398	-0.78068
4055.540	-4.21476	-1.10987	-2.62363	-0.72224
4059.543	-4.15359	-1.02384	-2.62888	-0.53164
4063.516	-4.31519	-1.10163	-2.69131	-0.61630
4067.542	-4.26728	-1.08309	-2.65565	-0.53059
4071.544	-4.36920	-1.07774	-2.67771	-0.61154
4075.544	-4.24473	-1.12167	-2.77946	-0.66544
4079.503	-4.09145	-1.06344	-2.69381	-0.51183
4083.543	NaN	NaN	NaN	NaN
4091.545	-4.14910	-1.05600	-2.73365	-0.58235
4095.526	-4.15421	-0.99876	-2.74720	-0.55564
4099.549	-4.16430	-1.04025	-2.81387	-0.66021
4103.536	-4.20348	-0.99830	-2.74645	-0.64680
4107.547	-4.05883	-1.01068	-2.78320	-0.72200
4111.549	-4.02934	-1.07940	-2.65892	-0.77679
4115.543	-4.28732	-1.00781	-2.76799	-0.69903
4119.542	-4.45172	-1.08654	-2.73660	-0.84308
4123.546	-4.18872	-1.04349	-2.58246	-0.75572
4127.548	-4.36478	-1.02415	-2.66617	-0.80878
4131.544	-4.20227	-0.97135	-2.68561	-0.88915
4135.546	-4.08742	-1.01785	-2.71342	-0.93101
4139.538	-4.16633	-1.11222	-2.69950	-0.96038
4143.550	-4.25541	-1.12678	-2.72823	-0.99626
4147.549	-4.32340	-1.09527	-2.73967	-1.08052
4151.537	-4.30161	-1.10789	-2.78364	-1.09718
4155.548	-4.34371	-1.08301	-2.73333	-1.00073
4159.547	-4.30043	-1.13506	-2.70530	-0.95410
4163.544	-4.26566	-1.12652	-2.68933	-0.94907
4167.540	-4.25554	-1.14754	-2.72087	-1.03964
4171.545	-4.28093	-1.14046	-2.71451	-1.02580
4175.549	-4.26351	-1.14802	-2.77394	-1.00774
4179.516	-4.44043	-1.16992	-2.74809	-0.89508
4183.574	-4.35496	-1.19417	-2.75485	-0.87408
4187.546	-4.32170	-1.13869	-2.72409	-0.94024
4191.542	-4.29638	-1.06452	-2.69108	-0.72754
4195.549	-4.33799	-1.30691	-2.61010	-0.84408
4199.551	-4.31795	-1.21949	-2.62578	-0.76110
4203.547	-4.26914	-0.95702	-2.64849	-0.85401
4207.548	-4.44257	-1.11657	-2.63366	-0.82719
4211.546	-4.40384	-1.24194	-2.70082	-0.67144
4215.541	-4.27489	-1.06406	-2.69502	-0.78422
4219.528	-4.38808	-1.19702	-2.81882	-0.92121
4223.548	-4.41467	-1.07342	-2.79582	-0.99839
4227.549	-4.35827	-1.16826	-2.64923	-0.89453
4231.544	-4.36325	-1.15976	-2.69666	-0.98656
4235.544	-4.53305	-1.24184	-2.69099	-1.03773
4239.548	-4.42017	-1.15053	-2.82625	-0.88259
4243.551	-4.14934	-1.21882	-2.72597	-1.09165
4247.539	-4.20200	-1.21752	-2.74932	-1.09277
4251.549	-4.21994	-1.02804	-2.79255	-1.09429
4255.548	-4.31839	-1.22341	-2.78941	-1.14267
4259.547	-4.29695	-1.17207	-2.78171	-0.97786
4263.541	-4.29636	-1.15493	-2.83199	-1.18089
4267.547	-4.18183	-1.11775	-2.74048	-1.08136
4271.551	-4.25122	-1.09116	-2.84051	-1.07333
4275.548	-4.17643	-1.09868	-2.76034	-1.04011
4279.542	-4.14009	-1.15380	-2.73160	-0.87432
4283.543	-4.23591	-1.15901	-2.77824	-0.93950
4287.516	-4.15258	-1.10461	-2.77406	-0.92744
4291.545	-4.12056	-1.09558	-2.72498	-0.91532
4295.541	-4.15362	-1.25627	-2.70106	-0.96274
4299.549	-4.12475	-1.11423	-2.65565	-0.78707
4303.529	-4.15287	-1.17571	-2.67982	-0.91811
4307.545	-4.07320	-1.10640	-2.60272	-0.96557
4311.551	-3.98650	-1.20831	-2.60532	-0.83848
4315.549	-4.18689	-1.22436	-2.58417	-0.87157
4319.551	-4.14214	-1.31992	-2.59631	-0.94818
4323.550	-4.11006	-1.29944	-2.59648	-0.91822
4327.542	-3.98934	-1.26787	-2.59770	-0.92599
4331.550	-4.13036	-1.21038	-2.76742	-0.90316
4335.504	-4.71255	-1.11892	-4.01258	-0.86380
4339.547	-5.53277	-1.05879	-4.48816	-0.82268
4343.510	-6.94699	-0.94899	-5.05274	-0.61443
4347.541	-7.08163	-0.95503	-5.43907	-0.63253
4351.552	-7.15174	-1.03994	-5.58992	-0.82166
4355.550	-7.10895	-0.96224	-5.52836	-0.66966
4359.542	-7.07009	-1.01466	-5.65936	-0.60089
4363.546	-7.10897	-0.88363	-5.58634	-0.60132
4367.551	-7.08165	-0.84850	-5.50786	-0.54379
4371.548	-6.89793	-0.89636	-5.43959	-0.50161
4375.550	-7.19197	-0.77021	-5.67814	-0.51043
4379.548	-7.22854	-0.85924	-5.66258	-0.57508
4383.508	-7.09101	-0.86988	-5.74981	-0.64634
4387.514	-7.21796	-0.72156	-5.77332	-0.57353
4391.517	-7.07351	-0.75211	-5.74224	-0.62444
4395.550	NaN	NaN	NaN	NaN
4403.549	-7.20897	-0.70917	-5.75283	-0.61907
4407.552	-7.05530	-0.63482	-5.68054	-0.51500
4411.543	-7.21655	-0.63820	-5.68986	-0.55203
4415.547	-7.11049	-0.61746	-5.69772	-0.59292
4419.550	-7.13578	-0.59073	-5.77151	-0.46402
4423.552	-7.09358	-0.58674	-5.68212	-0.73685
4427.484	-7.07857	-0.55808	-5.72151	-0.59502
4431.544	-7.04337	-0.52861	-5.69826	-0.41611
4435.549	-7.05660	-0.59243	-5.74436	-0.47497
4439.551	-7.07855	-0.61733	-5.65535	-0.34270
4443.510	-7.17116	-0.71527	-5.69386	-0.49247
4447.550	-7.10167	-0.70734	-5.69512	-0.43261
4451.549	-7.09917	-0.70293	-5.70065	-0.41661
4455.551	-7.04318	-0.65346	-5.69261	-0.28650
4459.450	-7.11266	-0.67865	-5.64324	-0.31996
4463.552	-7.14893	-0.71306	-5.37763	-0.43375
4467.547	-7.16938	-0.66654	-5.59396	-0.46975
4471.554	-7.04880	-0.71263	-5.63896	-0.47889
4475.448	-7.00441	-0.73075	-5.66646	-0.55529
4479.550	-7.01132	-0.73872	-5.68912	-0.51977
4483.556	-7.00678	-0.71508	-5.80798	-0.50339
4487.550	-6.97555	-0.66677	-5.88803	-0.54840
4491.550	-6.92503	-0.68122	-5.81597	-0.43565
4495.550	-6.91070	-0.64291	-5.89991	-0.53784
4499.550	-6.91131	-0.74332	-5.84814	-0.43632
4503.508	-6.94328	-0.77015	-5.80744	-0.56408
4507.552	-7.02602	-0.78222	-5.83699	-0.54818
4511.528	-7.10347	-0.78411	-5.86887	-0.56693
4515.548	-7.01071	-0.77359	-5.92299	-0.54273
4519.548	-6.97441	-0.77526	-5.94278	-0.63059
4523.509	-6.99648	-0.67448	-5.75760	-0.37842
4527.510	-7.07896	-0.71016	-5.68251	-0.40628
4531.510	-7.13673	-0.67931	-5.61935	-0.35734
4535.552	-6.99323	-0.64497	-5.69131	-0.38946
4539.510	-7.07816	-0.66285	-5.63333	-0.47279
4543.548	-7.10453	-0.65921	-5.61541	-0.37851
4547.549	-7.12197	-0.66720	-5.62011	-0.33902
4551.540	-7.19002	-0.63823	-5.69148	-0.34805
4555.422	-6.99504	-0.57439	-5.68497	-0.44626
4559.555	-6.99788	-0.50299	-5.60603	-0.31187
4563.552	-7.03184	-0.52194	-5.59801	-0.26269
4567.551	-7.06408	-0.53889	-5.63220	-0.29536
4571.421	-7.05124	-0.54773	-5.64852	-0.32777
4575.554	-7.01646	-0.52760	-5.68111	-0.42987
4579.553	-7.04824	-0.48542	-5.64122	-0.43220
4583.555	-7.06911	-0.50126	-5.67226	-0.51177
4587.421	-7.07825	-0.49437	-5.65152	-0.40895
4591.510	-6.99243	-0.43300	-5.67887	-0.45747
4595.518	-6.98675	-0.46664	-5.61087	-0.39117
4599.548	-6.92454	-0.43795	-5.68703	-0.41753
4603.453	-7.05237	-0.51412	-5.64287	-0.41838
4607.554	-7.00250	-0.53016	-5.63776	-0.53378
4611.551	-6.84118	-0.59909	-5.69354	-0.46287
4615.549	-7.02281	-0.69213	-5.63822	-0.36450
4619.450	-7.02582	-0.54340	-5.64139	-0.50186
4623.554	-7.05968	-0.61455	-5.59228	-0.52102
4627.550	-6.96859	-0.62520	-5.54833	-0.34504
4631.553	-6.88788	-0.49114	-5.52974	-0.23086
4635.453	-7.05963	-0.54933	-5.57409	-0.52534
4639.553	-6.94565	-0.58754	-5.55447	-0.54714
4643.552	-7.10101	-0.60616	-5.52445	-0.28918
4647.905	-6.97915	-0.61744	-5.53446	-0.39476
4651.559	-6.97560	-0.68130	-5.59924	-0.35018
4655.559	-7.06188	-0.54412	-5.69755	-0.45407
4659.552	-7.30825	-0.85000	-6.07216	-0.41944
4663.554	-7.65566	-0.70193	-6.65492	-0.52084
4667.451	-8.19479	-0.60525	-7.01164	-0.47769
4671.555	-8.51265	-0.69078	-6.72974	-0.48311
4675.548	-8.52836	-0.66844	-6.75230	-0.38123
4679.550	-8.48119	-0.70018	-6.90253	-0.49616
4683.414	-8.25686	-0.75246	-6.88196	-0.48337
4687.554	-8.36467	-0.70277	-6.88942	-0.53068
4691.551	-8.41485	-0.69137	-6.95020	-0.41518
4695.553	-8.28622	-0.76829	-6.97106	-0.58115
4699.452	-8.42585	-0.82736	-7.04450	-0.64924
4703.511	-8.60606	-0.52805	-7.06657	-0.60268
4707.551	-8.48542	-0.47025	-7.06659	-0.66373
4711.551	-8.54935	-0.48607	-7.00499	-0.55265
4715.455	-8.52566	-0.35362	-6.99172	-0.62662
4719.533	-8.47121	-0.51495	-7.01653	-0.72873
4723.555	-8.49173	-0.73065	-7.03020	-0.77499
4727.551	-8.44642	-0.57573	-7.12623	-0.80794
4731.457	-8.36487	-0.49842	-7.13795	-0.65532
4735.553	-8.41563	-0.33482	-7.11885	-0.73096
4739.556	-8.41507	-0.33836	-7.04614	-0.74809
4743.554	-8.45604	-0.43828	-7.21396	-0.69857
4747.457	-8.41981	-0.65202	-7.15469	-0.80811
4751.553	-8.45548	-0.69944	-7.11970	-0.84912
4755.558	-8.67224	-0.68654	-7.02492	-0.79838
4759.544	-8.60875	-0.60286	-6.98076	-0.77591
4763.455	-8.57830	-0.70292	-7.12293	-0.84073
4767.552	-8.56297	-0.53671	-7.14680	-0.78924
4771.555	-8.58609	-0.65645	-7.11767	-0.79634
4775.557	-8.55226	-0.56953	-7.05826	-0.68606
4779.417	-8.63983	-0.54931	-7.11117	-0.87226
4783.554	-8.65598	-0.67360	-7.11254	-0.77717
4787.555	-8.64114	-0.66959	-7.01392	-0.65623
4791.556	-8.68506	-0.58525	-7.12576	-0.77789
4795.451	-8.55823	-0.53159	-7.01971	-0.64826
4799.552	-8.51943	-0.55309	-7.05760	-0.50115
4803.510	-8.55328	-0.45270	-7.19935	-0.54881
4807.427	-8.73427	-0.47392	-8.30724	-0.39471
4811.401	-9.67164	-0.41586	-9.07794	-0.19660
4815.427	-10.99162	0.05684	-10.71185	-0.07630
4819.431	-11.87857	0.43685	-11.87629	-0.04404
4823.432	-12.62729	0.59226	-12.31023	0.22527
4827.388	-13.78944	0.55277	-13.82904	0.10670
4831.429	-14.28023	0.78021	-14.09740	0.20763
4835.429	-14.99917	0.64833	-14.10606	0.23695
4839.391	-14.60971	0.80331	-14.04227	0.21443
4843.559	-14.74562	1.00491	-13.98655	0.21238
4847.425	-14.86293	0.98778	-13.86642	0.25939
4851.419	-14.73218	0.94251	-13.93443	0.29561
4855.429	-14.80621	1.04392	-13.78447	0.22528
4859.408	-14.86465	1.21256	-13.86851	0.33774
4863.429	-14.91655	1.04243	-13.92618	0.37564
4867.429	-14.90459	1.11304	-13.86336	0.41012
4871.427	-14.96344	1.13898	-13.86415	0.47694
4875.389	-14.98055	1.25227	-13.76062	0.47472
4879.430	-14.94403	1.14840	-13.70760	0.53315
4883.432	-15.05487	1.13044	-13.68431	0.53631
4887.430	-15.02538	1.04024	-13.58690	0.46369
4891.389	-15.07445	1.04648	-13.61619	0.51918
4895.398	-15.15767	1.13097	-13.63095	0.57874
4899.388	-15.10836	1.06109	-13.81214	0.58138
4903.441	-15.08150	1.03038	-13.75797	0.52915
4907.388	-15.06813	1.00964	-13.69823	0.49775
4911.429	-15.12786	1.02444	-13.86135	0.50153
4915.430	-15.10045	0.96438	-13.76586	0.46756
4919.427	-15.24547	0.93505	-13.85466	0.48073
4923.421	-15.23041	0.89101	-13.79122	0.54488
4927.432	-15.14611	0.96808	-13.84036	0.60235
4931.428	-15.20559	1.00865	-13.86846	0.56467
4935.428	-15.19038	1.02119	-13.85552	0.55414
4939.390	-15.16625	0.97856	-13.81502	0.54453
4943.389	-15.13290	1.00063	-13.79421	0.51616
4947.433	-15.14699	0.97838	-13.68872	0.56906
4951.430	-15.16995	0.99518	-13.68448	0.53240
4955.390	-15.15217	0.96469	-13.66552	0.58913
4959.430	-15.19923	1.07954	-13.71055	0.66378
4963.433	-15.13781	1.01720	-13.68232	0.67062
4967.432	-15.12886	1.03636	-13.69090	0.60727
4971.395	-15.07588	0.96437	-13.61025	0.54735
4975.394	-15.03017	1.00675	-13.61365	0.59646
4979.432	-15.06794	0.97892	-13.67054	0.64183
4983.428	-14.96849	1.02725	-13.64909	0.62416
4987.389	-15.01982	0.97026	-13.62659	0.68891
4991.432	-14.97460	0.99862	-13.63852	0.71331
4995.429	-14.89550	0.98184	-13.65277	0.72307
4999.432	-14.98706	1.00933	-13.71027	0.70689
5003.390	-14.83930	0.93256	-13.60020	0.72219
5007.433	-14.92855	0.97106	-13.64108	0.81893
5011.428	-14.78340	0.93431	-13.63004	0.77570
5015.430	-14.77282	1.01038	-13.67269	0.69937
5019.456	-14.75187	1.01134	-13.69122	0.79199
5023.388	-14.77173	1.08629	-13.75015	0.73109
5027.426	-14.63915	0.86155	-13.75563	0.66519
5031.432	-14.78048	0.95131	-13.71299	0.76606
5035.453	-14.64740	1.00587	-13.67040	0.65754
5039.436	-14.91805	0.97372	-13.80173	0.68813
5043.430	-14.58980	0.96377	-13.72137	0.64497
5047.436	-14.75182	1.02946	-13.69879	0.60235
5051.426	-14.78477	1.08743	-13.78127	0.59367
5055.423	-14.69806	1.15588	-13.74575	0.51769
5059.421	-14.68944	1.03614	-13.79353	0.56816
5063.431	-14.78122	1.06424	-13.77120	0.51896
5067.392	-14.73502	0.96342	-13.67084	0.61660
5071.436	-14.99493	1.02501	-13.62983	0.63018
5075.433	-14.76948	1.18228	-13.65228	0.60421
5079.430	-14.79574	1.14974	-13.66763	0.61004
5083.391	-14.84830	1.29594	-13.65943	0.74412
5087.390	-14.91251	1.17166	-13.80545	0.75618
5091.432	-15.07285	1.37027	-14.06555	0.92684
5095.436	-15.68320	1.87029	-14.33977	1.40271
5099.456	-15.76207	2.07891	-14.36292	1.27986
5103.392	-15.41796	2.53959	-14.78797	1.17281
5107.431	-15.31480	2.24590	-14.62517	1.22065
5111.433	-15.24533	2.21136	-14.60265	1.16374
5115.437	-15.24369	2.08710	-14.57555	1.22520
5119.432	-15.29462	2.18853	-14.44467	1.35997
5123.434	-15.33684	2.10000	-14.34720	1.45872
5127.432	-15.42906	1.97927	-14.46854	1.51528
5131.431	-15.40475	2.14188	-14.61322	1.51090
5135.432	-15.52488	2.13564	-14.57250	1.48416
5139.418	-15.46327	1.94330	-14.65407	1.43578
5143.422	-15.46918	1.86829	-14.67990	1.41879
5147.436	-15.44220	1.84547	-14.61397	1.48694
5151.434	-15.47718	1.79662	-14.54695	1.47753
5155.436	-15.51543	1.73615	-14.50165	1.47264
5159.432	-15.52988	1.70007	-14.54702	1.55711
5163.433	-15.55301	1.69716	-14.70103	1.56582
5167.433	-15.60537	1.64792	-14.66561	1.53590
5171.435	-15.64485	1.67603	-14.63920	1.54640
5175.433	-15.64045	1.67310	-14.55574	1.56075
5179.435	-15.59259	1.71331	-14.61648	1.47462
5183.399	-15.59844	1.70926	-14.62905	1.48520
5187.436	-15.56217	1.79590	-14.60890	1.53587
5191.432	-15.56715	1.98000	-14.58815	1.55029
5195.456	-15.56132	1.79218	-14.62203	1.56559
5199.435	-15.49624	1.75863	-14.60216	1.63205
5203.391	-15.42846	1.64993	-14.52181	1.43741
5207.433	-15.31667	1.66705	-14.41669	1.43412
5211.444	-15.32525	1.86733	-14.53205	1.47590
5215.436	-15.30124	2.11297	-14.44785	1.53372
5219.442	-15.35217	1.78025	-14.51028	1.47975
5223.436	-15.32772	1.77789	-14.51821	1.69058
5227.411	-15.25219	1.61388	-14.49748	1.64840
5231.432	-15.25884	1.69489	-14.46449	1.46589
5235.431	-15.23121	1.68541	-14.50114	1.48926
5239.435	-15.22918	1.83377	-14.46398	1.51918
5243.424	-15.37644	1.83866	-14.45249	1.64650
5247.435	-15.40906	1.87630	-14.53460	1.61039
5251.434	-15.40445	1.93815	-14.51216	1.80007
5255.434	-15.40558	1.89404	-14.47683	1.79673
5259.459	-15.38110	1.67927	-14.43375	1.44801
5263.431	-15.37210	1.69081	-14.51805	1.48501
5267.425	-15.29665	1.66891	-14.46405	1.51473
5271.392	-15.33451	1.67756	-14.49174	1.59385
5275.428	-15.36474	1.68309	-14.40018	1.68563
5279.438	-15.52617	1.72089	-14.40877	1.82101
5283.435	-15.52181	1.62725	-14.46028	1.60040
5287.437	-15.53778	1.57602	-14.58940	1.37155
5291.462	-15.45076	1.60584	-14.46279	1.25012
5295.435	-15.18670	1.62763	-14.59912	1.50033
5299.437	-15.40648	1.48076	-14.55232	1.56647
5303.392	-15.33686	1.51526	-14.50316	1.56562
5307.429	-15.41035	1.51957	-14.62572	1.65919
5311.434	-15.35994	1.59684	-14.76280	1.53652
5315.432	-15.37030	1.74019	-14.66863	1.43424
5319.434	-15.23819	1.73347	-14.71672	1.25322
5323.405	-15.40140	1.68586	-14.77983	1.37554
5327.435	-15.26559	1.53089	-14.78563	1.41758
5331.434	-15.19332	1.34063	-14.78278	1.59054
5335.433	-15.09330	1.39896	-14.84297	1.62898
5339.394	-15.18844	1.33970	-14.74653	1.58394
5343.434	-15.14273	1.29749	-14.71631	1.65860
5347.417	-15.12761	1.30679	-14.71482	1.69689
5351.437	-15.10226	1.31510	-14.70953	1.74558
5355.437	-15.06022	1.32269	-14.66211	1.79409
5359.436	-15.08824	1.26854	-14.69069	1.89973
5363.435	-15.12201	1.26582	-14.62421	1.97108
5367.394	-15.09636	1.25240	-14.57690	2.00501
5371.429	-15.08683	1.26234	-14.58540	2.06491
5375.439	-15.07866	1.28872	-14.58636	2.06773
5379.437	-15.12134	1.28134	-14.51300	2.00244
5383.435	-15.14747	1.24635	-14.55774	2.02344
5387.440	-15.17385	1.20592	-14.60460	1.88613
5391.438	-15.19091	1.27519	-14.62170	1.95710
5395.433	-15.18474	1.31835	-14.63746	1.85674
5399.440	-15.18768	1.28597	-14.66626	1.76298
5403.397	-15.20822	1.30811	-14.62603	1.59529
5407.439	-15.18726	1.41334	-14.64526	1.73817
5411.436	-15.24452	1.40948	-14.68538	1.67291
5415.433	-15.23519	1.41448	-14.69894	1.53329
5419.437	-15.26723	1.47595	-14.69469	1.51096
5423.439	-15.30852	1.50206	-14.75396	1.36749
5427.437	-15.33610	1.52856	-14.77271	1.33767
5431.434	-15.37377	1.56714	-14.79746	1.35291
5435.404	-15.40101	1.57484	-14.80345	1.22222
5439.439	-15.44368	1.58263	-14.80124	1.24351
5443.435	-15.48918	1.61698	-14.78257	1.26965
5447.434	-15.53819	1.63652	-14.80604	1.22658
5451.438	-15.62586	1.58893	-14.82926	1.26042
5455.437	-15.73787	1.57415	-14.75811	1.20915
5459.434	-15.84879	1.58081	-14.79660	1.26265
5463.441	-15.87327	1.53987	-14.71946	1.28866
5467.431	-15.90162	1.52846	-14.66192	1.35226
5471.440	-15.89487	1.55172	-14.61531	1.39701
5475.426	-15.89579	1.54247	-14.55586	1.51958
5479.437	-15.89496	1.52462	-14.51986	1.58132
5483.433	-15.86902	1.50191	-14.56234	1.75829
5487.439	-15.78646	1.44008	-14.55595	1.85481
5491.434	-15.80064	1.36827	-14.57948	1.87133
5495.435	-15.71494	1.37143	-14.56137	1.91266
5499.335	-15.68649	1.33558	-14.62951	1.93369
5503.394	-15.63974	1.39996	-14.63632	1.98240
5507.437	-15.61060	1.31713	-14.62851	1.96230
5511.438	-15.59849	1.40545	-14.60360	2.01507
5515.418	-15.58398	1.35663	-14.53493	2.04705
5519.395	-15.59197	1.37756	-14.60909	2.06250
5523.396	-15.59112	1.44433	-14.62577	2.13078
5527.440	-15.58642	1.41826	-14.61882	2.11699
5531.440	-15.60008	1.46507	-14.59458	2.14152
5535.436	-15.58806	1.48178	-14.51498	2.12596
5539.438	-15.58813	1.51989	-14.33087	2.14597
5543.449	-15.60337	1.52149	-14.41371	2.14250
5547.440	-15.56385	1.41311	-14.42330	2.16779
5551.435	-15.55017	1.45840	-14.42269	2.18435
5555.421	-15.52161	1.38440	-14.49379	2.19379
5559.440	-15.46998	1.39369	-14.57971	2.19731
5563.432	-15.41667	1.41251	-14.59656	2.20814
5567.437	-15.37508	1.41361	-14.60084	2.17309
5571.435	-15.35501	1.48082	-14.60925	2.16703
5575.441	-15.27771	1.48604	-14.62675	2.11787
5579.335	-15.29822	1.48057	-14.72722	2.06273
5583.436	-15.27961	1.47896	-14.73762	2.01562
5587.440	-15.20954	1.55351	-14.77586	1.96254
5591.442	-15.24025	1.64186	-14.77804	1.90137
5595.340	-15.27102	1.65477	-14.78447	1.91297
5599.404	-15.25799	1.70423	-14.76679	1.88310
5603.439	-15.24685	1.69762	-14.76396	1.88178
5607.438	-15.26746	1.72452	-14.75765	1.83287
5611.339	-15.36041	1.68990	-14.82101	1.84709
5615.436	-15.43399	1.68978	-14.80841	1.82901
5619.439	-15.46032	1.71232	-14.82954	1.90528
5623.440	-15.58276	1.72967	-14.79867	1.91210
5627.335	-15.64142	1.73241	-14.72083	1.93576
5631.439	-15.65709	1.68826	-14.69290	1.89306
5635.440	-15.55485	1.64029	-14.74068	1.82391
5639.417	-15.51790	1.64292	-14.78319	1.89383
5643.328	-15.62024	1.72350	-14.77716	1.88450
5647.438	-15.57194	1.58963	-14.71976	1.89078
5651.442	-15.59303	1.64338	-14.67460	1.83301
5655.397	-15.59487	1.58082	-14.65353	1.80029
5659.304	-15.61900	1.59130	-14.60051	1.78681
5663.439	-15.64248	1.66938	-14.61301	1.79392
5667.439	-15.57164	1.70812	-14.60572	1.87003
5671.437	-15.41042	1.47939	-14.64856	2.04499
5675.442	-15.34141	1.61104	-14.65089	1.89779
5679.440	-15.28981	1.70498	-14.56976	1.74355
5683.429	-15.19731	1.63886	-14.51458	1.82879
5687.437	-15.28159	1.43798	-14.59094	1.79254
5691.307	-15.43498	1.36599	-14.57678	1.75399
5695.443	-15.33758	1.29995	-14.52988	1.82360
5699.438	-15.32872	1.39483	-14.60367	1.70285
5703.438	-15.24085	1.44367	-14.59765	1.78770
5707.399	-15.18541	1.38771	-14.52707	1.82249
5711.437	-15.25251	1.32710	-14.50093	1.77221
5715.443	-15.32131	1.35929	-14.52572	1.81335
5719.440	-15.34981	1.35103	-14.53865	1.87000
5723.306	-15.36904	1.34439	-14.52521	1.94599
5727.441	-15.36731	1.39402	-14.63407	1.87500
5731.439	-15.36922	1.58190	-14.62730	1.96841
5735.438	-15.35911	1.58291	-14.61720	2.06120
5739.304	-15.33846	1.68277	-14.65574	2.06295
5743.443	-15.36368	1.68664	-14.74962	2.04831
5747.441	-15.47070	1.79330	-14.60695	2.07289
5751.449	-15.53840	1.81608	-14.75119	2.07695
5755.303	-15.53561	1.83658	-14.74284	2.08015
5759.443	-15.55363	1.83620	-14.71965	2.01216
5763.422	-15.57822	1.87610	-14.72622	1.93908
5767.436	-15.58697	1.90402	-14.64517	1.91230
5771.400	-15.62726	1.80628	-14.59015	1.91599
5775.441	-15.74722	1.70931	-14.55453	1.85179
5779.443	-15.68380	1.67896	-14.57215	1.86193
5783.440	-15.72469	1.69358	-14.66735	1.88771
5787.401	-15.66247	1.71910	-14.62586	1.93201
5791.440	-15.53836	1.64702	-14.65481	1.84425
5795.437	-15.49421	1.65924	-14.46531	1.68896
5799.440	-15.36317	1.52003	-14.19979	1.73062
5803.304	-14.63602	1.25565	-13.79332	1.47220
5807.405	-14.24811	-0.11421	-13.64436	1.00486
5811.443	-14.26177	0.06018	-13.90017	0.44252
5815.438	-14.12455	-0.04730	-13.46437	-0.19140
5819.342	-14.18218	-0.44771	-13.29622	-0.23482
5823.441	-14.26016	-0.24457	-13.28070	0.28823
5827.439	-14.25884	-0.19541	-13.18021	0.39587
5831.440	-14.08727	-0.08566	-13.25764	0.49507
5835.444	-14.15230	-0.10349	-13.25665	0.45001
5839.402	-14.05845	-0.05146	-13.13329	0.23384
5843.441	-14.07338	-0.11066	-13.16807	-0.12754
5847.317	-14.12315	-0.17955	-13.22375	0.07455
5851.279	-14.06067	-0.15251	-13.15277	-0.05471
5855.307	-14.12721	-0.12603	-13.08993	0.13522
5859.317	-14.10454	-0.09970	-13.09466	0.07759
5863.312	-14.06224	-0.05619	-13.05964	0.08843
5867.313	-14.00377	0.07248	-13.08967	0.08856
5871.316	-13.93562	-0.03174	-12.96526	0.04371
5875.319	-13.95493	-0.08694	-13.11069	-0.08826
5879.317	-13.94588	-0.06774	-13.08764	-0.07133
5883.310	-14.02881	-0.05410	-13.07636	-0.07738
5887.315	-13.98844	-0.05481	-12.88015	0.01223
5891.319	-13.86392	0.02536	-13.07799	0.01665
5895.283	-13.96743	0.20413	-13.08272	-0.01912
5899.314	-13.86673	0.07245	-13.02763	0.00605
5903.275	-13.86172	0.01341	-13.06054	0.01397
5907.319	-13.94626	0.22399	-13.01225	-0.05111
5911.314	-13.95411	-0.00371	-13.06457	-0.03064
5915.339	-14.09145	0.04063	-13.05828	0.00922
5919.314	-14.01211	0.06059	-13.06975	-0.05192
5923.320	-13.93920	0.19660	-12.94570	0.09181
5927.315	-14.00978	0.11134	-13.00916	0.12539
5931.341	-13.98667	0.12215	-13.00801	0.03164
5935.298	-14.04325	0.13772	-12.90447	0.06290
5939.320	-13.91778	0.12072	-13.01070	0.13561
5943.318	-13.94289	0.11955	-12.95016	0.07640
5947.311	-14.01534	0.10010	-12.94556	0.28053
5951.316	-14.01207	0.07963	-12.85852	0.23848
5955.322	-13.88974	0.03802	-12.86775	0.13971
5959.319	-13.89409	0.05560	-12.87013	0.23319
5963.304	-13.86979	0.04842	-12.82042	0.28552
5967.319	-13.86268	0.00468	-12.89166	0.37932
5971.319	-13.85140	-0.00140	-12.82781	0.37193
5975.314	-13.77827	-0.05766	-12.75762	0.27137
5979.310	-13.77010	-0.12808	-12.84208	0.29276
5983.315	-13.87800	-0.08769	-12.82344	0.30219
5987.319	-13.84614	-0.10268	-12.85678	0.35782
5991.320	-13.85580	-0.03877	-12.86364	0.28327
5995.312	-13.82791	-0.04100	-12.89114	0.31502
5999.316	-13.80652	-0.02314	-12.93031	0.31833
6003.276	-13.82702	-0.05149	-12.88287	0.24262
6007.321	-13.86305	0.00683	-12.84390	0.32215
6011.344	-13.83070	0.03265	-12.93255	0.15900
6015.317	-13.84170	0.03026	-12.96649	0.13534
6019.296	-13.83365	0.00787	-13.00455	0.24650
6023.276	-13.80685	0.00142	-12.97879	0.23737
6027.313	-13.78396	-0.04248	-12.95577	0.19361
6031.318	-13.80404	-0.02266	-12.97038	0.14372
6035.315	-13.83688	-0.08052	-13.01661	0.13531
6039.315	-13.83699	-0.08273	-12.94075	0.16597
6043.311	-13.78508	-0.07501	-12.81021	0.09981
6047.320	-13.76036	-0.13260	-12.96548	0.14462
6051.317	-13.74793	0.00495	-13.02780	0.09955
6055.317	-13.80191	-0.09440	-12.93012	0.17021
6059.277	NaN	NaN	-12.91927	0.17409
6063.312	NaN	NaN	-12.98329	0.18369
6067.275	NaN	NaN	-12.90895	0.15240
6071.312	-13.79971	-0.15406	NaN	NaN
6075.320	-13.89608	-0.07719	NaN	NaN
6079.318	-13.79117	-0.09713	NaN	NaN
6083.319	-13.71406	-0.07863	-4.04401	0.82489
6087.319	-13.68783	0.04599	-12.98593	0.28833
6091.321	-13.56683	0.25673	-12.97410	0.15849
6095.318	-13.56411	0.33726	-12.89843	0.35359
6099.279	-13.89332	0.03440	-12.81858	0.56955
6103.286	NaN	NaN	-13.30846	1.64809
6107.323	NaN	NaN	NaN	NaN
6111.322	NaN	NaN	NaN	NaN
6115.279	NaN	NaN	NaN	NaN
6119.319	NaN	NaN	NaN	NaN
6123.276	-14.11834	0.84457	NaN	NaN
6127.320	-14.68723	0.46996	-12.57167	5.37628
6131.319	-15.21377	0.52391	-12.84454	5.55405
6135.322	-15.69277	0.67890	NaN	NaN
6139.318	NaN	NaN	NaN	NaN
6143.322	NaN	NaN	NaN	NaN
6147.281	NaN	NaN	NaN	NaN
6151.277	NaN	NaN	NaN	NaN
6155.321	NaN	NaN	NaN	NaN
6159.277	NaN	NaN	NaN	NaN
6163.346	-14.55304	-0.79364	-11.83626	11.57803
6167.319	-14.75219	-0.30323	-11.80547	11.47389
6171.321	-13.71545	0.15848	-11.59513	11.37125
6175.320	NaN	NaN	-11.64835	11.46592
6179.301	-11.90505	0.33833	NaN	NaN
6183.331	-13.07834	1.04431	NaN	NaN
6187.314	-13.04179	0.79507	-11.09884	14.51174
6191.324	-13.37113	0.84896	-13.31906	-0.59543
6195.312	NaN	NaN	-12.93399	-0.38563
6199.323	-13.13075	0.28499	-12.29910	-0.10071
6203.322	-13.06219	0.84413	-12.12409	-0.13027
6207.320	-12.92496	0.35690	-12.19979	-0.01533
6211.292	-13.05385	0.34790	-12.41781	0.81209
6215.321	-13.27003	-0.11824	-12.55725	-0.09724
6219.328	-13.68134	0.30967	-12.55053	-0.14514
6223.321	-13.54291	0.19810	-12.68194	-0.04175
6227.280	-13.62577	-0.03465	-12.79659	-0.11018
6231.321	-13.77848	-0.18663	-13.02007	-0.11018
6235.319	-13.62680	-0.21353	-12.84388	0.01328
6239.318	-14.14065	-0.12070	-12.82387	0.01628
6243.325	-13.82983	-0.19098	-12.91496	0.04045
6247.320	-14.02554	-0.10955	-12.99750	-0.03353
6251.320	-13.92253	-0.26237	-13.01852	-0.17628
6255.322	-14.01543	-0.28748	-12.97297	-0.04615
6259.326	-13.83758	-0.29754	-13.04824	-0.02283
6263.322	-13.90282	-0.27879	-13.07980	0.04563
6267.320	-14.33669	-0.09464	-13.14049	0.41720
6271.321	-14.61429	0.29070	-13.77361	0.77458
6275.310	-15.07660	1.04577	-14.34841	1.67289
6279.326	-15.48550	2.08583	-14.46473	2.36287
6283.319	-15.13404	2.35016	-14.28841	2.58300
6287.322	-15.25104	2.01795	-14.33259	2.79043
6291.315	-15.05418	2.10231	-13.96395	2.12072
6295.324	-15.23454	1.92624	-14.24781	2.21258
6299.320	-15.27751	2.12892	-14.32188	2.10537
6303.322	-15.25293	1.90814	-14.31179	2.05800
6307.315	-15.39379	2.13434	-14.31994	2.50276
6311.294	-15.42936	2.13285	-14.40218	2.17472
6315.320	-15.41218	2.01957	-14.27919	2.31566
6319.323	-15.33375	2.26855	-14.52612	2.39350
6323.315	-15.36419	2.12421	-14.24217	2.30303
6327.322	-15.37070	2.12450	-14.40323	2.22992
6331.320	-15.38599	2.22772	-14.44471	2.29512
6335.321	-15.41319	2.09526	-14.30356	2.28486
6339.325	-15.36611	2.15716	-14.40137	2.32476
6343.326	-15.42742	2.21391	-14.26993	2.38137
6347.322	-15.33437	2.19585	-14.40132	2.43101
6351.281	-15.36465	2.13638	-14.29834	2.33693
6355.301	-15.32235	2.18525	-14.25650	2.45914
6359.325	-15.24734	2.06096	-14.31587	2.42434
6363.322	-15.27963	2.05210	-14.32570	2.52641
6367.322	-15.26136	2.10907	-14.35302	2.54365
6371.322	-15.28647	2.07676	-14.29671	2.54575
6375.324	-15.22368	2.06711	-14.24660	2.57790
6379.320	-15.24748	2.07339	-14.30060	2.67921
6383.322	-15.28381	2.06994	-14.23093	2.65519
6387.326	-15.25231	2.01904	-14.20049	2.65151
6391.323	-15.27120	2.00696	-14.11250	2.72102
6395.323	-15.21626	2.15954	-14.15374	2.63289
6399.322	-15.20760	2.17217	-14.03620	2.57270
6403.326	-15.20106	2.22923	-14.02433	2.59266
6407.326	-15.16715	2.23224	-14.10730	2.50066
6411.320	-15.17547	2.20400	-14.07361	2.46504
6415.321	-15.03973	2.11520	-14.07081	2.43620
6419.327	-15.14521	2.01163	-14.08869	2.40418
6423.323	-15.18939	1.96369	-14.17187	2.41299
6427.321	-14.91226	2.04447	-14.13967	2.37636
6431.322	-15.03202	1.99041	-14.11853	2.23427
6435.314	-14.86105	2.12553	-14.27844	2.21089
6439.321	-15.05043	1.94558	-14.30666	2.20330
6443.282	-14.86819	2.12615	-14.32118	2.23785
6447.324	-14.95114	2.09714	-14.29664	2.17847
6451.326	-14.97544	2.01836	-14.13323	2.18001
6455.328	-14.88521	1.97579	-14.26030	2.20015
6459.324	-14.82226	2.10590	-14.15755	2.21712
6463.283	-14.68765	2.14863	-14.25007	2.19159
6467.323	-14.73994	2.07209	-14.20292	2.19484
6471.325	-14.83886	2.11632	-14.22657	2.12870
6475.313	-14.84543	2.18972	-14.15582	2.17701
6479.312	-14.86694	2.25078	-14.19543	2.14069
6483.325	-14.82458	2.17861	-14.22141	2.15872
6487.326	-14.73608	2.11727	-14.15603	2.18966
6491.323	-14.77117	2.06956	-14.08061	2.26239
6495.324	-14.72780	2.04177	-14.12891	2.34309
6499.327	-14.63481	2.10728	-14.20469	2.37239
6503.280	-14.74028	2.06486	-14.21122	2.31915
6507.326	-14.64868	2.05240	-14.12373	2.02207
6511.323	-14.87012	2.12009	-14.11668	2.23164
6515.225	-14.66768	2.10972	-14.13381	2.31532
6519.289	-14.63862	2.10386	-14.12614	2.29603
6523.326	-14.89043	1.99635	-14.31244	2.30994
6527.325	-15.16574	1.97742	-14.56162	2.31031
6531.328	-15.46238	2.00835	-14.46151	2.03677
6535.321	-15.06450	2.09737	-14.22638	2.04956
6539.329	-15.15591	2.06607	-14.08314	2.10706
6543.324	-15.47635	2.02778	-14.31186	2.02945
6547.325	-15.28510	2.02382	-14.52751	1.91769
6551.321	-15.11991	1.97708	-14.38358	2.03140
6555.327	-15.27628	1.99240	-14.33870	1.96888
6559.302	-15.43533	1.91442	-14.19487	1.84248
6563.325	-15.51050	1.87868	-14.28082	1.98822
6567.326	-15.52361	1.86558	-14.14056	2.01282
6571.325	-15.39411	1.87153	-14.28587	1.92845
6575.323	-15.35466	1.87140	-14.54881	1.77858
6579.328	-15.40553	1.86944	-14.69341	1.89425
6583.326	-15.30034	1.79675	-14.27180	1.92872
6587.284	-15.34767	1.82977	-14.21120	1.91922
6591.285	-15.34540	1.86438	-14.25800	1.95479
6595.330	-15.37743	1.86493	-14.25485	1.99571
6599.323	-15.31443	1.84665	-14.04236	1.92279
6603.319	-15.31297	1.74995	-14.15479	1.77223
6607.328	-15.37843	1.76643	-14.10258	1.79546
6611.224	-15.33324	1.74236	-14.04519	1.71296
6615.323	-15.33940	1.68760	-14.21640	1.70876
6619.325	-15.33091	1.66401	-14.26758	1.84220
6623.324	-15.26843	1.71246	-14.04689	1.93568
6627.226	-15.31530	1.81307	-14.19063	1.87428
6631.327	-15.31281	1.97558	-14.21743	1.98288
6635.331	-15.24778	1.98536	-14.19053	1.84538
6639.328	-15.26164	1.96728	-14.03610	1.77736
6643.225	-15.16775	1.96530	-14.27995	1.76648
6647.857	-15.06748	1.99580	-14.25396	1.82770
6651.331	-15.19949	2.06162	-14.22722	1.84402
6655.332	-15.19167	2.16791	-14.28413	1.91986
6659.331	-15.19080	2.20238	-14.31016	2.02295
6663.327	-15.26335	2.25775	-14.22582	2.00641
6667.324	-15.25247	2.24870	-14.30909	1.99473
6671.328	-15.25378	2.09937	-14.41594	2.01950
6675.330	-15.13707	2.04743	-14.32013	1.81743
6679.325	-15.36343	1.97194	-14.41685	1.88876
6683.314	-15.20480	2.01458	-14.47219	1.87371
6687.321	-15.10145	1.99441	-14.43712	2.13103
6691.329	-15.30429	2.07409	-14.42935	2.26392
6695.328	-15.40276	2.10391	-14.35871	1.88257
6699.326	-15.27240	2.08209	-14.47985	2.18182
6703.284	-15.04647	2.09767	-14.36546	2.11631
6707.285	-15.16837	2.03277	-14.39674	2.32966
6711.282	-15.23711	2.19749	-14.36751	2.09295
6715.324	-15.07586	2.13715	-14.43152	1.68708
6719.323	-15.12048	2.23626	-14.34441	2.03012
6723.195	-15.07780	2.13929	-14.38197	2.29708
6727.295	-15.13677	2.06209	-14.27914	2.13470
6731.323	-15.14823	1.97995	-14.16889	1.80909
6735.323	-15.11035	2.21241	-14.18428	2.19309
6739.189	-15.07054	2.28053	-14.16350	1.93034
6743.330	-15.02441	2.01593	-14.15636	2.06110
6747.326	-15.04300	1.99531	-14.14875	1.86485
6751.325	-14.99915	2.01795	-14.09721	1.98853
6755.303	-14.96659	2.04062	-14.18104	1.95428
6759.329	-14.96650	2.19923	-14.05740	2.06977
6763.325	-14.96788	2.09144	-14.07657	1.95031
6767.308	-14.95748	2.20357	-14.09420	1.82726
6771.191	-14.91015	2.21419	-14.19158	1.79822
6775.332	-14.88549	2.19361	-14.61759	1.70046
6779.330	-14.87360	2.10478	-17.28722	-2.08432
6783.327	-14.89743	2.23252	-17.02234	1.59827
6787.192	-14.90262	2.34678	-17.17365	1.26691
6791.332	-15.03191	1.65143	-17.40568	0.68560
6795.325	-16.09348	2.06015	-19.98333	-12.07820
6799.325	-19.99370	-12.07743	-19.98855	-12.07781
6803.287	NaN	NaN	-19.99030	-12.07768
6807.325	NaN	NaN	-19.99120	-12.07761
6811.328	NaN	NaN	-19.99173	-12.07757
6815.325	NaN	NaN	-19.99210	-12.07754
6819.298	NaN	NaN	-19.99236	-12.07752
6823.324	NaN	NaN	-19.99265	-12.07750
6827.327	NaN	NaN	-19.99280	-12.07749
6831.329	NaN	NaN	-19.99298	-12.07748
6835.285	NaN	NaN	NaN	NaN
6839.287	-17.54624	2.67574	NaN	NaN
6843.288	-14.90174	2.74281	-14.24039	2.65808
6847.328	-14.85857	2.67074	-13.91060	2.95572
6851.332	-12.71382	-0.22865	NaN	NaN
6855.333	-14.45930	2.03643	-13.73552	3.03059
6859.331	-13.91949	2.63351	-13.68143	2.62285
6863.326	-14.73420	2.55924	-13.72381	2.13750
6867.331	-14.64608	2.16998	-13.96054	2.26425
6871.330	-14.74948	1.89624	-13.86317	2.02101
6875.325	-14.85113	0.94610	-13.85884	1.69837
6879.329	-14.94965	1.64233	-14.01513	1.71772
6883.227	-15.02550	1.86454	-14.12775	1.65321
6887.331	-15.09506	1.93782	-14.00263	1.49865
6891.317	-15.11005	1.77467	-14.02867	1.51235
6895.319	-15.27651	1.73440	-14.06277	1.37152
6899.338	-15.57694	1.80656	-14.21924	1.43259
6903.164	-15.41347	1.53544	-14.19697	1.38947
6907.328	-15.39086	1.47288	-14.21626	1.40664
6911.329	-15.45569	1.37241	-14.31211	1.33257
6915.197	-15.47568	1.52059	-14.53179	1.33179
6919.202	-15.42908	1.62127	-14.58264	1.34463
6923.206	-15.50467	1.63322	-14.66596	1.33085
6927.211	-15.48773	1.63546	-14.51481	1.39820
6931.250	-15.44822	1.59987	-14.50430	1.42320
6935.200	-15.52412	1.57646	-14.55637	1.46043
6939.182	-15.55084	1.61082	-14.62888	1.40733
6943.202	-15.53589	1.57549	-14.84292	1.32171
6947.225	-15.48658	1.60029	-14.66454	1.30100
6951.205	-15.45581	1.54396	-14.93258	1.53279
6955.207	-15.49522	1.67246	-14.69090	1.39326
6959.205	-15.37388	1.64177	-14.75709	1.44202
6963.198	-15.41730	1.61287	-14.64503	1.23791
6967.207	-15.47593	1.69556	-14.65700	1.33540
6971.209	-15.46355	1.72928	-14.62909	1.38135
6975.203	-15.50025	1.70225	-14.63901	1.42881
6979.225	-15.58930	1.68710	-14.92143	1.30711
6983.203	-15.36964	1.55027	-14.74994	1.48822
6987.206	-15.47183	1.70826	-14.65430	1.31807
6991.204	-15.48155	1.70762	-14.64761	1.61833
6995.196	-15.47402	1.78585	-14.78642	1.53457
6999.203	-15.43969	1.57962	-14.66206	1.34762
7003.162	-15.41612	1.49645	-14.68008	1.33879
7007.208	-15.54676	1.63370	-14.65909	1.38005
7011.199	-15.44601	1.39522	-14.69369	1.39257
7015.206	-15.53015	1.63651	-14.66938	1.40916
7019.204	-15.47245	1.47950	-14.64684	1.32898
7023.162	-15.43669	1.47511	-14.74119	1.38698
7027.199	-15.46304	1.53359	-14.72680	1.52527
7031.209	-15.41107	1.52322	-14.54137	1.40373
7035.205	-15.29921	1.44983	-14.54277	1.42006
7039.208	-15.04001	1.41693	-14.21115	1.26674
7043.229	-15.12354	1.42415	-14.14817	1.32438
7047.203	-15.33996	1.46213	-14.40398	1.37510
7051.204	-15.19761	1.51207	-14.22526	1.52499
7055.163	-15.36442	1.56460	-14.09404	1.55474
7059.202	-15.12849	1.44228	-13.91872	1.38219
7063.205	-14.99940	1.42656	-13.96444	1.28411
7067.206	-14.99243	1.39019	-13.92314	1.50367
7071.207	-14.84067	1.36625	-13.86638	1.50440
7075.233	-14.87429	1.55812	-13.85337	1.49723
7079.204	-14.87698	1.76415	-13.90214	1.43542
7083.204	-15.12030	1.63090	-13.95575	1.53927
7087.163	-14.90262	1.97906	-13.98924	1.60663
7091.205	-14.98118	2.09121	-13.90448	1.47398
7095.206	-14.98428	2.07193	-13.87803	1.46199
7099.205	-14.92832	1.86304	-13.90876	1.40624
7103.164	-14.89937	1.66992	-13.92115	1.38847
7107.200	-14.95992	1.80662	-13.90695	1.40401
7111.204	-14.94935	1.79289	-13.88729	1.44569
7115.203	-14.96703	1.71633	-13.92821	1.28135
7119.206	-14.96930	1.70610	-13.88404	1.31436
7123.165	-14.94338	1.58667	-13.79894	1.40574
7127.205	-14.88660	1.72127	-13.77827	1.35078
7131.206	-14.90204	1.71889	-13.73144	1.22151
7135.209	-14.90491	1.79729	-13.70223	1.27651
7139.165	-14.90016	1.80043	-13.72315	1.24609
7143.205	-14.86759	1.80533	-13.72243	1.28822
7147.185	-14.95044	1.94035	-13.69785	1.34861
7151.164	-14.85955	2.05723	-13.76259	1.38963
7155.166	-14.88060	2.11404	-13.77029	1.47147
7159.212	-14.96063	2.07842	-13.64949	1.47206
7163.207	-14.92065	2.05432	-13.71491	1.49447
7167.206	-14.98424	2.07069	-13.73758	1.48712
7171.190	-14.97150	2.02384	-13.73243	1.55988
7175.205	-15.00485	2.00193	-13.75041	1.57746
7179.206	-14.90211	2.05865	-13.79896	1.51125
7183.204	-14.92074	1.95122	-13.76111	1.56386
7187.191	-14.89585	2.00196	-13.78691	1.59118
7191.210	-14.90500	2.06684	-13.76717	1.61205
7195.209	-14.86442	2.01866	-13.74734	1.59699
7199.208	-14.80377	1.98890	-13.73257	1.61263
7203.194	-14.81168	1.99305	-13.72936	1.66701
7207.209	-14.74500	2.00911	-13.74235	1.64324
7211.209	-14.64573	2.06909	-13.74446	1.63145
7215.209	-14.57083	2.11471	-13.75423	1.61069
7219.229	-14.54560	2.15776	-13.78274	1.65209
7223.209	-14.51386	2.19110	-13.78836	1.69878
7227.209	-14.58071	2.21195	-13.81923	1.67643
7231.179	-14.54839	2.19195	-13.84644	1.66741
7235.204	-14.53116	2.08994	-13.83086	1.69004
7239.209	-14.63720	2.13775	-13.82747	1.68765
7243.217	-14.58322	2.17456	-13.84036	1.67577
7247.205	-14.48650	2.17981	-13.84008	1.62134
7251.231	-14.58031	2.09037	-13.86956	1.60042
7255.210	-14.59558	2.12154	-13.87482	1.59402
7259.207	-14.51760	2.12920	-13.88212	1.57833
7263.207	-14.55751	2.09351	-13.87356	1.54878
7267.238	-14.61429	2.17790	-13.84364	1.48661
7271.165	-14.63778	1.96721	-13.83718	1.55033
7275.208	-14.57371	2.20779	-13.79861	1.57311
7279.210	-14.62907	2.05444	-13.83177	1.60114
7283.233	-14.53286	2.14830	-13.82501	1.60772
7287.209	-14.45374	2.03285	-14.02767	1.55447
7291.209	-14.56555	2.14964	-13.87047	1.60803
7295.210	-14.57148	2.20265	-13.99111	1.63700
7299.234	-14.61857	2.23995	-13.92419	1.71044
7303.164	-14.62619	2.23461	-13.97804	1.71385
7307.209	-14.74337	2.24973	-13.90819	1.69352
7311.211	-14.76275	2.15730	-13.99950	1.73754
7315.202	-14.72817	2.27484	-14.02293	1.70169
7319.211	-14.79804	2.22398	-14.02041	1.73206
7323.211	-14.73362	2.31356	-13.96241	1.68011
7327.208	-14.83870	2.32697	-13.98699	1.60867
7331.232	-14.91979	2.36798	-14.01812	1.70601
7335.213	-14.97766	2.37271	-14.04126	1.69893
7339.169	-14.78169	2.31003	-14.00340	1.65536
7343.191	-14.76892	2.26722	-14.01363	1.69215
7347.244	-14.78131	2.28144	-13.90261	1.65023
7351.206	-14.68939	2.24815	-13.85112	1.66981
7355.187	-14.50549	2.27124	-13.98770	1.68321
7359.209	-14.57676	2.21576	-13.91692	1.60863
7363.209	-14.29937	2.17373	-13.95313	1.72859
7367.210	-14.39098	2.15313	-13.88967	1.77868
7371.208	-14.31079	2.16852	-13.87763	1.75234
7375.211	-14.38556	2.22560	-13.92732	1.70444
7379.212	-14.44227	2.24651	-13.92073	1.72965
7383.210	-14.44104	2.19189	-14.01316	1.76706
7387.208	-14.42807	2.19382	-14.00629	1.77393
7391.212	-14.49372	2.16809	-14.08005	1.83219
7395.169	-14.51926	2.14401	-14.14915	1.86237
7399.201	-14.47138	2.34536	-14.08115	1.96527
7403.207	-14.64947	2.34510	-14.15895	1.91459
7407.209	-14.71394	2.41970	-13.96281	1.86767
7411.227	-14.68826	2.34560	-14.06387	1.80905
7415.208	-14.68696	2.23898	-14.04089	1.77287
7419.208	-14.65284	2.33590	-13.98900	1.79644
7423.209	-14.80505	2.21299	-13.87342	1.82634
7427.200	-14.60469	2.29627	-13.94132	1.82712
7431.210	-14.56760	2.22815	-13.89732	1.74469
7435.209	-14.69861	2.10563	-13.88130	1.88943
7439.180	-14.75785	2.21988	-13.82080	1.73162
7443.170	-14.63246	2.24127	-13.78504	1.67515
7447.209	-14.47994	2.17007	-13.70165	1.63009
7451.211	-14.67611	2.10314	-13.74664	1.55141
7455.207	-14.57016	2.20456	-13.68413	1.51660
7459.167	-14.82300	2.08457	-13.66768	1.61165
7463.212	-14.71122	2.10335	-13.63379	1.58068
7467.211	-14.47722	2.02663	-13.59987	1.61168
7471.209	-14.48152	2.02738	-13.62706	1.48224
7475.198	-14.47292	2.13384	-13.69022	1.52754
7479.212	-14.66956	2.19656	-13.64263	1.60506
7483.210	-14.70634	2.21728	-13.63712	1.58249
7487.210	-14.51702	2.10370	-13.65755	1.47911
7491.199	-14.68902	1.96389	-13.64776	1.49032
7495.208	-14.67592	2.03822	-13.62090	1.46162
7499.208	-14.75194	1.91153	-13.67208	1.65878
7503.210	-14.66350	1.88174	-13.81551	1.78675
7507.193	-14.69304	1.98167	-13.78241	1.75884
7511.210	-14.69239	1.81687	-13.83367	1.76282
7515.208	-14.74576	1.82956	-13.78138	1.57523
7519.211	-14.79389	1.76752	-13.74587	1.58547
7523.170	-14.79057	1.79076	-13.71868	1.69157
7527.211	-14.65514	1.71205	-13.81205	1.72349
7531.215	-14.63446	1.74320	-13.87559	1.82610
7535.211	-14.62470	1.84263	-14.01938	1.82723
7539.173	-14.58945	1.87435	-14.09978	1.91412
7543.210	-14.54332	1.91455	-14.05399	1.93572
7547.211	-14.49325	1.94099	-14.04500	2.06733
7551.207	-14.40104	1.84598	-14.10935	1.99254
7555.170	-14.52384	1.82495	-14.04738	1.92337
7559.209	-14.40556	1.86722	-13.96874	1.88506
7563.212	-14.45507	1.84284	-14.01099	1.97196
7567.221	-14.49858	1.89324	-13.97660	1.91831
7571.171	-14.48378	1.85114	-13.98840	1.79199
7575.209	-14.72838	1.84610	-13.88761	1.82895
7579.209	-14.56732	1.84597	-13.84357	1.82908
7583.209	-14.50904	1.83415	-13.65720	1.68905
7587.213	-14.56220	1.90103	-13.75919	1.70124
7591.212	-14.65207	1.79069	-13.92917	1.77192
7595.212	-14.69074	1.91103	-13.73116	1.70682
7599.213	-14.66306	1.94566	-13.61445	1.52383
7603.216	-14.66884	1.87290	-13.78012	1.58896
7607.215	-14.66025	1.94386	-13.72303	1.68771
7611.211	-14.69369	1.99972	-13.86668	1.70450
7615.211	-14.66812	1.97465	-13.75931	1.68091
7619.171	-14.63209	1.98650	-13.70514	1.66697
7623.212	-14.66287	1.99117	-13.70083	1.57603
7627.212	-14.73084	2.06963	-13.74601	1.58588
7631.212	-14.69936	2.07015	-13.82246	1.58549
7635.216	-14.76424	2.03032	-13.86224	1.52085
7639.214	-14.80598	2.03401	-13.98496	1.56739
7643.211	-14.83256	2.03045	-14.01685	1.66958
7647.213	-14.89576	2.09938	-14.04150	1.78108
7651.218	-14.86847	2.03361	-14.10233	1.77661
7655.172	-14.82286	1.98855	-14.04362	1.84144
7659.214	-14.91900	1.93313	-14.23193	1.79963
7663.215	-14.90433	1.97286	-14.20409	1.93461
7667.214	-14.87466	2.00614	-13.93015	1.96699
7671.211	-15.00751	1.93554	-14.06504	1.94550
7675.211	-15.03390	1.97704	-13.88020	1.91759
7679.210	-15.01239	2.13285	-13.81315	1.98724
7683.215	-15.03059	2.18475	-13.85470	1.94679
7687.196	-15.03383	2.16415	-14.08075	2.08236
7691.209	-14.94794	2.22735	-14.07223	2.05675
7695.213	-14.92878	2.18008	-14.00966	2.12895
7699.114	-14.87204	2.23336	-14.00821	2.02540
7703.170	-14.82008	2.24196	-13.95451	2.02019
7707.211	-14.79391	2.24928	-13.82073	1.98029
7711.209	-14.92544	2.26117	-13.96126	2.03419
7715.216	-14.88491	2.12959	-14.08461	2.05448
7719.212	-14.99500	2.11730	-14.12999	2.05416
7723.216	-14.69385	2.11751	-14.11089	1.93201
7727.211	-14.48515	2.10458	-14.07055	2.05694
7731.215	-14.79523	2.07785	-14.06207	1.99560
7735.214	-14.60507	2.00927	-14.10286	1.95001
7739.215	-14.60291	1.94761	-13.95049	1.92026
7743.215	-14.84199	1.85620	-14.06418	1.88490
7747.217	-14.82224	1.83983	-13.95869	1.80911
7751.213	-14.83687	1.81415	-14.01080	1.78050
7755.172	-14.92345	1.81870	-14.02564	1.75095
7759.215	-14.97516	1.84366	-14.01496	1.63996
7763.218	-14.84114	1.85520	-14.02814	1.69021
7767.214	-15.12895	1.91803	-14.08314	1.73854
7771.172	-15.09266	1.89384	-14.04575	1.80840
7775.221	-15.00843	1.84795	-14.01522	1.81628
7779.217	-14.92827	1.86440	-13.93903	1.85444
7783.212	-14.87853	1.85174	-14.01174	1.94356
7787.215	-15.17637	1.91791	-14.06126	1.89896
7791.215	-15.01128	1.92041	-14.01515	1.95473
7795.216	-14.81073	1.97144	-14.07074	1.81793
7799.210	-14.97884	2.03835	-14.09882	1.77242
7803.171	-14.83265	2.09673	-14.02681	1.79976
7807.212	-15.09502	2.05696	-13.98519	1.67677
7811.208	-15.04070	2.07210	-13.97723	1.69718
7815.205	-14.86518	2.07708	-13.93847	1.66954
7819.212	-14.82959	2.12478	-13.87700	1.64559
7823.216	-14.54256	2.16333	-13.89994	1.71004
7827.112	-14.74500	2.13396	-13.96049	1.70601
7831.212	-14.96321	2.12100	-13.91261	1.75629
7835.213	-15.02395	2.15253	-13.89660	1.82454
7839.219	-14.89548	2.16972	-13.77972	1.84380
7843.218	-15.01163	2.14822	-13.85180	1.66428
7847.215	-14.86061	2.09013	-13.92571	1.71383
7851.212	-14.60272	2.17490	-13.93815	1.58913
7855.217	-14.68364	2.08076	-13.88776	1.75802
7859.219	-14.58698	2.15829	-13.89288	1.79767
7863.216	-14.65351	2.01627	-13.96774	1.77900
7867.212	-14.58661	2.04993	-13.98865	1.90508
7871.217	-14.54198	2.26203	-13.90644	1.95710
7875.219	-14.71435	2.34287	-13.94722	1.75865
7879.213	-14.63509	2.37833	-14.03454	1.53349
7883.212	-14.74082	2.28071	-14.05787	1.52360
7887.216	-14.62435	2.15283	-14.04444	1.69645
7891.114	-14.44225	2.36770	-14.03620	1.63759
7895.197	-14.65096	2.18361	-14.04042	1.66610
7899.212	-14.59173	2.11807	-14.11496	1.76582
7903.216	-14.70205	1.91831	-14.16595	1.84704
7907.173	-14.65107	2.07116	-14.14172	1.91931
7911.090	-14.59640	2.08354	-14.12149	1.86503
7915.089	-14.65888	1.97257	-14.21246	1.74367
7919.088	-14.61622	1.93253	-14.23438	1.83065
7923.114	-14.56346	1.88579	-14.18295	1.83872
7927.094	-14.58380	2.16507	-14.30995	1.82427
7931.090	-14.56634	2.41883	-14.14994	2.85410
7935.096	-14.49348	4.64021	-14.12754	5.08317
7939.116	-14.41296	6.43173	-13.98449	8.17230
7943.075	-14.38113	9.56272	-13.40406	10.45521
7947.091	-14.29291	11.43491	-13.19484	13.20337
7951.088	-14.30676	13.35958	NaN	NaN
7955.091	-14.23172	13.90868	NaN	NaN
7959.049	NaN	NaN	NaN	NaN
7963.089	NaN	NaN	NaN	NaN
7967.096	NaN	NaN	NaN	NaN
7971.114	NaN	NaN	NaN	NaN
7975.092	NaN	NaN	NaN	NaN
7979.091	NaN	NaN	NaN	NaN
7983.090	NaN	NaN	NaN	NaN
7987.090	NaN	NaN	NaN	NaN
7991.091	-13.52179	14.40779	NaN	NaN
7995.090	-13.06958	13.64817	NaN	NaN
7999.092	NaN	NaN	NaN	NaN
8003.088	NaN	NaN	NaN	NaN
8007.094	-12.99204	14.51880	NaN	NaN
8011.090	NaN	NaN	NaN	NaN
8015.089	NaN	NaN	NaN	NaN
8019.090	NaN	NaN	NaN	NaN
8023.049	NaN	NaN	NaN	NaN
8027.062	-13.12681	14.65823	NaN	NaN
8031.092	NaN	NaN	NaN	NaN
8035.112	NaN	NaN	NaN	NaN
8039.050	NaN	NaN	NaN	NaN
8043.092	NaN	NaN	NaN	NaN
8047.092	-13.29556	14.24168	NaN	NaN
8051.114	-13.16089	13.97129	NaN	NaN
8055.094	NaN	NaN	NaN	NaN
8059.091	NaN	NaN	NaN	NaN
8063.092	-13.15485	13.80849	NaN	NaN
8067.114	-13.08870	14.45905	NaN	NaN
8071.096	NaN	NaN	NaN	NaN
8075.093	NaN	NaN	NaN	NaN
8079.091	NaN	NaN	NaN	NaN
8083.118	NaN	NaN	NaN	NaN
8087.090	NaN	NaN	NaN	NaN
8091.095	-13.03312	14.48544	NaN	NaN
8095.095	NaN	NaN	NaN	NaN
8099.112	-13.30750	14.45277	NaN	NaN
8103.094	-13.17976	14.08942	NaN	NaN
8107.090	-13.31786	14.62490	NaN	NaN
8111.088	NaN	NaN	NaN	NaN
8115.084	NaN	NaN	NaN	NaN
8119.092	-13.37357	14.34754	NaN	NaN
8123.093	NaN	NaN	NaN	NaN
8127.092	NaN	NaN	NaN	NaN
8131.117	NaN	NaN	NaN	NaN
8135.090	NaN	NaN	NaN	NaN
8139.094	NaN	NaN	NaN	NaN
8143.092	NaN	NaN	NaN	NaN
8147.116	NaN	NaN	NaN	NaN
8151.094	NaN	NaN	NaN	NaN
8155.096	NaN	NaN	NaN	NaN
8159.094	-12.65243	14.58325	NaN	NaN
8163.119	-12.37619	13.61714	NaN	NaN
8167.094	-12.32357	13.00940	NaN	NaN
8171.096	-12.43282	13.03729	NaN	NaN
8175.091	NaN	NaN	NaN	NaN
8179.082	NaN	NaN	NaN	NaN
8183.095	NaN	NaN	NaN	NaN
8187.098	NaN	NaN	NaN	NaN
8191.100	NaN	NaN	NaN	NaN
8195.119	NaN	NaN	NaN	NaN
8199.091	NaN	NaN	NaN	NaN
8203.050	NaN	NaN	NaN	NaN
8207.091	-12.87912	14.51366	NaN	NaN
8211.117	-13.06822	14.42145	NaN	NaN
8215.095	NaN	NaN	NaN	NaN
8219.094	-13.03628	14.60350	NaN	NaN
8223.096	-12.94037	14.02344	NaN	NaN
8227.093	NaN	NaN	NaN	NaN
8231.094	-12.89756	13.32755	NaN	NaN
8235.091	-12.86463	14.37022	NaN	NaN
8239.095	NaN	NaN	NaN	NaN
8243.116	NaN	NaN	NaN	NaN
8247.094	NaN	NaN	NaN	NaN
8251.092	NaN	NaN	NaN	NaN
8255.096	-12.57129	13.62525	NaN	NaN
8259.121	NaN	NaN	NaN	NaN
8263.095	NaN	NaN	NaN	NaN
8267.097	-12.74088	13.57615	NaN	NaN
8271.053	NaN	NaN	NaN	NaN
8275.092	NaN	NaN	NaN	NaN
8279.098	NaN	NaN	NaN	NaN
8283.093	NaN	NaN	NaN	NaN
8287.098	NaN	NaN	NaN	NaN
8291.122	NaN	NaN	NaN	NaN
8295.094	-11.61142	14.13794	NaN	NaN
8299.097	-10.58963	14.03729	NaN	NaN
8303.052	-8.93949	12.90944	NaN	NaN
8307.119	-6.49563	10.15386	-6.66979	13.47498
8311.095	-6.20617	8.16330	-5.83599	10.39039
8315.092	-5.74622	6.10583	-5.74025	8.94096
8319.089	-5.51191	5.45681	-5.52527	6.83734
8323.054	-5.42968	3.68133	-5.67622	6.07372
8327.094	-4.69702	3.32507	-5.30124	4.95951
8331.095	-4.49788	2.63610	-4.32293	2.73802
8335.096	-3.20231	1.64837	-4.03912	2.31584
8339.097	-3.22673	1.31288	-2.98171	1.83438
8343.098	-2.84205	1.18512	-2.76393	1.46296
8347.093	-2.70626	0.73887	-3.16102	1.19787
8351.100	-2.99326	0.32299	-2.74083	0.78079
8355.082	-2.89319	0.15337	-2.37976	0.47517
8359.073	-2.86081	-0.57879	-2.50526	0.11986
8363.092	-2.92198	-0.96714	-2.43801	0.26832
8367.098	-2.73855	-0.47598	-2.14159	-0.07782
8371.070	-2.65235	-0.45126	-2.22835	-0.17078
8375.094	-2.58937	-0.57361	-2.14483	-0.03171
8379.096	-2.63200	-0.55066	-2.03491	0.08299
8383.095	-2.62875	-0.54927	-2.00896	-0.19937
8387.055	-2.68905	-0.74094	-1.73440	-0.16502
8391.095	-2.80548	-0.74285	-1.81786	-0.18704
8395.095	-2.80266	-0.83695	-1.69785	-0.24977
8399.086	-2.59718	-0.88690	-1.62830	-0.28763
8403.099	-2.63551	-0.84814	-1.51501	-0.36982
8407.053	-2.60523	-0.88558	-1.46080	-0.48543
8411.097	-2.83870	-0.81618	-1.44515	-0.51512
8415.104	-2.64589	-0.84530	-1.54542	-0.45581
8419.099	-2.60520	-0.83200	-1.47191	-0.57371
8423.094	-2.63963	-0.92358	-1.38401	-0.56419
8427.099	-2.79515	-0.87167	-1.40512	-0.69859
8431.095	-2.53981	-0.79710	-1.52575	-0.63278
8435.098	-2.64530	-0.85463	-1.45532	-0.64584
8439.097	-2.66288	-0.88529	-1.40805	-0.72588
8443.068	-2.69676	-0.90743	-1.40043	-0.73254
8447.098	-2.58650	-0.84698	-1.48555	-0.71220
8451.101	-2.72971	-0.80162	-1.58934	-0.71954
8455.098	-2.75581	-0.79093	-1.59331	-0.68874
8459.077	-2.61273	-0.79377	-1.51484	-0.73377
8463.099	-2.63514	-0.79346	-1.57141	-0.69474
8467.091	-2.50903	-0.73429	-1.55983	-0.69680
8471.100	-2.64527	-0.76953	-1.64605	-0.67216
8475.102	-2.68185	-0.76454	-1.67479	-0.70948
8479.098	-2.61803	-0.70854	-1.64335	-0.68577
8483.101	-2.57583	-0.71229	-1.71672	-0.63906
8487.095	-2.55988	-0.70503	-1.77107	-0.66087
8491.100	-2.45275	-0.73599	-1.76943	-0.66685
8495.098	-2.57972	-0.73368	-1.59236	-0.71629
8499.090	-2.49897	-0.90956	-1.48828	-0.68557
8503.099	-2.60649	-0.88578	-1.55469	-0.69626
8507.101	-2.57712	-0.89131	-1.59410	-0.74755
8511.098	-2.71302	-0.97816	-1.62225	-0.75658
8515.101	-2.74247	-0.93030	-1.63722	-0.85785
8519.101	-2.73667	-0.94837	-1.48208	-0.83084
8523.054	-2.71689	-0.90183	-1.58723	-0.90210
8527.099	-2.58016	-0.89116	-1.45648	-0.91360
8531.101	-2.48232	-0.82883	-1.35874	-0.84259
8535.093	-2.61216	-0.94424	-1.44361	-0.95901
8539.100	-2.46597	-0.95554	-1.38823	-1.03254
8543.097	-2.41777	-0.95853	-1.42828	-1.01469
8547.091	-2.55678	-0.95612	-1.29769	-1.07256
8551.099	-2.34733	-1.03610	-1.09780	-1.08200
8555.100	-0.72538	-1.06902	-1.00757	-1.11978
8559.103	0.49741	-1.59142	0.60828	-1.26763
8563.101	2.76104	-2.13532	1.97366	-2.00518
8567.079	3.50914	-2.77057	2.72248	-2.26090
8571.101	4.06611	-3.25729	3.44223	-2.89792
8575.098	4.65336	-3.72001	3.87564	-3.21469
8579.092	5.80344	-4.03557	4.38694	-3.61865
8583.099	5.71087	-4.29190	5.04248	-3.80241
8587.096	5.73298	-3.77838	5.37554	-3.53265
8591.100	5.74453	-3.82089	5.37242	-3.66687
8595.103	5.73406	-3.75031	5.27779	-3.54997
8599.097	5.86327	-4.02833	5.52094	-3.42877
8603.058	5.87553	-3.96621	5.58304	-3.45504
8607.089	5.92798	-4.15876	5.71072	-3.47325
8611.005	5.98449	-4.18117	5.79194	-3.39300
8615.096	6.01667	-4.18911	5.84822	-3.64333
8619.097	6.15061	-3.96704	5.83635	-3.63839
8623.102	6.06210	-3.91899	5.87570	-3.56114
8626.996	6.12624	-3.90421	5.88402	-3.65199
8631.100	6.11398	-3.95518	5.99109	-3.75230
8635.097	6.07243	-4.00219	6.13792	-3.81807
8639.100	5.99932	-4.10113	6.30666	-3.86192
8643.099	6.04404	-3.98336	6.23025	-3.90544
8647.800	6.01436	-3.97817	6.25107	-3.87566
8651.069	5.90097	-3.94723	6.21735	-3.97349
8655.070	5.90161	-3.90875	6.19584	-3.94897
8659.102	5.86863	-3.88071	6.24207	-4.03405
8663.099	5.83942	-3.89964	6.40199	-3.98865
8667.099	5.93470	-3.89986	6.42163	-3.95170
8671.105	5.86890	-3.84348	6.40572	-3.92074
8674.997	5.93701	-3.91317	6.42471	-3.82726
8679.099	5.93537	-3.90708	6.44251	-3.76879
8683.098	5.99011	-3.86087	6.53798	-3.76628
8687.103	5.97045	-3.91210	6.47980	-3.80494
8691.061	5.88569	-3.92778	6.48039	-3.85675
8695.099	5.93956	-3.93808	6.46223	-3.82971
8699.098	5.94398	-3.95622	6.35917	-3.84336
8703.058	5.88412	-3.98349	6.48551	-3.92327
8706.971	5.94160	-4.00868	6.38807	-3.89656
8711.060	5.90075	-4.05721	6.40913	-4.02673
8715.099	5.89525	-4.11814	6.37981	-4.02971
8719.097	5.87096	-4.15577	6.34608	-3.99235
8723.060	5.83169	-4.09622	6.26554	-3.89837
8727.100	5.85377	-4.14166	6.34035	-4.00601
8731.099	5.85841	-4.03889	6.31752	-4.01737
8735.094	5.88999	-4.11547	6.29803	-4.06264
8738.970	5.89439	-4.13995	6.31887	-3.97063
8743.102	5.92176	-4.10921	6.37172	-3.91699
8747.098	5.97155	-4.10700	6.36790	-3.97721
8751.098	5.93475	-4.10875	6.37773	-3.88351
8754.964	5.94997	-4.08552	6.35415	-3.90353
8759.106	5.89306	-4.16148	6.40601	-3.92892
8763.100	5.85576	-4.16768	6.45660	-3.95974
8767.097	5.86052	-4.22958	6.51645	-3.97418
8770.966	5.84429	-4.18318	6.51023	-4.00453
8775.079	5.84023	-4.16644	6.63671	-4.01108
8779.103	5.81467	-4.22267	6.58401	-3.98628
8783.100	5.76546	-4.21534	6.65025	-4.03265
8786.963	5.74124	-4.21038	6.58550	-3.99766
8791.105	5.71807	-4.18837	6.55650	-3.90873
8795.100	5.76094	-4.12020	6.57752	-3.92319
8799.100	5.74008	-4.03922	6.59339	-3.95623
8802.964	5.73591	-4.03192	6.55104	-3.92484
8807.103	5.78440	-4.09566	6.59175	-3.91698
8811.103	5.75883	-4.03208	6.48610	-3.90631
8815.098	5.74640	-3.93650	6.44667	-3.83368
8819.107	5.78774	-3.89074	6.46370	-3.77842
8823.105	5.74360	-3.84534	6.43697	-3.79666
8827.099	5.80143	-3.82989	6.44591	-3.83752
8831.100	6.15328	-3.86000	6.55207	-3.87178
8835.118	7.31557	-3.91897	6.95964	-4.08803
8839.058	8.88084	-4.46655	8.20598	-4.28789
8843.103	10.61032	-5.11949	8.72015	-4.61683
8847.099	10.88762	-5.82920	10.03850	-4.84259
8850.999	11.33418	-6.03437	10.79059	-5.31731
8855.100	12.45483	-6.50183	11.19683	-5.63791
8859.069	13.14200	-6.86253	11.73980	-6.31497
8863.097	13.19997	-7.13858	12.23945	-6.31699
8867.002	13.47819	-7.08410	12.54677	-6.23497
8871.104	13.93041	-7.12548	12.99614	-5.36269
8875.100	13.60967	-7.14053	13.21710	-6.56940
8879.099	13.80437	-7.21081	13.16739	-6.52074
8883.105	13.53341	-7.13621	13.39454	-6.57301
8887.103	13.55986	-7.17027	13.47618	-6.67334
8891.104	13.83886	-7.22747	13.12637	-6.68697
8895.101	13.73622	-7.31828	13.28942	-6.73190
8899.061	13.83407	-7.32709	13.38867	-6.82373
8903.100	13.82258	-7.28598	13.50985	-6.80654
8907.106	13.96528	-7.28849	13.49873	-6.78084
8911.102	13.95060	-7.26916	13.51471	-6.62968
8915.001	14.07702	-7.35441	13.50244	-6.78559
8919.100	13.96068	-7.36683	13.56033	-6.65180
8923.105	14.03564	-7.35428	13.60782	-6.56888
8927.103	14.05803	-7.36004	13.61347	-6.63142
8931.003	14.08120	-7.36148	13.62308	-6.60523
8935.103	14.02244	-7.31350	13.65955	-6.72185
8939.102	14.02160	-7.22697	13.67923	-6.75075
8942.984	13.96912	-7.20100	13.57750	-6.67987
8946.999	13.99024	-7.17699	13.65622	-6.64794
8950.973	13.95687	-7.16627	13.60114	-6.74234
8954.979	13.94004	-7.14952	13.70373	-6.86399
8958.935	13.93798	-7.16768	13.64940	-6.98131
8962.970	13.86315	-7.17175	13.78778	-6.87749
8966.977	13.86591	-7.14195	13.77195	-6.89706
8970.982	13.80357	-7.16107	13.81317	-6.85932
8974.979	13.80917	-7.19573	13.83126	-6.75547
8979.001	13.77649	-7.17708	13.78511	-6.59510
8982.977	13.81516	-7.20269	13.67471	-6.65326
8986.979	13.87227	-7.22647	13.79246	-6.73019
8990.975	13.85716	-7.26824	13.76837	-6.76196
8995.005	13.84053	-7.26346	13.71142	-6.69890
8998.979	13.84607	-7.29304	13.60374	-6.60093
9002.935	13.69530	-7.29838	13.60486	-6.58081
9006.981	13.77900	-7.27441	13.63665	-6.56582
9011.001	13.74580	-7.29217	13.52001	-6.62972
9014.977	13.76825	-7.23676	13.58151	-6.68011
9018.978	13.80947	-7.20850	13.48768	-6.77376
9022.978	13.76216	-7.22424	13.51715	-6.81072
9027.001	13.80404	-7.21275	13.56383	-6.87255
9030.942	13.72036	-7.23184	13.67684	-6.95488
9034.976	13.70221	-7.19786	13.63222	-6.93746
9038.981	13.69134	-7.22374	13.59851	-7.00838
9042.979	13.66299	-7.18888	13.58718	-7.01832
9046.991	13.67004	-7.17051	13.64124	-7.04849
9050.977	13.69162	-7.19887	13.58179	-7.07027
9054.979	13.75097	-7.22283	13.63344	-7.07942
9058.970	13.75924	-7.24671	13.68220	-7.08972
9062.975	13.76106	-7.26589	13.74458	-7.09703
9066.978	13.80100	-7.27758	13.74135	-7.09993
9070.958	13.87335	-7.30384	13.80130	-7.09761
9074.946	13.90628	-7.32555	13.73205	-7.09296
9078.976	13.85442	-7.37020	13.71865	-7.10774
9082.978	13.88266	-7.35462	13.76790	-7.05923
9086.979	13.92395	-7.39078	13.78094	-7.01691
9090.980	13.95493	-7.40631	13.79784	-6.95292
9094.978	13.94591	-7.42540	13.75706	-6.83099
9098.979	13.94233	-7.44038	13.63480	-6.76637
9102.937	13.97466	-7.47752	13.59586	-6.67066
9106.973	14.00008	-7.48002	13.58908	-6.66065
9110.979	13.93555	-7.48878	13.60521	-6.56831
9114.970	13.83971	-7.48926	13.54469	-6.64546
9118.978	13.78398	-7.49340	13.44202	-6.59993
9122.966	13.75186	-7.47021	13.41624	-6.67642
9126.982	13.75690	-7.46647	13.41984	-6.64416
9130.977	13.77520	-7.45714	13.33485	-6.73125
9134.981	13.81200	-7.41597	13.30416	-6.65044
9138.939	13.74418	-7.39140	13.32132	-6.76620
9142.980	13.75357	-7.36219	13.28049	-6.80141
9146.980	13.73976	-7.29699	13.30411	-6.81186
9150.982	13.64110	-7.32171	13.36584	-6.84088
9154.940	13.65418	-7.33839	13.32564	-6.87834
9158.976	13.67302	-7.35289	13.29704	-6.84355
9162.938	13.70964	-7.39487	13.35142	-6.82296
9166.978	13.74987	-7.45488	13.33988	-6.79089
9170.956	13.77719	-7.47138	13.31958	-6.74944
9174.977	13.76198	-7.45912	13.37096	-6.60855
9178.977	13.86249	-7.46958	13.39224	-6.65596
9182.978	13.74442	-7.50189	13.39861	-6.66532
9186.971	13.71603	-7.54215	13.43597	-6.69276
9191.004	13.75186	-7.59611	13.48157	-6.75775
9194.966	13.84069	-7.51956	13.54288	-6.71484
9198.976	13.85063	-7.52704	13.48115	-6.73644
9202.941	13.82747	-7.46547	13.47240	-6.74364
9206.981	13.87686	-7.43170	13.40528	-6.75841
9210.979	13.88277	-7.42185	13.38729	-6.73490
9214.981	13.93964	-7.41099	13.40239	-6.65384
9219.012	13.87641	-7.48405	13.38252	-6.82104
9222.986	13.75800	-7.45006	13.35449	-6.79463
9226.980	13.77345	-7.45924	13.39898	-6.69779
9230.982	13.82031	-7.48895	13.54631	-6.72551
9235.008	13.80482	-7.44940	13.51940	-6.69996
9238.947	13.76476	-7.51280	13.32329	-6.69453
9242.981	13.76746	-7.56212	13.30529	-6.67090
9246.983	13.75486	-7.64680	13.29006	-6.63050
9251.006	13.70085	-7.61733	13.39938	-6.56243
9254.982	13.70233	-7.59734	13.52376	-6.62282
9258.984	13.59792	-7.49530	13.86949	-6.65421
9262.996	13.62697	-7.41019	13.55686	-6.72152
9267.002	13.67454	-7.50474	13.60320	-6.69602
9270.982	13.64464	-7.46679	13.54194	-6.65362
9274.981	13.68551	-7.45989	13.40065	-6.65074
9278.959	13.66883	-7.52127	13.38245	-6.54260
9282.981	13.67323	-7.43993	13.42141	-6.52817
9286.983	13.63184	-7.49725	13.41307	-6.52656
9290.981	13.57065	-7.47589	13.49127	-6.68694
9294.981	13.56624	-7.44889	13.41869	-6.85460
9298.975	13.55728	-7.37576	13.49138	-6.82467
9302.940	13.56718	-7.42786	13.43470	-6.85572
9306.982	13.60170	-7.39810	13.42134	-6.93590
9310.982	13.52782	-7.42765	13.40096	-6.98259
9314.975	13.42603	-7.36251	13.43324	-6.87327
9318.973	13.38299	-7.36472	13.47589	-6.99779
9322.975	13.37951	-7.37096	13.52315	-6.93531
9326.980	13.38341	-7.34474	13.60793	-6.89032
9330.975	13.33419	-7.35473	13.70781	-6.98490
9334.980	13.46348	-7.34129	13.77228	-6.94102
9338.986	13.43592	-7.30461	13.80769	-6.93059
9342.985	13.35358	-7.37215	13.61288	-6.87368
9347.005	13.41319	-7.41071	13.53882	-6.83749
9350.983	13.40126	-7.45264	13.70209	-6.72003
9354.986	13.48765	-7.44813	13.56050	-6.71291
9358.979	13.35346	-7.47008	13.56376	-6.76726
9362.974	11.47441	-7.38501	11.26887	-6.66170
9366.978	11.30808	-7.17038	10.41671	-6.13300
9370.986	8.72808	-6.65755	8.17077	-5.96989
9374.983	7.35341	-5.78905	6.36756	-4.97170
9379.003	6.41263	-5.40347	5.44124	-4.78263
9382.982	5.02437	-5.16711	2.99534	-5.28539
9386.983	3.17831	-4.66610	2.90032	-4.90329
9390.980	2.37768	-4.42828	0.97028	-4.70324
9394.980	0.40405	-3.40389	0.18296	-3.87411
9398.939	-0.21581	-3.27116	-2.01907	-3.66339
9402.965	-1.72292	-2.91866	-2.48346	-3.47153
9406.981	-2.88141	-2.14645	-3.52101	-3.09753
9411.008	-4.07883	-2.09021	-3.84557	-2.57319
9414.981	-4.37756	-2.07654	-3.79611	-2.30052
9418.980	-4.33764	-2.16120	-3.85150	-2.34721
9422.986	-4.22784	-1.98332	-3.82679	-2.29019
9426.975	-3.76643	-2.01804	-3.71357	-2.15709
9430.983	-3.72934	-1.93302	-3.77943	-2.40045
9434.983	-3.85041	-1.87478	-3.99739	-2.27914
9438.985	-4.10814	-1.78627	-4.06814	-2.16442
9442.975	-4.46218	-1.81794	-4.03880	-2.00822
9446.947	-4.18526	-1.83093	-4.10967	-1.97577
9450.983	-4.45375	-1.88931	-4.07253	-2.00121
9454.987	-4.45246	-1.97087	-4.09258	-1.97155
9458.978	-4.78959	-2.02212	-4.00010	-2.00768
9462.988	-4.90925	-2.03361	-4.03601	-1.99756
9466.985	-4.94388	-1.92156	-4.03167	-2.07783
9470.988	-4.83188	-1.93447	-4.12083	-2.11342
9474.984	-4.73468	-1.84475	-4.14223	-1.97739
9478.985	-4.84943	-1.89146	-4.13026	-2.03367
9482.981	-4.89582	-1.88443	-4.16927	-1.97052
9486.987	-4.89047	-1.91123	-4.13283	-2.02784
9490.953	-4.92176	-1.91802	-4.08557	-2.02823
9494.982	-4.82525	-1.74806	-4.10216	-2.07191
9498.980	-4.84593	-1.67609	-4.07419	-2.03604
9502.942	-4.89843	-1.70117	-4.12564	-1.95374
9506.989	-4.85985	-1.65021	-4.10648	-1.93765
9510.985	-4.85275	-1.69866	-4.11320	-1.93283
9514.982	-4.85682	-1.65769	-4.13266	-1.92439
9518.984	-4.88409	-1.73091	-4.18235	-1.90528
9522.988	-4.82274	-1.70970	-4.16500	-1.88896
9526.974	-4.79795	-1.79729	-4.16218	-1.94162
9530.975	-4.84647	-1.75780	-4.17756	-1.93926
9534.983	-4.82146	-1.73197	-4.22222	-1.92387
9538.988	-4.85014	-1.79816	-4.24648	-1.91928
9542.987	-4.75955	-1.85636	-4.27141	-1.90086
9546.983	-4.82476	-1.86237	-4.22414	-1.98803
9550.982	-4.63800	-1.88662	-4.20267	-2.07305
9554.987	-4.70434	-1.90774	-4.08915	-2.18424
9558.989	-4.69356	-1.92828	-4.09083	-2.20446
9562.984	-4.66290	-1.89710	-4.08764	-2.23577
9566.987	-4.68467	-2.00343	-4.11456	-2.21538
9570.985	-4.64515	-1.99405	-4.08073	-2.36803
9574.987	-4.63464	-2.04288	-4.10253	-2.27495
9578.984	-4.66943	-2.05658	-4.08303	-2.30203
9582.983	-4.67367	-2.03614	-4.05019	-2.38604
9586.979	-4.75945	-1.94808	-4.07653	-2.44116
9590.942	-4.77099	-1.79377	-4.15307	-2.40844
9594.988	-4.79349	-1.95692	-4.27094	-2.33241
9598.982	-4.79400	-1.85976	-4.26995	-2.35012
9602.986	-4.87505	-1.88234	-4.38447	-2.29211
9606.984	-4.88705	-1.83321	-4.34902	-2.34055
9610.971	-4.91314	-1.87340	-4.30309	-2.43303
9614.984	-4.93898	-1.83512	-4.25665	-2.42302
9618.987	-4.96312	-1.79865	-4.30337	-2.44421
9622.982	-4.92137	-1.81546	-4.27407	-2.47189
9626.989	-4.89700	-1.92650	-4.12609	-2.39992
9630.985	-4.91206	-1.99804	-4.26852	-2.23825
9634.989	-5.00854	-2.02391	-4.15364	-2.40330
9638.984	-5.29762	-2.12544	-4.06387	-2.42418
9642.989	-5.12969	-2.08073	-4.08527	-2.37309
9646.988	-5.15236	-2.11184	-4.07560	-2.41400
9650.948	-5.11472	-2.12428	-4.08935	-2.43489
9654.993	-5.25008	-2.13445	-4.11703	-2.40140
9658.990	-5.19126	-2.05057	-4.06271	-2.25054
9662.987	-5.16447	-2.03027	-4.11226	-2.13413
9666.990	-5.16105	-2.04026	-4.06972	-2.09222
9670.985	-5.13496	-2.03911	-4.09295	-2.15483
9674.992	-5.10898	-1.93371	-4.09794	-2.25542
9679.000	-5.01896	-2.01453	-4.14922	-2.26440
9682.988	-4.83479	-1.97648	-4.14646	-2.15545
9686.987	-4.89976	-1.97127	-4.18129	-2.16637
9690.997	-4.66105	-1.95333	-4.21069	-2.15270
9694.965	-4.75852	-1.90678	-4.19731	-2.10208
9698.876	-4.76211	-1.88916	-4.18245	-2.10815
9702.987	-4.82764	-1.97168	-4.25317	-2.21664
9706.986	-4.84718	-1.97590	-4.22812	-2.14589
9710.985	-4.73724	-1.91663	-4.29367	-2.21608
9714.990	-4.55551	-1.93324	-4.27844	-2.24314
9718.986	-4.41914	-2.01612	-3.80530	-2.23096
9722.987	-4.74109	-2.01856	-4.19603	-2.22186
9726.945	-4.67162	-2.06138	-4.27834	-2.28780
9730.992	-4.77155	-2.06157	-4.29633	-2.27459
9734.976	-4.81475	-1.97929	-4.10839	-2.26083
9738.990	-4.94933	-1.99306	-4.22187	-2.22475
9742.987	-4.79765	-1.99180	-4.30608	-2.22911
9746.893	-4.84398	-1.95309	-4.33685	-2.20413
9750.988	-4.96179	-1.97717	-4.03949	-2.20083
9754.990	-4.95615	-2.01974	-4.09804	-2.17823
9758.988	-4.85867	-2.11279	-4.10604	-2.11804
9762.991	-4.95290	-2.21677	-3.81022	-2.10228
9766.986	-4.90907	-2.11061	-3.94125	-2.11383
9770.991	-4.99470	-2.17290	-3.90936	-2.12045
9774.991	-4.99586	-2.33163	-3.87453	-2.11566
9778.989	-5.01073	-2.28753	-4.14737	-2.16275
9782.998	-5.02172	-2.25957	-4.11322	-2.15725
9786.989	-5.05164	-2.19073	-4.06021	-2.17496
9790.988	-5.04674	-2.28214	-3.91531	-2.16829
9794.991	-4.96337	-2.17370	-4.11727	-2.18216
9798.987	-4.99852	-2.11230	-4.14675	-2.18480
9802.945	-4.97558	-2.09895	-3.85044	-2.21596
9806.986	-4.98625	-2.06551	-3.91785	-2.21252
9810.991	-5.02679	-2.19585	-4.01139	-2.21007
9814.988	-5.05011	-2.09203	-4.06527	-2.22707
9818.974	-5.03265	-2.14694	-4.09979	-2.21718
9822.991	-5.02497	-2.12309	-4.04646	-2.20104
9826.990	-4.96751	-2.06169	-4.01882	-2.18084
9830.986	-4.84277	-2.09662	-3.93892	-2.15224
9834.986	-4.84667	-2.07114	-4.02994	-2.15433
9838.989	-4.89764	-2.07655	-4.04779	-2.20264
9842.990	-4.88749	-2.09554	-3.96911	-2.18983
9846.987	-4.85977	-2.06828	-3.96222	-2.19918
9850.987	-4.92824	-2.06582	-4.09639	-2.16571
9854.988	-4.85642	-2.02178	-4.10819	-2.09551
9858.887	-5.15470	-2.05054	-4.18892	-2.01042
9862.984	-4.88086	-2.01441	-4.12241	-2.05500
9866.947	-4.98364	-1.99350	-4.14525	-2.08558
9870.989	-5.06373	-1.99224	-4.16969	-2.11443
9874.995	-5.13823	-1.96808	-4.20578	-2.16575
9878.987	-5.27946	-1.93924	-4.21279	-2.23623
9882.990	-5.13250	-1.92434	-4.19793	-2.20440
9886.991	-5.04666	-1.81383	-4.28194	-1.82860
9890.993	-5.58184	-1.56777	-4.41292	-0.13649
9894.986	-6.05314	1.42173	-5.20533	3.17585
9898.990	-7.67964	3.47111	-7.08649	6.22171
9902.967	-8.65669	6.17008	-7.46260	7.53613
9906.851	-9.06511	8.29613	-8.06353	9.32850
9910.990	-9.51925	8.90203	-8.24689	11.54207
9914.986	-9.96561	9.15891	-8.56204	14.05748
9918.988	-10.51530	10.85916	NaN	NaN
9922.993	-11.21759	12.74492	NaN	NaN
9926.991	-11.57250	13.31878	NaN	NaN
9930.986	-11.99106	13.67795	NaN	NaN
9934.987	NaN	NaN	NaN	NaN
9938.986	NaN	NaN	NaN	NaN
9942.985	-12.16505	13.77646	NaN	NaN
9946.991	-12.06442	13.64977	NaN	NaN
9950.989	-12.32400	13.43599	NaN	NaN
9954.987	-12.31831	13.48956	NaN	NaN
9958.851	NaN	NaN	NaN	NaN
9962.990	-12.11306	13.24006	NaN	NaN
9966.993	-12.21215	13.78778	NaN	NaN
9970.989	NaN	NaN	NaN	NaN
9974.950	NaN	NaN	NaN	NaN
9978.988	NaN	NaN	NaN	NaN
9982.863	NaN	NaN	NaN	NaN
9986.866	NaN	NaN	NaN	NaN
9990.838	-11.82566	13.04733	NaN	NaN
9994.863	-11.77391	12.94663	NaN	NaN
9998.862	-11.63244	11.40509	NaN	NaN
10002.866	-11.62254	12.46818	NaN	NaN
10006.831	-11.63670	12.47597	NaN	NaN
10010.888	-11.67098	12.47503	NaN	NaN
10014.865	-11.67037	11.72569	NaN	NaN
10018.862	-11.64430	12.05347	NaN	NaN
10022.864	-11.78255	12.30239	NaN	NaN
10026.892	-11.83909	14.26623	NaN	NaN
10030.864	-11.90642	12.85786	NaN	NaN
10034.856	NaN	NaN	NaN	NaN
10038.864	-12.05001	12.24062	NaN	NaN
10042.857	-11.87496	11.39388	NaN	NaN
10046.867	-12.14686	13.26350	NaN	NaN
10050.863	-12.12217	13.51762	NaN	NaN
10054.865	NaN	NaN	NaN	NaN
10058.856	-12.19472	11.39871	NaN	NaN
10062.867	-11.99379	10.87988	NaN	NaN
10066.865	-11.72726	11.60065	NaN	NaN
10070.868	-12.33904	13.68337	NaN	NaN
10074.826	-12.31232	11.99185	NaN	NaN
10078.867	-12.17276	11.98976	NaN	NaN
10082.866	-11.53560	10.78022	NaN	NaN
10086.824	-11.72296	11.15426	NaN	NaN
10090.891	-11.79325	11.29525	NaN	NaN
10094.867	-11.90764	11.69369	NaN	NaN
10098.865	-11.66641	10.74602	NaN	NaN
10102.867	-12.30791	14.23769	NaN	NaN
10106.857	-11.72270	11.79520	NaN	NaN
10110.866	-11.82185	12.09681	NaN	NaN
10114.865	-11.78252	12.22492	NaN	NaN
10118.857	-12.05129	12.56712	NaN	NaN
10122.824	-12.14544	11.97719	NaN	NaN
10126.865	-11.98557	10.85864	NaN	NaN
10130.865	-12.15917	11.93847	NaN	NaN
10134.863	-12.05293	11.18990	NaN	NaN
10138.857	-12.01017	10.76661	NaN	NaN
10142.867	-12.22891	11.38855	NaN	NaN
10146.826	-12.31812	11.92700	NaN	NaN
10150.825	-12.36419	11.85071	NaN	NaN
10154.892	-12.53322	12.06592	NaN	NaN
10158.832	-12.64603	13.25368	NaN	NaN
10162.867	-12.66022	13.21734	NaN	NaN
10166.866	-12.83000	13.67847	NaN	NaN
10170.826	-12.81828	12.83691	NaN	NaN
10174.867	-12.65567	11.65995	NaN	NaN
10178.871	NaN	NaN	NaN	NaN
10182.866	-12.96922	13.88757	NaN	NaN
10186.826	-12.71427	12.02993	NaN	NaN
10190.867	-12.42593	12.77031	NaN	NaN
10194.872	NaN	NaN	NaN	NaN
10198.848	-12.15165	13.53111	NaN	NaN
10202.828	-12.45596	14.38614	NaN	NaN
10206.868	-12.52899	14.26305	NaN	NaN
10210.868	-12.14556	11.67593	NaN	NaN
10214.868	-12.19323	11.61476	NaN	NaN
10218.895	NaN	NaN	NaN	NaN
10222.870	-12.27780	12.58824	NaN	NaN
10226.865	-12.15754	11.61103	NaN	NaN
10230.866	-12.19733	11.41771	NaN	NaN
10234.895	-12.22919	11.50031	NaN	NaN
10238.866	-12.20857	11.52018	NaN	NaN
10242.859	-12.40297	13.63996	NaN	NaN
10246.865	-12.51196	13.45675	NaN	NaN
10250.892	-12.62443	13.76653	NaN	NaN
10254.869	-12.64215	13.47178	NaN	NaN
10258.869	-12.85201	13.50224	NaN	NaN
10262.868	-12.83416	13.33681	NaN	NaN
10266.868	-12.80185	13.56770	NaN	NaN
10270.855	NaN	NaN	NaN	NaN
10274.875	NaN	NaN	NaN	NaN
10278.875	-12.86968	13.58085	NaN	NaN
10282.850	-12.67154	13.30465	NaN	NaN
10286.828	-12.79144	13.03115	NaN	NaN
10290.869	-12.56318	12.36579	NaN	NaN
10294.866	-12.71439	12.33203	NaN	NaN
10298.867	-13.05234	12.58809	NaN	NaN
10302.828	-12.46845	12.00251	NaN	NaN
10306.868	-12.29732	12.05866	NaN	NaN
10310.871	-12.30751	12.08776	NaN	NaN
10314.869	-12.49587	13.29671	NaN	NaN
10318.870	-12.32646	12.43637	NaN	NaN
10322.827	-12.48982	13.39187	NaN	NaN
10326.866	-12.53150	11.93750	NaN	NaN
10330.868	-12.53112	12.43393	NaN	NaN
10334.866	-12.65859	12.31514	NaN	NaN
10338.827	-12.74461	12.61359	NaN	NaN
10342.871	-12.81150	13.45026	NaN	NaN
10346.866	-12.87423	13.66222	NaN	NaN
10350.868	-12.97262	13.58516	NaN	NaN
10354.897	-12.72686	13.02288	NaN	NaN
10358.871	-13.00827	13.52244	NaN	NaN
10362.869	-12.90796	12.83397	NaN	NaN
10366.835	-13.12340	13.86636	NaN	NaN
10370.836	-12.81117	13.00137	NaN	NaN
10374.872	-12.34318	12.15444	NaN	NaN
10378.869	-10.17096	10.27411	NaN	NaN
10382.870	-9.22458	9.57871	-9.20920	12.94196
10386.867	-9.10802	6.91754	-8.99043	9.86460
10390.828	-8.66586	5.61957	-8.14597	7.48927
10394.868	-8.76697	5.03909	-8.48835	6.46853
10398.870	-8.69135	2.89520	-8.24682	4.46321
10402.870	-8.53620	2.38077	-7.91577	3.94373
10406.857	-8.31299	1.42181	-7.89174	2.88091
10410.870	-8.09958	0.47295	-7.80847	1.52480
10414.872	-7.42092	-0.53970	-7.59849	0.38690
10418.867	-7.20934	-0.71186	-7.14773	0.04135
10422.894	-6.58842	-1.06178	-6.65204	-0.39288
10426.873	-6.22042	-1.35776	-6.15711	-1.18729
10430.828	-5.90517	-3.07033	-5.82245	-1.53708
10434.871	-5.90239	-2.67919	-5.43819	-1.89985
10438.896	-5.55234	-3.61227	-5.11292	-1.58211
10442.870	-5.64208	-2.87021	-5.18990	-1.96070
10446.867	-5.23937	-3.24842	-5.35497	-1.35799
10450.866	-5.58960	-2.52039	-5.32023	-1.61518
10454.862	-5.48555	-2.97899	-5.17132	-1.52169
10458.827	-5.55177	-3.11654	-5.28556	-1.52911
10462.869	-5.50555	-2.79067	-5.18771	-1.88062
10466.873	-5.63439	-2.94245	-5.12917	-1.53945
10470.872	-5.49301	-2.86477	-5.20866	-1.77712
10474.874	-5.46504	-2.94001	-5.22335	-1.52899
10478.874	-5.46839	-2.79824	-5.18727	-1.43218
10482.875	-5.51314	-2.81400	-5.24538	-1.68542
10486.872	-5.56288	-2.83888	-5.27990	-1.45472
10490.875	-5.71180	-2.81728	-5.22946	-1.77590
10494.869	-5.65243	-2.81557	-5.21845	-1.72975
10498.869	-5.56839	-2.81667	-5.27858	-2.09439
10502.872	-5.23221	-2.86985	-5.21287	-2.19640
10506.873	-5.45233	-2.84762	-5.16408	-2.55184
10510.872	-5.48747	-2.92234	-5.15926	-2.48670
10514.870	-5.44424	-2.86676	-5.10007	-2.03838
10518.874	-5.60654	-2.90312	-5.15443	-2.20886
10522.828	-5.68133	-2.90270	-5.11100	-1.89716
10526.873	-5.66840	-2.89098	-5.03381	-2.03765
10530.860	-5.72586	-2.91868	-5.05171	-2.12308
10534.862	-5.59140	-2.96780	-5.21700	-1.92658
10538.872	-5.52035	-2.96066	-5.20026	-1.96030
10542.883	-5.40880	-2.96266	-5.15345	-1.91044
10546.867	-5.62680	-2.88803	-5.18975	-1.93028
10550.873	-5.78195	-2.93358	-5.16110	-1.94737
10554.871	-5.68204	-2.89332	-5.19042	-1.84264
10558.872	-5.67907	-2.82751	-5.37625	-1.93679
10562.871	-5.61777	-2.84488	-5.42070	-2.02957
10566.832	-5.59214	-2.88657	-5.40528	-2.04329
10570.873	-5.59221	-2.86656	-5.34444	-2.13733
10574.840	-5.47225	-2.93208	-5.38066	-2.41847
10578.875	-5.58874	-2.83426	-5.42075	-2.13899
10582.875	-5.58602	-2.74735	-5.34235	-2.34164
10586.873	-5.62928	-2.89832	-5.38666	-2.28866
10590.875	-5.58324	-2.82499	-5.32134	-2.27816
10594.873	-5.64198	-2.89782	-5.05100	-2.04452
10598.866	-5.67634	-2.82328	-5.16406	-1.76271
10602.874	-5.69330	-2.89465	-5.33290	-1.90057
10606.872	-5.65597	-2.88485	-5.33347	-1.91003
10610.871	-5.58921	-2.89201	-5.39246	-1.95648
10614.866	-5.45688	-2.85656	-5.34872	-1.97335
10618.870	-5.64081	-2.86771	-5.32693	-1.65942
10622.875	-5.61672	-2.82416	-5.24122	-1.81095
10626.871	-5.60684	-2.90618	-5.23265	-1.65772
10630.865	-5.70222	-2.84838	-5.22318	-1.75461
10634.873	-5.65103	-2.81260	-5.28736	-1.80533
10638.874	-5.69625	-2.78983	-5.37697	-1.83620
10642.872	-5.72075	-2.83332	-5.37542	-1.80534
10646.876	-5.81071	-2.87001	-5.33263	-1.97083
10650.833	-5.76988	-2.87471	-5.25564	-2.03914
10654.876	-5.64715	-2.83124	-5.25402	-2.34304
10658.877	-5.54587	-2.82016	-5.22517	-2.38860
10662.874	-5.54004	-2.77020	-5.20329	-2.44053
10666.872	-5.66919	-2.78865	-5.20910	-2.48720
10670.875	-5.51300	-2.77773	-5.17991	-2.47755
10674.871	-5.61094	-2.72863	-5.16996	-2.53312
10678.872	-5.55386	-2.74106	-5.07641	-2.54174
10682.875	-5.56092	-2.74925	-5.01211	-2.52144
10686.874	-5.58007	-2.75182	-4.92649	-2.58623
10690.877	-5.51936	-2.75684	-4.90947	-2.57476
10694.878	-5.54385	-2.70427	-4.90296	-2.59457
10698.851	-5.62633	-2.65691	-4.87507	-2.63275
10702.830	-5.68362	-2.59347	-4.84413	-2.71223
10706.871	-5.75900	-2.61921	-4.83117	-2.65400
10710.877	-5.81123	-2.58924	-4.78348	-2.60103
10714.832	-5.83213	-2.58399	-4.79802	-2.60901
10718.831	-5.85305	-2.57079	-4.79433	-2.60206
