time (ms)	lx (deg)	ly (deg)	rx (deg)	ry (deg)
0.000	NaN	NaN	NaN	NaN
4.000	-0.01516	8.67651	NaN	NaN
7.999	NaN	NaN	NaN	NaN
11.997	-0.63791	13.69192	NaN	NaN
15.999	-0.48708	9.44079	1.72332	15.24357
19.998	NaN	NaN	NaN	NaN
23.957	-0.10354	9.25204	NaN	NaN
27.998	NaN	NaN	NaN	NaN
31.998	NaN	NaN	NaN	NaN
35.998	0.44512	9.85626	NaN	NaN
39.980	0.04323	10.82165	NaN	NaN
43.956	-0.21457	11.30661	NaN	NaN
48.001	0.49915	6.56430	NaN	NaN
52.001	0.60868	6.60913	NaN	NaN
55.958	0.00903	9.08408	0.86813	12.56803
60.005	-0.66230	8.60546	0.20085	9.27913
63.996	-0.93239	6.47076	0.30781	7.59206
68.000	-0.47028	4.64017	0.29473	5.19098
71.861	-0.69243	3.37800	0.24468	4.17616
76.003	-0.64367	3.03763	0.30190	4.27380
80.002	-0.58942	2.51495	0.36789	3.02712
83.956	-0.62913	2.32915	0.51949	2.41889
88.004	-0.55863	2.37143	0.83694	2.56848
92.000	-0.21926	2.49150	0.99243	2.69922
96.002	-0.53699	2.25633	0.81533	2.64860
100.000	-0.70082	2.17476	1.03166	2.41168
104.004	-0.60295	2.13485	1.10614	2.32797
107.988	-0.52277	2.12369	1.15468	2.34916
111.998	-0.45142	2.08617	1.25944	2.39718
115.999	-0.38179	2.01226	1.20832	2.29936
120.005	-0.35928	1.92358	1.35492	2.25786
124.003	-0.37482	1.88742	1.41110	2.15484
128.000	-0.35295	1.86237	1.45321	2.16112
132.003	-0.41790	1.83205	1.44458	2.11933
136.000	-0.45621	1.79084	1.43039	2.08710
139.990	-0.44460	1.75094	1.46581	2.03626
143.998	-0.41579	1.75597	1.45423	2.06249
148.000	-0.40973	1.70160	1.46363	2.05504
152.004	-0.39055	1.71263	1.46338	2.04720
156.001	-0.40348	1.70726	1.44825	2.01682
160.000	-0.37814	1.71685	1.45244	2.01620
164.001	-0.38588	1.72732	1.42910	2.04644
168.003	-0.38680	1.69758	1.39440	2.09167
172.002	-0.39720	1.66295	1.37451	2.10059
175.999	-0.35052	1.68354	1.36159	2.10202
180.001	-0.31332	1.72215	1.38857	2.12899
184.004	-0.29113	1.74219	1.39738	2.11561
188.004	-0.42621	1.71858	1.34557	2.05544
191.982	-0.51915	1.76458	1.35134	1.98003
195.998	-0.50791	1.74589	1.32788	1.95844
200.004	-0.58131	1.71062	1.32265	1.87596
204.004	-0.48431	1.71149	1.33014	1.78942
208.002	-0.50483	1.69192	1.32200	1.79029
212.001	-0.46889	1.71308	1.32245	1.73862
216.002	-0.47113	1.73155	1.34157	1.71222
220.003	-0.48299	1.73085	1.32389	1.68960
224.001	-0.47622	1.69528	1.32810	1.68374
228.001	-0.47837	1.67494	1.29702	1.65943
232.003	-0.31756	1.47306	1.27629	1.49009
236.005	-0.31367	0.52770	1.11814	0.89992
239.998	-0.35474	-0.06642	0.94115	-0.57866
244.001	-0.28252	-0.46076	0.88925	-0.70582
248.004	-0.30600	-0.55289	0.77270	-0.44726
251.958	-0.35663	-0.37499	0.78414	-0.14622
256.000	-0.42807	-0.24749	0.65610	-0.15942
260.002	-0.45589	-0.25596	0.59178	-0.17284
264.007	-0.48597	-0.18199	0.61662	-0.22010
268.006	-0.50510	-0.36506	0.63714	-0.26067
272.002	-0.56327	-0.36412	0.80079	-0.33498
275.981	-0.59640	-0.42879	0.78570	-0.38753
279.888	-0.62935	-0.44193	0.87711	-0.40479
284.003	-0.61583	-0.45781	0.77526	-0.35287
288.002	-0.62903	-0.43289	0.68350	-0.37849
292.003	-0.61858	-0.50815	0.69804	-0.36925
295.874	-0.60248	-0.53379	0.82158	-0.36064
300.003	-0.59094	-0.62204	0.74141	-0.37772
303.880	-0.52525	-0.54110	0.85607	-0.37868
307.880	-0.46899	-0.54419	0.99169	-0.38311
311.896	-0.43261	-0.41377	0.94812	-0.41375
315.833	-0.42120	-0.40000	0.80022	-0.38790
319.877	-0.42073	-0.42038	0.72804	-0.38768
323.841	-0.37444	-0.35774	0.76250	-0.38768
327.872	-0.36467	-0.31565	0.78426	-0.41851
331.880	-0.35864	-0.27654	0.82391	-0.39587
335.879	-0.35841	-0.20266	0.80987	-0.37677
339.875	-0.30903	-0.19126	0.79938	-0.35292
343.910	-0.29103	-0.11475	0.87173	-0.32804
347.879	-0.32972	-0.13264	0.85235	-0.30096
351.876	-0.40569	-0.14000	0.87907	-0.18794
355.876	-0.48120	-0.16126	0.90381	-0.13392
359.900	-0.50185	-0.13284	1.01198	-0.09724
363.834	-0.35221	-0.13694	1.11638	-0.13682
367.877	-0.42018	-0.15749	1.10705	-0.06062
371.880	-0.45046	-0.21106	1.09711	-0.04432
375.901	-0.52312	-0.24987	0.98658	-0.05113
379.877	-0.47783	-0.24863	1.01749	0.04288
383.880	-0.51106	-0.27286	1.03508	0.09896
387.879	-0.55669	-0.33654	1.09435	0.11359
391.896	-0.50346	-0.30483	1.18666	0.15252
395.880	-0.51930	-0.34293	1.18502	0.12655
399.880	-0.50952	-0.34730	1.18478	0.14670
403.875	-0.47996	-0.36385	1.17523	0.12949
407.897	-0.52361	-0.33617	1.20802	0.15723
411.878	-0.53972	-0.31273	1.20648	0.20871
415.878	-0.55890	-0.27847	1.19817	0.23015
419.879	-0.57406	-0.23913	1.23960	0.25457
423.900	-0.61409	-0.18859	1.26572	0.25650
427.878	-0.64657	-0.18345	1.28236	0.27903
431.882	-0.67816	-0.14831	1.26465	0.28338
435.880	-0.67029	-0.09380	1.23687	0.30393
439.899	-0.70605	-0.09223	1.17322	0.30980
443.833	-0.72920	-0.07981	1.18272	0.31400
447.877	-0.75752	-0.09044	1.13595	0.36990
451.878	-0.77151	-0.11171	1.09130	0.39699
455.898	-0.82883	-0.13402	1.04262	0.37992
459.877	-0.83791	-0.12475	1.02072	0.38234
463.876	-0.80201	-0.12553	0.98695	0.40445
467.879	-0.77069	-0.19626	0.97115	0.39862
471.901	-0.74543	-0.14232	0.94078	0.35477
475.879	-0.72161	-0.14590	0.92058	0.33427
479.878	-0.66838	-0.12640	0.89428	0.35102
483.880	-0.60320	-0.09452	0.91148	0.32396
487.904	-0.55741	-0.04433	0.90870	0.29440
491.875	-0.49178	0.00159	0.93946	0.23762
495.878	-0.41311	0.01029	0.95849	0.17049
499.880	-0.40065	0.02236	0.92631	0.16592
503.902	-0.32397	0.08096	0.91545	0.13375
507.880	-0.29036	0.11050	0.93348	0.09707
511.880	-0.28657	0.14268	0.91552	0.11429
515.875	-0.25423	0.18373	0.89639	0.07690
519.905	-0.23937	0.20831	0.94435	0.11874
523.880	-0.32585	0.24334	0.97383	0.07715
527.880	-0.36558	0.21986	1.02474	0.02435
531.881	-0.46708	0.18179	1.06044	-0.04276
535.904	-0.54945	0.10143	0.98025	-0.02306
539.877	-0.53701	0.06287	0.92482	-0.05324
543.882	-0.55726	0.03993	0.82580	-0.11946
547.884	-0.53498	0.07454	0.85838	-0.11772
551.903	-0.56766	0.03322	0.82615	-0.14796
555.879	-0.61888	0.04982	0.84920	-0.21800
559.879	-0.65240	0.01737	0.84704	-0.26471
563.884	-0.63196	-0.00457	0.80799	-0.31908
567.906	-0.65154	-0.10935	0.85736	-0.33035
571.880	-0.62273	-0.13684	0.81942	-0.34631
575.880	-0.66201	-0.28882	0.77702	-0.33207
579.876	-0.61632	-0.22127	0.81550	-0.29277
583.870	-0.61593	-0.24833	0.81471	-0.29853
587.881	-0.68332	-0.31871	0.84699	-0.22165
591.880	-0.68848	-0.31412	0.88518	-0.15179
595.882	-0.72729	-0.39213	0.91078	-0.17690
599.903	-0.69193	-0.35275	0.90654	-0.06187
603.880	-0.68531	-0.38836	0.94023	-0.06298
607.882	-0.73089	-0.34743	0.95482	0.00601
611.882	-0.74116	-0.32040	0.95400	0.04080
615.903	-0.72280	-0.26720	0.97112	0.05387
619.881	-0.69166	-0.26104	0.96321	0.05856
623.881	-0.69486	-0.22566	0.95095	0.03844
627.837	-0.70231	-0.21048	0.97115	0.01121
631.903	-0.65265	-0.19659	0.98606	-0.02390
635.883	-0.60243	-0.14628	0.97673	-0.05039
639.880	-0.51614	-0.10314	0.93177	-0.04900
643.838	-0.52910	-0.07499	0.90527	-0.03128
647.878	-0.51997	-0.04117	0.89674	0.02092
651.882	-0.47944	-0.03998	0.86600	-0.02149
655.881	-0.42713	-0.03171	0.86451	0.00740
659.881	-0.40886	-0.01734	0.83478	0.01528
663.866	-0.33834	0.00293	0.84493	-0.01682
667.881	-0.34332	0.00537	0.83384	0.01670
671.881	-0.31617	0.04500	0.83225	0.05566
675.881	-0.32312	0.07301	0.78930	0.08309
679.867	-0.30927	0.08548	0.79327	0.07474
683.880	-0.32655	0.11391	0.80426	0.11981
687.880	-0.31962	0.09490	0.80129	0.10369
691.882	-0.32779	0.09713	0.79645	0.12041
695.866	-0.32518	0.06558	0.80585	0.09809
699.879	-0.32955	0.08712	0.83399	0.03946
703.881	-0.30759	0.08620	0.82449	-0.01426
707.882	-0.33146	0.08978	0.85116	0.01439
711.901	-0.33943	0.13113	0.88294	-0.03523
715.885	-0.30990	0.15570	0.86959	-0.02942
719.884	-0.36477	0.08593	0.89441	-0.08381
723.883	-0.35712	0.05109	0.91021	-0.07024
727.879	-0.35454	0.05678	0.93845	-0.13121
731.885	-0.37420	0.04478	0.95445	-0.10699
735.882	-0.36045	0.04801	0.95465	-0.11325
739.847	-0.40231	0.01779	0.96522	-0.08987
743.886	-0.44559	0.04488	0.92808	-0.03958
747.886	-0.44582	0.01687	0.92579	-0.01707
751.883	-0.47741	0.02137	0.93098	0.01381
755.883	-0.47899	-0.01772	0.89205	0.02569
759.904	-0.50776	0.00368	0.89086	0.07839
763.879	-0.46989	0.03084	0.89098	0.07156
767.882	-0.46011	0.05424	0.91976	0.10731
771.897	-0.40296	0.07189	0.89850	0.13258
775.905	-0.39680	0.07507	0.90187	0.14006
779.882	-0.45825	0.07278	0.92919	0.13665
783.880	-0.47649	0.06642	0.94336	0.14927
787.884	-0.43924	0.08916	0.96080	0.14075
791.886	-0.40534	0.10809	0.97564	0.11489
795.885	-0.44286	0.11266	0.98090	0.09086
799.886	-0.38253	0.08774	1.01702	0.04497
803.883	-0.38236	0.08824	1.03997	0.02962
807.884	-0.40854	0.06808	1.06567	0.03843
811.885	-0.41311	0.05757	1.02739	-0.02559
815.883	-0.47907	0.03772	1.02972	0.00062
819.882	-0.49237	0.03752	1.03870	-0.01426
823.888	-0.45068	0.03273	0.99881	-0.06370
827.876	-0.42467	0.08294	1.02466	-0.10753
831.882	-0.37335	0.09370	1.01469	-0.11988
835.882	-0.35499	0.12516	1.03121	-0.12460
839.886	-0.35251	0.14937	0.99114	-0.11794
843.839	-0.38928	0.19123	1.03218	-0.07645
847.885	-0.40551	0.24727	1.04044	-0.08939
851.884	-0.35901	0.28717	0.99993	-0.07536
855.885	-0.37325	0.29393	1.07287	-0.01650
859.885	-0.37961	0.33694	1.04672	-0.01642
863.886	-0.39688	0.32594	1.01982	-0.03183
867.883	-0.45356	0.39016	0.98440	0.00050
871.888	-0.49431	0.35364	0.95043	0.02353
875.886	-0.44924	0.35232	0.89547	0.06507
879.882	-0.49825	0.36064	0.85962	0.08463
883.881	-0.47957	0.29813	0.88833	0.10517
887.884	-0.47627	0.31145	0.84419	0.08517
891.885	-0.49587	0.24761	0.78305	0.11208
895.882	-0.47723	0.22970	0.84558	0.08105
899.888	-0.41226	0.24138	0.78667	0.05203
903.886	-0.43050	0.24607	0.75747	0.09119
907.881	-0.43634	0.17367	0.67824	0.08582
911.885	-0.44217	0.13970	0.62948	0.10670
915.887	-0.45229	0.13182	0.56625	0.15530
919.889	-0.57262	0.09522	0.48560	0.16082
923.887	-0.47090	0.06811	0.61114	0.15135
927.883	-0.43651	0.07897	0.73347	0.15132
931.887	-0.44075	0.00579	0.68471	0.19485
935.881	-0.46443	-0.01826	0.71235	0.19987
939.884	-0.47969	-0.04483	0.67933	0.20472
943.884	-0.53086	-0.08344	0.70233	0.24122
947.851	-0.51150	-0.08945	0.73677	0.23721
951.878	-0.48455	-0.06411	0.77119	0.19525
955.882	-0.42174	-0.05310	0.78474	0.16329
959.886	-0.37273	-0.04791	0.84706	0.15449
963.885	-0.32265	-0.00452	0.91051	0.14756
967.844	-0.33206	0.03583	0.93202	0.10423
971.884	-0.32543	0.00914	0.91172	0.06544
975.885	-0.39129	0.00721	0.92200	0.04482
979.890	-0.35223	0.02967	0.95041	0.03521
983.844	-0.28607	0.16564	0.94835	-0.01034
987.861	-0.31260	0.07517	0.92877	-0.05640
991.885	-0.29424	0.12949	0.91125	-0.17745
995.886	-0.29540	0.10347	0.90316	-0.23074
999.846	-0.30414	0.15901	0.88977	-0.30036
1003.883	-0.32211	0.14281	0.89493	-0.32831
1007.888	-0.38047	0.16184	0.83759	-0.39811
1011.885	-0.34332	0.12544	0.79784	-0.42783
1015.846	-0.40569	0.20701	0.78270	-0.40746
1019.886	-0.51925	0.23399	0.76977	-0.42550
1023.883	-0.61290	0.27874	0.72404	-0.41385
1027.881	-0.69794	0.26410	0.70424	-0.25610
1031.845	-0.64905	0.31519	0.69776	-0.23530
1035.884	-0.55106	0.26299	0.67727	-0.04992
1039.886	-0.64541	0.26276	0.69464	-0.08796
1043.886	-0.60317	0.19530	0.65124	0.01886
1047.844	-0.61439	0.13636	0.67613	-0.05506
1051.887	-0.62441	0.09474	0.67970	0.02852
1055.886	-0.65417	0.07091	0.68940	0.06219
1059.887	-0.64498	0.11460	0.70154	0.10331
1063.845	-0.53788	0.03133	0.69918	0.14096
1067.893	-0.52758	0.10483	0.70672	0.15771
1071.858	-0.42827	0.10011	0.67940	0.11020
1075.886	-0.42723	0.04570	0.64622	0.11326
1079.848	-0.43641	0.03909	0.63203	0.07186
1083.886	-0.37338	0.11055	0.62563	0.07795
1087.887	-0.39060	0.16991	0.62362	0.07116
1091.886	-0.38070	0.19650	0.62230	0.09932
1095.846	-0.37973	0.24443	0.63675	0.14235
1099.884	-0.36916	0.26165	0.65332	0.14451
1103.889	-0.37921	0.25303	0.63181	0.12280
1107.888	-0.37010	0.29512	0.61481	0.14936
1111.846	-0.41015	0.32069	0.59119	0.19433
1115.875	-0.42179	0.28039	0.56555	0.22641
1119.883	-0.42998	0.26794	0.62724	0.22214
1123.887	-0.37246	0.28248	0.63456	0.20422
1127.845	-0.40566	0.33294	0.63724	0.19339
1131.888	-0.43075	0.32976	0.64645	0.21491
1135.889	-0.45031	0.27726	0.63412	0.22393
1139.888	-0.41949	0.31242	0.62069	0.22775
1143.847	-0.41182	0.37039	0.61848	0.25374
1147.888	-0.40407	0.36425	0.63377	0.24490
1151.888	-0.43862	0.29711	0.63104	0.20599
1155.850	-0.43480	0.27254	0.65503	0.15095
1159.768	-0.42869	0.25450	0.68010	0.18201
1163.891	-0.45708	0.22744	0.68069	0.12632
1167.886	-0.51066	0.25792	0.69868	0.16436
1171.888	-0.56104	0.22254	0.70776	0.20390
1175.890	-0.63704	0.15013	0.73156	0.19741
1179.891	-0.64600	0.18815	0.71903	0.20966
1183.887	-0.67868	0.20857	0.71464	0.11768
1187.889	-0.77394	0.21410	0.69570	0.03108
1191.859	-0.77233	0.39215	0.68273	0.01449
1195.871	-0.78838	0.39377	0.70821	0.03354
1199.888	-0.79915	0.51779	0.67402	-0.00917
1203.888	-0.86813	0.50914	0.68424	-0.03397
1207.891	-0.90788	0.51750	0.67548	-0.07024
1211.890	-0.92341	0.57270	0.65940	-0.07226
1215.887	-0.95877	0.55466	0.72739	-0.06555
1219.887	-0.97370	0.59893	0.65466	-0.13522
1223.786	-0.95502	0.62278	0.64642	-0.17460
1227.890	-0.96162	0.66578	0.63985	-0.20840
1231.886	-0.98092	0.59818	0.60622	-0.19232
1235.883	-0.99506	0.49285	0.61196	-0.22323
1239.892	-1.02980	0.47158	0.58426	-0.22438
1243.842	-1.03161	0.39034	0.59096	-0.25673
1247.889	-0.99839	0.33988	0.56041	-0.26865
1251.889	-0.99380	0.28823	0.55342	-0.25462
1255.890	-0.99690	0.28440	0.53093	-0.28180
1259.889	-0.97467	0.25596	0.51024	-0.31972
1263.889	-0.92540	0.26180	0.53696	-0.28113
1267.889	-0.95333	0.29417	0.57250	-0.27969
1271.890	-0.94916	0.18992	0.56957	-0.24671
1275.890	-0.92795	0.20595	0.57319	-0.19456
1279.891	-0.85855	0.30191	0.59173	-0.16951
1283.888	-0.82384	0.26191	0.60947	-0.10821
1287.894	-0.81950	0.37960	0.60652	-0.13043
1291.889	-0.81325	0.31475	0.63962	-0.08505
1295.889	-0.79297	0.43618	0.65144	-0.09166
1299.889	-0.78265	0.48592	0.60816	-0.07022
1303.893	-0.70064	0.48605	0.59771	-0.05208
1307.888	-0.76253	0.44873	0.59404	-0.04950
1311.889	-0.73836	0.34788	0.55223	-0.04212
1315.888	-0.76856	0.36485	0.53287	-0.07440
1319.893	-0.73077	0.46540	0.55334	-0.08242
1323.883	-0.76265	0.34691	0.48656	-0.08269
1327.891	-0.77392	0.47409	0.51247	-0.10280
1331.886	-0.77268	0.39797	0.50257	-0.10044
1335.757	-0.78528	0.38616	0.45348	-0.08921
1339.763	-0.79923	0.47431	0.49190	-0.10511
1343.719	-0.75930	0.44565	0.49731	-0.07944
1347.767	-0.79201	0.41608	0.56885	-0.10178
1351.786	-0.71015	0.42769	0.58545	-0.12588
1355.764	-0.61816	0.58313	0.57925	-0.14760
1359.771	-0.64188	0.44966	0.60625	-0.12819
1363.768	-0.61885	0.45714	0.61059	-0.17378
1367.771	-0.56707	0.47963	0.67159	-0.17425
1371.764	-0.53612	0.39215	0.64843	-0.17271
1375.764	-0.36750	0.42684	0.61898	-0.20710
1379.765	-0.37020	0.40798	0.62047	-0.23436
1383.787	-0.38799	0.32472	0.56453	-0.21789
1387.766	-0.27944	0.29247	0.53838	-0.20599
1391.765	-0.28808	0.26546	0.46837	-0.18194
1395.766	-0.31583	0.20831	0.38827	-0.16241
1399.752	-0.30496	0.17548	0.25666	-0.15165
1403.769	-0.26225	0.17986	0.30851	-0.17205
1407.758	-0.28515	0.18197	0.34447	-0.16706
1411.754	-0.32280	0.16326	0.29672	-0.17889
1415.724	-0.35042	0.13878	0.28902	-0.19941
1419.763	-0.43217	0.13329	0.30620	-0.18848
1423.764	-0.54731	0.14061	0.32670	-0.23708
1427.766	-0.57218	0.18196	0.31483	-0.22652
1431.724	-0.52145	0.24140	0.37184	-0.27718
1435.766	-0.56245	0.30163	0.39117	-0.30114
1439.766	-0.67057	0.37469	0.50416	-0.36283
1443.767	-0.76600	0.36698	0.52376	-0.37607
1447.789	-0.78337	0.46197	0.54287	-0.39110
1451.722	-0.81642	0.47123	0.55602	-0.38464
1455.768	-0.81523	0.53419	0.59166	-0.39038
1459.767	-0.90170	0.53358	0.55888	-0.43896
1463.785	-0.90383	0.55298	0.55215	-0.42050
1467.767	-0.93574	0.55874	0.47932	-0.44656
1471.765	-0.89188	0.57095	0.42207	-0.44940
1475.766	-0.80503	0.58855	0.32238	-0.41937
1479.789	-0.82193	0.52246	0.26356	-0.37785
1483.768	-0.80330	0.48477	0.25388	-0.30042
1487.770	-0.62806	0.53538	0.19047	-0.27001
1491.749	-0.65556	0.49309	0.13878	-0.18493
1495.765	-0.58694	0.22850	0.16568	-0.17131
1499.769	-0.52533	0.24997	0.15759	-0.07703
1503.767	-0.47344	0.19369	0.19085	-0.04875
1507.723	-0.42373	0.18867	0.19933	-0.02067
1511.756	-0.37219	0.17928	0.21847	0.03894
1515.767	-0.35953	0.16845	0.30439	0.08391
1519.766	-0.37782	0.10161	0.30841	0.10340
1523.766	-0.34012	0.06995	0.40234	0.08990
1527.788	-0.32146	0.05810	0.43495	0.09050
1531.771	-0.35268	0.06018	0.45410	0.08446
1535.768	-0.32042	0.10804	0.47768	0.09984
1539.767	-0.31933	0.13771	0.42847	0.07788
1543.788	-0.33960	0.16306	0.37680	0.05931
1547.767	-0.36424	0.19109	0.42522	0.10854
1551.767	-0.36496	0.22411	0.36871	0.15145
1555.766	-0.35831	0.22312	0.32498	0.21680
1559.791	-0.34238	0.19238	0.32412	0.21613
1563.769	-0.33163	0.21211	0.30138	0.26320
1567.767	-0.33575	0.22771	0.23224	0.31203
1571.770	-0.33898	0.21611	0.21045	0.33220
1575.770	-0.32178	0.20562	0.18020	0.38940
1579.766	-0.34104	0.17794	0.16149	0.40056
1583.769	-0.32059	0.16790	0.16990	0.48907
1587.769	-0.29247	0.12305	0.19343	0.51270
1591.793	-0.28016	0.11532	0.18102	0.55819
1595.771	-0.25527	0.09694	0.19824	0.55476
1599.769	-0.24758	0.09353	0.21609	0.59494
1603.773	-0.24371	0.12201	0.23309	0.60766
1607.791	-0.22410	0.11719	0.24860	0.60843
1611.771	-0.22830	0.10255	0.23055	0.64721
1615.766	-0.24061	0.10034	0.24902	0.69002
1619.756	-0.24011	0.10218	0.27480	0.70607
1623.764	-0.23356	0.08590	0.28878	0.72875
1627.768	-0.23048	0.11011	0.30257	0.72940
1631.768	-0.22936	0.12745	0.30307	0.74512
1635.769	-0.21584	0.11888	0.30543	0.74197
1639.790	-0.24371	0.10929	0.28505	0.76711
1643.724	-0.25708	0.10511	0.29850	0.75573
1647.769	-0.24478	0.10732	0.29595	0.75603
1651.767	-0.26857	0.10389	0.32354	0.77116
1655.790	-0.27279	0.09405	0.30650	0.77106
1659.738	-0.24433	0.10705	0.31344	0.79474
1663.771	-0.27582	0.07166	0.28634	0.79921
1667.768	-0.26185	0.10601	0.27671	0.81158
1671.789	-0.29183	0.10690	0.29543	0.80420
1675.768	-0.28897	0.10305	0.27093	0.78378
1679.768	-0.30962	0.10799	0.27312	0.76995
1683.765	-0.29813	0.13525	0.29736	0.77603
1687.792	-0.29788	0.14857	0.28309	0.74691
1691.769	-0.33307	0.17553	0.30357	0.77099
1695.726	-0.33444	0.19792	0.25167	0.77752
1699.726	-0.29850	0.21427	0.23589	0.76145
1703.798	-0.39129	0.23917	0.27654	0.83961
1707.769	-0.40539	0.75659	0.28002	0.91441
1711.767	-0.94306	1.97498	1.23062	1.44945
1715.771	0.38447	4.70299	NaN	NaN
1719.758	1.29534	7.01899	0.27674	3.80819
1723.794	NaN	NaN	2.11546	8.44768
1727.764	NaN	NaN	NaN	NaN
1731.764	NaN	NaN	NaN	NaN
1735.770	NaN	NaN	NaN	NaN
1739.766	NaN	NaN	NaN	NaN
1743.731	NaN	NaN	NaN	NaN
1747.725	NaN	NaN	NaN	NaN
1751.766	NaN	NaN	NaN	NaN
1755.724	NaN	NaN	NaN	NaN
1759.767	NaN	NaN	NaN	NaN
1763.723	NaN	NaN	NaN	NaN
1767.766	NaN	NaN	NaN	NaN
1771.769	NaN	NaN	NaN	NaN
1775.768	NaN	NaN	NaN	NaN
1779.727	NaN	NaN	NaN	NaN
1783.740	NaN	NaN	-2.48198	8.32877
1787.768	NaN	NaN	-1.77685	9.82265
1791.770	NaN	NaN	-1.79309	7.39007
1795.769	2.89183	7.92512	NaN	NaN
1799.754	2.93547	6.02141	2.08937	14.44926
1803.769	-2.90044	6.00670	-1.83100	3.24731
1807.771	0.11210	6.41781	-0.69506	3.05997
1811.771	-0.07356	6.15395	-2.44435	2.72135
1815.753	-0.51701	2.25807	0.69260	1.88565
1819.771	-0.30873	1.40834	-1.38121	-0.15939
1823.759	-0.72000	1.02491	-1.05952	0.38114
1827.759	-0.89617	0.80168	-0.47237	0.58051
1831.756	-1.07696	0.62949	0.99970	0.61900
1835.771	-0.59310	0.57106	0.53818	0.40054
1839.771	0.09798	0.62235	0.14523	0.84160
1843.773	-1.04833	0.46814	0.28485	0.75377
1847.731	-0.56741	0.74430	0.45137	0.97461
1851.773	-1.04141	0.55254	0.68372	0.80262
1855.771	-1.22628	0.65117	0.40211	0.67612
1859.770	-0.60558	0.60644	0.63426	0.66318
1863.732	-0.46458	0.61187	0.52552	0.76053
1867.735	-0.54438	0.50912	0.59290	0.79925
1871.769	-0.06788	0.46847	0.64734	0.82424
1875.768	-0.27488	0.34244	0.59635	0.85681
1879.768	-0.02651	0.44767	0.40462	0.79674
1883.771	-0.12173	0.38878	0.32754	0.71782
1887.771	-0.11012	0.40133	0.30386	0.67300
1891.769	-0.03636	0.38195	0.29404	0.58738
1895.775	-0.07492	0.37571	0.25609	0.50474
1899.774	-0.05845	0.29058	0.33608	0.19690
1903.771	-0.03345	0.27963	0.30054	0.31381
1907.752	0.14570	0.29376	0.30625	0.22543
1911.732	0.03147	0.28917	0.26505	-0.00639
1915.774	0.13955	0.29006	0.29590	-0.00420
1919.772	0.09011	0.24004	0.29744	-0.14852
1923.770	0.04080	0.33978	0.38494	-0.15826
1927.776	-0.05294	0.29125	0.45269	-0.20343
1931.773	0.02410	0.34664	0.45388	-0.26481
1935.772	0.12131	0.40088	0.47691	-0.32534
1939.772	0.28902	0.34629	0.42030	-0.38149
1943.769	0.13799	0.47555	0.47408	-0.36032
1947.773	0.18238	0.50142	0.47254	-0.36059
1951.741	0.14930	0.29662	0.38695	-0.39752
1955.772	0.35025	0.40950	0.25331	-0.37489
1959.768	0.20090	0.35007	0.26187	-0.38038
1963.769	0.14479	0.41897	0.17015	-0.31856
1967.774	0.40400	0.46436	0.13007	-0.29858
1971.775	0.12950	0.21735	0.08562	-0.35094
1975.767	0.38765	0.44575	0.03077	-0.32092
1979.771	0.16581	0.45127	0.01417	-0.37139
1983.778	-0.00941	0.30383	0.11054	-0.39736
1987.772	0.06261	0.25040	0.11332	-0.43632
1991.717	0.18266	0.44551	0.11178	-0.35591
1995.771	-0.03948	0.30502	0.14538	-0.35817
1999.772	-0.19457	0.48492	0.21043	-0.37024
2003.772	-0.36727	0.36388	0.32372	-0.40562
2007.777	-0.28173	0.51001	0.42609	-0.39722
2011.773	-0.13816	0.44096	0.40234	-0.36395
2015.769	-0.24319	0.44417	0.50585	-0.29164
2019.773	0.15608	0.31203	0.56811	-0.23571
2023.775	-0.30384	0.44618	0.63300	-0.17115
2027.773	-0.16844	0.44422	0.56932	-0.07039
2031.763	0.09341	0.49772	0.59831	-0.01461
2035.761	-0.38896	0.33744	0.57496	0.03099
2039.670	0.03072	0.39629	0.53942	0.06751
2043.772	-0.32873	0.33501	0.58965	0.12016
2047.732	0.20430	0.13707	0.54597	0.14201
2051.773	0.01928	-0.85850	0.53567	0.21170
2055.778	-0.17501	-0.01429	0.56615	0.23347
2059.773	-0.20715	-0.01961	0.50922	0.24247
2063.730	-0.19407	0.24543	0.57771	0.21680
2067.773	-0.07021	0.00450	0.52863	0.23402
2071.778	-0.22073	0.15844	0.57307	0.21473
2075.771	-0.18534	0.15063	0.59764	0.18884
2079.774	-0.05773	0.22593	0.63002	0.17045
2083.772	-0.16593	0.16626	0.68719	0.14108
2087.775	-0.10830	-0.05136	0.68183	0.12516
2091.773	-0.23266	-0.05671	0.69548	0.15743
2095.774	-0.24207	0.08218	0.68419	0.13813
2099.772	-0.25944	0.21007	0.64665	0.10496
2103.776	-0.23482	0.18398	0.65414	0.13249
2107.777	-0.21815	0.18744	0.64253	0.09127
2111.774	-0.23668	0.19223	0.60645	0.09109
2115.756	-0.20000	0.21912	0.58637	0.10287
2119.772	-0.19978	0.14246	0.57329	0.10093
2123.774	-0.28292	0.16768	0.55697	0.10106
2127.772	-0.24393	0.10948	0.53069	0.16912
2131.775	-0.29970	0.16519	0.54957	0.16613
2135.671	-0.28463	0.22729	0.49848	0.17908
2139.775	-0.22249	0.11639	0.51743	0.20716
2143.774	-0.33104	0.16094	0.55277	0.21006
2147.776	-0.36134	0.12558	0.55359	0.27447
2151.776	-0.36499	0.11478	0.54833	0.37759
2155.772	-0.37851	0.03829	0.55277	0.39697
2159.769	-0.44862	0.06503	0.59049	0.39778
2163.777	-0.46095	0.00318	0.60488	0.46427
2167.776	-0.42169	0.03143	0.60890	0.52256
2171.774	-0.46411	-0.09169	0.61796	0.49970
2175.774	-0.52061	-0.08195	0.59967	0.52080
2179.776	-0.47746	-0.13214	0.63461	0.50216
2183.789	-0.52607	-0.04597	0.65531	0.52628
2187.774	-0.49324	-0.07449	0.61091	0.52875
2191.731	-0.51441	-0.12456	0.64166	0.52934
2195.731	-0.49689	-0.13937	0.61831	0.46586
2199.773	-0.48746	-0.03066	0.60235	0.39659
2203.775	-0.48135	-0.18949	0.54749	0.38882
2207.778	-0.51451	-0.15552	0.48778	0.34091
2211.775	-0.66099	-0.19552	0.51046	0.29152
2215.734	-0.96708	-0.19775	0.47689	0.25857
2219.756	-0.86423	-0.23840	0.44430	0.23991
2223.773	-0.76228	-0.25150	0.42410	0.31381
2227.774	-0.69330	-0.17890	0.45842	0.31647
2231.638	-0.82285	-0.15062	0.44202	0.16102
2235.776	-0.85719	-0.16925	0.50227	0.25959
2239.763	-0.86679	-0.18399	0.52595	0.27641
2243.762	-0.95244	-0.08803	0.57960	0.39259
2247.734	-0.95658	-0.15064	0.59292	0.27891
2251.775	-0.90984	-0.08090	0.59754	0.38466
2255.776	-0.86247	-0.08781	0.63826	0.35984
2259.775	-0.77518	-0.02209	0.60148	0.40109
2263.639	-0.74183	-0.00179	0.61034	0.39433
2267.776	-0.76665	0.06140	0.67938	0.35986
2271.774	-0.74106	0.03653	0.66253	0.25439
2275.777	-0.82377	-0.03277	0.68672	0.37621
2279.735	-0.77285	0.04008	0.58726	0.30299
2283.740	-0.74734	0.06786	0.53791	0.32165
2287.773	-0.74724	0.09986	0.53942	0.26870
2291.773	-0.72459	-0.05330	0.50369	0.28001
2295.639	-0.71623	0.00002	0.52763	0.20450
2299.774	-0.69335	-0.08520	0.51478	0.18686
2303.774	-0.69953	-0.21488	0.51935	0.26177
2307.777	-0.67106	0.02999	0.53428	0.29400
2311.734	-0.59861	0.10339	0.52845	0.26249
2315.775	-0.60280	0.14581	0.48716	0.33130
2319.778	-0.53868	0.13761	0.53910	0.33062
2323.758	-0.50322	0.14009	0.57900	0.49786
2327.637	-0.49269	0.21827	0.55967	0.43724
2331.732	-0.44202	0.18425	0.55692	0.53076
2335.777	-0.35891	0.28951	0.58923	0.54721
2339.775	-0.38169	0.19335	0.63312	0.60057
2343.734	-0.34913	0.29309	0.56252	0.66100
2347.777	-0.33516	0.26595	0.57359	0.70097
2351.778	-0.30091	0.27371	0.60076	0.65580
2355.776	-0.31387	-0.68935	0.53463	0.69285
2359.781	-0.35923	0.12849	0.53081	0.73623
2363.778	-0.36099	0.14999	0.48649	0.74722
2367.779	-0.34476	0.17329	0.44460	0.69599
2371.778	-0.36060	0.13185	0.42490	0.68546
2375.620	-0.43596	0.06674	0.42696	0.62506
2379.732	-0.37410	0.19118	0.43155	0.71257
2383.651	-0.45564	0.16218	0.35541	0.60942
2387.652	-0.47001	0.00119	0.33831	0.47281
2391.674	-0.46071	0.05775	0.34600	0.56924
2395.647	-0.46907	-0.02418	0.32233	0.49972
2399.653	-0.50046	0.08192	0.32928	0.49055
2403.651	-0.57518	0.10471	0.27701	0.56181
2407.674	-0.51585	0.12740	0.28989	0.45388
2411.653	-0.55185	0.05936	0.30511	0.46024
2415.648	-0.57843	0.17167	0.29441	0.41472
2419.651	-0.58860	-0.07529	0.32392	0.39651
2423.671	-0.55434	-0.14121	0.30910	0.37086
2427.653	-0.58627	-0.19985	0.31789	0.28086
2431.650	-0.55925	-0.04627	0.32481	0.24936
2435.651	-0.55501	-0.05253	0.37313	0.34589
2439.678	-0.59061	-0.00472	0.24279	0.31280
2443.611	-0.68786	-0.25309	0.31141	0.25256
2447.653	-0.57828	-0.20661	0.38551	0.27013
2451.653	-0.52992	-0.19516	0.39770	0.31036
2455.672	-0.56240	-0.35192	0.33742	0.14107
2459.653	-0.58300	-0.39053	0.37367	0.26752
2463.653	-0.56491	-0.22050	0.29185	0.16090
2467.654	-0.68424	-0.31466	0.35382	0.28740
2471.675	-0.64990	-0.18414	0.31225	0.35021
2475.651	-0.68784	-0.15942	0.26359	0.37181
2479.652	-0.65781	-0.02959	0.22867	0.29622
2483.655	-0.56126	-0.09701	0.25902	0.34388
2487.650	-0.55652	-0.00532	0.30399	0.38706
2491.653	-0.53329	0.13082	0.29146	0.44513
2495.654	-0.51808	0.25628	0.28813	0.32818
2499.657	-0.56178	-0.15786	0.32645	0.34524
2503.674	-0.41509	-0.00768	0.22313	0.25229
2507.653	-0.44415	-0.29271	0.16752	0.30393
2511.655	-0.50485	-0.04853	0.09436	0.13843
2515.644	-0.55414	0.33843	0.12990	0.06876
2519.676	-0.55950	0.08267	0.15471	-0.07537
2523.655	-0.49053	-0.04202	0.09118	0.00326
2527.653	-0.51066	0.02689	-0.03296	-0.02550
2531.659	-0.51324	-0.18569	0.05599	-0.12738
2535.643	-0.52423	0.01548	0.06835	-0.23072
2539.653	-0.54262	0.02773	0.02057	-0.09460
2543.654	-0.49520	-0.02567	-0.02276	0.06620
2547.657	-0.46579	-0.05211	0.01382	-0.05161
2551.677	-0.51570	-0.13127	0.07386	-0.06257
2555.655	-0.52327	0.02341	0.08068	-0.05519
2559.654	-0.39651	0.11304	0.07624	0.07641
2563.656	-0.48031	-0.16499	0.08639	0.02276
2567.646	-0.48001	-0.31077	0.14054	0.10486
2571.654	-0.55659	-0.14849	0.17442	0.06553
2575.653	-0.56391	-0.30821	0.14086	0.14037
2579.658	-0.57280	-0.32173	0.17285	0.17981
2583.622	-0.55039	-0.39766	0.17640	0.08615
2587.655	-0.54503	-0.40186	0.20569	-0.00870
2591.655	-0.60853	-0.46924	0.26771	-0.00306
2595.658	-0.66553	-0.33636	0.21529	0.08821
2599.677	-0.80076	-0.34074	0.31166	0.07785
2603.656	-0.83689	-0.50310	0.34563	0.08148
2607.657	-0.71913	-0.35183	0.28771	0.11990
2611.616	-0.73516	-0.35732	0.17767	0.17059
2615.682	-0.66650	-0.36354	0.24078	0.24864
2619.641	-0.69206	-0.45221	0.26128	0.27237
2623.654	-0.52637	-0.13483	0.22033	0.30991
2627.611	-0.70302	-0.07106	0.20899	0.26698
2631.613	-0.65136	0.15167	0.21408	0.43582
2635.656	-0.65878	0.12163	0.20512	0.47120
2639.652	-0.62374	0.01886	0.20685	0.42113
2643.612	-0.57779	0.11529	0.14084	0.48683
2647.652	-0.59243	-0.05213	0.14409	0.44849
2651.656	-0.51892	0.13219	0.16315	0.45185
2655.655	-0.49915	0.18219	0.18509	0.36436
2659.658	-0.40604	0.20105	0.20283	0.09870
2663.673	-0.42988	0.10876	0.21611	0.10658
2667.656	-0.40504	0.08304	0.21921	-0.01575
2671.652	-0.30104	0.16065	0.24403	0.09848
2675.657	-0.36037	0.11783	0.21901	-0.03151
2679.678	-0.32364	0.05892	0.22661	-0.01397
2683.656	-0.41298	0.06267	0.24706	-0.13727
2687.654	-0.37281	-0.05889	0.26659	-0.19163
2691.626	-0.37817	0.01123	0.27140	-0.22279
2695.678	-0.41904	-0.04388	0.26307	-0.24625
2699.656	-0.54463	-0.19533	0.28696	-0.23919
2703.633	-0.65474	-0.16529	0.29828	-0.16375
2707.656	-0.70372	-0.09951	0.29156	-0.07184
2711.647	-0.70665	-0.03804	0.30004	-0.03091
2715.655	-0.69630	-0.51507	0.28947	0.08844
2719.646	-0.70226	-0.29071	0.30798	0.09877
2723.656	-0.61039	-0.41562	0.32990	0.16085
2727.615	-0.63136	-0.17990	0.32851	0.20947
2731.654	-0.61099	-0.21600	0.31047	0.28611
2735.657	-0.51458	-0.09072	0.32002	0.35041
2739.656	-0.55237	-0.50246	0.27587	0.37017
2743.614	-0.63627	-0.18193	0.23455	0.40098
2747.653	-0.37122	-0.01752	0.18492	0.40995
2751.654	-0.23311	-0.03332	0.05884	0.39052
2755.655	-0.34633	0.20960	0.01966	0.37306
2759.654	-0.38700	0.01061	-0.10004	0.30398
2763.651	-0.53190	-0.16357	-0.11307	0.32830
2767.652	-0.66766	-0.37253	-0.12717	0.34083
2771.657	-0.64876	0.20012	-0.21420	0.34381
2775.654	-0.83049	-0.16799	-0.18216	0.32912
2779.661	-0.81297	-0.42296	-0.14471	0.34356
2783.657	-0.82153	0.20451	-0.16615	0.29550
2787.627	-0.71588	0.15728	-0.14762	0.30892
2791.650	-0.92770	-0.23698	-0.13156	0.30340
2795.657	-0.95485	-0.41243	-0.04219	0.29496
2799.657	-0.86262	-0.17437	-0.03653	0.32659
2803.657	-0.95827	-0.51874	0.03058	0.35429
2807.680	-0.86131	-0.14324	0.07599	0.37912
2811.663	-0.93093	-0.26175	0.11079	0.34443
2815.656	-0.91698	-0.31527	0.14355	0.34960
2819.657	-0.84831	0.07839	0.13483	0.34550
2823.614	-0.84208	0.01660	0.11572	0.37412
2827.613	-0.93527	-0.29646	0.07505	0.39122
2831.651	-0.92326	-0.32983	-0.00084	0.39167
2835.658	-1.03362	-0.35953	-0.01102	0.37512
2839.657	-1.02898	-0.28512	-0.04832	0.40469
2843.612	-0.98000	-0.29944	-0.05440	0.39311
2847.659	-0.88555	-0.19164	-0.13389	0.37527
2851.658	-0.86749	-0.24826	-0.13580	0.38324
2855.680	-0.89366	-0.27624	-0.21671	0.40190
2859.657	-0.90947	-0.20317	-0.23743	0.39720
2863.659	-0.92172	-0.20836	-0.27322	0.41539
2867.657	-0.90364	-0.22334	-0.27478	0.38781
2871.650	-0.80248	-0.20901	-0.26944	0.38813
2875.657	-0.76985	-0.12046	-0.23788	0.43544
2879.615	-0.64953	0.03725	-0.16893	0.48897
2883.658	-0.57332	-0.02671	-0.07123	0.51325
2887.650	-0.54064	0.16238	-0.08453	0.51675
2891.658	-0.64417	-0.00065	0.04735	0.50793
2895.614	-0.55399	0.03079	0.03427	0.55516
2899.658	-0.71796	0.14185	0.09853	0.63474
2903.655	-0.64665	0.14262	0.08433	0.66232
2907.659	-0.79799	0.08167	0.13945	0.64520
2911.661	-0.85334	0.04984	0.18784	0.57148
2915.660	-0.71020	0.19227	0.21298	0.56532
2919.662	-0.90083	0.13698	0.26808	0.51381
2923.659	-0.87947	0.04718	0.28002	0.42444
2927.660	-0.87227	0.04840	0.27850	0.44108
2931.659	-0.98172	-0.07777	0.31603	0.40562
2935.650	-1.01672	-0.15677	0.29426	0.43341
2939.655	-1.01122	-0.18380	0.26450	0.42906
2943.656	-0.97388	-0.10244	0.19177	0.40456
2947.657	-0.95869	-0.00393	0.20013	0.38210
2951.614	-0.93522	-0.15183	0.16097	0.40772
2955.650	-0.82454	-0.05936	0.10021	0.44670
2959.658	-0.83917	-0.13718	-0.00290	0.46924
2963.658	-0.72702	-0.01513	-0.02740	0.51280
2967.619	-0.65955	0.04055	-0.04839	0.59109
2971.656	-0.59334	0.04736	-0.00819	0.64960
2975.658	-0.65533	0.06562	-0.11017	0.65783
2979.660	-0.58483	0.18084	-0.10850	0.63137
2983.619	-0.65325	0.19726	-0.09612	0.68265
2987.660	-0.63933	0.24823	-0.08612	0.62575
2991.659	-0.58910	0.19359	-0.02442	0.60525
2995.629	-0.58471	0.26152	0.06634	0.46840
2999.617	-0.70161	0.28825	0.05259	0.44208
3003.664	-0.70967	0.32808	0.17005	0.35986
3007.615	-0.78727	0.26250	0.26510	0.29863
3011.665	-0.84868	0.11524	0.29706	0.12633
3015.621	-0.88927	0.09583	0.30176	0.14295
3019.661	-0.94043	0.05797	0.34030	0.07375
3023.659	-0.95782	-0.12507	0.38229	-0.06632
3027.659	-0.90952	-0.19857	0.35524	-0.05713
3031.619	-0.84724	-0.09382	0.35968	0.00743
3035.647	-0.91937	-0.12254	0.26634	-0.09892
3039.657	-0.87515	-0.28158	0.24482	-0.07624
3043.660	-0.86952	-0.39935	0.26870	-0.04870
3047.618	-0.83788	-0.29165	0.25991	-0.12559
3051.659	-0.73139	-0.31133	0.14888	-0.16768
3055.660	-0.66650	-0.24480	0.12910	-0.05758
3059.659	-0.62893	-0.26336	0.05480	-0.02629
3063.617	-0.69151	-0.33645	-0.00218	-0.04232
3067.660	-0.68208	-0.30905	-0.02450	0.08816
3071.661	-0.69335	-0.17381	-0.02241	0.14624
3075.659	-0.78930	-0.27075	0.02355	0.21380
3079.619	-0.71067	-0.16615	0.04261	0.32219
3083.661	-0.71811	-0.13244	0.06631	0.32028
3087.662	-0.63278	-0.03938	0.06517	0.28377
3091.660	-0.71131	-0.05757	0.05147	0.38615
3095.620	-0.66315	-0.02415	0.07279	0.38431
3099.660	-0.58947	-0.12551	0.08396	0.34696
3103.661	-0.58183	-0.17379	0.13186	0.18848
3107.660	-0.52870	-0.08672	0.15389	0.31029
3111.619	-0.50341	-0.03591	0.16878	0.29227
3115.661	-0.37164	0.03911	0.17990	0.29344
3119.641	-0.35531	0.22237	0.14841	0.18793
3123.663	-0.38526	-0.04816	0.13866	0.09445
3127.618	-0.32900	0.03827	0.13893	0.02736
3131.661	-0.33896	0.08794	0.14660	0.11503
3135.664	-0.32290	0.03765	0.24413	0.00338
3139.661	-0.32002	0.04421	0.18204	-0.10295
3143.621	-0.35107	0.20612	0.18085	-0.03183
3147.660	-0.38050	0.10051	0.18856	0.06200
3151.659	-0.48135	0.14710	0.12004	0.14485
3155.659	-0.46026	0.09375	0.04365	0.19429
3159.619	-0.57568	0.12051	0.09441	0.15464
3163.649	-0.64501	0.02428	0.06790	0.10981
3167.662	-0.62801	0.07718	0.07937	0.21668
3171.661	-0.66858	0.02895	0.02382	0.17124
3175.619	-0.70628	0.01995	-0.01380	0.14350
3179.661	-0.70588	0.06592	-0.06187	0.18003
3183.661	-0.73456	0.02718	-0.08383	0.29496
3187.660	-0.70030	-0.01754	-0.09681	0.29369
3191.556	-0.69799	-0.04696	-0.10485	0.32587
3195.661	-0.63513	-0.00348	-0.07368	0.29409
3199.663	-0.61131	0.00244	-0.05755	0.28149
3203.631	-0.59602	-0.02333	-0.05996	0.27249
3207.546	-0.52679	-0.00094	-0.05264	0.28760
3211.663	-0.53557	-0.05541	-0.04832	0.32540
3215.664	-0.51585	0.01317	-0.04919	0.30259
3219.618	-0.46353	0.04083	-0.04087	0.34915
3223.558	-0.44001	0.07286	-0.01516	0.33752
3227.663	-0.39819	0.11048	0.00099	0.30139
3231.662	-0.41663	0.07571	0.02536	0.20528
3235.661	-0.40077	0.07805	0.00104	0.25296
3239.663	-0.38631	0.14390	0.00787	0.24769
3243.629	-0.51098	0.05250	0.02713	0.25105
3247.659	-0.47664	0.18104	0.02380	0.32823
3251.663	-0.44373	0.16683	-0.04601	0.29235
3255.620	-0.45393	0.20214	-0.03338	0.32965
3259.662	-0.48401	0.08063	-0.03328	0.36843
3263.665	-0.50736	0.20671	-0.08780	0.41614
3267.658	-0.57069	0.08573	-0.13813	0.50818
3271.664	-0.62436	0.07238	-0.10190	0.52604
3275.662	-0.56362	0.14489	-0.11630	0.59270
3279.664	-0.59498	0.10824	-0.07487	0.60905
3283.662	-0.62121	0.07084	-0.05279	0.62068
3287.665	-0.55664	0.09646	-0.00849	0.63683
3291.662	-0.52741	0.02005	0.05991	0.64739
3295.665	-0.45872	-0.04207	0.17645	0.66607
3299.661	-0.47718	-0.01936	0.19916	0.60475
3303.558	-0.42812	-0.01503	0.19608	0.53481
3307.662	-0.43619	-0.26359	0.28163	0.52815
3311.665	-0.35720	-0.08019	0.23840	0.50641
3315.661	-0.33717	-0.17419	0.15538	0.44389
3319.668	-0.36658	-0.19916	0.32399	0.45065
3323.663	-0.35625	-0.18492	0.32774	0.43152
3327.658	-0.34439	-0.17319	0.30099	0.42617
3331.663	-0.36464	-0.19330	0.22889	0.41651
3335.667	-0.42217	-0.17294	0.15593	0.40784
3339.664	-0.43872	0.01426	0.15389	0.40319
3343.618	-0.43869	-0.13053	0.07068	0.43609
3347.664	-0.45981	-0.12091	0.07825	0.47091
3351.664	-0.44874	0.46043	0.03854	0.46087
3355.661	-0.45224	0.04197	-0.01367	0.43545
3359.662	-0.47123	0.31520	0.01365	0.43202
3363.665	-0.45991	0.10076	-0.00548	0.41562
3367.564	-0.46200	0.17183	-0.04058	0.35099
3371.652	-0.50671	0.20189	-0.07450	0.35882
3375.663	-0.50500	0.26779	-0.11476	0.40488
3379.619	-0.47088	0.13778	-0.08689	0.38446
3383.670	-0.48269	0.16340	-0.06217	0.34756
3387.665	-0.51299	0.15513	-0.02112	0.23604
3391.663	-0.51657	0.23094	0.04020	0.22898
3395.656	-0.51500	0.18845	0.06527	0.20006
3399.669	-0.55317	0.13987	0.10118	0.22272
3403.666	-0.56558	0.10983	0.09629	0.24089
3407.663	-0.62712	0.01983	0.16819	0.19929
3411.665	-0.65610	-0.04284	0.16821	0.24600
3415.538	-0.64796	-0.14146	0.24567	0.24488
3419.537	-0.65662	-0.23873	0.31220	0.22965
3423.540	-0.67774	-0.22909	0.30982	0.22764
3427.541	-0.67010	-0.26383	0.27751	0.25843
3431.558	-0.70977	-0.27205	0.24321	0.34433
3435.539	-0.68766	-0.34125	0.24341	0.36336
3439.538	-0.71414	-0.35899	0.21162	0.42474
3443.540	-0.70168	-0.39820	0.18194	0.43130
3447.560	-0.63943	-0.42556	0.16995	0.49130
3451.541	-0.63920	-0.46862	0.15116	0.47297
3455.537	-0.55635	-0.48438	0.15789	0.44757
3459.536	-0.56250	-0.49692	0.18181	0.52669
3463.561	-0.55627	-0.47568	0.17901	0.51550
3467.541	-0.57096	-0.45406	0.19517	0.50912
3471.538	-0.47765	-0.49502	0.18509	0.58711
3475.539	-0.38653	-0.47651	0.21130	0.59437
3479.564	-0.34362	-0.41487	0.17308	0.55660
3483.540	-0.42266	-0.43710	0.11491	0.53769
3487.541	-0.47545	-0.44776	0.15464	0.62967
3491.545	-0.61012	-0.41341	0.14913	0.64975
3495.564	-0.53394	-0.37478	0.09711	0.71480
3499.542	-0.55404	-0.31634	0.07713	0.67256
3503.543	-0.53016	-0.27355	0.10232	0.66282
3507.542	-0.53858	-0.23852	0.04839	0.53295
3511.563	-0.57009	-0.17426	0.01147	0.55849
3515.540	-0.67896	-0.13902	0.03276	0.51916
3519.540	-0.69667	-0.14372	0.01407	0.39944
3523.540	-0.54965	-0.10337	0.02474	0.33051
3527.560	-0.62039	-0.16459	0.07962	0.35516
3531.544	-0.54974	-0.20077	0.05676	0.32045
3535.538	-0.56056	-0.32642	0.11153	0.33369
3539.540	-0.57736	-0.30568	0.12324	0.27575
3543.533	-0.54925	-0.13746	0.12846	0.30385
3547.539	-0.58367	0.08235	0.16444	0.22645
3551.541	-0.63245	-0.16953	0.15533	0.26104
3555.542	-0.58774	-0.30938	0.17772	0.21845
3559.539	-0.55438	-0.02552	0.13722	0.20987
3563.540	-0.65012	-0.15030	0.15094	0.22031
3567.541	-0.64421	-0.15368	0.13394	0.22687
3571.541	-0.75201	-0.21567	0.09416	0.20786
3575.538	-0.73896	-0.17532	0.09649	0.23296
3579.545	-0.77955	-0.18123	0.03082	0.20901
3583.505	-0.74230	0.00181	0.04710	0.25895
3587.541	-0.84109	-0.26673	0.06502	0.29645
3591.561	-0.82684	-0.24240	0.02159	0.32997
3595.543	-0.79965	-0.40022	0.03154	0.43214
3599.540	-0.80774	-0.16275	-0.03313	0.40869
3603.539	-0.89319	-0.41885	-0.09694	0.50490
3607.540	-0.84121	-0.52989	-0.07872	0.51133
3611.544	-0.89684	-0.35274	-0.02884	0.52405
3615.545	-0.82387	-0.28042	-0.03509	0.58831
3619.537	-0.87865	-0.29741	-0.09570	0.56013
3623.534	-0.80444	-0.52979	-0.05093	0.51508
3627.544	-0.80580	-0.30772	-0.05254	0.50639
3631.542	-0.76575	-0.05658	-0.02953	0.46445
3635.542	-0.73652	-0.23861	-0.00869	0.49213
3639.567	-0.67799	-0.39815	-0.00030	0.48340
3643.498	-0.74967	-0.15283	0.06222	0.53608
3647.542	-0.56734	-0.23692	0.09324	0.49220
3651.543	-0.58076	-0.21613	0.16873	0.51548
3655.563	-0.61290	-0.41050	0.10026	0.58890
3659.548	-0.58947	-0.32322	0.14186	0.76948
3663.540	-0.53545	-0.18385	0.16851	0.67507
3667.505	-0.63491	-0.34995	0.20477	0.77392
3671.507	-0.70985	-0.26952	0.17834	0.85596
3675.545	-0.71335	-0.40605	0.13568	0.91417
3679.540	-0.63804	-0.47281	0.18854	0.99038
3683.515	-0.67235	-0.39738	0.09396	1.02343
3687.500	-0.58047	-0.45883	0.06289	1.06904
3691.542	-0.54113	-0.39836	0.03303	1.03227
3695.542	-0.53858	-0.54279	-0.01144	1.10498
3699.547	-0.47061	-0.46582	0.05058	1.10866
3703.565	-0.46885	-0.46985	0.03618	1.08466
3707.520	-0.43016	-0.44195	0.06996	1.08980
3711.545	-0.42661	-0.47877	0.02484	1.07197
3715.547	-0.32412	-0.49264	0.08885	1.10555
3719.566	-0.42368	-0.55800	0.15025	1.10358
3723.541	-0.42177	-0.49763	0.18030	1.07825
3727.545	-0.46842	-0.47735	0.23190	1.09104
3731.541	-0.36030	-0.52879	0.32652	1.05203
3735.503	-0.43440	-0.47527	0.30754	1.05630
3739.544	-0.37397	-0.48305	0.30895	1.02530
3743.498	-0.46924	-0.44639	0.29121	1.01465
3747.531	-0.48771	-0.45675	0.22006	1.03897
3751.532	-0.50354	-0.64354	0.27411	1.03477
3755.544	-0.52384	-0.43692	0.21904	1.02797
3759.543	-0.57729	-0.76450	0.29473	0.96757
3763.533	-0.48460	-0.40370	0.24537	0.82838
3767.540	-0.49743	-0.58051	0.22040	0.80831
3771.542	-0.49009	-0.44604	0.24716	0.75797
3775.544	-0.44894	-0.60576	0.14149	0.67959
3779.545	-0.54046	-0.51936	0.11344	0.69857
3783.564	-0.52205	-0.58523	0.14491	0.64771
3787.542	-0.59712	-0.60375	0.20487	0.65395
3791.516	-0.63062	-0.20338	0.21189	0.50827
3795.544	-0.58143	-0.01322	0.26217	0.51736
3799.566	-0.54245	-0.38685	0.29151	0.49960
3803.543	-0.59838	-0.31763	0.18149	0.47475
3807.542	-0.52729	-0.35999	0.26433	0.55995
3811.546	-0.47989	-0.62732	0.25098	0.60522
3815.565	-0.00695	-0.42091	0.18636	0.58197
3819.544	-0.14538	-0.31334	0.15680	0.58170
3823.544	-0.14501	-0.52574	0.08076	0.55283
3827.547	-0.35256	-0.61548	0.04107	0.51334
3831.553	-0.43036	-0.34658	0.13957	0.46119
3835.544	-0.41298	-0.33960	0.09820	0.53436
3839.545	-0.63905	-0.29139	0.09379	0.48099
3843.499	-0.82012	-0.47275	0.04693	0.44824
3847.534	-0.42852	-0.34487	0.09116	0.44146
3851.545	-0.51381	-0.38161	0.06150	0.36006
3855.543	-0.66925	-0.27662	0.04353	0.36138
3859.545	-0.70771	-0.25660	0.06098	0.50246
3863.503	-0.75702	-0.09797	0.06472	0.35830
3867.542	-0.77124	0.10088	0.06897	0.33056
3871.538	-0.83416	0.11375	0.11277	0.40193
3875.533	-0.68841	0.10667	0.05336	0.41450
3879.503	-0.76203	0.36530	-0.01700	0.35420
3883.556	-0.67950	0.42521	-0.08001	0.44916
3887.548	-0.59332	0.11283	-0.13121	0.45033
3891.544	-0.57225	0.23966	-0.19092	0.49351
3895.528	-0.39700	0.05867	-0.18174	0.49158
3899.544	-0.47525	0.16601	-0.25907	0.50283
3903.544	-0.38847	0.18231	-0.25728	0.43934
3907.549	-0.23639	-0.22240	-0.33543	0.47703
3911.503	-0.19551	0.49443	-0.32933	0.44958
3915.523	-0.24425	0.17598	-0.32161	0.47582
3919.546	-0.32888	0.38542	-0.24033	0.48874
3923.545	-0.35730	-0.00271	-0.24783	0.51200
3927.504	-0.63630	0.44129	-0.25068	0.55963
3931.542	-1.03831	0.50163	-0.40601	1.32973
3935.544	-3.25847	1.03752	0.62930	1.25312
3939.544	-1.94322	0.98046	1.86801	0.77168
3943.549	-0.74940	1.49188	2.56860	6.09230
3947.546	-0.85781	7.74885	0.18248	3.44462
3951.503	1.47987	1.97250	1.69148	8.68658
3955.546	NaN	NaN	NaN	NaN
3959.535	NaN	NaN	NaN	NaN
3963.546	NaN	NaN	NaN	NaN
3967.535	NaN	NaN	NaN	NaN
3971.544	NaN	NaN	NaN	NaN
3975.545	NaN	NaN	NaN	NaN
3979.545	NaN	NaN	NaN	NaN
3983.504	NaN	NaN	NaN	NaN
3987.545	NaN	NaN	NaN	NaN
3991.545	NaN	NaN	NaN	NaN
3995.543	NaN	NaN	NaN	NaN
3999.501	NaN	NaN	NaN	NaN
4003.511	NaN	NaN	NaN	NaN
4007.501	NaN	NaN	NaN	NaN
4011.557	NaN	NaN	NaN	NaN
4015.502	NaN	NaN	NaN	NaN
4019.545	NaN	NaN	1.28876	10.09756
4023.545	1.99515	4.33156	1.49064	9.92474
4027.545	3.53674	8.72354	NaN	NaN
4031.546	-3.53795	3.58019	NaN	NaN
4035.536	-3.62341	1.84719	0.19363	6.28655
4039.526	3.70883	6.93279	-0.68424	1.80201
4043.541	-0.30632	1.96182	-2.46285	0.44128
4047.503	-0.66893	0.95646	-1.11946	0.33858
4051.506	-0.59260	0.63516	-0.12754	0.18187
4055.546	-0.43309	0.22647	0.72637	0.09894
4059.546	-0.49840	-0.03432	0.47356	0.07621
4063.547	0.65570	0.22455	0.54595	0.09335
4067.506	0.29483	0.10807	0.95966	0.09879
4071.524	0.46443	0.43921	1.05977	0.20169
4075.546	0.10327	0.38702	1.02427	0.14090
4079.545	-0.48309	0.29855	0.78454	0.19937
4083.516	-0.77399	0.44982	-0.65898	0.15318
4087.550	-0.75404	0.32654	0.35943	0.19809
4091.545	-0.72637	0.26795	0.36189	0.32929
4095.547	-0.34097	0.24121	0.43678	0.28973
4099.550	-0.39735	0.22200	0.56910	0.37736
4103.550	-0.21117	0.19472	0.29386	0.44876
4107.547	-0.18658	0.16994	0.21629	0.45604
4111.547	-0.33491	0.06182	0.17129	0.51747
4115.555	-0.47329	0.04053	0.12349	0.61231
4119.553	-0.46810	-0.18549	0.20370	0.67643
4123.547	-0.13866	-0.04560	0.19102	0.55737
4127.547	-0.08376	-0.46579	0.18598	0.81559
4131.442	0.06254	-0.26556	0.18114	0.58445
4135.549	-0.14925	-0.16438	0.22299	0.10593
4139.549	-0.10972	-0.01647	0.22837	0.27642
4143.545	-0.29371	-0.38438	-0.03852	0.45252
4147.543	-0.17484	0.12280	0.24592	0.21681
4151.550	0.05624	-0.42558	-0.11831	-0.23505
4155.549	-0.15298	-0.20013	0.15335	0.04373
4159.505	0.18569	0.22038	0.18789	0.00487
4163.536	0.56811	-0.13219	0.33288	-0.00594
4167.550	1.02632	0.22969	0.23304	-0.33029
4171.547	-0.13900	-0.81219	0.00812	0.29381
4175.548	-0.35913	-0.76201	0.25584	0.30989
4179.446	-0.19839	-0.49304	0.25364	0.17784
4183.548	-0.36879	-1.01812	0.09478	0.24116
4187.547	-0.12694	-0.26901	0.17777	0.30020
4191.549	-0.13282	-0.58890	0.18670	0.79176
4195.552	0.02425	0.04585	0.23994	-0.06379
4199.551	0.57188	0.06048	0.16074	0.19536
4203.550	-0.22688	-0.79258	0.41097	-0.22528
4207.518	1.09572	-0.95067	0.29970	-0.20957
4211.458	0.71786	-0.50786	-0.56657	-0.21240
4215.549	1.48461	-0.30735	-0.47334	-0.35654
4219.544	0.44462	-0.87196	0.08421	0.01498
4223.549	0.74201	-0.67993	-0.01482	-0.49282
4227.447	0.12657	-0.57678	NaN	NaN
4231.549	0.10235	-0.60386	1.31840	0.41146
4235.546	-0.23127	-0.57941	-0.03852	0.46422
4239.554	0.09329	-0.58219	0.32858	0.40555
4243.548	5.32437	-5.90930	0.49113	-0.09579
4247.416	-0.24187	-1.10385	0.34295	-0.03181
4251.541	-0.30813	-0.67250	0.28582	-0.05295
4255.548	-0.06855	-0.67055	0.26798	0.05844
4259.550	-0.24589	-0.67385	0.70764	0.42597
4263.411	-0.23155	-0.54589	0.49781	0.37128
4267.550	-0.27505	-0.46012	0.53572	0.49655
4271.549	-0.30195	-0.36612	0.61156	0.39679
4275.548	-0.28602	-0.30586	0.61094	0.43952
4279.508	-0.24944	-0.30360	0.38829	0.37292
4283.547	-0.26838	-0.17292	0.30180	0.13262
4287.545	-0.30307	-0.04406	0.46976	-0.05352
4291.513	-0.26282	-0.40973	0.31560	0.12658
4295.509	-0.21073	-0.26675	0.32739	-0.02800
4299.506	-0.21614	-0.11011	0.32148	-0.03625
4303.546	-0.15938	-0.29443	0.37228	0.05325
4307.548	-0.18663	0.11090	0.40373	0.09062
4311.509	-0.24450	0.02453	0.35876	0.03996
4315.552	-0.40663	-0.16678	0.32838	0.10272
4319.508	-0.47592	0.05136	0.23874	0.05243
4323.553	-0.42641	-0.13361	0.31352	-0.12270
4327.510	-0.55250	0.01677	0.24691	-0.12193
4331.490	-0.57051	0.01372	0.26051	0.08270
4335.551	-0.68816	-0.10799	0.21063	-0.00631
4339.550	-0.60903	0.04577	0.26133	0.05350
4343.508	-0.64962	0.01337	0.21792	0.08133
4347.547	-0.72101	0.10674	0.18521	0.13751
4351.548	-0.73781	-0.02092	0.19651	0.05787
4355.549	-0.84553	-0.00447	0.25043	0.11572
4359.551	-0.82218	-0.04020	0.11419	0.10839
4363.552	-0.67082	-0.17189	0.07966	0.04622
4367.551	-0.57597	-0.00929	0.12627	0.10874
4371.549	-0.53282	-0.22229	0.12265	0.16467
4375.511	-0.40060	-0.18604	0.10029	0.14619
4379.506	-0.57109	-0.30988	0.13342	0.19757
4383.552	-0.57764	-0.30175	0.12828	0.14452
4387.549	-0.59751	-0.31164	0.07324	0.24081
4391.555	-0.52704	-0.44656	0.07095	0.12308
4395.551	-0.36355	-0.40672	0.15672	0.28159
4399.552	-0.49964	-0.48532	0.18315	0.36073
4403.551	-0.45770	-1.75404	0.24237	0.20046
4407.555	-0.44738	-0.42010	0.30707	-0.01133
4411.552	-0.61863	-0.47649	0.27220	-0.19978
4415.552	-0.58573	-0.44678	0.26287	0.02018
4419.560	-0.59248	-0.45903	0.30230	0.52410
4423.551	-0.64814	-0.43433	0.23738	0.28800
4427.551	-0.70600	-0.52434	0.21184	0.03342
4431.552	-0.66126	-0.74971	0.27942	-0.28713
4435.551	-0.72325	-0.54322	0.25292	-0.12745
4439.445	-0.65327	-0.48069	0.30223	-0.22779
4443.508	-0.66794	-0.47254	0.32637	-0.20567
4447.507	-0.77436	-0.44771	0.32183	-0.13689
4451.427	-0.76377	-0.13701	0.29409	-0.23248
4455.448	-0.73285	-0.03156	0.27835	-0.17424
4459.420	-0.79945	-0.64522	0.27297	-0.19772
4463.416	-0.81674	-0.32556	0.29481	-0.24876
4467.427	-0.72273	-0.33827	0.35422	-0.26486
4471.445	-0.74069	-0.23766	0.37578	-0.29547
4475.424	-0.74089	-0.35203	0.40668	-0.26615
4479.424	-0.72816	-0.26845	0.43656	-0.22801
4483.427	-0.75369	-0.25314	0.43944	-0.19491
4487.449	-0.78689	-0.19751	0.41909	-0.13580
4491.427	-0.74364	0.00288	0.40167	-0.16325
4495.428	-0.68369	-0.39673	0.37241	-0.13356
4499.430	-0.63417	-0.21694	0.34412	-0.11999
4503.461	-0.65024	-0.30935	0.32255	-0.01963
4507.431	-0.67278	-0.23667	0.26125	-0.11001
4511.426	-0.64312	-0.40551	0.23209	-0.08183
4515.422	-0.66593	-0.33882	0.19035	-0.05169
4519.450	-0.61335	-0.38280	0.25331	-0.08173
4523.427	-0.61444	-0.18005	0.18303	-0.12854
4527.427	-0.56833	-0.16964	0.17484	-0.07907
4531.428	-0.58168	-0.40439	0.02440	-0.06988
4535.446	-0.50058	-0.17036	0.07100	-0.15665
4539.428	-0.61459	-0.18974	0.12200	-0.11490
4543.414	-0.63585	-0.31487	0.12213	-0.06262
4547.431	-0.53433	-0.44050	0.22174	-0.18729
4551.448	-0.52741	-0.37801	0.23554	-0.10615
4555.430	-0.56759	-0.34188	0.04825	-0.18525
4559.424	-0.52473	-0.30131	0.12560	-0.23746
4563.430	-0.56190	-0.23424	0.08267	-0.09075
4567.445	-0.54605	-0.31567	0.05758	-0.16313
4571.426	-0.51753	-0.37152	0.02517	-0.10755
4575.427	-0.53396	-0.35562	-0.01437	-0.13669
4579.429	-0.52873	-0.37031	0.04641	0.09023
4583.448	-0.50617	-0.24888	0.03636	-0.01021
4587.393	-0.52679	-0.22905	0.01963	0.10476
4591.428	-0.48475	-0.31147	-0.00045	0.16679
4595.430	-0.52165	-0.24647	0.02435	0.33176
4599.447	-0.50138	-0.26689	0.01191	0.31349
4603.427	-0.52359	-0.27427	0.12597	0.27351
4607.428	-0.51274	-0.44052	0.10324	0.19415
4611.429	-0.50853	-0.31823	0.07443	0.31402
4615.454	-0.55917	-0.45861	0.13754	0.26501
4619.428	-0.56816	-0.47933	0.16114	0.35141
4623.432	-0.48813	-0.48219	0.16625	0.27383
4627.383	-0.50019	-0.45422	0.12985	-0.04547
4631.450	-0.53309	-0.45237	0.14325	-0.16475
4635.427	-0.64317	-0.48039	0.17928	-0.01491
4639.427	-0.61558	-0.46024	0.16402	-0.11808
4643.385	-0.65769	-0.55033	0.15213	-0.08190
4647.421	-0.54684	-0.45001	0.10339	-0.00808
4651.427	-0.53786	-0.31316	0.07537	0.00440
4655.430	-0.57183	-0.36054	0.08123	-0.01076
4659.430	-0.55074	-0.14787	0.07371	-0.05213
4663.432	-0.57104	-0.31030	0.18618	-0.07196
4667.423	-0.61955	-0.25613	0.18430	-0.10009
4671.419	-0.52270	-0.20271	0.17477	0.00750
4675.431	-0.54960	-0.30009	0.27394	0.08642
4679.451	-0.53756	-0.36817	0.10178	0.07067
4683.429	-0.50974	-0.41908	-0.10808	-0.05293
4687.430	-0.52771	-0.31102	0.12523	-0.04381
4691.429	-0.57166	-0.36784	0.04552	-0.08869
4695.447	-0.61885	-0.37313	0.09838	0.00365
4699.429	-0.60548	-0.44673	0.13136	-0.11498
4703.431	-0.63771	-0.41818	0.05033	-0.20269
4707.431	-0.69811	-0.46282	0.07172	-0.27063
4711.388	-0.67608	-0.41452	0.02477	-0.10176
4715.429	-0.82796	-0.45530	0.02378	-0.03941
4719.431	-0.77774	-0.38778	-0.03675	-0.19156
4723.433	-0.86920	-0.26074	-0.00851	-0.16579
4727.415	-0.80248	-0.51019	0.01683	-0.10506
4731.430	-0.67114	-0.35338	0.00414	-0.01354
4735.429	-0.68057	-0.38585	0.00263	-0.07567
4739.427	-0.79871	-0.45267	0.02874	-0.14671
4743.413	-0.70806	-0.48416	0.02881	-0.09371
4747.428	-0.76622	-0.34415	0.04127	0.00231
4751.415	-0.78049	-0.31545	0.02122	-0.08245
4755.428	-0.59794	-0.31576	0.01827	-0.07741
4759.452	-0.62665	-0.45624	0.00581	-0.24625
4763.420	-0.50083	-0.35925	0.02358	-0.15553
4767.430	-0.50009	-0.37195	-0.02876	-0.22588
4771.434	-0.59287	-0.43915	-0.03904	-0.27697
4775.448	-0.67146	-0.42546	-0.06031	-0.40168
4779.430	-0.61258	-0.50005	-0.08138	-0.45480
4783.429	-0.61387	-0.42404	-0.25058	-0.31801
4787.429	-0.59692	-0.25215	-0.23338	-0.36510
4791.449	-0.58764	-0.11905	-0.15794	0.37700
4795.433	-0.60377	1.18336	-0.26309	1.30496
4799.430	-0.56009	1.93859	-0.30823	2.42551
4803.431	-0.62727	2.45005	-0.29630	2.65637
4807.452	-0.69025	2.48906	-0.35898	2.93690
4811.431	-0.88054	2.81361	-0.36050	2.96872
4815.429	-0.84662	2.81849	-0.38142	2.99825
4819.433	-0.80488	2.62982	-0.39124	2.59326
4823.455	-0.81828	2.56720	-0.43001	2.33729
4827.428	-0.96484	2.57560	-0.41690	2.65639
4831.431	-0.89294	2.54426	-0.40249	2.55787
4835.431	-0.89924	2.45448	-0.42140	2.70657
4839.451	-0.82146	2.56930	-0.38358	2.71288
4843.386	-1.04987	2.68162	-0.32238	2.61012
4847.432	-0.96224	2.60826	-0.34484	2.52922
4851.429	-0.92656	2.72032	-0.32933	2.56144
4855.435	-0.93611	2.73516	-0.40023	2.55413
4859.433	-0.88322	2.70337	-0.26952	2.46208
4863.433	-0.86669	2.75852	-0.21614	2.48815
4867.433	-0.87208	2.69493	-0.20651	2.59916
4871.448	-0.82521	2.79404	-0.21767	2.72177
4875.428	-0.77781	2.83014	-0.22596	2.93470
4879.386	-0.81468	2.74207	-0.19469	2.91357
4883.430	-0.83121	2.40681	-0.17233	2.85349
4887.428	-0.79342	2.70740	-0.19455	2.81149
4891.430	-0.82744	2.84579	-0.15355	2.79415
4895.429	-0.88145	2.92576	-0.08964	2.79698
4899.435	-0.92440	2.95355	-0.08592	2.78883
4903.428	-0.94611	3.04107	-0.06577	2.85739
4907.430	-1.04927	3.14787	-0.10309	2.90555
4911.430	-1.01866	2.91466	-0.14059	2.92401
4915.432	-0.98765	2.96313	-0.11724	2.93777
4919.422	-1.06180	2.84900	-0.09706	2.92436
4923.434	-0.96787	2.89044	-0.06723	2.93041
4927.432	-1.06021	2.93356	-0.00730	3.00622
4931.432	-0.99286	2.82209	0.09714	3.01829
4935.435	-0.95728	2.89967	0.00032	3.08450
4939.432	-0.73444	2.90321	-0.04817	3.05878
4943.428	-0.81548	2.81988	-0.03688	3.01814
4947.397	-0.82501	2.83325	-0.09925	2.95797
4951.433	-0.73094	2.79688	-0.09838	2.88418
4955.431	-0.75503	2.78824	-0.06554	2.80439
4959.418	-0.76613	2.86671	-0.08686	3.05885
4963.429	-0.86875	2.96341	-0.38070	3.28848
4967.391	-2.48101	3.27377	-1.79016	3.98075
4971.432	-3.20095	3.89028	-3.02489	5.24873
4975.430	-3.91267	4.34906	-3.36715	5.13089
4979.432	-4.02705	4.48046	-3.19917	5.02077
4983.391	-4.27506	4.57330	-3.09701	4.71560
4987.433	-4.11755	4.65839	-2.94864	4.81315
4991.433	-4.19282	4.60297	-2.97802	4.98551
4995.431	-4.12137	4.56442	-3.05286	5.03346
4999.392	-4.17655	4.66400	-3.10629	4.94592
5003.429	-4.22446	4.62597	-3.09785	4.90630
5007.389	-4.31292	4.72663	-3.08919	5.03595
5011.431	-4.35516	4.77957	-3.10799	5.14435
5015.392	-4.41487	4.86143	-3.04293	5.21518
5019.430	-4.24337	4.81757	-3.00688	5.20548
5023.436	-4.34470	4.75997	-3.01970	5.24078
5027.434	-4.32136	4.77119	-3.00292	5.27844
5031.391	-4.35403	4.69554	-2.99002	5.30682
5035.433	-4.37322	4.71110	-2.99599	5.31291
5039.433	-4.36626	4.66797	-2.94985	5.40332
5043.411	-4.31136	4.65396	-2.92856	5.39607
5047.392	-4.29352	4.69805	-2.94497	5.39970
5051.435	-4.21856	4.62155	-2.97371	5.38542
5055.433	-4.12789	4.51419	-2.97237	5.29069
5059.434	-4.08066	4.39807	-3.00242	5.31232
5063.419	-3.91973	4.20584	-3.01230	5.32888
5067.434	-3.99452	4.35292	-2.94475	5.30639
5071.436	-4.02606	4.21324	-2.92436	5.26166
5075.434	-3.93779	4.20871	-2.89562	5.32653
5079.398	-3.83542	4.19213	-2.99777	5.24598
5083.426	-3.80191	4.23189	-3.03128	5.19680
5087.422	-3.74669	3.91060	-3.04286	5.20334
5091.432	-3.65633	3.72872	-3.01829	5.16299
5095.393	-3.72536	3.99386	-3.00787	5.20063
5099.433	-3.73206	4.13713	-2.97049	5.22202
5103.433	-3.72526	4.11760	-2.98448	5.18137
5107.434	-3.74382	4.05665	-2.96391	5.13083
5111.391	-3.76262	4.08994	-2.97569	5.13865
5115.434	-3.81632	4.21081	-2.98601	5.12342
5119.434	-3.79223	4.18422	-3.06434	5.06192
5123.436	-3.81768	4.29573	-3.04375	5.02688
5127.392	-3.85607	4.07354	-3.01841	5.02838
5131.434	-3.83645	4.12516	-3.00158	5.03227
5135.437	-3.86188	4.19454	-2.89594	4.96356
5139.436	-3.85681	4.22196	-2.91970	4.93097
5143.395	-3.86217	4.20349	-2.82511	4.92807
5147.437	-3.79124	4.24070	-2.80152	4.92086
5151.437	-3.82329	4.23815	-2.73368	4.91941
5155.435	-3.84789	4.30596	-2.67910	4.94752
5159.394	-3.78348	4.25650	-2.66659	4.96472
5163.435	-3.76776	4.33493	-2.69188	4.93969
5167.434	-3.75027	4.34771	-2.67747	5.00863
5171.436	-3.72452	4.40360	-2.68754	5.06282
5175.394	-3.69766	4.44537	-2.64242	5.08145
5179.434	-3.68789	4.49908	-2.62618	5.10486
5183.435	-3.70250	4.55070	-2.65429	5.13403
5187.435	-3.70285	4.60986	-2.65166	5.13054
5191.391	-3.76767	4.65233	-2.65946	5.11746
5195.435	-3.79724	4.70318	-2.66441	5.28017
5199.436	-3.82452	4.72779	-2.67296	5.31481
5203.436	-3.87816	4.76383	-2.67179	5.31046
5207.394	-3.93300	4.80028	-2.64906	5.42285
5211.397	-3.88703	4.81004	-2.63534	5.48020
5215.435	-3.99326	4.89227	-2.63170	5.46172
5219.437	-3.95328	4.91161	-2.64034	5.55054
5223.395	-3.95888	4.93980	-2.65629	5.54870
5227.437	-4.04461	4.97680	-2.64965	5.63164
5231.435	-4.08873	4.79326	-2.93044	5.59555
5235.434	-5.17144	4.92098	-4.43046	5.67609
5239.394	-6.09523	4.88921	-6.12151	5.59147
5243.390	-6.90339	4.74124	-6.80010	5.18483
5247.435	-8.28250	4.40466	-8.78445	4.85884
5251.413	-8.57607	3.69289	-9.21094	3.46607
5255.297	-9.96913	3.31197	-9.47507	3.98980
5259.393	-9.85221	3.62411	-10.80527	3.28158
5263.436	-10.71351	3.59568	-11.04408	3.27749
5267.435	-11.55866	3.47995	-11.19917	3.25772
5271.435	-11.79917	2.90890	-11.40639	3.42525
5275.436	-11.97994	3.23627	-11.40980	3.25565
5279.436	-11.99049	3.27811	-11.09891	3.26193
5283.435	-11.94553	3.22575	-11.05091	3.10015
5287.440	-12.00182	3.19617	-11.10668	3.20383
5291.430	-12.07588	3.19745	-11.14462	3.06617
5295.430	-12.10957	3.18840	-11.14017	3.03687
5299.435	-12.11771	3.27237	-11.15644	2.93920
5303.333	-12.21226	3.32330	-11.23891	2.98098
5307.435	-12.19055	3.27544	-11.27708	2.96897
5311.435	-12.22134	3.26652	-11.23306	2.95873
5315.437	-12.20947	3.37102	-11.21293	2.85327
5319.396	-12.20371	3.40207	-11.14565	2.71203
5323.417	-12.21143	3.45475	-11.21653	2.66202
5327.438	-12.25626	3.48426	-11.23860	2.72697
5331.436	-12.29239	3.47280	-11.26674	2.69495
5335.440	-12.25929	3.50150	-11.26175	2.71936
5339.438	-12.26661	3.41655	-11.27913	2.74847
5343.394	-12.26164	3.36846	-11.26385	2.82841
5347.436	-12.18305	3.35644	-11.24153	2.83906
5351.440	-12.10001	3.26617	-11.25500	2.95814
5355.439	-12.01727	3.24944	-11.30698	3.14448
5359.437	-11.96496	3.24825	-11.28383	3.14969
5363.437	-12.02826	2.99946	-11.31281	2.88918
5367.334	-12.07360	2.92060	-11.28887	2.96328
5371.439	-12.15550	2.92554	-11.33154	3.11557
5375.422	-12.09422	2.94376	-11.31281	3.08193
5379.436	-12.17186	2.98736	-11.28374	2.96319
5383.442	-12.17935	2.81065	-11.29147	2.86523
5387.440	-12.13816	2.72626	-11.24877	2.78669
5391.439	-12.22639	2.71406	-11.20846	2.74182
5395.437	-12.18218	2.72673	-11.14990	2.74977
5399.438	-12.28244	2.85432	-11.14524	2.69863
5403.439	-12.35914	2.88719	-11.11210	2.66707
5407.434	-12.32205	2.89087	-11.09255	2.74126
5411.436	-12.36049	3.02812	-11.03874	2.75072
5415.439	-12.32153	3.09756	-10.99664	2.72872
5419.440	-12.31895	3.13903	-11.01003	2.77766
5423.393	-12.30943	3.19254	-10.96124	2.80362
5427.439	-12.30040	3.15852	-10.94069	2.84760
5431.438	-12.30355	3.25185	-10.92478	2.87576
5435.439	-12.27270	3.29991	-10.93758	2.89268
5439.437	-12.34889	3.37158	-10.93727	2.88268
5443.438	-12.31251	3.37935	-10.91085	2.91469
5447.419	-12.28147	3.43705	-10.90061	2.91956
5451.439	-12.30900	3.48596	-10.89441	2.90692
5455.437	-12.32101	3.51753	-10.89068	2.88770
5459.414	-12.35228	3.52691	-10.90576	2.87519
5463.329	-12.35154	3.43966	-10.93289	2.65476
5467.440	-12.41043	3.09518	-11.22575	2.57029
5471.438	-12.44612	1.54682	-11.59525	0.26508
5475.439	-12.46363	1.06204	-11.44652	0.18877
5479.334	-12.39627	0.65082	-11.27421	-0.30306
5483.439	-12.28652	0.54034	-11.26636	-0.11179
5487.312	-12.11977	0.65203	-11.36553	0.49451
5491.313	-12.11769	0.75688	-11.62854	-0.24283
5495.272	-11.95786	0.45614	-11.49297	-0.10332
5499.312	-12.12563	0.51729	-11.68388	-0.11651
5503.314	-12.13666	0.40657	-11.72834	-0.14805
5507.296	-11.99571	0.37869	-11.60104	-0.20469
5511.308	-11.87180	0.41118	-11.49631	-0.22254
5515.315	-11.75665	0.42016	-11.48928	-0.09161
5519.311	-11.88437	0.30220	-11.43896	-0.06576
5523.314	-11.86728	0.31985	-11.22597	-0.11955
5527.313	-11.86907	0.28119	-11.15523	0.01741
5531.313	-11.85488	0.20982	-11.16399	-0.12779
5535.313	-11.90093	0.13468	-11.25903	-0.14196
5539.314	-11.86895	0.12475	-11.23072	-0.11516
5543.442	-11.88677	0.15939	-11.26101	-0.21144
5547.311	-11.81919	0.26329	-11.23533	-0.19701
5551.315	-11.79713	0.33460	-11.14474	-0.20099
5555.315	-11.83683	0.34102	-11.16891	-0.15568
5559.311	-11.87130	0.40984	-11.15064	-0.13741
5563.318	-11.80057	0.39273	-11.18217	-0.21847
5567.315	-11.85255	0.38366	-11.21661	-0.23980
5571.271	-11.85816	0.39432	-11.30176	-0.25900
5575.313	-11.85989	0.38858	-11.34912	-0.23947
5579.311	-11.85585	0.43414	-11.35857	-0.17697
5583.313	-11.85533	0.44321	-11.36782	-0.19012
5587.314	-11.89704	0.44433	-11.33896	-0.15637
5591.314	-11.95325	0.40610	-11.33173	-0.11154
5595.316	-11.98139	0.38824	-11.33197	-0.10184
5599.315	-11.99479	0.34848	-11.32307	-0.08572
5603.312	-11.97603	0.36041	-11.37183	-0.03564
5607.315	-12.05620	0.34804	-11.37665	0.01060
5611.315	-12.05354	0.36918	-11.34795	0.01698
5615.315	-12.01936	0.40065	-11.29305	-0.00560
5619.313	-12.03529	0.46313	-11.19738	-0.01687
5623.311	-12.05326	0.44643	-11.12596	0.04025
5627.320	-12.10160	0.47451	-10.99831	0.03681
5631.316	-12.09493	0.49357	-10.81073	0.04679
5635.316	-12.05521	0.52625	-10.69649	0.05157
5639.312	-12.02964	0.52249	-10.79679	0.07225
5643.271	-11.97584	0.56428	-10.88247	0.02772
5647.315	-11.96068	0.55726	-10.97798	0.10648
5651.316	-11.94532	0.55561	-11.01094	0.00422
5655.312	-11.89611	0.50521	-10.99953	0.02115
5659.317	-11.88247	0.48698	-10.90987	0.08406
5663.315	-11.88480	0.43443	-11.10634	0.08551
5667.315	-11.85694	0.49699	-11.11783	0.15254
5671.311	-11.81974	0.47512	-11.14295	0.23369
5675.317	-11.75971	0.46856	-11.14765	0.28179
5679.316	-11.71042	0.53135	-11.18434	0.30986
5683.316	-11.70100	0.54752	-11.17579	0.30338
5687.313	-11.87173	0.86088	-11.28610	0.38319
5691.316	-11.97619	1.03080	-11.20381	0.27885
5695.318	-5.30894	0.62512	-12.65172	0.80348
5699.318	-16.01961	3.79799	-13.29032	3.64237
5703.336	-12.44536	2.76068	-15.40168	4.55693
5707.272	NaN	NaN	-13.81064	4.85988
5711.315	NaN	NaN	NaN	NaN
5715.285	NaN	NaN	NaN	NaN
5719.318	NaN	NaN	NaN	NaN
5723.336	NaN	NaN	NaN	NaN
5727.318	NaN	NaN	NaN	NaN
5731.314	NaN	NaN	NaN	NaN
5735.312	NaN	NaN	NaN	NaN
5739.315	NaN	NaN	NaN	NaN
5743.270	NaN	NaN	NaN	NaN
5747.315	NaN	NaN	NaN	NaN
5751.317	NaN	NaN	NaN	NaN
5755.295	NaN	NaN	NaN	NaN
5759.310	NaN	NaN	NaN	NaN
5763.272	NaN	NaN	NaN	NaN
5767.316	NaN	NaN	NaN	NaN
5771.315	-12.93377	2.37902	-13.85262	7.27850
5775.318	-16.34348	5.21487	-19.05090	11.72205
5779.318	-17.31608	5.37594	-14.55323	8.57485
5783.337	-16.34474	3.26790	-14.80479	7.25140
5787.318	-16.20215	2.85595	-14.80331	5.58357
5791.318	-16.30071	2.89498	-14.90658	3.95134
5795.318	-15.93421	2.75526	-14.49048	2.48325
5799.340	-15.26164	2.76501	-11.82010	1.69559
5803.315	-14.89008	2.72280	-11.80286	1.42493
5807.316	-13.99384	2.58651	-11.55581	1.39496
5811.319	-13.52252	2.54106	-11.77011	1.49096
5815.337	-13.15235	2.50104	-11.77955	1.72360
5819.319	-13.24043	2.48742	-11.68795	1.74625
5823.318	-12.96503	2.42151	-11.68845	2.01688
5827.310	-12.99079	2.30738	-11.60854	2.12078
5831.309	-12.84487	2.23214	-11.61061	2.54465
5835.318	-12.77138	1.97635	-11.30130	1.84460
5839.317	-12.65548	1.88973	-11.25708	1.79992
5843.272	-12.73184	1.85515	-11.11838	1.56737
5847.276	-12.66684	1.87211	-11.12445	1.78964
5851.318	-12.62055	1.80225	-11.19218	1.84029
5855.324	-12.60807	1.69009	-11.31292	1.77669
5859.317	-12.59923	1.68305	-11.20877	1.77762
5863.272	-12.57777	1.65307	-11.24094	1.83676
5867.315	-12.61096	1.65727	-11.21458	1.88348
5871.318	-12.54566	1.60626	-11.23678	1.79481
5875.320	-12.53689	1.53893	-11.25020	1.80858
5879.276	-12.52934	1.51389	-11.31078	1.80913
5883.309	-12.57545	1.51682	-11.39458	1.77107
5887.320	-12.55630	1.45995	-11.42971	1.78754
5891.318	-12.55526	1.40180	-11.48315	1.77618
5895.278	-12.60779	1.39410	-11.48308	1.86060
5899.318	-12.58555	1.36295	-11.42189	1.92448
5903.319	-12.55145	1.40623	-11.45133	1.99023
5907.318	-12.51231	1.42562	-11.43214	1.92935
5911.304	-12.52170	1.38749	-11.44299	1.93541
5915.317	-12.48715	1.37475	-11.41969	1.86948
5919.317	-12.54008	1.47752	-11.39871	1.86816
5923.283	-12.49862	1.44808	-11.35072	1.83209
5927.305	-12.48778	1.43371	-11.35594	1.83797
5931.317	-12.59751	1.50971	-11.32027	1.90117
5935.318	-12.60803	1.51830	-11.19547	1.88397
5939.275	-12.62244	1.56115	-11.17035	1.87990
5943.278	-12.56713	1.60996	-11.09989	1.80701
5947.319	-12.60323	1.59728	-11.16299	1.78382
5951.283	-12.63894	1.61898	-11.12010	1.77980
5955.322	-12.50247	1.61235	-11.04831	1.72522
5959.312	-12.24614	1.51709	-10.79940	1.60955
5963.301	-11.99016	1.17547	-10.74793	1.19859
5967.317	-11.95004	0.94040	-10.71767	0.81601
5971.318	-11.79720	0.96653	-10.69014	1.38437
5975.321	-11.71246	0.93654	-10.59917	1.32149
5979.318	-11.56364	0.82947	-10.67775	1.25774
5983.321	-11.59920	0.71300	-10.62969	1.18951
5987.320	-11.52419	0.67018	-10.62739	1.01701
5991.321	-11.49793	0.64760	-10.52146	1.09224
5995.317	-11.46928	0.55384	-10.54423	0.99533
5999.322	-11.40760	0.53185	-10.45197	0.95456
6003.317	-11.42105	0.42873	-10.49783	0.97841
6007.313	-11.43503	0.39030	-10.45682	0.95227
6011.320	-11.47803	0.44822	-10.45433	0.98133
6015.313	-11.48933	0.38935	-10.43762	0.96621
6019.320	-11.51342	0.33954	-10.34581	0.91686
6023.322	-11.62951	0.27853	-10.26525	0.86236
6027.321	-11.59573	0.19349	-10.18587	0.85343
6031.322	-11.66291	0.22503	-10.16776	0.86382
6035.320	-11.70376	0.16215	-10.18724	0.84130
6039.325	-11.83386	0.17898	-10.10074	0.82237
6043.321	-11.83726	0.17737	-10.12246	0.80686
6047.304	-11.86372	0.29333	-9.99722	0.75183
6051.322	-11.86457	0.27803	-10.09294	0.71017
6055.325	-11.80673	0.34125	-10.07629	0.75140
6059.321	-11.77242	0.35752	-10.07767	0.80847
6063.283	-11.83417	0.36763	-10.09107	0.78363
6067.320	-11.83386	0.44477	-10.11163	0.86094
6071.319	-11.84765	0.44604	-10.10329	0.89621
6075.319	-11.81375	0.49912	-10.05435	0.94077
6079.322	-11.78502	0.52855	-10.03669	0.90085
6083.322	-11.73949	0.55479	-9.98721	0.84938
6087.278	-11.75410	0.57004	-10.04107	0.86815
6091.320	-11.71939	0.56797	-10.02629	0.86034
6095.320	-11.70383	0.60043	-10.02757	0.85436
6099.320	-11.68957	0.57005	-10.01412	0.84501
6103.319	-11.70704	0.57468	-10.05543	0.80549
6107.321	-11.71282	0.56183	-10.08277	0.76000
6111.325	-11.67072	0.51918	-10.10514	0.75077
6115.322	-11.66687	0.56610	-10.17103	0.64901
6119.321	-11.65737	0.44944	-10.20784	0.61675
6123.321	-11.64782	0.47656	-10.22937	0.58832
6127.323	-11.61997	0.44833	-10.28457	0.61279
6131.296	-11.56519	0.44433	-10.26593	0.62312
6135.313	-11.57593	0.43582	-10.24331	0.61255
6139.321	-11.52829	0.42111	-10.21402	0.62439
6143.278	-11.56683	0.45786	-10.22627	0.62173
6147.322	-11.59172	0.45831	-10.14049	0.61067
6151.322	-11.52526	0.46353	-10.01400	0.69354
6155.321	-11.53420	0.53655	-10.01262	0.69185
6159.324	-11.51800	0.55306	-9.95488	0.76766
6163.322	-11.48871	0.60671	-9.98239	0.79451
6167.319	-11.49788	0.57407	-9.92134	0.73661
6171.302	-11.50127	0.59629	-9.91235	0.84679
6175.322	-11.47362	0.56876	-9.92967	0.86245
6179.321	-11.46404	0.53839	-9.94079	0.87446
6183.216	-11.48990	0.52341	-9.91079	0.86727
6187.320	-11.51800	0.53064	-9.91495	0.89450
6191.279	-11.51607	0.56049	-9.89631	0.86893
6195.322	-11.50827	0.54868	-9.89306	0.80569
6199.219	-11.49831	0.51101	-9.92312	0.72946
6203.319	-11.56776	0.49508	-9.95993	0.77399
6207.322	-11.57212	0.44619	-10.03785	0.77671
6211.316	-11.59861	0.43201	-9.97252	0.66791
6215.326	-11.61089	0.36223	-9.98244	0.57451
6219.303	-11.63654	0.31007	-10.00293	0.51232
6223.323	-11.67108	0.35590	-10.01024	0.53303
6227.324	-11.71967	0.38112	-10.05325	0.38560
6231.220	-11.71454	0.34531	-10.09934	0.35724
6235.322	-11.72393	0.36301	-10.22079	0.36980
6239.325	-11.76685	0.29501	-10.34076	0.38142
6243.279	-11.76821	0.35220	-10.28517	0.40383
6247.217	-11.75208	0.27882	-10.35839	0.39139
6251.322	-11.69545	0.28513	-10.32131	0.32641
6255.294	-11.60325	0.31349	-10.28614	0.38217
6259.324	-11.65992	0.38118	-10.29961	0.42362
6263.325	-11.71730	0.38297	-10.27744	0.46983
6267.323	-11.73778	0.34659	-10.33560	0.49314
6271.324	-11.76699	0.32111	-10.37604	0.42816
6275.325	-11.70121	0.32725	-10.42514	0.42679
6279.326	-11.61185	0.43418	-10.34912	0.37060
6283.319	-11.59037	0.39230	-10.21813	0.49403
6287.322	-11.60956	0.39405	-10.21159	0.45618
6291.325	-11.55400	0.36082	-10.15617	0.41803
6295.221	-11.60675	0.44127	-10.17146	0.42188
6299.311	-11.56617	0.48927	-10.35145	0.45244
6303.321	-11.51001	0.40619	-10.26698	0.47373
6307.326	-11.55847	0.44463	-10.16490	0.48868
6311.328	-11.55416	0.51283	-10.16201	0.30293
6315.324	-11.47717	0.55363	-10.23115	0.34871
6319.323	-11.45055	0.62124	-10.09920	0.30727
6323.278	-11.55168	0.56989	-10.11365	0.34145
6327.222	-11.56583	0.50774	-10.17594	0.12224
6331.327	-11.55916	0.46992	-10.12197	0.40597
6335.324	-11.57298	0.52560	-10.12515	0.33014
6339.289	-11.54154	0.53695	-10.16942	0.29996
6343.188	-11.58153	0.61104	-10.09778	0.33180
6347.324	-11.65875	0.66178	-10.17598	0.31411
6351.323	-11.65344	0.63668	-10.27561	0.22089
6355.323	-11.56824	0.50477	-10.33428	0.32410
6359.326	-11.62554	0.55529	-10.24478	0.32852
6363.324	-11.68902	0.56689	-10.18822	0.40902
6367.325	-11.59532	0.63423	-10.26874	0.42948
6371.324	-11.59651	0.65504	-10.24951	0.43332
6375.330	-11.66977	0.60635	-10.28095	0.36567
6379.307	-11.66760	0.64516	-10.36908	0.36843
6383.325	-11.63970	0.54567	-10.34926	0.33254
6387.329	-11.63961	0.52842	-10.37681	0.31893
6391.326	-11.58306	0.52536	-10.35781	0.34996
6395.323	-11.54813	0.50456	-10.28818	0.50223
6399.323	-11.63759	0.53078	-10.24704	0.54144
6403.323	-11.67015	0.47424	-10.26497	0.40701
6407.222	-11.73152	0.47576	-10.27998	0.36032
6411.326	-11.74235	0.38471	-10.33387	0.45591
6415.327	-11.66161	0.47017	-10.38927	0.39417
6419.324	-11.71213	0.45645	-10.32210	0.63195
6423.230	-11.69745	0.43621	-10.27898	0.48697
6427.324	-11.76894	0.47575	-10.33440	0.44332
6431.329	-11.79332	0.44285	-10.37073	0.47881
6435.324	-11.85949	0.44415	-10.46805	0.35424
6439.223	-11.85882	0.46244	-10.48970	0.32616
6443.324	-11.83431	0.45837	-10.35911	0.45455
6447.325	-11.86010	0.42737	-10.36158	0.35737
6451.282	-11.82373	0.38105	-10.42708	0.32655
6455.328	-11.74960	0.43007	-10.56198	0.33420
6459.324	-11.79636	0.42051	-10.46229	0.25882
6463.303	-11.85661	0.47837	-10.35135	0.23191
6467.326	-11.83324	0.44932	-10.31840	0.19981
6471.220	-11.89145	0.44932	-10.33159	0.26756
6475.325	-11.90982	0.41093	-10.39571	0.23617
6479.324	-11.90759	0.42370	-10.49056	0.26616
6483.327	-11.90452	0.38232	-10.43472	0.22806
6487.337	-11.90231	0.39876	-10.18002	0.20867
6491.324	-11.81662	0.46689	-10.46325	0.21902
6495.325	-11.69657	0.41602	-10.44905	0.23611
6499.325	-11.87491	0.45893	-10.44288	0.22255
6503.315	-11.84665	0.42114	-10.53389	0.23761
6507.280	-11.81501	0.34441	-10.42084	0.23327
6511.325	-11.85190	0.42541	-10.54121	0.20543
6515.330	-11.84123	0.36429	-10.57378	0.11090
6519.195	-11.84919	0.44151	-10.52274	0.12404
6523.202	-11.85214	0.41347	-10.54387	0.18486
6527.198	-11.74504	0.44502	-10.51914	0.18035
6531.204	-11.80041	0.41793	-10.57788	0.16102
6535.198	-11.83331	0.51926	-10.60452	0.13771
6539.200	-11.88834	0.50654	-10.57562	0.17815
6543.199	-11.91013	0.48960	-10.58256	0.17922
6547.204	-11.94783	0.53888	-10.57831	0.18503
6551.198	-11.97040	0.53750	-10.65388	0.13334
6555.202	-11.95494	0.53945	-10.62552	0.26145
6559.202	-11.90538	0.59846	-10.64422	0.23110
6563.203	-11.93619	0.56971	-10.69848	0.22820
6567.198	-11.88071	0.59421	-10.69367	0.22669
6571.203	-11.90621	0.55141	-10.78728	0.23348
6575.202	-11.96415	0.46812	-10.67715	0.24433
6579.195	-11.98890	0.49930	-10.65796	0.28118
6583.224	-11.99773	0.53764	-10.73241	0.24363
6587.199	-11.93177	0.54886	-10.73104	0.27093
6591.196	-11.93491	0.54951	-10.75871	0.30032
6595.202	-11.88216	0.56617	-10.67413	0.30394
6599.201	-11.89160	0.60595	-10.59625	0.30378
6603.200	-11.93498	0.58198	-10.66004	0.35411
6607.200	-11.91182	0.60207	-10.68108	0.34269
6611.203	-11.84375	0.55108	-10.71238	0.29678
6615.200	-11.95748	0.47318	-10.70263	0.31786
6619.202	-11.97220	0.60757	-10.82026	0.29403
6623.203	-11.94206	0.51847	-10.72206	0.31576
6627.158	-11.90588	0.39258	-10.66217	0.33104
6631.197	-11.87548	0.43814	-10.71657	0.31220
6635.177	-11.88221	0.41306	-10.69077	0.27318
6639.203	-11.90562	0.30524	-10.62289	0.32981
6643.159	-11.95342	0.33006	-10.68602	0.36251
6647.198	-11.94852	0.27658	-10.84568	0.29276
6651.203	-11.91571	0.24532	-10.85105	0.20786
6655.201	-11.96515	0.24985	-10.89066	0.21212
6659.203	-11.96983	0.25415	-10.70771	0.20942
6663.223	-11.95826	0.18680	-10.67102	0.20744
6667.202	-11.89286	0.12469	-10.68437	0.18775
6671.203	-11.90507	0.08916	-10.69434	0.21221
6675.191	-11.94548	0.12080	-10.68595	0.26574
6679.200	-12.01606	0.10723	-10.75553	0.31414
6683.202	-12.07728	0.16193	-10.85792	0.20443
6687.203	-12.05260	0.15183	-10.82423	0.12384
6691.160	-12.02321	0.20155	-10.73921	0.15303
6695.214	-12.07794	0.19126	-10.69815	0.18125
6699.204	-12.08670	0.22600	-10.66663	0.22117
6703.203	-12.12236	0.19800	-10.65431	0.31102
6707.171	-12.05224	0.20556	-10.66069	0.32095
6711.199	-12.09344	0.28119	-10.69887	0.23692
6715.200	-12.12241	0.40239	-10.76326	0.23606
6719.168	-12.03282	0.40892	-10.73274	0.26050
6723.204	-12.00241	0.49017	-10.71315	0.27028
6727.197	-11.97536	0.50125	-10.72513	0.30243
6731.202	-11.95560	0.49088	-10.71322	0.31794
6735.200	-11.97880	0.45018	-10.77378	0.31815
6739.205	-11.97764	0.45572	-10.81942	0.33628
6743.189	-11.97016	0.51047	-10.83793	0.35564
6747.201	-11.89535	0.50264	-10.88137	0.33763
6751.202	-11.91823	0.57502	-10.90313	0.31035
6755.161	-11.88088	0.55304	-10.89295	0.34196
6759.204	-11.84473	0.52238	-10.88309	0.32752
6763.205	-11.85823	0.47999	-10.87752	0.32916
6767.202	-11.81983	0.46372	-10.85624	0.30295
6771.203	-11.84377	0.43133	-10.79658	0.31139
6775.201	-11.84679	0.42734	-10.78681	0.30036
6779.203	-11.84908	0.39966	-10.70188	0.32889
6783.202	-11.81971	0.40121	-10.66186	0.34701
6787.207	-11.80350	0.40491	-10.59411	0.33316
6791.226	-11.81936	0.44358	-10.57025	0.34264
6795.205	-11.79639	0.43464	-10.51839	0.37092
6799.200	-11.82223	0.48188	-10.46949	0.36044
6803.205	-11.80195	0.45733	-10.41544	0.38306
6807.202	-11.78371	0.52936	-10.36862	0.37762
6811.204	-11.79796	0.44914	-10.38180	0.39657
6815.204	-11.81215	0.49956	-10.38408	0.37931
6819.160	-11.81962	0.49801	-10.45929	0.40981
6823.226	-11.76737	0.49190	-10.48046	0.42537
6827.203	-11.77242	0.48085	-10.53101	0.40012
6831.204	-11.79332	0.53486	-10.53555	0.38939
6835.208	-11.78569	0.46256	-10.57685	0.36410
6839.163	-11.85003	0.41262	-10.62183	0.34224
6843.180	-11.88318	0.37056	-10.57630	0.36359
6847.203	-11.88292	0.42872	-10.66788	0.31469
6851.205	-11.89644	0.42028	-10.79765	0.33650
6855.194	-11.94261	0.46781	-10.73639	0.38337
6859.205	-11.95351	0.46553	-10.82560	0.41630
6863.205	-11.90930	0.51647	-10.74750	0.38902
6867.206	-12.05127	0.54392	-10.72350	0.37435
6871.190	-12.04728	0.65811	-10.74453	0.46153
6875.203	-14.87513	1.61590	-10.69230	1.51272
6879.160	-15.74210	3.04181	-12.33932	2.42310
6883.191	-16.22489	3.86632	-13.82625	7.14200
6887.164	-15.84966	4.09563	-13.35830	6.30322
6891.207	NaN	NaN	-14.38882	8.33194
6895.201	NaN	NaN	NaN	NaN
6899.203	NaN	NaN	NaN	NaN
6903.203	NaN	NaN	NaN	NaN
6907.205	NaN	NaN	NaN	NaN
6911.205	NaN	NaN	NaN	NaN
6915.205	NaN	NaN	NaN	NaN
6919.160	NaN	NaN	NaN	NaN
6923.205	NaN	NaN	NaN	NaN
6927.217	NaN	NaN	NaN	NaN
6931.203	NaN	NaN	NaN	NaN
6935.161	NaN	NaN	NaN	NaN
6939.203	NaN	NaN	NaN	NaN
6944.413	NaN	NaN	NaN	NaN
6947.206	NaN	NaN	0.56019	13.64261
6951.168	-4.54405	14.62067	-4.67877	3.69161
6955.225	-3.42725	9.31417	-3.42878	4.03373
6959.206	-1.79837	4.58228	-3.51945	1.42361
6963.206	-2.99185	1.12659	-2.20339	1.63000
6967.209	-2.14292	0.51388	-1.89270	1.32730
6971.174	-1.27641	0.43758	-1.43694	1.02599
6975.163	-0.72265	0.50173	-2.32689	1.07672
6979.206	-2.41913	0.70940	-2.96676	1.42590
6983.210	-2.22513	0.48947	-3.34573	1.23452
6987.229	-4.72571	0.71891	-3.73230	1.92229
6991.205	-6.17325	0.86755	-4.10461	1.59532
6995.206	-5.73301	0.65834	-4.16403	1.54684
6999.208	-6.07817	0.85651	-4.01653	1.61781
7003.231	-5.40671	0.87382	-4.16643	1.66161
7007.200	-5.23438	0.80856	-4.27728	1.63300
7011.196	-5.53011	0.86066	-4.14446	1.70685
7015.209	-5.57279	0.88886	-4.23268	1.54323
7019.196	-5.68091	0.88116	-4.19141	1.78393
7023.205	-5.79054	0.75854	-4.30685	1.70593
7027.206	-5.56411	0.89614	-4.33801	1.73861
7031.209	-5.46244	0.94746	-4.32748	1.75915
7035.203	-5.72967	0.77061	-4.28384	1.73061
7039.205	-5.60689	0.89477	-4.25889	1.68853
7043.206	-5.47464	0.89655	-4.32802	1.75284
7047.215	-5.54511	0.87572	-4.48049	1.87132
7051.210	-4.50540	0.89347	-4.66640	1.65065
7055.206	-1.97265	0.91748	-3.87816	1.68514
7059.204	-0.80374	1.05182	0.37266	1.61307
7063.163	-3.97402	1.23774	-0.98172	1.42447
7067.212	-5.39145	7.31820	0.29697	3.34084
7071.209	NaN	NaN	-7.91952	5.83763
7075.207	NaN	NaN	NaN	NaN
7079.206	NaN	NaN	NaN	NaN
7083.207	NaN	NaN	NaN	NaN
7087.207	NaN	NaN	NaN	NaN
7091.189	NaN	NaN	NaN	NaN
7095.202	NaN	NaN	NaN	NaN
7099.162	NaN	NaN	NaN	NaN
7103.209	NaN	NaN	NaN	NaN
7107.208	NaN	NaN	NaN	NaN
7111.208	NaN	NaN	NaN	NaN
7115.161	NaN	NaN	NaN	NaN
7119.206	NaN	NaN	NaN	NaN
7123.207	NaN	NaN	NaN	NaN
7127.207	NaN	NaN	NaN	NaN
7131.208	NaN	NaN	NaN	NaN
7135.168	NaN	NaN	NaN	NaN
7139.206	NaN	NaN	NaN	NaN
7143.205	NaN	NaN	NaN	NaN
7147.205	NaN	NaN	-10.54193	14.87299
7151.166	NaN	NaN	-10.44024	8.22212
7155.212	NaN	NaN	-7.97162	3.78560
7159.207	-4.12475	10.28340	-5.43750	1.22159
7163.210	-2.34924	0.63270	-4.71250	1.98067
7167.212	-3.60838	0.45671	-10.09814	2.58575
7171.209	-2.20329	0.53340	-2.16952	0.47131
7175.199	-2.27156	0.40236	-4.12816	0.81908
7179.207	-2.94384	0.26610	-6.86359	1.55091
7183.208	-6.63543	0.91143	-7.02477	1.21583
7187.204	-7.05376	0.70690	-7.03702	1.38430
7191.208	-8.33785	0.86857	-6.79259	1.23843
7195.208	-7.59846	0.84995	-6.78461	1.57119
7199.208	-7.89722	0.94079	-6.66166	1.57524
7203.211	-7.97101	1.02806	-6.76217	1.67923
7207.209	-7.86987	1.05299	-6.67941	1.49525
7211.209	-8.03793	1.07140	-6.63389	1.52698
7215.204	-8.09662	1.16922	-6.71211	1.52260
7219.112	-8.04922	1.15310	-6.66144	1.57087
7223.209	-8.06830	1.17975	-6.66146	1.54483
7227.208	-8.06830	1.14945	-6.59268	1.60168
7231.211	-8.09394	1.14407	-6.52662	1.58319
7235.212	-8.05127	1.11728	-6.46946	1.58934
7239.211	-8.06421	1.11774	-6.50548	1.46619
7243.210	-8.03455	1.03552	-6.50579	1.38760
7247.210	-8.05012	1.00764	-6.48291	1.40869
7251.203	-7.98866	0.98435	-6.52583	1.14296
7255.166	-7.92427	1.01009	-6.51746	1.15134
7259.164	-7.94676	0.97210	-6.49744	1.24902
7263.210	-7.98561	0.94866	-6.47468	1.35142
7267.213	-8.00791	0.89547	-6.51716	1.28971
7271.209	-7.98169	0.90018	-6.56116	1.28207
7275.210	-7.90231	0.88281	-6.55751	1.25097
7279.212	-7.97544	0.90009	-6.61501	1.33833
7283.214	-7.98094	0.85985	-6.62752	1.32692
7287.209	-7.93793	0.86240	-6.56961	1.47049
7291.208	-7.90280	0.86216	-6.56838	1.19628
7295.212	-7.98926	0.77931	-6.60108	1.49882
7299.197	-7.89483	0.72316	-6.64337	1.44691
7303.208	-7.92629	0.71582	-6.58854	1.50337
7307.209	-7.91677	0.68468	-6.69652	1.43147
7311.211	-7.88682	0.67400	-6.60431	1.33937
7315.212	-7.85339	0.70640	-6.56255	1.42793
7319.212	-7.88093	0.73923	-6.52757	1.44249
7323.207	-7.88190	0.71403	-6.52887	1.34204
7327.213	-7.93807	0.68945	-6.55459	1.39586
7331.213	-8.25085	0.74532	-7.54388	1.39911
7335.210	-9.18320	0.71744	-9.31054	1.34213
7339.213	-10.15785	0.72600	-9.97804	1.25166
7343.165	-10.73183	0.68350	-10.81597	0.65520
7347.093	-11.38077	0.70735	-10.28971	0.82189
7351.211	-11.68177	0.69272	-10.51700	1.11727
7355.210	-11.70456	0.68347	-10.80867	0.80447
7359.211	-11.84572	0.56824	-11.02239	0.34013
7363.075	-11.67191	0.54344	-11.31168	0.22661
7367.209	-11.67755	0.52924	-10.89008	0.25031
7371.210	-11.65856	0.44250	-10.90427	0.33904
7375.211	-11.64289	0.41970	-10.63209	0.28391
7379.170	-11.75203	0.44058	-10.78563	0.27054
7383.187	-11.80740	0.40649	-10.83785	0.34319
7387.212	-11.88651	0.37780	-10.80912	0.16317
7391.211	-11.91153	0.38185	-10.89645	0.51646
7395.214	-11.93814	0.37709	-11.10868	0.08251
7399.212	-11.98650	0.34596	-10.87656	0.09351
7403.211	-12.04009	0.30252	-10.81384	0.32086
7407.210	-12.02575	0.28960	-10.96354	0.26608
7411.214	-12.14843	0.24837	-10.90997	0.21228
7415.213	-12.17117	0.33817	-10.75011	0.31536
7419.212	-12.15047	0.29092	-10.88661	0.10854
7423.206	-12.14034	0.30736	-10.89621	0.16888
7427.213	-12.14207	0.29810	-10.92543	0.16052
7431.202	-12.14701	0.33691	-10.92416	0.19465
7435.213	-12.11716	0.27898	-10.90506	0.14638
7439.211	-12.14686	0.36844	-10.83175	0.22671
7443.110	-12.19524	0.30540	-10.84437	0.19063
7447.168	-12.14625	0.31899	-10.83836	0.10702
7451.212	-12.05214	0.30129	-10.76968	0.12164
7455.212	-12.02451	0.32579	-10.80321	0.20218
7459.105	-12.04545	0.31772	-10.79437	0.10157
7463.212	-12.09861	0.30046	-10.73756	0.26365
7467.211	-12.05525	0.22945	-10.73888	0.28027
7471.212	-12.12310	0.26688	-10.78609	0.21596
7475.216	-12.09697	0.20466	-10.83855	0.21262
7479.213	-12.13541	0.22644	-10.70677	0.31739
7483.210	-12.14769	0.15666	-10.86419	0.21875
7487.212	-12.06767	0.20468	-10.99494	0.10318
7491.215	-12.08938	0.18454	-10.91765	0.30767
7495.211	-12.13360	0.16947	-10.91806	0.19978
7499.213	-12.18407	0.17790	-10.87453	0.35257
7503.213	-12.14570	0.17637	-10.90415	0.28341
7507.200	-12.06226	0.18296	-11.08916	0.14070
7511.205	-12.11121	0.18701	-11.03011	0.22131
7515.214	-12.08758	0.18340	-11.06930	0.16232
7519.212	-12.01794	0.23216	-11.08897	0.28526
7523.110	-12.00134	0.23105	-11.05534	0.23254
7527.212	-12.13180	0.25723	-11.09865	0.30895
7531.213	-11.95774	0.23782	-10.94918	0.27502
7535.212	-11.89338	0.16651	-11.11736	0.18560
7539.218	-11.83222	0.12345	-10.89669	0.32663
7543.209	-11.73435	0.15063	-10.71324	0.23803
7547.218	-11.74794	0.06051	-11.03337	0.27426
7551.214	-11.74161	0.18446	-10.87718	0.31914
7555.094	-11.78545	0.10037	-10.76424	0.23845
7559.086	-11.75253	0.17764	-10.52578	0.41166
7563.089	-11.68960	0.20786	-10.46527	0.40186
7567.089	-11.69476	0.17308	-10.53643	0.37277
7571.080	-11.67070	0.23372	-10.49687	0.45929
7575.090	-11.64730	0.17374	-10.60987	0.39076
7579.088	-11.68755	0.08108	-10.45416	0.40728
7583.058	-11.68505	0.21645	-10.48154	0.36693
7587.085	-11.76404	0.27324	-10.55059	0.18485
7591.088	-11.73685	0.22050	-10.44148	0.42543
7595.086	-11.77517	0.32193	-10.37458	0.28987
7599.078	-11.81622	0.28620	-10.42562	0.21303
7603.047	-11.71718	0.20295	-10.47427	0.33803
7607.085	-11.68788	0.23027	-10.50318	0.20968
7611.087	-11.65158	0.20100	-10.61536	0.20736
7615.087	-11.65644	0.18751	-10.49522	0.35599
7619.074	-11.64661	0.22198	-10.40934	0.44075
7623.088	-11.69029	0.18781	-10.54989	0.40288
7627.088	-11.74822	0.21903	-10.56234	0.22313
7631.079	-11.67339	0.09028	-10.47379	0.44500
7635.049	-11.66125	0.23088	-10.57150	0.41653
7639.056	-11.71737	0.17672	-10.61126	0.40922
7643.089	-11.66006	0.18177	-10.68614	0.42868
7647.089	-11.57698	0.18864	-10.73425	0.38052
7651.048	-11.68362	0.20648	-10.88838	0.40865
7655.090	-11.69640	0.18610	-10.70234	0.34474
7659.089	-11.77115	0.22256	-10.75560	0.25047
7663.090	-11.66258	0.20394	-10.76242	0.25464
7667.076	-11.70421	0.32795	-10.75919	0.22103
7671.089	-11.57567	0.27603	-10.74094	0.30788
7675.088	-11.64649	0.30568	-10.76594	0.21819
7679.071	-11.65220	0.28000	-10.75454	0.20074
7683.064	-11.62151	0.29054	-10.76254	0.25796
7687.091	-11.55314	0.26700	-10.74666	0.27836
7691.090	-11.60035	0.20608	-10.72719	0.33165
7695.087	-11.56614	0.23193	-10.65937	0.29565
7699.087	-11.59080	0.29388	-10.72757	0.34334
7703.080	-11.54239	0.26947	-10.65645	0.45202
7707.090	-11.57982	0.24039	-10.59663	0.44883
7711.098	-11.56564	0.22472	-10.63315	0.51061
7715.087	-11.60835	0.24329	-10.68698	0.51103
7719.089	-11.59111	0.21964	-10.55814	0.55209
7723.053	-11.58544	0.21685	-10.59378	0.56902
7727.090	-11.58818	0.17300	-10.68176	0.53563
7731.088	-11.59232	0.24408	-10.58152	0.56077
7735.046	-11.63221	0.30100	-10.50493	0.55871
7739.092	-11.61409	0.21269	-10.50666	0.58487
7743.092	-11.57686	0.25814	-10.53430	0.57277
7747.111	-11.60149	0.23984	-10.48524	0.55882
7751.047	-11.59496	0.24473	-10.52015	0.57177
7755.094	-11.56117	0.23040	-10.56454	0.57733
7759.089	-11.60299	0.33987	-10.53152	0.63358
7763.079	-11.64713	0.33062	-10.53269	0.66421
7767.086	-11.64613	0.27100	-10.49795	0.70042
7771.089	-11.63261	0.23840	-10.48423	0.74833
7775.091	-11.62840	0.25429	-10.53219	0.54239
7779.085	-11.58215	0.22235	-10.56985	0.61079
7783.090	-11.58356	0.29703	-10.55330	0.62191
7787.094	-11.62340	0.32452	-10.57404	0.52087
7791.090	-11.66206	0.22535	-10.60510	0.56549
7795.112	-11.64311	0.21962	-10.59534	0.63919
7799.091	-11.64678	0.23152	-10.59339	0.54243
7803.077	-11.64587	0.17720	-10.58239	0.47037
7807.092	-11.62840	0.12352	-10.55063	0.47665
7811.090	-11.58560	0.15076	-10.49359	0.48172
7815.095	-11.53732	0.19312	-10.50292	0.39500
7819.092	-11.58994	0.14988	-10.51218	0.43347
7823.047	-11.55535	0.15233	-10.46834	0.38605
7827.103	-11.59765	0.18446	-10.63530	0.37673
7831.091	-11.60835	0.04274	-10.54869	0.38224
7835.091	-11.58701	0.13296	-10.53936	0.40692
7839.090	-11.58991	0.20353	-10.53718	0.48265
7843.076	-11.57998	0.26227	-10.55670	0.42095
7847.060	-11.63156	0.27814	-10.50556	0.37770
7851.093	-11.60289	0.35385	-10.65796	0.34271
7855.091	-11.56583	0.32505	-10.68104	0.34562
7859.111	-11.60182	0.32216	-10.73452	0.42929
7863.098	-11.66722	0.38659	-10.75897	0.43500
7867.088	-11.69186	0.43028	-10.77277	0.50530
7871.092	-11.69000	0.43922	-10.66090	0.41030
7875.110	-11.67401	0.47263	-10.65429	0.55809
7879.049	-11.75484	0.45454	-10.53667	0.49182
7883.092	-11.70759	0.42488	-10.45970	0.53265
7887.075	-11.76987	0.41284	-10.40754	0.48400
7891.088	-11.76331	0.38940	-10.29418	0.52691
7895.092	-11.78252	0.34926	-10.54027	0.32570
7899.084	-11.79070	0.28937	-10.51782	0.26662
7903.091	-11.78949	0.25162	-10.51345	0.43737
7907.115	-11.77858	0.26274	-10.52516	0.40611
7911.093	-11.71608	0.25991	-10.52372	0.32862
7915.095	-11.65915	0.27059	-10.57675	0.34381
7919.092	-11.62813	0.18310	-10.58325	0.32228
7923.097	-11.60425	0.17918	-10.70375	0.29744
7927.093	-11.63130	0.18415	-10.92334	0.27858
7931.092	-11.63606	0.16054	-10.93669	0.29816
7935.092	-11.60192	0.13675	-10.93823	0.27799
7939.090	-11.62590	0.15412	-10.90774	0.33721
7943.403	-11.61975	0.21494	-10.91181	0.36838
7947.092	-11.63823	0.22965	-10.90894	0.33428
7951.049	-11.65649	0.33078	-10.91004	0.29441
7955.091	-11.68519	0.36783	-10.99991	0.27102
7959.093	-11.71325	0.29889	-11.09838	0.23933
7963.096	-11.71458	0.29971	-11.08737	0.31579
7967.097	-11.73424	0.32935	-10.91306	0.24614
7971.023	-11.74877	0.32705	-10.63413	0.36601
7975.089	-11.80980	0.32780	-10.76017	0.51997
7979.092	-11.83495	0.33699	-10.63866	0.38657
7983.095	-11.80595	0.33204	-10.60049	0.38388
7987.096	-11.90659	0.35436	-10.66086	0.28974
7991.090	-11.80823	0.42794	-10.68101	0.38346
7995.093	-11.83253	0.40129	-10.73032	0.44197
7999.093	-11.88031	0.42590	-10.84451	0.48217
8003.114	-11.86355	0.37041	-10.60639	0.59179
8007.094	-11.90414	0.35219	-10.53965	0.62443
8011.081	-11.91429	0.36694	-10.53946	0.61224
8015.083	-11.86491	0.42150	-10.51923	0.53885
8019.091	-11.85347	0.47944	-10.67452	0.45675
8023.100	-11.81919	0.51350	-10.70126	0.49512
8027.092	-11.86809	0.52005	-10.66862	0.53238
8031.089	-11.87964	0.51482	-10.64909	0.53063
8035.090	-11.92652	0.47581	-10.61701	0.44951
8039.094	-11.90787	0.42771	-10.58071	0.42927
8043.052	-11.91842	0.39954	-10.51628	0.32877
8047.092	-11.89568	0.42318	-10.52358	0.31157
8051.094	-11.88663	0.47520	-10.53979	0.26142
8055.099	-11.89832	0.53254	-10.46491	0.25755
8059.095	-11.89276	0.53308	-10.51254	0.23723
8063.091	-11.89583	0.57499	-10.46628	0.38114
8067.092	-11.91457	0.51782	-10.41496	0.27683
8071.096	-11.89554	0.48963	-10.44979	0.31242
8075.092	-11.88691	0.46837	-10.52209	0.29261
8079.093	-11.85214	0.43918	-10.63257	0.36633
8083.089	-11.83743	0.47685	-10.73629	0.26794
8087.096	-11.80863	0.55480	-10.55831	0.26192
8091.094	-11.85770	0.49984	-10.59184	0.28361
8095.076	-11.86155	0.59530	-10.47432	0.34734
8099.069	-11.84206	0.57238	-10.30793	0.31643
8103.095	-11.85559	0.50950	-10.34465	0.35748
8107.096	-11.87653	0.51731	-10.70663	0.29361
8111.094	-11.82492	0.43501	-10.65117	0.36861
8115.091	-11.80221	0.49841	-10.70330	0.28502
8119.092	-11.79344	0.59408	-10.53406	0.29292
8123.097	-11.78952	0.54506	-10.48843	0.29064
8127.092	-11.81277	0.61559	-10.41844	0.38555
8131.103	-11.87446	0.58209	-10.39722	0.45494
8135.093	-11.80894	0.57175	-10.34290	0.40170
8139.092	-11.85965	0.47761	-10.45668	0.27740
8143.097	-11.81646	0.43087	-10.54102	0.32613
8147.096	-11.84137	0.37319	-10.66469	0.45884
8151.095	-11.84589	0.45400	-10.59152	0.23468
8155.096	-11.85732	0.44347	-10.57627	0.16957
8159.093	-11.89656	0.51243	-10.48084	0.21620
8163.099	-11.86838	0.52635	-10.54519	0.27449
8167.094	-11.93408	0.55116	-10.43236	0.24172
8171.098	-11.91799	0.51247	-10.43853	0.13971
8175.096	-11.93919	0.41596	-10.48161	0.24478
8179.086	-11.97531	0.47014	-10.55330	0.16568
8183.094	-11.99899	0.41480	-10.64520	0.27059
8187.096	-12.06596	0.46189	-10.59582	0.28236
8191.095	-12.02691	0.41182	-10.52825	0.19237
8195.054	-12.05029	0.44648	-10.54315	0.27329
8199.098	-12.01644	0.39383	-10.54447	0.33080
8203.096	-11.96755	0.35914	-10.56018	0.40543
8207.096	-11.93460	0.42878	-10.57531	0.38882
8211.096	-11.91780	0.39100	-10.57831	0.48962
8215.096	-11.93370	0.33383	-10.60905	0.57872
8219.086	-11.97966	0.38875	-10.68384	0.45620
8223.083	-11.99621	0.32940	-10.63017	0.37982
8227.092	-11.88394	0.38281	-10.61881	0.48819
8231.098	-11.80005	0.37809	-10.63943	0.50037
8235.095	-11.73859	0.36066	-10.72374	0.43895
8239.096	-11.71218	0.29976	-10.71212	0.28025
8243.093	-11.80799	0.33396	-10.77505	0.41083
8247.096	-11.84763	0.37435	-10.74024	0.33146
8251.094	-11.83336	0.33298	-10.77227	0.39209
8255.095	-11.88924	0.33986	-10.76197	0.35839
8258.992	-11.92574	0.40349	-10.78043	0.39064
8263.060	-11.94650	0.49727	-10.78118	0.53353
8267.096	-11.86322	0.50508	-10.77481	0.56851
8271.094	-11.88544	0.53451	-10.80342	0.68493
8275.100	-11.97662	0.58795	-10.74908	0.82091
8279.095	-11.93451	0.52768	-10.75701	0.70534
8283.099	-11.95085	0.55733	-10.68643	0.72560
8287.097	-11.94722	0.55648	-10.55032	0.79250
8291.096	-11.93831	0.55884	-10.55426	0.83528
8295.096	-11.94945	0.54948	-10.51746	0.88062
8299.098	-11.93109	0.58688	-10.40862	0.85500
8303.082	-11.91293	0.56749	-10.34288	0.84206
8306.991	-11.89613	0.51691	-10.34470	0.81774
8311.093	-11.95420	0.48522	-10.25877	0.69220
8315.094	-12.00260	0.39861	-10.29668	0.65303
8319.055	-11.95885	0.38438	-10.27503	0.49961
8322.998	-12.02254	0.34861	-10.24372	0.32784
8327.097	-12.05317	0.28061	-10.37232	0.38825
8331.096	-11.97420	0.38412	-10.38305	0.31530
8335.096	-11.92365	0.36187	-10.46013	0.23134
8338.964	-11.91170	0.33339	-10.64384	0.13630
8343.056	-11.95441	0.36565	-10.73377	0.16033
8347.106	-11.97968	0.31668	-10.81049	0.13339
8351.097	-12.02245	0.35189	-10.63231	0.14627
8355.055	-11.99291	0.38074	-10.60159	0.18636
8359.094	-11.96232	0.38644	-10.66932	0.25770
8363.095	-11.98099	0.33403	-10.68592	0.27089
8367.096	-12.00248	0.43205	-10.76125	0.31208
8370.957	-11.95999	0.42653	-10.68528	0.24435
8375.096	-11.97508	0.39566	-10.62286	0.17489
8379.100	-11.98360	0.42178	-10.57752	0.19810
8383.099	-12.01203	0.43077	-10.51117	0.21024
8386.995	-12.01252	0.44983	-10.45370	0.21624
8391.101	-11.98667	0.49316	-10.41602	0.18960
8395.098	-11.97543	0.61000	-10.37556	0.18469
8399.098	-11.96741	0.69377	-10.35781	0.13527
8402.997	-11.94600	0.69183	-10.34127	0.10839
8407.099	-11.89476	0.77492	-10.29344	0.07716
8411.097	-11.87213	0.78957	-10.27081	0.07017
8415.097	-11.83136	0.85955	-10.23324	0.04957
8418.996	-11.84477	0.82515	-10.17384	0.04672
8423.100	-11.84915	0.80476	-10.21736	0.16287
8427.086	-11.81417	0.78811	-10.20130	0.16056
8431.094	-11.80935	0.78724	-10.15155	0.19228
8434.996	-11.82059	0.74344	-10.11743	0.22288
8439.099	-11.80642	0.70218	-10.18767	0.35005
8443.104	-11.78383	0.64358	-10.12087	0.28702
8447.097	-11.77425	0.60383	-10.17255	0.40040
8450.960	-11.77720	0.58419	-10.19632	0.38922
8455.099	-11.74839	0.54818	-10.24019	0.32038
8459.097	-11.82782	0.50113	-10.36634	0.59882
8463.099	-11.83969	0.50508	-10.34520	0.59168
8466.994	-11.88095	0.51801	-10.40190	0.70738
8471.068	-11.90295	0.53951	-10.38183	0.58889
8475.097	-11.94437	0.53573	-10.45157	0.53945
8479.099	-11.94313	0.53041	-10.52998	0.58273
8482.997	-11.99875	0.47394	-10.53943	0.53427
8487.056	-12.00383	0.45164	-10.50340	0.39077
8491.098	-11.98211	0.41194	-10.57934	0.41879
8495.099	-12.00649	0.41834	-10.57929	0.39004
8498.995	-12.01108	0.43812	-10.51967	0.33505
8503.101	-11.99070	0.46416	-10.40826	0.34028
8507.101	-11.97140	0.45160	-10.39688	0.21821
8511.083	-11.95907	0.39231	-10.38735	0.18322
8514.998	-11.95660	0.40813	-10.37066	0.13300
8519.100	-11.92332	0.38939	-10.32147	0.06312
8523.099	-11.92239	0.36985	-10.35803	0.10139
8527.096	-11.89937	0.37613	-10.33005	0.07437
8530.998	-11.87708	0.43982	-10.33022	0.11495
8535.100	-11.88318	0.47453	-10.29142	0.13716
8539.100	-11.86541	0.47772	-10.32806	0.12991
8543.100	-11.87296	0.48315	-10.41633	0.12787
8546.995	-11.89647	0.47798	-10.64762	0.13664
8551.096	-11.89861	0.44163	-10.51165	0.12951
8555.094	-11.88047	0.45873	-10.62435	0.15623
8559.099	-11.87914	0.44864	-10.61543	0.14923
8562.996	-11.89065	0.44468	-10.61529	0.20164
8567.056	-11.89573	0.44054	-10.65014	0.20020
8571.099	-11.88943	0.44884	-10.64645	0.22875
8575.099	-11.87819	0.42318	-10.65645	0.22484
8578.994	-11.93664	0.40192	-10.64374	0.20216
8583.098	-11.95603	0.39161	-10.55900	0.17996
8587.102	-11.98878	0.35850	-10.55416	0.19814
8591.101	-11.97869	0.33299	-10.46261	0.15617
8594.997	-11.96866	0.34185	-10.42900	0.18060
8598.960	-11.97463	0.33295	-10.40260	0.16620
8602.967	-11.97372	0.30711	-10.48694	0.20473
8606.972	-11.98194	0.30440	-10.47002	0.17347
8610.965	-11.97975	0.30727	-10.54600	0.19778
8614.975	-11.97444	0.30286	-10.54586	0.16517
8618.977	-12.01668	0.31027	-10.59112	0.12750
8622.975	-11.98144	0.30963	-10.54704	0.09794
8626.973	-11.99149	0.29761	-10.62054	0.06826
8630.975	-11.95178	0.27677	-10.66656	0.05248
8634.978	-11.93187	0.28990	-10.68847	0.06373
8638.975	-11.95406	0.26551	-10.72127	0.07024
8643.104	-11.94073	0.19831	-10.76707	0.02060
8646.975	-11.95603	0.17012	-10.76434	-0.05573
8650.977	-11.98959	0.16833	-10.78288	-0.10282
8654.974	-11.98731	0.16855	-10.77093	-0.11949
8658.934	-12.02527	0.16079	-10.77215	-0.11962
8662.980	-12.01836	0.11778	-10.79696	-0.12961
8666.975	-12.05822	0.08432	-10.78412	-0.16008
8670.974	-12.04213	0.10115	-10.73718	-0.17527
8674.965	-12.08380	0.12059	-10.59131	-0.16121
8678.970	-12.09107	0.16462	-10.57277	-0.18616
8682.934	-12.10103	0.18813	-10.63952	-0.20041
8686.978	-12.11626	0.30979	-10.58164	-0.11512
8690.975	-12.12912	0.32685	-10.55279	-0.10727
8694.978	-12.13410	0.34094	-10.53368	-0.01417
8698.979	-12.11617	0.38809	-10.42562	0.07283
8702.977	-12.11453	0.39456	-10.34225	0.10301
8706.976	-12.12385	0.40608	-10.29154	0.08491
8710.975	-12.13258	0.43136	-10.27688	0.13876
8714.977	-12.14964	0.41880	-10.25636	0.09605
8718.980	-12.15481	0.41303	-10.32150	0.15316
8722.962	-12.20157	0.36703	-10.35061	0.17710
8726.968	-12.23163	0.34679	-10.27496	0.12264
8730.978	-12.26358	0.32057	-10.28119	0.10572
8734.933	-12.26676	0.28383	-10.35486	0.15278
8738.975	-12.29460	0.28317	-10.35486	0.17062
8742.977	-12.33084	0.25264	-10.42689	0.15499
8746.983	-12.35853	0.24807	-10.49826	0.18330
8750.977	-12.36930	0.24983	-10.56601	0.26677
8754.937	-12.34463	0.23267	-10.63341	0.33346
8758.976	-12.32118	0.26360	-10.67770	0.38249
8762.980	-12.27289	0.27649	-10.65362	0.38499
8766.946	-12.25827	0.28974	-10.59886	0.43525
8770.958	-11.74309	0.29603	-10.46448	0.27065
8774.975	-10.12298	0.27314	-9.81098	0.38121
8778.978	-7.55818	0.23650	-7.68503	0.48657
8782.976	-6.24960	0.21051	-6.92315	0.39870
8786.975	-5.26851	0.04570	-5.33145	0.47661
8790.977	-3.73198	-0.48989	-3.88987	0.44801
8794.979	-2.24339	-0.64349	-3.12368	0.34459
8798.977	-1.21911	-1.03517	-1.25954	0.27737
8802.969	0.35675	-0.79473	-0.25373	0.17429
8806.962	1.26716	-1.03582	1.02149	0.13975
8810.972	2.20285	-1.11335	1.58976	0.10793
8814.977	2.50229	-1.38447	2.20481	0.06247
8818.975	3.02044	-1.39274	3.03729	-0.06429
8822.978	3.61977	-1.35185	3.74160	-0.13209
8826.977	3.48115	-1.39256	3.87551	-0.16112
8830.975	3.34343	-1.45382	3.95505	-0.23558
8834.977	3.40296	-1.52110	3.93599	-0.30785
8838.979	3.42839	-1.59039	3.91842	-0.41452
8842.934	3.46155	-1.63376	3.96711	-0.48512
8846.981	3.53310	-1.73070	4.04727	-0.52842
8850.975	3.49035	-1.71655	4.10989	-0.57879
8854.978	3.51337	-1.78716	4.06456	-0.56864
8858.979	3.51392	-1.77501	4.12229	-0.53772
8862.978	3.54912	-1.85215	4.19262	-0.51039
8866.976	3.44911	-1.87824	4.22429	-0.51039
8870.979	3.35456	-1.84408	4.24843	-0.53649
8874.977	3.30784	-1.83532	4.30349	-0.53804
8878.934	3.28241	-1.84818	4.29697	-0.49037
8882.974	3.32837	-1.80844	4.34435	-0.47582
8886.979	3.31111	-1.79331	4.36760	-0.41867
8890.958	3.31341	-1.75025	4.37251	-0.38411
8894.979	3.38748	-1.74219	4.35637	-0.40533
8898.997	3.38273	-1.77573	4.36757	-0.46248
8902.977	3.40056	-1.76041	4.35462	-0.52611
8906.978	3.41753	-1.73832	4.33211	-0.55216
8910.981	3.46882	-1.81172	4.33367	-0.59379
8914.970	3.56625	-1.82977	4.27819	-0.67079
8918.977	3.56996	-1.89928	4.24729	-0.71068
8922.979	3.61718	-1.94929	4.22002	-0.74398
8926.980	3.63231	-2.00428	4.18168	-0.76401
8930.970	3.63337	-2.09893	4.17085	-0.80050
8934.980	3.67736	-2.09544	4.18914	-0.82461
8938.978	3.63908	-2.02732	4.20217	-0.79167
8942.934	3.61171	-2.03632	4.23752	-0.78502
8946.969	3.46718	-2.06961	4.18709	-0.81922
8950.935	3.37227	-2.05612	4.16112	-0.85797
8954.979	3.50131	-1.99958	4.12088	-0.86510
8958.980	3.43323	-2.02002	4.18344	-0.85264
8962.938	3.40979	-1.96908	4.22029	-0.85947
8966.981	3.40363	-1.88822	4.36392	-0.88740
8970.982	3.33433	-1.82784	4.27935	-0.88276
8974.951	3.31578	-1.77892	4.34561	-0.90193
8978.977	3.34304	-1.76068	4.29515	-0.88730
8982.978	3.37663	-1.77180	4.34127	-0.92223
8986.978	3.39668	-1.78752	4.23972	-0.93221
8990.978	3.49745	-1.76236	4.26173	-0.92346
8994.938	3.48447	-1.77500	4.27175	-0.94825
8998.980	3.45574	-1.74625	4.32812	-0.92591
9002.979	3.45000	-1.72733	4.40216	-0.92842
9006.979	3.35276	-1.74696	4.39353	-0.94683
9010.938	3.41073	-1.79107	4.35857	-1.02205
9014.961	3.42228	-1.83280	4.30734	-0.96210
9018.974	3.40158	-1.85995	4.30783	-0.98170
9022.979	3.32263	-1.84362	4.31442	-1.01701
9026.967	3.31390	-1.86096	4.26788	-1.00144
9030.978	3.34242	-1.87624	4.31240	-1.05018
9034.978	3.35644	-1.90402	4.38060	-1.08110
9038.979	3.35197	-1.91607	4.40838	-1.12021
9042.939	3.40212	-1.95247	4.41220	-1.09499
9046.983	3.38738	-1.97093	4.39920	-1.12550
9050.980	3.40091	-1.98889	4.44445	-1.18291
9054.981	3.37650	-1.95344	4.53337	-1.12393
9058.971	3.36156	-1.92738	4.61110	-1.12941
9062.980	3.40652	-1.91794	4.65220	-1.09745
9066.980	3.46078	-1.94578	4.70601	-1.09145
9070.981	3.50138	-1.91149	4.78316	-1.10098
9074.978	3.51562	-1.90261	4.81231	-1.11831
9078.983	3.50808	-1.90084	4.29596	-1.14522
9082.977	3.52279	-1.85020	4.76478	-1.09690
9086.981	5.57068	-1.85550	4.96401	-1.03724
9090.976	6.24072	-1.96091	5.90568	-1.08147
9094.982	6.77570	-2.17256	6.43506	-1.13344
9098.957	7.29958	-2.50451	7.42856	-2.28310
9102.982	8.09686	-2.98053	7.78175	-1.65892
9106.977	7.88663	-3.76663	8.02350	-2.44172
9110.982	7.97610	-4.07771	8.58078	-2.89203
9114.981	8.17330	-4.24668	8.66438	-2.60093
9118.980	8.30116	-4.26994	8.82892	-2.68998
9122.980	8.22193	-4.32871	8.74656	-2.91087
9126.938	8.23401	-4.36097	8.81232	-2.79596
9130.980	8.19290	-4.30872	8.88690	-2.92186
9134.983	8.29897	-4.33058	8.91825	-2.95748
9138.979	8.33761	-4.34758	9.02108	-2.94115
9142.938	8.37427	-4.32535	9.08217	-2.95145
9146.984	8.24400	-4.36678	9.14893	-2.99545
9150.982	8.22295	-4.32417	9.19839	-3.00726
9154.979	8.16450	-4.31084	9.27960	-3.02293
9158.982	8.08234	-4.31040	9.33454	-3.00615
9162.983	7.97802	-4.31497	9.35411	-3.00520
9166.979	7.92213	-4.31252	9.42914	-3.00091
9170.978	7.92359	-4.29944	9.45054	-3.01563
9174.981	7.95811	-4.28770	9.46099	-2.98071
9178.982	7.92965	-4.23119	9.49098	-2.95459
9182.982	7.88848	-4.18414	9.50503	-2.95227
9186.979	7.88246	-4.15631	9.48338	-2.96086
9190.982	7.91239	-4.13665	9.47353	-2.94997
9194.942	7.95962	-4.15000	9.47640	-2.92912
9198.983	8.04054	-4.15601	9.46802	-2.90841
9202.974	8.03915	-4.14903	9.43361	-2.92594
9206.982	8.10773	-4.12486	9.44665	-2.93367
9210.980	8.12379	-4.12959	9.41897	-2.93119
9214.983	8.11600	-4.11449	9.40376	-2.93411
9218.984	8.16175	-4.04173	9.40467	-2.91647
9222.964	8.18587	-4.04523	9.42158	-2.95362
9226.972	8.25265	-4.06146	9.42247	-2.95503
9230.985	8.25951	-4.04901	9.42347	-2.94832
9234.976	8.34711	-4.01127	9.44071	-2.94998
9238.980	8.41432	-4.02259	9.46870	-2.96375
9242.983	8.39761	-3.99746	9.47502	-2.97389
9246.984	8.42993	-3.99549	9.51761	-2.97161
9250.975	8.33797	-4.03502	9.54976	-2.96415
9254.940	8.33702	-4.03933	9.55147	-2.99168
9258.983	8.39894	-3.99980	9.56175	-3.01509
9262.983	8.40215	-4.03433	9.56873	-3.09659
9266.894	8.42168	-4.02388	9.57148	-3.09789
9270.983	8.42003	-4.01499	9.53914	-3.12660
9274.983	8.42124	-4.03685	9.54411	-3.16535
9278.986	8.44222	-4.05458	9.52765	-3.23640
9282.880	8.39304	-4.05482	9.52265	-3.29717
9286.985	8.38602	-4.06162	9.47944	-3.34370
9290.984	8.37548	-4.06411	9.44448	-3.35775
9294.984	8.40125	-4.04596	9.39127	-3.37395
9298.878	8.42134	-4.03063	9.35834	-3.37840
9302.982	8.44127	-4.04569	9.34258	-3.37537
9306.960	8.43336	-4.05213	9.32497	-3.33918
9310.984	8.46743	-4.05551	9.31093	-3.32978
9314.880	8.44229	-4.07263	9.32419	-3.29288
9318.984	8.45385	-4.05727	9.32226	-3.28994
9322.980	8.44616	-4.06867	9.31711	-3.25191
9326.985	8.45910	-4.07781	9.27984	-3.20275
9330.980	8.50964	-4.08568	9.29210	-3.19266
9334.984	8.63081	-4.12281	9.40876	-3.19712
9338.983	8.99695	-4.39380	9.83267	-3.23097
9342.939	10.79303	-5.12984	11.04231	-3.60781
9346.880	11.88589	-5.88869	11.39120	-4.95750
9350.974	12.66762	-7.12524	12.80412	-6.03311
9354.984	13.02813	-7.73534	12.81979	-6.13034
9358.983	13.27614	-8.31949	13.47789	-6.83605
9362.942	13.56728	-8.59705	13.66119	-6.99124
9366.984	14.02533	-8.85024	14.32295	-7.45948
9370.982	14.71370	-8.87716	14.37196	-7.45162
9374.984	14.80451	-8.99638	14.92748	-7.71823
9378.879	14.97011	-9.09742	15.11301	-7.70553
9382.983	14.80166	-9.09720	14.99248	-7.79161
9386.986	14.79846	-9.12146	15.22643	-7.82670
9390.953	14.98428	-9.07722	15.29930	-7.79844
9394.868	14.99047	-9.12676	15.29039	-7.82408
9398.986	15.06295	-9.18506	15.26884	-7.86680
9402.984	15.03744	-9.19318	15.33550	-7.95127
9406.984	15.06197	-9.22660	15.37520	-7.97734
9410.882	15.08574	-9.22664	15.39714	-7.98410
9414.985	15.04783	-9.24280	15.38426	-8.02758
9418.982	15.03760	-9.24286	15.41515	-8.02793
9422.982	14.97456	-9.22545	15.36117	-8.02430
9426.880	14.96128	-9.19961	15.35244	-8.04087
9430.969	14.93928	-9.21041	15.33788	-8.03607
9434.984	14.91756	-9.20678	15.32179	-8.05879
9438.985	14.86780	-9.19855	15.32186	-8.06952
9442.988	14.86224	-9.19495	15.29667	-8.08002
9446.943	14.81138	-9.13559	15.22544	-8.05706
9450.986	14.77897	-9.04137	15.23089	-8.07826
9454.984	14.73827	-8.93296	15.19664	-8.09752
9458.881	14.66675	-8.77404	15.22313	-8.11505
9462.985	14.56885	-8.77251	15.16319	-8.11324
9466.990	14.49653	-8.71517	15.14220	-8.09530
9470.986	14.34031	-8.67785	15.12939	-8.07979
9474.882	14.36730	-8.59452	15.10193	-8.06107
9478.984	14.24606	-8.59895	15.09173	-8.05945
9482.989	14.24093	-8.55600	15.03267	-8.05556
9486.984	14.18356	-8.52364	15.06267	-8.05214
9490.883	14.14310	-8.51057	15.08919	-8.06510
9494.985	14.13682	-8.52575	15.09453	-8.08632
9498.989	14.13591	-8.51968	15.08548	-8.10369
9502.944	14.11911	-8.55968	15.05786	-8.13539
9506.880	14.21008	-8.55550	15.03332	-8.14382
9510.989	14.26338	-8.56618	15.01084	-8.16764
9514.987	14.31689	-8.55732	15.02135	-8.22600
9518.985	14.34918	-8.57466	14.96654	-8.22300
9522.885	14.31994	-8.54524	14.99107	-8.20540
9526.986	14.35782	-8.54013	15.03027	-8.20549
9530.988	14.36190	-8.54522	14.99456	-8.22008
9534.986	14.41219	-8.55601	14.99806	-8.23521
9538.885	14.42514	-8.55180	14.94486	-8.18723
9542.988	14.50532	-8.55634	14.93043	-8.16671
9546.987	14.48057	-8.52980	14.98266	-8.13255
9550.988	14.51198	-8.52529	15.05774	-8.09636
9554.979	14.45677	-8.50305	15.08192	-8.08016
9558.975	14.45949	-8.49635	15.14417	-8.08488
9562.989	14.44932	-8.45519	15.24808	-8.10273
9566.989	14.45169	-8.46546	15.27453	-8.11932
9570.991	14.23818	-8.52753	15.22867	-8.10479
9574.986	14.32402	-8.53758	15.20917	-8.09709
9578.988	14.26473	-8.57771	15.23461	-8.08388
9582.987	14.29837	-8.58947	15.29339	-8.07133
9586.885	14.18717	-8.59976	15.26289	-8.06904
9590.988	14.11927	-8.60720	15.19052	-8.08181
9594.990	14.01202	-8.66851	15.15189	-8.07504
9598.985	13.97767	-8.69606	15.12236	-8.09280
9602.873	13.96629	-8.71627	15.12287	-8.06736
9606.987	13.94408	-8.75680	15.06561	-8.04182
9610.990	13.89552	-8.79960	14.99399	-8.00502
9614.987	13.87861	-8.78009	14.95067	-8.00282
9618.893	13.84864	-8.74555	14.89314	-7.96824
9622.988	13.83428	-8.73885	14.89228	-7.93723
9626.987	13.82539	-8.73479	14.90280	-7.93602
9630.988	13.89783	-8.74410	14.82987	-7.95201
9634.884	13.90459	-8.72729	14.89566	-7.92801
9638.862	13.93487	-8.67243	14.88312	-7.97327
9642.818	13.95254	-8.62602	14.87661	-7.96176
9646.863	13.95558	-8.55181	14.86057	-7.97398
9650.990	14.03508	-8.51157	14.84983	-7.98410
9654.862	14.07335	-8.49159	14.86685	-7.97401
9658.863	14.13556	-8.47849	14.88324	-7.97619
9662.863	14.15556	-8.49350	14.92111	-8.01144
9666.854	14.14810	-8.48557	14.89870	-8.03381
9670.863	14.14238	-8.49276	14.87860	-8.06509
9674.863	14.12413	-8.48963	14.87290	-8.03989
9678.867	14.11692	-8.50480	14.84021	-8.04809
9682.855	14.09932	-8.52968	14.84371	-8.02448
9686.864	14.13437	-8.54149	14.86731	-7.99008
9690.819	14.14763	-8.56906	14.85071	-7.97250
9694.866	14.09434	-8.52142	14.84253	-7.97690
9698.888	14.03991	-8.34325	14.84626	-8.02128
9702.863	13.96503	-8.22272	14.88041	-8.05269
9706.864	13.84717	-8.24119	14.89900	-8.04018
9710.864	13.76509	-8.16407	14.89230	-7.98723
9714.854	13.74858	-8.17852	14.91696	-8.01087
9718.863	13.75132	-8.15151	14.92324	-8.01431
9722.863	13.66140	-8.02827	14.99174	-7.99879
9726.855	13.56446	-8.00705	14.99656	-8.01965
9730.863	13.50600	-7.97028	14.89928	-8.03921
9734.863	13.45407	-7.96367	14.90403	-7.99639
9738.862	13.42596	-7.97011	14.90904	-7.96196
9742.818	13.40542	-8.01018	14.89026	-7.94230
9746.861	13.37162	-8.04377	14.85391	-7.92095
9750.865	13.37761	-8.04821	14.84948	-7.91378
9754.860	13.41542	-8.08173	14.83239	-7.86698
9758.864	13.45885	-8.10748	14.77380	-7.76355
9762.823	13.54211	-8.15450	14.67003	-7.83395
9766.864	14.28872	-8.23235	14.82138	-7.93085
9770.829	14.54098	-8.38774	15.10411	-8.05019
9774.863	14.87640	-8.58421	15.21802	-8.08766
9778.822	14.95167	-8.90036	15.32096	-8.16257
9782.861	15.03300	-8.98382	15.81925	-8.28076
9786.821	15.55149	-9.10063	15.98367	-8.44033
9790.864	16.08106	-9.23127	16.26088	-8.48332
9794.848	15.87944	-9.26927	16.37334	-8.43370
9798.864	15.65129	-9.14415	16.19066	-8.56614
9802.864	15.89088	-9.20744	16.21686	-8.60979
9806.863	15.96489	-9.24913	16.02160	-8.63586
9810.822	15.99363	-9.18470	16.20247	-8.61754
9814.864	15.80112	-9.22053	16.21982	-8.63928
9818.821	15.94424	-9.22825	16.31699	-8.64740
9822.864	16.02089	-9.20525	16.30892	-8.65645
9826.824	15.94917	-9.22633	16.31553	-8.64572
9830.861	15.87345	-9.19386	16.35746	-8.62238
9834.869	15.87768	-9.21239	16.39619	-8.61463
9838.860	15.73329	-9.16702	16.42759	-8.66093
9842.822	15.70036	-9.13240	16.52330	-8.69273
9846.864	15.52322	-9.13405	16.51399	-8.71205
9850.864	15.39598	-9.06683	16.56987	-8.76203
9854.828	15.29882	-9.00700	16.58635	-8.81614
9858.861	15.36341	-9.03009	16.58359	-8.93932
9862.860	15.29314	-8.98053	16.50964	-8.92790
9866.863	15.29713	-8.93289	16.19180	-8.71703
9870.845	15.26196	-8.85902	16.25390	-8.73024
9874.884	15.31690	-8.85654	16.17578	-8.68039
9878.820	15.36343	-8.76269	16.03643	-8.73024
9882.865	15.43934	-8.73797	16.14201	-8.69757
9886.869	15.25931	-8.66174	16.10846	-8.61932
9890.889	15.36701	-8.59458	16.20213	-8.63689
9894.836	15.35392	-8.55946	16.15289	-8.69512
9898.865	15.29942	-8.57398	16.21307	-8.63794
9902.865	15.24510	-8.54117	16.20613	-8.59954
9906.824	15.26898	-8.54781	16.27924	-8.58417
9910.868	15.26476	-8.52786	16.49636	-8.63797
9914.866	15.30004	-8.50865	16.50970	-8.57445
9918.864	15.20039	-8.48568	16.43471	-8.53749
9922.887	15.23979	-8.47762	16.41377	-8.40903
9926.863	15.23808	-8.43962	16.31681	-8.34279
9930.865	15.29914	-8.46278	16.36692	-8.27418
9934.852	15.13582	-8.51191	16.31370	-8.48083
9938.841	15.19133	-8.52641	16.15728	-8.51171
9942.867	15.13991	-8.51107	16.16777	-8.55776
9946.866	15.14238	-8.50717	16.18405	-8.52038
9950.864	15.10149	-8.49719	16.26639	-8.58377
9954.858	15.11065	-8.47646	16.18235	-8.49890
9958.863	14.95146	-8.50907	16.18970	-8.48629
9962.867	14.97423	-8.52602	16.23775	-8.55150
9966.864	14.99642	-8.53323	16.33646	-8.59459
9970.862	14.99192	-8.56918	16.38691	-8.50127
9974.866	15.01506	-8.56042	16.34899	-8.40553
9978.867	15.03003	-8.56122	15.94743	-8.31146
9982.870	14.90672	-8.57039	16.08889	-8.35806
9986.888	14.91374	-8.58608	16.02236	-8.33685
9990.866	14.82653	-8.60310	16.03472	-8.30758
9994.866	14.89256	-8.60945	16.09558	-8.26956
9998.855	14.76941	-8.60305	16.23199	-8.18908
10002.864	14.75655	-8.60950	16.26687	-8.17624
10006.867	14.74309	-8.61397	16.25230	-8.13188
10010.867	14.84134	-8.61515	16.33598	-8.15262
10014.824	14.88273	-8.59505	16.23848	-8.27028
10018.857	14.75688	-8.52377	16.26561	-8.30708
10022.860	14.67035	-8.49837	16.22913	-8.33867
10026.866	14.52872	-8.44079	16.20599	-8.35213
10030.834	14.51491	-8.40183	16.18794	-8.39042
10034.863	14.30806	-8.35791	16.23265	-8.42667
10038.866	14.30445	-8.31394	16.19306	-8.43336
10042.866	14.11822	-8.27349	16.21174	-8.48498
10046.865	14.01181	-8.26579	16.14469	-8.49870
10050.892	13.96068	-8.25735	15.94885	-8.53545
10054.869	13.89950	-8.23806	15.93155	-8.57393
10058.866	13.80793	-8.22212	15.78120	-8.56842
10062.861	13.66006	-8.23255	15.69818	-8.57309
10066.828	13.69748	-8.22892	15.63523	-8.59696
10070.868	13.64164	-8.24956	15.63258	-8.62881
10074.868	13.56369	-8.27965	15.42516	-8.59522
10078.824	13.55187	-8.27680	15.33389	-8.50404
10082.865	13.55158	-8.29639	15.23766	-8.41352
10086.867	13.53495	-8.31811	15.22555	-8.34676
10090.868	13.54605	-8.33180	15.12331	-8.36906
10094.871	13.54145	-8.33191	15.11512	-8.24668
10098.861	13.58927	-8.31832	15.15866	-8.25135
10102.846	13.60566	-8.30614	15.18486	-8.22196
10106.866	13.69486	-8.32285	15.24018	-8.30544
10110.860	13.69179	-8.31719	15.23563	-8.28386
10114.864	13.77424	-8.30589	15.25847	-8.24996
10118.867	13.79360	-8.28823	15.33029	-8.27437
10122.868	13.81717	-8.27381	15.45463	-8.33223
10126.824	13.83868	-8.27027	15.57799	-8.32449
10130.827	13.86217	-8.25581	15.63566	-8.31993
10134.869	13.87796	-8.25587	15.73541	-8.35561
10138.869	13.85931	-8.25752	15.63569	-8.36196
10142.825	13.84787	-8.26258	15.58129	-8.37684
10146.857	13.83074	-8.25351	15.56153	-8.38855
10150.868	13.77722	-8.25252	15.39112	-8.36526
10154.867	13.72228	-8.25093	15.49686	-8.32413
10158.866	13.66402	-8.22748	15.42959	-8.31156
10162.825	13.60782	-8.21498	15.41591	-8.31566
10166.867	13.58655	-8.19867	15.42069	-8.30349
10170.868	13.59284	-8.18014	15.40629	-8.31172
10174.868	13.45444	-8.13889	15.36791	-8.33592
10178.827	13.40852	-8.11548	15.29076	-8.36110
10182.868	13.44303	-8.09220	15.32590	-8.38304
10186.839	13.46322	-8.06680	15.31761	-8.40839
10190.866	13.45623	-8.05012	15.30055	-8.42767
10194.870	13.53144	-8.03065	15.32862	-8.43293
10198.867	13.57909	-8.03790	15.24540	-8.43865
10202.869	13.52442	-8.06763	15.06614	-8.37269
10206.871	13.58571	-8.09226	15.00369	-8.30076
10210.828	13.60646	-8.12221	14.97280	-8.27621
10214.870	13.51581	-8.13204	15.05094	-8.27811
10218.870	13.05270	-8.10984	14.85377	-8.18789
10222.866	12.61866	-7.81063	14.67625	-7.83095
10226.829	11.87784	-5.47758	12.37591	-5.31429
10230.870	10.43133	-4.48554	11.70840	-4.50136
10234.866	10.05527	-3.58684	10.66649	-3.21031
10238.871	9.53620	-3.06077	10.60078	-2.55032
10242.826	9.19096	-2.65760	10.43229	-2.22871
10246.870	8.73637	-1.41135	9.37788	-1.71416
10250.870	8.39290	-1.02559	9.25117	-1.28624
10254.873	7.02770	-0.57481	8.72922	-0.65374
10258.830	6.51025	-0.38909	7.91536	-0.19441
10262.868	6.43547	-0.48838	8.06681	-0.14873
10266.863	6.42145	-0.21439	8.01277	-0.05748
10270.863	6.40668	-0.13846	8.66481	-0.23536
10274.869	6.37648	-0.24283	8.31934	-0.11455
10278.870	6.30624	-0.26479	8.14268	-0.02056
10282.866	6.26311	-0.20914	8.02248	0.04387
10286.869	6.28690	-0.20303	8.07971	0.04234
10290.867	6.30951	-0.08921	8.09968	0.06662
10294.872	6.28543	-0.10670	8.04961	0.08926
10298.869	6.30186	-0.07237	8.00462	0.11056
10302.872	6.28401	-0.09040	7.99756	0.12387
10306.864	6.28248	-0.09685	7.98831	0.11755
10310.870	6.26179	-0.15132	7.97824	0.13124
10314.845	6.26216	-0.19017	7.92692	0.17088
10318.825	6.25688	-0.19287	7.90900	0.15056
10322.768	6.27219	-0.19941	7.92639	0.11993
10326.837	6.26976	-0.26229	7.95599	0.10700
10330.870	6.27557	-0.30144	7.94433	0.09842
10334.871	6.27785	-0.34429	7.92254	0.03133
10338.769	6.24609	-0.39935	7.93182	0.01979
10342.826	6.22181	-0.44845	7.87299	-0.00751
10346.870	6.24570	-0.49649	7.85933	-0.04113
10350.868	6.25850	-0.54627	7.94221	-0.09913
10354.869	6.26505	-0.56271	7.94199	-0.14981
10358.876	6.34194	-0.59024	7.92597	-0.18606
10362.872	6.37770	-0.63677	7.93554	-0.21786
10366.869	6.39236	-0.67882	7.91950	-0.21479
10370.866	6.38574	-0.69735	7.89615	-0.24938
10374.867	6.42371	-0.71226	7.86323	-0.27008
10378.865	6.43726	-0.73249	7.93420	-0.26004
10382.872	6.47037	-0.75772	7.95782	-0.27344
10386.765	6.51787	-0.78979	7.95003	-0.27888
10390.871	6.49984	-0.82144	7.99313	-0.28213
10394.872	6.49327	-0.82779	7.98130	-0.28196
10398.874	6.49411	-0.86314	7.99279	-0.29310
10402.767	6.40597	-0.85946	8.01893	-0.31786
10406.871	6.38101	-0.82550	8.04283	-0.31764
10410.871	6.33738	-0.82557	8.06438	-0.29288
10414.874	6.31255	-0.78354	8.10922	-0.23358
10418.875	6.28467	-0.74068	8.14297	-0.22067
10422.868	6.27219	-0.69805	8.15793	-0.23769
10426.870	6.24511	-0.67166	8.17590	-0.24683
10430.873	6.19721	-0.62805	8.19329	-0.24436
10434.769	6.19113	-0.58381	8.20097	-0.27571
10438.873	6.16530	-0.57036	8.23301	-0.30419
10442.873	6.19604	-0.52502	8.24779	-0.34689
10446.829	6.23393	-0.51152	8.26208	-0.34280
10450.767	6.25988	-0.50453	8.23537	-0.30551
10454.876	6.28239	-0.49149	8.26510	-0.40073
10458.872	6.29482	-0.50879	8.23459	-0.44112
10462.871	6.32118	-0.50771	8.23201	-0.45868
10466.747	6.32064	-0.53670	8.19562	-0.45405
10470.873	6.36658	-0.55660	8.16848	-0.46350
10474.863	6.37871	-0.57943	8.13709	-0.47588
10478.868	6.41937	-0.59037	8.12464	-0.45811
10482.708	6.43461	-0.59907	8.12057	-0.44326
10486.829	6.41974	-0.61901	8.13463	-0.45298
10490.873	6.41209	-0.62515	8.15081	-0.42554
10494.872	6.44633	-0.56980	8.08693	-0.38285
10498.734	6.39109	-0.49633	7.16315	-0.28723
10502.873	4.55063	-0.23336	5.77408	0.62633
10506.873	3.36255	1.77601	3.71288	2.33533
10510.874	2.07385	2.74513	2.44291	2.95187
10514.834	1.89176	3.37980	1.98697	3.52852
10518.871	0.82104	3.49099	0.79890	3.77192
10522.873	0.61876	3.64307	1.30454	4.08071
10526.872	-0.00298	3.76372	0.75938	4.15811
10530.832	-0.06056	3.85256	0.60540	4.25927
10534.872	-0.47033	3.90027	0.68891	4.29241
10538.873	-0.69302	3.95828	0.78253	4.23027
10542.874	-0.85481	3.84415	0.86471	4.23792
10546.833	-0.86215	3.87760	0.82540	4.28284
10550.874	-0.89788	3.95143	0.68417	4.31188
10554.874	-0.98286	3.94909	0.58034	4.37126
10558.861	-1.04769	4.03876	0.59761	4.39516
10562.737	-1.11539	4.10447	0.63305	4.39654
10566.871	-1.15255	4.13077	0.59615	4.36161
10570.884	-1.12630	4.19560	0.61603	4.34650
10574.872	-1.12886	4.17306	0.67476	4.39003
10578.737	-1.15208	4.18326	0.64496	4.38937
10582.873	-1.10671	4.13071	0.65826	4.44624
10586.872	-0.95452	4.21254	0.59322	4.46855
10590.872	-0.93343	4.19944	0.57806	4.46819
10594.832	-0.81223	4.19211	0.56528	4.43819
10598.874	-0.83898	4.17493	0.58511	4.44946
10602.875	-0.82203	4.12547	0.54674	4.44759
10606.874	-0.71533	4.07838	0.54004	4.48639
10610.834	-0.70667	4.03952	0.49577	4.49981
10614.874	-0.61771	3.99581	0.45713	4.51174
10618.875	-0.69087	3.99852	0.49855	4.46906
10622.873	-0.70489	4.04919	0.53213	4.46158
10626.734	-0.71856	4.06532	0.54175	4.44994
10630.874	-0.75905	4.07537	0.55389	4.44257
10634.866	-0.76709	4.10965	0.55622	4.44388
10638.875	-0.78335	4.13351	0.56776	4.49373
10642.739	-0.76858	4.17246	0.54967	4.48644
10646.875	-0.79483	4.23142	0.59791	4.48012
10650.875	-0.80823	4.28871	0.53825	4.48388
10654.873	-0.79856	4.30742	0.54639	4.46984
10658.877	-0.82324	4.35565	0.54696	4.41918
10662.874	-0.74307	4.35034	0.56649	4.44518
10666.750	-0.76285	4.32582	0.54136	4.45204
10670.749	-0.86520	4.34125	0.46927	4.45621
10674.782	-1.23637	4.32853	-0.00643	4.54825
10678.749	-2.47452	4.29777	-1.20489	4.68005
10682.748	-3.32226	4.32934	-2.13001	5.07491
10686.750	-3.50989	4.51506	-2.63423	4.96253
10690.742	-3.62086	4.49843	-2.52765	4.91197
10694.704	-3.78308	4.51352	-2.43823	5.25650
10698.749	-3.65203	4.52420	-2.17931	5.52265
10702.751	-3.70598	4.59105	-2.20262	5.60462
10706.769	-3.74246	4.63813	-2.18731	5.58035
10710.749	-3.70327	4.62691	-2.14275	5.66211
10714.751	-3.65346	4.73503	-2.11537	5.64040
10718.750	-3.62407	4.75006	-2.23890	5.73416
10722.772	-3.63520	4.73676	-2.23752	5.78170
10726.754	-3.66810	4.75143	-2.21301	5.75053
10730.735	-3.63075	4.71082	-2.15103	5.73058
10734.748	-3.56477	4.70488	-2.08600	5.75051
10738.751	-3.53226	4.61555	-2.05549	5.71367
10742.705	-3.49310	4.57338	-2.05747	5.65625
10746.751	-3.48922	4.59551	-1.99877	5.55484
10750.747	-3.45625	4.56089	-1.98536	5.66850
10754.748	-3.47233	4.53898	-2.02478	5.74985
10758.753	-3.47334	4.51499	-2.04188	5.87858
10762.750	-3.52425	4.49054	-1.98794	5.89499
10766.749	-3.64719	4.53001	-2.01536	5.73801
10770.711	-3.66861	4.54395	-2.07973	5.86104
10774.714	-3.71898	4.54451	-2.12860	5.89548
10778.753	-3.74864	4.53065	-2.09561	5.81250
10782.750	-3.83216	4.58844	-2.12920	5.83980
10786.770	-3.81518	4.61333	-2.10900	5.81009
10790.750	-3.85540	4.58161	-2.11985	5.83359
10794.751	-3.90620	4.55720	-2.13542	5.76449
10798.749	-3.84204	4.56254	-2.20518	5.73564
10802.772	-3.82497	4.59466	-2.23142	5.73812
10806.749	-3.69392	4.58007	-2.25070	5.71267
10810.752	-3.68868	4.51073	-2.26438	5.71776
10814.750	-3.62964	4.49027	-2.24210	5.73766
10818.720	-3.58996	4.49101	-2.19383	5.70313
10822.749	-3.59364	4.55175	-2.15737	5.75976
10826.754	-3.52353	4.51640	-2.13143	5.77559
10830.751	-3.48227	4.49082	-2.08639	5.82305
10834.743	-3.47806	4.48314	-2.04565	5.83735
10838.750	-3.45220	4.48403	-2.00403	5.84900
10842.705	-3.46872	4.43948	-1.93189	5.89703
10846.752	-3.46558	4.41023	-1.87336	5.91723
10850.750	-3.46464	4.40678	-1.79031	5.92389
10854.743	-3.41916	4.38144	-1.81327	5.93994
10858.742	-3.42975	4.45093	-1.76239	5.97614
10862.751	-3.44035	4.49427	-1.80229	6.04944
10866.749	-3.45494	4.53157	-1.87200	6.13353
10870.752	-3.39542	4.87452	-2.02592	6.13383
10874.753	-3.00405	5.65470	-0.08857	6.26716
10878.708	-3.45326	7.81965	-0.19911	6.33722
10882.747	-3.48924	12.06294	-4.25354	8.75850
10886.752	-3.75894	5.43308	-2.53001	10.95039
10890.762	NaN	NaN	NaN	NaN
10894.754	NaN	NaN	NaN	NaN
10898.749	NaN	NaN	NaN	NaN
10902.748	NaN	NaN	NaN	NaN
10906.749	NaN	NaN	NaN	NaN
10910.707	NaN	NaN	NaN	NaN
10914.752	NaN	NaN	NaN	NaN
10918.748	NaN	NaN	NaN	NaN
10922.710	NaN	NaN	NaN	NaN
10926.710	NaN	NaN	NaN	NaN
10930.750	NaN	NaN	NaN	NaN
10934.751	NaN	NaN	NaN	NaN
10938.744	NaN	NaN	NaN	NaN
10942.707	NaN	NaN	NaN	NaN
10946.750	NaN	NaN	NaN	NaN
10950.753	NaN	NaN	NaN	NaN
10954.751	NaN	NaN	NaN	NaN
10958.755	NaN	NaN	-4.75156	6.30114
10962.744	-4.47134	14.23269	-4.46043	9.68639
10966.756	-4.27851	13.78077	NaN	NaN
10970.753	-3.81629	5.08174	-3.34363	3.88361
10974.755	-3.83700	3.76449	-3.79794	3.52770
10978.778	-2.68039	2.23049	-3.31769	3.80340
10982.756	-1.86129	3.87897	-0.92894	4.23068
10986.751	-1.29370	4.45861	-1.45004	4.86853
10990.752	-1.43022	3.90465	-1.12467	4.59609
10994.775	-0.17149	3.96926	-1.75349	4.88840
10998.755	-1.39775	4.01141	-1.36437	4.70979
11002.753	-1.29020	3.93154	-1.70631	5.03286
11006.756	-1.49654	3.85867	-1.65761	5.03276
11010.751	-2.36616	3.92247	-1.83766	4.90970
11014.755	-3.08562	3.83640	-2.16974	5.02636
11018.766	-3.66256	3.83351	-1.82614	4.97205
11022.729	-3.64204	3.85863	-1.82968	5.01730
11026.753	-4.38114	3.75628	-1.86665	5.01645
11030.755	-4.11579	3.71966	-2.00316	5.07462
11034.752	-4.14241	3.71344	-2.13214	5.05958
11038.752	-3.97434	3.68802	-2.16845	5.03881
11042.756	-3.47873	3.67913	-2.21940	5.00377
11046.755	-3.41318	3.68435	-2.26901	4.94806
11050.755	-3.73870	3.66961	-2.31188	5.01477
11054.752	-3.60479	3.64842	-2.33641	4.97432
11058.755	-3.76485	3.70059	-2.28854	4.99551
11062.749	-3.58497	3.78818	-2.15385	4.94445
11066.744	-3.68359	3.79229	-2.05734	4.87425
11070.754	-3.63957	3.83413	-1.76395	4.98205
11074.752	-3.51258	4.04522	-1.91474	5.02112
11078.758	-3.38644	4.19232	-1.64330	5.00401
11082.755	-3.36854	4.41923	-1.57391	4.97257
11086.754	-3.50430	4.42250	-1.62698	5.02705
11090.779	-3.47431	4.53641	-1.51261	5.05710
11094.756	-3.41278	4.39483	-1.54153	4.99420
11098.755	-3.36629	4.49710	-1.50304	4.96576
11102.755	-3.31848	4.51248	-1.47164	4.97360
11106.752	-3.45536	4.50342	-1.55489	4.99668
11110.755	-3.43546	4.54095	-1.61523	5.05379
11114.756	-3.43538	4.45445	-1.67925	5.09309
11118.754	-3.50709	4.35485	-1.77105	5.09321
11122.751	-3.55103	4.33837	-1.84342	5.13120
11126.711	-3.63611	4.26934	-1.89451	5.18971
11130.751	-3.65366	4.22819	-1.90882	5.22452
11134.756	-3.74496	4.18275	-1.92820	5.20347
11138.753	-3.77051	4.14992	-1.93194	5.20452
11142.709	-3.78133	4.07981	-1.93571	5.21816
11146.742	-3.81417	4.06180	-1.90899	5.20905
11150.754	-3.80500	4.03678	-1.85556	5.19591
11154.755	-3.70440	3.96661	-1.84225	5.16663
11158.758	-3.56638	3.96823	-1.83858	5.14075
11162.754	-3.52398	3.96056	-1.76800	5.13309
11166.755	-3.37769	3.94009	-1.74137	5.09940
11170.754	-3.43746	3.95039	-1.73274	5.07641
11174.757	-3.38592	3.96657	-1.72899	5.06331
11178.756	-3.29320	3.96882	-1.71072	5.07267
11182.755	-3.28303	3.95474	-1.71910	5.11040
11186.747	-3.25681	4.02234	-1.74184	5.08871
11190.712	-3.19593	4.07193	-1.79790	5.07752
11194.755	-3.26873	3.99578	-1.84037	5.06638
11198.756	-3.31239	4.03295	-1.87064	5.05173
11202.752	-3.37420	4.03808	-1.90155	5.00378
11206.755	-3.44298	4.08204	-1.92317	4.99019
11210.756	-3.51968	4.13375	-1.93170	4.99990
11214.757	-3.52002	4.16597	-1.92205	4.97286
11218.750	-3.44884	4.16167	-1.89692	4.97451
11222.759	-3.46029	4.21716	-1.90264	4.96481
11226.757	-3.47779	4.28583	-1.90150	4.96321
11230.756	-3.43069	4.26135	-1.89607	5.01661
11234.725	-3.43734	4.24711	-1.85165	5.13293
11238.756	-3.44676	4.28298	-1.83647	5.19823
11242.727	-3.45581	4.25993	-1.84287	5.29668
11246.756	-3.42544	4.26616	-1.82738	5.23291
11250.752	-3.35207	4.26478	-1.84954	5.25839
11254.752	-3.41014	4.32197	-1.83801	5.16211
11258.757	-3.41758	4.37629	-1.79063	5.30321
11262.755	-3.44231	4.35320	-1.80967	5.35796
11266.754	-3.47339	4.35577	-1.78034	5.46798
11270.749	-3.51162	4.27976	-1.80657	5.50548
11274.756	-3.53041	4.36714	-1.83360	5.34105
11278.756	-3.50961	4.48861	0.96648	5.40596
11282.758	-2.16709	4.61408	-2.27959	5.89093
11286.756	-1.35953	5.16979	-0.47162	4.16357
11290.758	0.75908	4.40035	1.30960	6.18280
11294.757	NaN	NaN	NaN	NaN
11298.746	NaN	NaN	NaN	NaN
11302.756	NaN	NaN	NaN	NaN
11306.759	NaN	NaN	NaN	NaN
11310.756	NaN	NaN	NaN	NaN
11314.731	NaN	NaN	NaN	NaN
11318.713	NaN	NaN	NaN	NaN
11322.711	NaN	NaN	NaN	NaN
11326.753	NaN	NaN	NaN	NaN
11330.755	NaN	NaN	NaN	NaN
11334.756	NaN	NaN	NaN	NaN
11338.714	NaN	NaN	NaN	NaN
11342.759	NaN	NaN	NaN	NaN
11346.654	NaN	NaN	NaN	NaN
11350.756	NaN	NaN	NaN	NaN
11354.715	NaN	NaN	NaN	NaN
11358.753	NaN	NaN	NaN	NaN
11362.758	NaN	NaN	NaN	NaN
11366.766	NaN	NaN	NaN	NaN
11370.711	NaN	NaN	NaN	NaN
11374.755	NaN	NaN	NaN	NaN
11378.753	NaN	NaN	NaN	NaN
11382.756	NaN	NaN	NaN	NaN
11386.710	NaN	NaN	NaN	NaN
11390.756	NaN	NaN	NaN	NaN
11394.758	NaN	NaN	NaN	NaN
11398.757	NaN	NaN	NaN	NaN
11402.716	NaN	NaN	1.44617	14.79114
11406.758	-2.97482	12.56979	-0.71814	14.28071
11410.758	NaN	NaN	0.39653	14.19370
11414.757	-4.15483	5.43522	6.31747	4.22288
11418.758	-3.03794	3.96402	-0.46401	14.41054
11422.717	-2.86955	4.73814	-2.89299	4.47027
11426.757	-2.13665	4.99064	-2.81929	3.30133
11430.758	-0.52205	4.92945	-1.75976	3.72382
11434.758	-0.48813	4.62917	0.08900	4.33716
11438.718	-1.23960	4.08014	1.59259	3.65492
11442.757	-0.43656	4.57877	0.65933	4.28967
11446.759	-0.19241	4.52526	0.29769	4.59155
11450.715	-0.11721	4.51807	0.04628	5.08296
11454.626	-0.09341	4.41016	-0.13330	4.80503
11458.758	-0.95120	4.23992	0.41003	4.61989
11462.760	-1.16694	4.22646	0.30426	4.79708
11466.760	-1.66586	4.10322	0.08468	4.79793
11470.718	-1.89367	4.12157	0.11051	4.88342
11474.758	-1.77211	4.22302	0.25349	4.76717
11478.748	-1.57756	4.18005	0.20904	4.78890
11482.750	-1.25885	4.16629	0.13332	4.82679
11486.721	-1.48027	4.19976	0.12848	4.83215
11490.761	-1.41092	4.20362	0.19581	4.80795
11494.759	-1.37962	4.19643	0.23472	4.76784
11498.760	-1.40673	4.17827	0.28682	4.81115
11502.622	-1.40033	4.20087	0.23592	4.87211
11506.759	-1.34073	4.19838	0.29885	4.97203
11510.761	-1.33086	4.21658	0.32280	4.98704
11514.757	-1.29457	4.24501	0.36916	5.14848
11518.623	-1.22997	4.25761	0.38688	5.22807
11522.728	-1.22191	4.26459	0.38432	5.24754
11526.759	-1.27609	4.26703	0.49056	5.31549
11530.757	-1.31322	4.27289	0.56002	5.30053
11534.621	-1.35489	4.29693	0.56875	5.37996
11538.760	-1.39728	4.33477	0.57717	5.38616
11542.759	-1.38076	4.38590	0.55133	5.32394
11546.758	-1.36025	4.39461	0.54374	5.35851
11550.623	-1.39554	4.42235	0.41303	5.27610
11554.760	-1.39738	4.42956	0.38494	5.30379
11558.761	-1.46499	4.42864	0.36074	5.25177
11562.744	-1.51149	4.36214	0.36841	5.18979
11566.719	-1.49054	4.38811	0.37762	5.10884
11570.760	-1.39066	4.33963	0.28173	5.03643
11574.760	-1.38094	4.35651	0.28160	4.92091
11578.758	-1.36858	4.36822	0.26364	4.91460
11582.657	-1.33542	4.30425	0.26920	4.87560
11586.762	-1.36933	4.22027	0.22160	4.85845
11590.762	-1.24664	4.18391	0.25671	4.87178
11594.761	-1.23625	4.18279	0.28361	4.81066
11598.656	-1.14161	4.14880	0.28947	4.78026
11602.763	-1.15565	4.16813	0.28309	4.90922
11606.724	-1.13447	4.24195	0.21025	4.85771
11610.716	-1.14020	4.21886	0.28853	4.85309
11614.658	-1.15617	4.29190	0.26838	4.75364
11618.762	-1.06463	4.15637	0.22026	4.72179
11622.759	-1.06959	4.19447	0.14439	4.66216
11626.761	-1.28847	4.17917	0.11374	4.52405
11630.657	-1.60285	4.29774	-0.11741	4.99036
11634.759	-2.34396	4.24440	-1.19790	5.19914
11638.760	-2.60852	4.23627	-1.38116	5.41430
11642.761	-3.50744	4.26091	-1.91003	5.34759
11646.742	-3.42774	4.34179	-1.60580	5.02996
11650.763	-3.25985	4.44654	-1.77400	5.54352
11654.762	-3.37126	4.77036	-1.82839	5.85496
11658.759	-3.44849	4.60443	-1.76743	5.85272
11662.659	-3.32901	4.49155	-1.94508	5.67156
11666.764	-3.33770	4.44550	-1.95247	5.56705
11670.762	-3.51755	4.58268	-2.04522	5.72531
11674.760	-3.46372	4.62582	-1.98792	5.80475
11678.763	-3.63087	4.75372	-2.11460	5.69622
11682.763	-3.65964	4.57009	-2.13965	5.66567
11686.754	-3.59775	4.55614	-2.06416	5.73722
11690.720	-3.53656	4.53334	-2.10290	5.68709
11694.620	-3.57758	4.40531	-2.15960	5.72812
11698.763	-3.62314	4.39141	-2.13973	5.66060
11702.651	-3.66861	4.36690	-2.13668	5.58351
11706.637	-3.60054	4.29370	-2.03030	5.42248
11710.629	-3.68070	4.35836	-2.03789	5.52866
11714.639	-3.66506	4.33220	-1.99421	5.64432
11718.635	-3.70388	4.33209	-2.00876	5.67361
11722.636	-3.72679	4.39243	-2.01015	5.69387
11726.660	-3.71372	4.55035	-1.99102	5.68545
11730.639	-3.73465	4.53610	-1.97646	5.66049
11734.617	-3.82114	4.48489	-1.96164	5.63127
11738.638	-3.83831	4.45308	-1.95567	5.66779
11742.766	-3.83967	4.47794	-1.98911	5.65494
11746.641	-3.80475	4.42294	-2.02763	5.73278
11750.638	-3.87146	4.45476	-2.03935	5.81673
11754.639	-3.88915	4.44146	-2.09497	5.80360
11758.656	-3.89377	4.47325	-2.12843	5.77745
11762.640	-3.89488	4.46799	-2.15569	5.69337
11766.635	-3.85913	4.40926	-2.16265	5.66526
11770.637	-3.79655	4.32354	-2.13333	5.40610
11774.659	-3.78837	4.21467	-2.15599	5.47493
11778.639	-3.71402	4.18672	-2.14278	5.38424
11782.635	-3.69506	4.24871	-2.17836	5.41876
11786.636	-3.65922	4.26045	-2.18602	5.43222
11790.656	-3.68730	4.28110	-2.17224	5.25083
11794.638	-3.70183	4.29134	-2.17886	5.31812
11798.639	-3.70954	4.29683	-2.15918	5.32557
11802.636	-3.92191	4.24912	-2.18079	5.22344
11806.635	-3.92774	4.20708	-2.18714	5.28722
11810.641	-3.92944	4.21987	-2.16776	5.33721
11814.636	-3.96548	4.26754	-2.20488	5.30244
11818.614	-3.97244	4.26055	-2.24530	5.33221
11822.605	-3.92843	4.27766	-2.28422	5.45839
11826.639	-3.85187	4.27963	-2.26173	5.43768
11830.638	-3.86778	4.24959	-2.15722	5.41478
11834.637	-3.73455	4.29059	-2.19990	5.48982
11838.660	-3.67793	4.35046	-2.23759	5.49638
11842.593	-3.79789	4.30788	-2.17715	5.56479
11846.639	-3.87791	4.35336	-2.22500	5.69512
11850.637	-3.84088	4.27973	-2.16669	5.55044
11854.640	-3.76712	4.33131	-2.22208	5.60029
11858.626	-3.62326	4.23632	-2.15727	5.52755
11862.635	-3.63322	4.35894	-2.11809	5.56360
11866.637	-3.57733	4.38337	-2.15314	5.58635
11870.660	-3.60123	4.38712	-2.22037	5.55255
11874.638	-3.66590	4.37130	-2.20290	5.61123
11878.595	-3.70527	4.43478	-2.22465	5.64944
11882.637	-3.70495	4.36044	-2.18845	5.90058
11886.638	-3.64679	4.27821	-2.13276	5.71887
11890.638	-3.63310	4.21771	-2.08976	5.62852
11894.638	-3.62506	4.30266	-2.14922	5.51513
11898.639	-3.56077	4.29911	-2.13921	5.56653
11902.637	-3.56895	4.40688	-2.14169	5.60804
11906.638	-3.53407	4.45063	-2.11537	5.69588
11910.642	-3.53543	4.51661	-2.24354	5.61646
11914.639	-3.52722	4.63805	-2.16139	5.66195
11918.597	-3.60539	4.52174	-2.17886	5.70545
11922.637	-3.58892	4.49797	-2.19316	5.78930
11926.640	-3.57320	4.52385	-2.16379	5.69469
11930.638	-3.61260	4.48469	-2.20550	5.61228
11934.631	-3.33369	4.59837	-2.13086	5.59622
11938.639	-1.51087	4.69261	-0.59952	5.50517
11942.621	0.58364	4.70275	1.59576	5.71539
11946.596	2.96601	4.74585	2.79476	5.67459
11950.661	4.56612	4.45865	3.89540	5.59773
11954.639	6.04804	4.25628	5.34931	5.41630
11958.639	6.79493	3.75746	6.30671	5.01682
11962.642	8.72767	3.59607	7.51544	4.22550
11966.599	10.60685	3.48129	9.85862	4.18376
11970.639	11.21104	3.03735	10.96320	3.66964
11974.641	12.37624	2.85868	11.16213	3.71122
11978.642	13.33586	2.77087	12.72690	3.52465
11982.597	13.57107	2.55127	13.51818	3.18323
11986.632	14.69383	2.11360	14.27494	3.41035
11990.640	15.07301	2.28551	15.56915	3.37280
11994.618	15.49868	2.48057	15.93405	3.23945
11998.598	15.34836	2.08053	15.84913	3.19267
12002.641	14.77018	1.91271	15.72053	3.11870
12006.640	14.54584	2.02117	15.68778	3.18405
12010.640	14.65202	2.02380	14.85639	3.09324
12014.600	14.70556	1.93664	15.03795	3.00759
12018.642	14.73792	1.88731	15.15376	2.94960
12022.640	14.78681	1.71933	15.48773	2.57719
12026.616	14.83606	1.77658	15.52287	2.80832
12030.629	14.86555	1.90091	15.60882	2.75586
12034.597	14.70511	1.89422	15.57307	2.70499
12038.640	14.67651	1.77664	15.65235	2.63791
12042.641	14.63091	1.82348	15.56227	2.64867
12046.599	14.71554	1.86338	15.54628	2.65709
12050.639	14.69741	1.84259	15.45345	2.55809
12054.640	14.77779	1.83637	15.26298	2.53556
12058.640	14.85778	1.84184	15.41132	2.55504
12062.600	14.90551	1.86657	15.37243	2.56485
12066.631	14.84285	1.83042	15.41880	2.60939
12070.629	14.85183	1.84061	15.41116	2.66812
12074.640	14.88194	1.85432	15.44119	2.62197
12078.598	14.91708	1.84605	15.50283	2.63827
12082.642	15.01786	1.89144	15.43773	2.65817
12086.640	15.02800	1.83906	15.49598	2.67883
12090.642	14.81829	1.81541	15.52619	2.66478
12094.600	14.77011	1.81896	15.46104	2.68196
12098.640	14.64113	1.82662	15.42394	2.66361
12102.642	14.60813	1.82502	15.50757	2.60894
12106.642	14.58382	1.82522	15.57254	2.56063
12110.599	14.73035	1.86224	15.64919	2.49801
12114.643	14.46247	1.93902	15.77975	2.46662
12118.640	14.41771	2.00938	15.60569	2.41285
12122.640	14.36260	1.98276	15.71807	2.41998
12126.599	14.28100	1.92587	15.77931	2.45300
12130.644	14.20889	1.98173	15.75309	2.42126
12134.640	14.24091	2.01063	15.76633	2.45020
12138.641	14.40733	2.04594	15.79048	2.47356
12142.627	14.51312	2.08838	15.77966	2.48868
12146.641	14.53316	2.12264	15.72573	2.56430
12150.624	14.49597	2.13880	15.73748	2.63418
12154.642	14.33833	2.15402	15.74516	2.68434
12158.600	14.28110	2.08673	15.69804	2.67857
12162.640	14.36716	2.08357	15.73127	2.75979
12166.644	14.50269	2.11611	15.67108	2.75965
12170.643	14.57843	2.15162	15.63412	2.79100
12174.601	14.64870	2.12825	15.65637	2.85612
12178.643	14.64715	2.12502	15.63470	2.84904
12182.642	14.67339	2.14947	15.58914	2.60421
12186.643	14.75003	2.10768	15.63384	2.68504
12190.626	14.60809	2.01366	15.66107	2.66938
12194.637	14.56720	2.01175	15.61324	2.73099
12198.643	14.54395	2.01528	15.66781	2.72613
12202.641	14.57852	2.07038	15.62241	2.71377
12206.601	14.67014	2.12146	15.60546	2.74194
12210.640	14.56855	2.04520	15.64878	2.75702
12214.643	14.53491	2.09939	15.65412	2.78619
12218.643	14.47606	2.05788	15.61446	2.69781
12222.601	14.41415	2.00831	15.51566	2.70691
12226.645	14.44490	2.00842	15.36862	2.66166
12230.643	14.43780	2.01939	15.27254	2.78936
12234.617	14.49825	2.09861	15.31309	2.84039
12238.600	14.53437	2.12659	15.33659	2.91606
12242.598	14.56934	2.11297	15.20293	2.83575
12246.643	14.55772	2.09209	15.21525	2.90050
12250.641	14.62591	2.14943	15.20476	2.91217
12254.603	14.64589	2.15524	15.09904	2.90721
12258.643	14.60827	2.09272	15.14188	2.94505
12262.643	14.52486	2.05678	15.11102	2.96725
12266.640	14.51595	2.11783	15.18257	2.56145
12270.635	14.35985	2.14196	15.28496	2.66617
12274.633	14.50039	2.12146	15.31620	2.63600
12278.632	14.42074	2.13434	15.37063	2.67043
12282.642	14.53937	2.15304	15.46726	2.61193
12286.644	14.30999	2.18028	15.51748	2.61909
12290.645	14.37012	2.24493	15.51126	2.67818
12294.643	14.23809	2.20760	15.52721	2.66082
12298.640	14.21964	2.15366	15.51175	2.64437
12302.642	14.20887	2.05133	15.52057	2.50839
12306.645	14.25140	2.17768	15.54066	2.56193
12310.644	14.26660	2.11644	15.49817	2.55180
12314.642	14.29012	1.97534	15.45161	2.67090
12318.614	14.27415	2.08037	15.44186	2.72112
12322.645	14.26590	2.03412	15.40830	2.79541
12326.643	14.18825	2.06074	15.32170	2.80967
12330.644	14.24123	2.03365	15.30466	2.88296
12334.641	14.22839	1.98377	15.29272	2.89745
12338.654	14.22426	1.96646	15.29914	2.78056
12342.600	14.26578	2.01250	15.26286	2.81036
12346.644	14.25553	2.06094	15.29450	2.87562
12350.639	14.25016	2.11939	15.34827	2.76215
12354.646	14.30345	2.13305	15.33527	2.80012
12358.642	14.39760	2.13379	15.35787	2.81136
12362.644	14.47508	2.15085	15.30217	2.91817
12366.650	14.50518	2.24583	15.28430	2.82065
12370.647	14.54698	2.26889	15.27409	2.86758
12374.645	14.60339	2.30111	15.26822	2.81720
12378.643	14.51749	2.33077	15.32235	2.70283
12382.649	14.54821	2.35086	15.35953	2.75643
12386.646	14.43182	2.36262	15.49614	2.72432
12390.645	14.39310	2.36949	15.57786	2.69158
12394.645	14.35507	2.36600	15.51103	2.70107
12398.540	14.40379	2.26303	15.46646	2.73810
12402.639	14.30212	2.30612	15.44536	2.74552
12406.643	14.24398	2.31146	15.42292	2.75279
12410.644	13.31998	2.35914	13.73025	2.78803
12414.542	11.73105	2.37878	11.78336	2.73893
12418.646	10.14749	2.37744	10.01847	2.79332
12422.645	9.14477	2.30692	8.42197	2.58610
12426.647	8.38870	2.30973	8.33051	2.62788
12430.642	8.46910	2.20650	8.30250	2.24761
12434.647	7.30866	2.06612	8.41386	2.39139
12438.650	7.41521	1.83397	7.15005	2.17649
12442.601	6.63543	1.45086	7.23614	1.91833
12446.613	6.40567	1.43307	6.81691	1.74511
12450.646	6.20509	1.24244	6.86929	1.50980
12454.644	6.06981	0.99561	6.95660	1.20159
12458.644	6.15159	0.95527	6.98123	1.21849
12462.541	5.95133	0.88837	6.74856	1.21267
12466.650	5.95466	0.83741	6.71481	1.23949
12470.645	5.87648	0.79732	6.74518	1.38787
12474.647	5.74701	0.75733	6.81192	1.49696
12478.547	5.77868	0.71814	6.84803	1.35544
12482.634	5.74917	0.68057	7.01614	1.34217
12486.645	5.71070	0.70292	7.08913	1.30802
12490.645	5.69273	0.70546	7.24109	1.31041
12494.549	5.67809	0.72840	7.31735	1.39523
12498.646	5.66769	0.78908	7.36464	1.43643
12502.647	5.64103	0.82631	7.29799	1.52179
12506.648	5.70681	0.86584	7.35527	1.51069
12510.545	5.65941	0.92680	7.19691	1.54709
12514.649	5.62279	0.89578	7.26569	1.49215
12518.649	5.62635	0.91484	6.99172	1.46861
12522.649	5.62466	0.94777	7.04508	1.37706
12526.548	5.63321	0.97310	6.85287	1.39244
12530.649	5.58727	0.97584	7.01392	1.30357
12534.644	5.53013	0.97505	6.87944	1.30789
12538.645	5.50982	0.99281	6.88541	1.27306
12542.545	5.52831	1.01249	6.91300	1.26573
12546.646	5.49003	1.00835	6.84093	1.23611
12550.647	5.45194	0.99494	6.83022	1.23086
12554.613	5.44271	0.99008	6.81091	1.22785
12558.546	5.49158	1.00382	6.79479	1.21948
12562.649	5.49598	1.01108	6.80191	1.20856
12566.633	5.46627	1.08171	6.74058	1.18065
12570.647	5.44156	1.08081	6.78187	1.19468
12574.542	5.46254	1.08438	6.80896	1.21654
12578.649	5.53213	1.14107	6.83271	1.25063
12582.645	5.55499	1.14051	6.81069	1.26097
12586.644	5.54943	1.11965	6.79958	1.30776
12590.545	5.59182	1.13275	6.74325	1.32602
12594.648	5.67895	1.16120	6.71951	1.34618
12598.604	5.67664	1.13523	6.76165	1.42363
12602.646	5.70689	1.14525	6.70014	1.41769
12606.547	5.70819	1.16764	6.63561	1.35056
12610.640	5.72340	1.11101	6.74198	1.44056
12614.648	5.73507	1.07901	6.81972	1.46974
12618.646	5.71266	1.03345	6.90476	1.50739
12622.544	5.70708	0.90883	6.84045	1.44956
12626.603	5.71880	0.81816	6.88208	1.42574
12630.648	5.72207	0.80065	6.92459	1.39341
12634.651	5.72077	0.80708	6.95254	1.32346
12638.541	5.67563	0.77454	6.95834	1.26980
12642.647	5.68607	0.71091	6.99340	1.19193
12646.648	5.58828	0.81909	7.02252	1.13703
12650.626	5.58680	0.84606	7.04772	1.16036
12654.557	5.58754	0.87368	6.88881	1.24577
12658.522	5.55386	0.80798	7.01834	1.21647
12662.647	5.55359	0.87344	6.99125	1.20448
12666.646	5.52873	0.92243	6.99563	1.29268
12670.544	5.55617	0.93846	7.02013	1.33173
12674.649	5.52937	0.95851	6.93195	1.40584
12678.648	5.51976	0.94094	6.92586	1.41912
12682.648	5.55165	0.94992	6.92286	1.49001
12686.541	5.52133	0.96839	6.92097	1.56327
12690.604	5.55519	0.93822	6.87159	1.59038
12694.646	5.58083	0.89436	6.90701	1.61991
12698.649	5.60465	0.88775	6.91011	1.60985
12702.544	5.60598	0.87440	6.89539	1.64729
12706.650	5.59383	0.87100	6.90931	1.63908
12710.646	5.57584	0.86502	6.89358	1.61368
12714.649	5.51142	0.90550	6.84485	1.61394
12718.543	5.50857	0.95219	6.78754	1.60161
12722.652	5.56394	1.06506	6.71113	1.59658
12726.649	5.56001	1.09570	6.56968	1.38210
12730.649	5.63014	1.16879	6.68989	1.41654
12734.483	5.62478	1.15313	6.73209	1.42727
12738.605	5.59329	1.18380	6.75057	1.49047
12742.605	5.57146	1.12577	6.65142	1.42124
12746.524	5.59661	1.09816	6.57181	1.36978
12750.482	5.67452	1.07663	6.57634	1.37310
12754.523	5.68942	1.10152	6.74298	1.34563
12758.526	5.66789	1.06354	6.75918	1.35668
12762.524	5.64174	1.12460	6.73617	1.32179
12766.519	5.44953	1.10377	6.50619	1.35446
12770.521	4.23742	1.18063	3.77231	1.86789
12774.523	2.26475	1.11370	1.75374	1.85365
12778.524	0.81153	1.33410	0.50493	1.89197
12782.521	0.00494	1.42446	-0.11225	2.20236
12786.523	-0.54615	1.61469	-1.21797	1.79357
12790.526	-1.85715	1.97818	-1.93732	2.53831
12794.524	-2.52414	2.75497	-2.76765	2.90824
12798.544	-3.70806	3.05407	-3.50178	3.47563
12802.524	-4.31003	3.52066	-4.00786	4.06535
12806.527	-4.86704	4.26841	-5.01356	5.58511
12810.524	-5.48737	4.31220	-5.21412	5.82258
12814.549	-6.00791	4.67276	-5.74566	6.22606
12818.526	-6.51569	5.19343	-5.67809	6.15877
12822.494	-6.63059	5.44468	-5.38102	6.42581
12826.525	-6.39087	5.22747	-4.82067	6.48820
12830.544	-6.20401	5.14057	-4.86037	6.44575
12834.526	-6.13971	5.01637	-5.08850	6.46076
12838.529	-6.12504	4.76682	-5.21296	6.45733
12842.481	-6.38621	5.00823	-5.24585	6.51468
12846.543	-6.40562	4.98074	-5.24651	6.53758
12850.525	-6.42403	5.06621	-5.23763	6.53875
12854.528	-6.39555	5.11764	-5.21698	6.58580
12858.525	-6.40677	5.16647	-5.21804	6.63648
12862.536	-6.35756	5.14803	-5.12528	6.70833
12866.520	-6.37842	5.01128	-5.14771	6.76040
12870.529	-6.35481	5.06005	-5.15029	6.81550
12874.525	-6.39724	5.07904	-5.14141	6.74385
12878.547	-6.40922	5.12750	-5.13427	6.77643
12882.525	-6.44547	5.18217	-5.11073	6.80804
12886.480	-6.44013	5.22261	-5.13466	6.79607
12890.524	-6.42837	5.26575	-5.10684	6.78211
12894.545	-6.40516	5.31805	-5.10684	6.80425
12898.526	-6.41425	5.32677	-5.08328	6.82936
12902.527	-6.40158	5.31155	-5.05641	6.82610
12906.525	-6.38530	5.32423	-5.04629	6.80581
12910.522	-6.35231	5.35213	-5.05624	6.70565
12914.526	-6.38484	5.30041	-5.08037	6.68909
12918.526	-6.37082	5.29015	-5.11196	6.69172
12922.527	-6.34858	5.27480	-5.16548	6.66406
12926.547	-6.36221	5.27657	-5.16393	6.66786
12930.526	-6.37020	5.26383	-5.12984	6.63318
12934.523	-6.34797	5.24476	-5.14350	6.64476
12938.483	-6.34959	5.21983	-5.13279	6.64350
12942.521	-6.37596	5.25180	-5.12964	6.64629
12946.501	-6.56103	5.37206	-5.16004	6.63653
12950.524	-6.57093	5.46879	-5.16484	6.61711
12954.526	-6.59172	5.50383	-5.19672	6.63900
12958.545	-6.58964	5.52279	-5.20455	6.54458
12962.526	-6.64192	5.55817	-5.24110	6.48209
12966.527	-6.71062	5.61155	-5.24321	6.48351
12970.530	-6.70734	5.57438	-5.26819	6.48149
12974.512	-6.72773	5.64877	-5.24137	6.40808
12978.522	-6.72844	5.63256	-5.26398	6.42598
12982.527	-6.74964	5.69086	-5.27742	6.46522
12986.514	-6.74709	5.67606	-5.30867	6.48601
12990.485	-6.70477	5.60641	-5.31293	6.45081
12994.525	-6.63654	5.56095	-5.33979	6.39685
12998.528	-6.64819	5.49149	-5.35229	6.37033
13002.525	-6.66677	5.49224	-5.36577	6.34480
13006.553	-6.64266	5.45616	-5.32151	6.42250
13010.529	-6.60081	5.44055	-5.30360	6.41968
13014.527	-6.58820	5.43675	-5.29691	6.46656
13018.485	-6.56120	5.40262	-5.28288	6.52540
13022.486	-6.54112	5.37499	-5.24545	6.52079
13026.528	-6.51667	5.32939	-5.23177	6.49528
13030.496	-6.46853	5.33535	-5.21114	6.46202
13034.527	-6.43736	5.37029	-5.14714	6.39338
13038.517	-6.51841	5.38037	-5.14921	6.49834
13042.484	-6.55099	5.54231	-5.28731	7.39035
13046.528	-7.27296	6.97834	-6.10831	9.94590
13050.526	-8.74120	10.10231	-6.96448	11.86837
13054.487	-10.04713	12.11911	NaN	NaN
13058.524	-9.68129	12.27216	NaN	NaN
13062.525	-10.39318	14.87300	NaN	NaN
13066.528	NaN	NaN	NaN	NaN
13070.542	NaN	NaN	NaN	NaN
13074.533	NaN	NaN	NaN	NaN
13078.527	NaN	NaN	NaN	NaN
13082.527	-10.61449	14.54425	NaN	NaN
13086.485	-10.65908	14.76987	NaN	NaN
13090.527	NaN	NaN	NaN	NaN
13094.526	NaN	NaN	NaN	NaN
13098.528	NaN	NaN	NaN	NaN
13102.485	-10.78499	14.53170	NaN	NaN
13106.530	NaN	NaN	NaN	NaN
13110.530	NaN	NaN	NaN	NaN
13114.492	NaN	NaN	NaN	NaN
13118.487	-10.59306	14.26755	NaN	NaN
13122.528	NaN	NaN	NaN	NaN
13126.528	NaN	NaN	NaN	NaN
13130.528	NaN	NaN	NaN	NaN
13134.531	NaN	NaN	NaN	NaN
13138.529	-10.33846	14.27170	NaN	NaN
13142.528	NaN	NaN	NaN	NaN
13146.526	NaN	NaN	NaN	NaN
13150.488	NaN	NaN	NaN	NaN
13154.506	NaN	NaN	NaN	NaN
13158.526	NaN	NaN	NaN	NaN
13162.530	NaN	NaN	NaN	NaN
13166.513	NaN	NaN	NaN	NaN
13170.531	-10.42946	14.39976	NaN	NaN
13174.527	-10.42346	14.51774	NaN	NaN
13178.529	-10.39748	14.24972	NaN	NaN
13182.515	NaN	NaN	NaN	NaN
13186.527	NaN	NaN	NaN	NaN
13190.528	NaN	NaN	NaN	NaN
13194.520	NaN	NaN	NaN	NaN
13198.519	NaN	NaN	NaN	NaN
13202.529	-10.38709	14.22987	NaN	NaN
13206.530	-10.45874	14.54772	NaN	NaN
13210.530	NaN	NaN	NaN	NaN
13214.488	NaN	NaN	NaN	NaN
13218.529	NaN	NaN	NaN	NaN
13222.529	-10.72982	14.45509	NaN	NaN
13226.530	NaN	NaN	NaN	NaN
13230.488	-10.97265	14.52084	NaN	NaN
13234.530	NaN	NaN	NaN	NaN
13238.529	NaN	NaN	NaN	NaN
13242.528	NaN	NaN	NaN	NaN
13246.516	-10.92179	14.30290	NaN	NaN
13250.531	-10.91313	14.60818	NaN	NaN
13254.487	-10.89157	14.52810	NaN	NaN
13258.529	-10.77756	14.35679	NaN	NaN
13262.515	-10.79976	14.42683	NaN	NaN
13266.530	-10.64981	13.30079	NaN	NaN
13270.529	-10.77315	14.56205	NaN	NaN
13274.530	-10.66879	13.77416	NaN	NaN
13278.489	-10.66023	14.55948	NaN	NaN
13282.528	NaN	NaN	NaN	NaN
13286.531	NaN	NaN	NaN	NaN
13290.532	-10.67557	14.50766	NaN	NaN
13294.517	NaN	NaN	NaN	NaN
13298.533	NaN	NaN	NaN	NaN
13302.529	-10.55279	13.12158	NaN	NaN
13306.529	-10.69271	14.73332	NaN	NaN
13310.489	NaN	NaN	NaN	NaN
13314.529	NaN	NaN	NaN	NaN
13318.531	-10.38300	12.97629	NaN	NaN
13322.533	NaN	NaN	NaN	NaN
13326.491	-10.41083	13.72236	NaN	NaN
13330.531	-10.40977	14.16909	NaN	NaN
13334.530	NaN	NaN	NaN	NaN
13338.531	NaN	NaN	NaN	NaN
13342.488	NaN	NaN	NaN	NaN
13346.533	-10.47552	14.58711	NaN	NaN
13350.529	-10.14307	11.98822	NaN	NaN
13354.532	NaN	NaN	NaN	NaN
13358.535	-10.31496	13.45752	NaN	NaN
13362.532	-10.32015	14.40882	NaN	NaN
13366.530	-10.39729	14.04147	NaN	NaN
13370.528	NaN	NaN	NaN	NaN
13374.536	-10.38694	14.36570	NaN	NaN
13378.531	-10.34809	14.34130	NaN	NaN
13382.532	-10.45025	14.50546	NaN	NaN
13386.531	-10.27816	14.14992	NaN	NaN
13390.535	-10.38207	14.47317	NaN	NaN
13394.531	-10.27681	13.99324	NaN	NaN
13398.534	-10.02986	12.81188	NaN	NaN
13402.528	-10.32464	14.48673	NaN	NaN
13406.534	-10.10569	13.36511	NaN	NaN
13410.529	NaN	NaN	NaN	NaN
13414.532	-10.24247	14.41233	NaN	NaN
13418.531	-10.21274	14.52460	NaN	NaN
13422.535	-10.18317	13.90557	NaN	NaN
13426.531	-10.05019	13.68127	NaN	NaN
13430.533	NaN	NaN	NaN	NaN
13434.529	-10.18305	14.08040	NaN	NaN
13438.536	-10.23098	13.28469	NaN	NaN
13442.534	-10.28962	13.85931	NaN	NaN
13446.489	NaN	NaN	NaN	NaN
13450.534	-10.35820	14.34490	NaN	NaN
13454.534	-10.16824	12.68433	NaN	NaN
13458.532	-10.19168	13.36605	NaN	NaN
13462.534	-10.30113	14.17718	NaN	NaN
13466.533	-10.17909	14.02059	NaN	NaN
13470.536	-10.24865	13.87888	NaN	NaN
13474.534	-10.23649	13.86386	NaN	NaN
13478.533	-10.19036	13.74112	NaN	NaN
13482.536	-10.04699	13.60221	NaN	NaN
13486.512	-10.04506	13.43936	NaN	NaN
13490.535	-9.99359	13.16097	NaN	NaN
13494.533	-9.87697	12.76896	NaN	NaN
13498.535	-9.96133	12.76359	NaN	NaN
13502.444	-9.99267	13.43038	NaN	NaN
13506.490	-9.95476	13.63954	NaN	NaN
13510.531	-8.63425	13.37956	NaN	NaN
13514.528	-7.44818	11.96609	-5.48282	14.37874
13518.535	-6.39062	8.38677	-4.89705	11.45303
13522.532	-6.32375	7.77653	-4.62246	9.24646
13526.534	-6.08009	5.61583	-4.52621	7.79232
13530.536	-5.84591	5.63171	-4.27809	6.55535
13534.534	-5.84947	5.53679	-4.26543	6.44451
13538.533	-5.64641	5.38516	-4.11673	6.08995
13542.533	-5.45250	5.27943	-4.01860	6.07585
13546.536	-5.00209	5.01055	-3.60319	5.94040
13550.539	-4.62064	4.84193	-2.83388	5.46056
13554.535	-4.73128	4.22869	-3.33935	4.16639
13558.534	-5.11684	4.40536	-3.25055	3.98558
13562.537	-5.05693	3.98371	-3.25659	4.54082
13566.539	-5.05100	4.22085	-3.12578	4.95119
13570.512	-4.90294	4.24265	-3.07431	4.79491
13574.539	-4.68252	4.19280	-2.95346	4.67447
13578.536	-4.61151	4.12473	-2.88106	4.44155
13582.537	-4.62081	4.04288	-2.83333	4.43872
13586.531	-4.57583	3.97614	-2.87638	4.54595
13590.534	-4.47501	3.81829	-2.83343	4.49198
13594.536	-4.57874	3.90298	-2.82100	4.49198
13598.536	-4.62836	3.91637	-2.79736	4.50574
13602.533	-4.59588	4.00566	-2.78807	4.51635
13606.535	-4.54410	3.94797	-2.72236	4.54581
13610.533	-4.60136	3.88370	-2.72548	4.51829
13614.537	-4.57717	3.81208	-2.68566	4.47167
13618.533	-4.52385	3.67487	-2.68229	4.53528
13622.533	-4.55260	3.66066	-2.68150	4.53942
13626.536	-4.51522	3.48173	-2.66649	4.52352
13630.432	-4.47664	3.52160	-2.62323	4.46242
13634.537	-4.51953	3.52287	-2.59676	4.38730
13638.533	-4.52530	3.52958	-2.58878	4.30168
13642.490	-4.48766	3.62440	-2.57281	4.23390
13646.428	-4.45930	3.55058	-2.57922	4.22541
13650.533	-4.46796	3.50676	-2.57687	4.29521
13654.534	-4.42484	3.54139	-2.56265	4.29140
13658.535	-4.43902	3.56610	-2.57835	4.45981
13662.429	-4.48636	3.57750	-2.58524	4.37056
13666.535	-4.49092	3.55884	-2.58331	4.34734
13670.535	-4.51028	3.69157	-2.57759	4.46640
13674.539	-4.54424	3.70568	-2.60228	4.60051
13678.538	-4.54269	3.76459	-2.63088	4.71357
13682.536	-4.54414	3.64899	-2.66526	4.66506
13686.535	-4.53677	3.58285	-2.72756	4.69602
13690.540	-4.55438	3.48855	-2.69879	4.73316
13694.520	-4.56698	3.51040	-2.79709	4.84203
13698.534	-4.57088	3.38575	-2.74058	4.89588
13702.534	-4.57342	3.30235	-2.68113	4.87601
13706.537	-4.52789	3.32314	-2.59804	4.82322
13710.537	-4.54481	3.54832	-2.50967	4.76594
13714.534	-4.55075	3.39157	-2.42559	4.67939
13718.534	-4.57781	3.43528	-2.34909	4.59278
13722.536	-4.53946	3.34684	-2.30288	4.57312
13726.538	-4.50310	3.39954	-2.30023	4.57878
13730.532	-4.50032	3.45435	-2.22381	4.47590
13734.539	-4.48670	3.47829	-2.21060	4.45748
13738.538	-4.45308	3.55503	-2.12783	4.46512
13742.497	-4.43641	3.53078	-2.07222	4.41162
13746.535	-4.40870	3.56415	-2.05965	4.40825
13750.533	-4.42511	3.63117	-2.03365	4.40103
13754.534	-4.35536	3.54017	-2.09698	4.46025
13758.539	-4.30862	3.56179	-2.19368	4.57072
13762.537	-4.28508	3.50505	-2.15725	4.60747
13766.534	-4.26978	3.50800	-2.22738	4.69189
13770.537	-4.25867	3.49218	-2.30442	4.68624
13774.399	-4.27582	3.47171	-2.31629	4.78005
13778.408	-4.27605	3.42487	-2.40253	4.80858
13782.400	-4.29075	3.38354	-2.49305	4.71030
13786.401	-4.28167	3.45610	-2.60433	4.72153
13790.398	-4.27331	3.46854	-2.64562	4.79639
13794.412	-4.28064	3.47835	-2.66246	4.83530
13798.409	-4.27328	3.48016	-2.70354	4.79321
13802.411	-4.31252	3.47915	-2.71600	4.78574
13806.369	-4.28296	3.52125	-2.76666	4.79200
13810.410	-4.26931	3.55748	-2.77106	4.76142
13814.410	-4.27192	3.55858	-2.77401	4.76865
13818.411	-4.25282	3.57019	-2.80298	4.71455
13822.401	-4.19672	3.59760	-2.78223	4.72366
13826.380	-4.16102	3.63393	-2.74833	4.74396
13830.410	-4.15248	3.66979	-2.72070	4.75511
13834.412	-4.18460	3.67319	-2.77134	4.77576
13838.398	-4.22249	3.72405	-2.70309	4.69369
13842.368	-4.21711	3.72370	-2.62105	4.60261
13846.412	-4.28340	3.99130	-2.45782	4.58519
13850.411	-4.33774	3.99698	-2.40414	4.59852
13854.398	-4.38985	4.04143	-2.35531	4.54162
13858.413	-4.41033	4.05778	-2.40379	4.51972
13862.411	-4.47952	4.10271	-2.35573	4.59022
13866.393	-4.51139	4.11175	-2.38447	4.64365
13870.371	-4.52809	4.14798	-2.38085	4.67819
13874.413	-4.54548	4.19346	-2.41578	4.77399
13878.412	-4.51965	4.30117	-2.39123	4.83810
13882.413	-4.46749	4.31308	-2.39599	4.86853
13886.397	-4.44918	4.33986	-2.38142	4.80547
13890.410	-4.43335	4.34318	-2.47157	4.86010
13894.410	-4.36634	4.31206	-2.51002	4.89702
13898.413	-4.36459	4.31375	-2.47125	4.96373
13902.400	-4.33404	4.31028	-2.42661	4.90938
13906.412	-4.32896	4.31178	-2.40592	4.82846
13910.411	-4.32955	4.31045	-2.48430	4.77257
13914.413	-4.32084	4.33297	-2.45114	4.72404
13918.372	-4.37515	4.31103	-2.46367	4.69295
13922.413	-4.40384	4.32394	-2.47923	4.63383
13926.410	-4.45207	4.33490	-2.48527	4.61866
13930.412	-4.49420	4.32711	-2.50677	4.74753
13934.398	-4.52688	4.26994	-2.52622	4.67046
13938.412	-4.51948	4.20598	-2.51921	4.64775
13942.415	-4.49092	4.19597	-2.61169	4.71586
13946.369	-4.52493	4.10260	-2.64398	4.63146
13950.374	-4.51290	4.06688	-2.63702	4.74160
13954.411	-4.46026	4.00471	-2.62115	4.75088
13958.414	-4.46011	3.89203	-2.61090	4.79029
13962.413	-4.42602	3.80791	-2.58967	4.80235
13966.371	-4.38398	3.77601	-2.56146	4.88813
13970.413	-4.34796	3.75378	-2.57870	4.86372
13974.413	-4.31585	3.70551	-2.56312	4.87805
13978.415	-4.27767	3.66078	-2.51527	4.96088
13982.399	-4.27832	3.73093	-2.44212	5.06894
13986.414	-4.28382	3.74672	-2.41955	5.11855
13990.400	-4.24041	3.95652	-2.40033	5.14355
13994.413	-4.13438	4.06454	-2.40649	5.15618
13998.401	-4.12317	4.13781	-2.42215	5.17689
14002.410	-3.87025	4.48283	-2.33930	5.30370
14006.412	-1.60337	4.83161	0.56699	5.30863
14010.414	-1.03985	6.63725	-2.28484	6.12386
14014.403	-2.95495	5.30785	-1.75228	9.80021
14018.414	NaN	NaN	-2.45277	12.05666
14022.412	NaN	NaN	NaN	NaN
14026.415	NaN	NaN	NaN	NaN
14030.416	NaN	NaN	NaN	NaN
14034.383	NaN	NaN	NaN	NaN
14038.429	NaN	NaN	NaN	NaN
14042.412	NaN	NaN	NaN	NaN
14046.370	NaN	NaN	NaN	NaN
14050.415	NaN	NaN	NaN	NaN
14054.410	NaN	NaN	NaN	NaN
