time (ms)	lx (deg)	ly (deg)	rx (deg)	ry (deg)
0.000	-0.48726	-0.24217	0.49967	0.33371
3.984	-0.53431	-0.25648	0.43877	0.31828
7.987	-0.53428	-0.16559	0.36007	0.28720
11.997	-0.51667	-0.07676	0.29577	0.23273
15.999	-0.56630	-0.02671	0.28101	0.23514
20.009	-0.56895	-0.01464	0.26547	0.24856
23.994	-0.63734	-0.11226	0.27019	0.25800
27.995	-0.61913	-0.05139	0.29932	0.31083
31.999	-0.62851	-0.01503	0.31250	0.36798
35.951	-0.70511	-0.00586	0.33732	0.48007
39.993	-0.70824	-0.02823	0.27160	0.66960
43.996	-0.65084	-0.00957	0.35496	0.62658
47.999	-0.66593	0.01995	0.39973	0.55863
51.995	-0.72712	-0.01603	0.48418	0.62091
55.989	-0.78342	-0.01866	0.39807	0.58720
59.996	-0.85389	0.06940	0.34747	0.53734
63.999	-0.83319	0.06594	0.36099	0.50941
67.997	-0.83883	0.11382	0.40695	0.47884
72.000	-0.83429	0.13715	0.35511	0.53863
75.996	-0.78893	0.15368	0.28379	0.65116
79.999	-0.77680	0.18856	0.28878	0.64090
83.997	-0.82191	0.25786	0.15804	0.54172
87.980	-0.83883	0.30752	0.08758	0.52773
91.998	-0.81833	0.31649	0.00308	0.55780
96.000	-0.73387	0.36619	0.04298	0.51744
99.997	-0.70461	0.32584	-0.02221	0.51071
103.999	-0.64163	0.22402	0.00171	0.53404
107.998	-0.67352	0.21321	0.02348	0.59233
112.000	-0.68305	0.21642	0.01916	0.59984
115.999	-0.63662	0.21737	-0.01593	0.58699
120.003	-0.67243	0.07742	0.04403	0.52477
123.999	-0.67454	0.11219	-0.06120	0.52564
127.997	-0.85424	0.14920	-0.05743	0.58053
131.996	-0.90086	0.10684	-0.02018	0.54594
135.951	-0.82389	0.11228	0.03564	0.56376
139.998	-0.89351	0.09911	0.01705	0.61094
143.895	-0.94929	0.04350	0.04869	0.60662
147.994	-0.93482	0.06954	0.04713	0.60448
151.996	-0.91329	0.11735	0.00834	0.63713
156.000	-0.95420	-0.02542	-0.02256	0.62858
160.002	-0.95750	0.04159	-0.02400	0.62212
164.002	-0.90763	0.05824	-0.02010	0.58781
167.998	-0.96360	0.01926	-0.03244	0.53153
171.955	-0.92167	0.00157	-0.04053	0.48099
175.830	-0.85667	0.06776	-0.09490	0.40210
179.997	-0.84863	0.08607	-0.14677	0.40953
183.874	-0.81153	0.09248	-0.13501	0.35931
188.004	-0.81228	0.15648	-0.20894	0.37673
191.867	-0.82806	0.16625	-0.19638	0.44076
195.872	-0.82143	0.10222	-0.20561	0.42103
199.874	-0.82329	0.16235	-0.27828	0.45410
203.876	-0.85242	0.20183	-0.06897	0.51498
207.869	-0.89721	0.27780	-0.10962	0.46733
211.873	-0.91545	0.34267	-0.10411	0.46494
215.874	-0.90287	0.37693	-0.00556	0.45868
219.876	-0.77598	0.36987	0.27257	0.47147
223.896	-0.28850	0.42401	0.70980	0.42153
227.873	-0.33302	0.39934	0.88168	0.40745
231.874	-0.39422	0.39936	0.98447	0.38893
235.870	-0.48411	0.38084	0.80799	0.34079
239.895	-0.52731	0.42099	0.66094	0.35825
243.836	-0.59188	0.39373	0.79739	0.29381
247.874	-0.46105	0.41024	0.79724	0.23249
251.873	-0.39757	0.36591	0.86304	0.21835
255.895	-0.17685	0.38165	0.92406	0.22935
259.854	-0.21179	0.32999	0.97469	0.24473
263.875	-0.27264	0.29836	0.96638	0.23678
267.874	-0.35365	0.18810	0.95467	0.31010
271.893	-0.43415	0.15635	0.89034	0.32506
275.873	-0.36079	0.13259	0.84888	0.34139
279.875	-0.33369	0.21094	0.80717	0.42455
283.843	-0.31191	0.15903	0.84635	0.47100
287.894	-0.25450	0.12966	0.84739	0.44616
291.875	-0.32754	0.06210	0.85307	0.47846
295.835	-0.28143	0.16631	0.83215	0.52529
299.870	-0.28029	0.23236	0.85074	0.56591
303.893	-0.26170	0.18656	0.79084	0.53064
307.875	-0.20837	0.13103	0.81029	0.64641
311.875	-0.20398	0.10402	0.81803	0.68785
315.879	-0.14858	-0.01131	0.81994	0.84669
319.898	-0.14546	-0.05186	0.81513	0.90034
323.874	-0.19129	-0.15553	0.86421	0.97768
327.875	-0.24108	-0.20749	0.87912	1.08697
331.877	-0.27969	-0.32872	0.91024	0.96341
335.874	-0.23788	-0.33630	0.93790	1.11146
339.884	-0.23063	-0.28892	1.00216	1.09679
343.847	-0.24247	-0.31309	1.01452	1.15944
347.877	-0.28203	-0.33190	1.04148	1.16674
351.894	-0.31444	-0.36172	1.01801	1.14489
355.875	-0.31550	-0.34045	1.02208	1.15626
359.832	-0.32367	-0.28901	1.05151	1.14585
363.875	-0.33618	-0.27940	1.08061	1.14228
367.896	-0.33342	-0.25932	1.08475	1.16066
371.875	-0.29776	-0.22351	1.09309	1.09832
375.876	-0.29044	-0.18435	1.08904	1.13346
379.876	-0.28816	-0.14484	1.04168	1.09665
383.886	-0.29245	-0.12693	1.00583	1.11685
387.864	-0.29749	-0.02562	0.98092	1.15610
391.878	-0.29709	0.03466	0.92932	1.14507
395.878	-0.29285	0.09701	0.89354	1.15939
399.898	-0.29195	0.13339	0.83741	1.16238
403.877	-0.30126	0.18977	0.77412	1.06442
407.876	-0.33476	0.21310	0.74625	0.94395
411.877	-0.37777	0.16750	0.69695	0.93363
415.898	-0.42393	0.21941	0.58171	0.87791
419.876	-0.45381	0.21658	0.61724	0.91206
423.879	-0.42606	0.12529	0.62086	0.90224
427.879	-0.44085	0.16246	0.57396	0.85304
431.898	-0.43554	0.02224	0.52567	0.81929
435.877	-0.42643	-0.05867	0.51160	0.78428
439.877	-0.43011	-0.03849	0.46413	0.76156
443.879	-0.36127	-0.03914	0.50537	0.78056
447.899	-0.28607	-0.06975	0.43961	0.73421
451.832	-0.31069	-0.09455	0.45016	0.87855
455.876	-0.27505	-0.11080	0.45800	0.89300
459.877	-0.26192	-0.11358	0.44666	0.89857
463.899	-0.23703	-0.15851	0.41919	0.89584
467.853	-0.26113	-0.16047	0.38802	0.83041
471.876	-0.25574	-0.20453	0.39388	0.85632
475.879	-0.23971	-0.14693	0.37802	0.85379
479.897	-0.34012	-0.10849	0.35509	0.83908
483.878	-0.40110	-0.07047	0.33129	0.85039
487.875	-0.54550	-0.06910	0.35201	0.81543
491.881	-0.55151	-0.04741	0.34437	0.82703
495.899	-0.62967	0.05096	0.37563	0.77945
499.877	-0.72553	-0.02018	0.36367	0.74209
503.877	-0.75020	-0.01056	0.38313	0.73863
507.872	-0.81960	0.12172	0.38214	0.75438
511.874	-0.86863	0.16789	0.40941	0.80854
515.877	-0.96117	0.14796	0.41018	0.82091
519.876	-0.98194	0.14838	0.43946	0.83440
523.879	-0.86907	0.19534	0.47239	0.85745
527.900	-0.83344	0.22968	0.50800	0.88224
531.878	-0.83895	0.28586	0.52820	0.89272
535.879	-0.86329	0.19221	0.56434	0.89607
539.879	-0.88565	-0.00562	0.63449	0.91976
543.897	-0.82334	0.11742	0.67764	0.93463
547.880	-0.74181	0.14401	0.68707	0.92417
551.854	-0.80315	0.08075	0.72243	0.88039
555.878	-0.71742	0.07921	0.73312	0.82683
559.899	-0.68685	0.12883	0.74766	0.78551
563.874	-0.64034	0.17475	0.70307	0.75728
567.875	-0.72702	0.11954	0.70680	0.79404
571.879	-0.71866	0.12948	0.71764	0.74063
575.900	-0.70039	0.16672	0.72528	0.72244
579.876	-0.67017	0.17485	0.74685	0.71797
583.879	-0.64935	0.23029	0.76987	0.67854
587.883	-0.62404	0.32441	0.82985	0.65927
591.902	-0.62560	0.35239	0.78506	0.66110
595.876	-0.60444	0.30448	0.79320	0.63178
599.878	-0.61424	0.30160	0.82555	0.66255
603.880	-0.64220	0.18042	0.74548	0.69640
607.869	-0.63134	0.06537	0.68350	0.75082
611.880	-0.61210	0.03710	0.67764	0.79748
615.878	-0.65590	-0.09350	0.67945	0.80336
619.869	-0.62578	-0.10374	0.64136	0.87397
623.875	-0.65791	-0.14700	0.60789	0.88287
627.878	-0.61670	-0.16414	0.62548	0.99520
631.880	-0.61163	-0.19510	0.56156	0.95636
635.832	-0.66784	-0.11542	0.57131	0.93348
639.873	-0.58712	-0.12295	0.56927	0.99762
643.879	-0.59756	-0.09027	0.58808	1.03622
647.877	-0.57756	-0.02313	0.64302	1.05866
651.879	-0.60146	0.06306	0.71047	1.05296
655.865	-0.58424	0.09919	0.73598	1.03440
659.877	-0.51173	0.18181	0.74226	1.05414
663.878	-0.52409	0.13440	0.73508	1.06592
667.879	-0.50480	0.20639	0.68409	1.05294
671.863	-0.52875	0.22686	0.56225	1.00706
675.834	-0.54875	0.23054	0.59315	1.03738
679.879	-0.49986	0.12851	0.60178	1.05050
683.876	-0.47532	0.11075	0.63287	1.06676
687.882	-0.50245	0.03352	0.67082	1.10962
691.884	-0.49681	0.04259	0.73307	1.12796
695.879	-0.48614	-0.10764	0.76101	1.23562
699.878	-0.46259	-0.11805	0.81330	1.28672
703.884	-0.47748	-0.15381	0.68181	1.23440
707.881	-0.45177	-0.12794	0.53783	1.19008
711.881	-0.40896	-0.11664	0.48932	1.22933
715.881	-0.39152	-0.07947	0.48641	1.21020
719.878	-0.31940	-0.11977	0.53428	1.20408
723.880	-0.33464	-0.00668	0.46661	1.21771
727.878	-0.36012	-0.12042	0.47282	1.21907
731.881	-0.31317	0.02465	0.34111	1.13867
735.901	-0.29922	-0.04719	0.32218	1.14130
739.877	-0.28041	-0.06041	0.34139	1.12615
743.879	-0.39033	-0.04383	0.27490	1.11110
747.881	-0.41872	-0.09117	0.24105	1.13729
751.876	-0.47832	-0.07467	0.24765	1.16426
755.880	-0.66754	-0.21533	0.24631	1.14866
759.881	-0.67161	-0.26840	0.27694	1.18388
763.878	-0.72578	-0.29118	0.24671	1.20929
767.883	-0.71141	-0.28179	0.24862	1.22464
771.879	-0.76672	-0.29525	0.26979	1.27267
775.875	-0.73156	-0.33133	0.25465	1.31582
779.881	-0.68987	-0.36900	0.27994	1.34937
783.876	-0.76957	-0.39340	0.28155	1.36568
787.880	-0.74099	-0.35240	0.30267	1.36821
791.883	-0.58290	-0.27409	0.27845	1.34614
795.882	-0.45458	-0.30345	0.33017	1.36183
799.868	-0.45855	-0.26342	0.35087	1.39776
803.880	-0.29932	-0.22302	0.34834	1.40740
807.884	-0.31794	-0.19747	0.41847	1.44766
811.880	-0.28880	-0.22771	0.44289	1.47912
815.880	-0.20671	-0.20707	0.45338	1.50934
819.882	-0.22304	-0.21228	0.53694	1.48347
823.882	-0.26053	-0.24956	0.55699	1.49759
827.881	-0.19206	-0.20279	0.57612	1.51773
831.883	-0.17375	-0.17978	0.67268	1.51691
835.878	-0.15965	-0.22757	0.73975	1.55912
839.882	-0.23348	-0.21208	0.81153	1.60321
843.883	-0.26820	-0.23909	0.91560	1.63162
847.883	-0.34881	-0.25375	1.01208	1.66121
851.880	-0.33032	-0.24767	1.06967	1.65165
855.837	-0.33087	-0.23561	1.02848	1.65899
859.881	-0.37578	-0.25937	1.07441	1.66962
863.883	-0.36799	-0.24759	1.00968	1.69185
867.883	-0.48346	-0.24980	0.96246	1.65466
871.876	-0.45726	-0.24200	0.85178	1.58147
875.881	-0.45827	-0.24272	0.74895	1.52510
879.884	-0.45512	-0.15098	0.79456	1.45521
883.858	-0.51312	-0.17048	0.71963	1.36840
887.886	-0.49699	-0.11957	0.60583	1.30724
891.885	-0.55364	-0.06510	0.66734	1.36434
895.884	-0.71074	-0.05220	0.57290	1.27280
899.880	-0.61578	-0.01680	0.53359	1.31528
903.880	-0.65024	0.02445	0.55173	1.33787
907.882	-0.77560	0.02224	0.55582	1.30099
911.884	-0.70551	0.04331	0.55706	1.25159
915.882	-0.59937	0.07457	0.66781	1.31177
919.881	-0.59593	0.05668	0.62784	1.37222
923.876	-0.44127	0.08441	0.71625	1.36095
927.784	-0.59496	0.12404	0.66484	1.45652
931.882	-0.43949	0.12971	0.78012	1.40215
935.883	-0.43884	0.14641	0.73732	1.39176
939.882	-0.45937	0.06972	0.90766	1.45355
943.784	-0.37980	0.19273	0.80215	1.40408
947.881	-0.38154	0.04341	0.82223	1.34684
951.881	-0.33903	0.08339	0.82761	1.45160
955.884	-0.27495	0.01598	0.95745	1.41058
959.884	-0.27912	0.10059	0.96891	1.47180
963.885	-0.15114	-0.00132	0.89897	1.46793
967.855	-0.32238	-0.01700	0.87704	1.41011
971.884	-0.34317	-0.01563	0.82265	1.36839
975.790	-0.31536	0.07755	0.76384	1.36987
979.882	-0.38735	0.02800	0.65987	1.26751
983.882	-0.33293	0.00514	0.68958	1.31519
987.877	-0.30084	0.05208	0.71451	1.25414
991.883	-0.42626	0.05176	0.67106	1.30586
995.882	-0.40142	0.07010	0.80878	1.28299
999.883	-0.42544	0.06123	0.74017	1.45178
1003.885	-0.40467	0.07735	0.81454	1.42176
1007.871	-0.35861	0.18823	0.98596	1.24173
1011.840	-0.34412	0.11796	0.81049	1.15988
1015.884	-0.41127	0.09631	0.78139	1.13617
1019.884	-0.33069	0.00164	0.72156	1.23342
1023.778	-0.31168	-0.02743	0.81801	1.27383
1027.839	-0.27155	-0.00084	0.93051	1.23073
1031.883	-0.34149	-0.03804	0.80766	1.12966
1035.838	-0.29458	0.04314	0.76295	1.13913
1039.779	-0.35881	0.04791	0.72176	1.08462
1043.882	-0.31014	-0.12800	0.71910	1.09488
1047.888	-0.35208	-0.10213	0.63491	1.03996
1051.847	-0.39879	-0.22100	0.58280	1.04196
1055.746	-0.48612	-0.28779	0.58870	1.08679
1059.882	-0.46207	-0.18025	0.61836	1.08932
1063.883	-0.52165	-0.24808	0.65029	1.04378
1067.885	-0.48475	-0.19026	0.62563	1.02938
1071.745	-0.54076	-0.23054	0.62399	1.02078
1075.884	-0.51215	-0.33733	0.60158	1.04297
1079.884	-0.57940	-0.27658	0.61575	1.02392
1083.884	-0.71749	-0.31302	0.58111	1.06665
1087.842	-0.61694	-0.28831	0.63595	1.02930
1091.859	-0.66856	-0.19577	0.62421	1.00727
1095.883	-0.59191	-0.14896	0.60067	0.95444
1099.883	-0.50632	-0.13493	0.55396	1.00902
1103.743	-0.45132	0.08374	0.56957	0.93345
1107.882	-0.41224	-0.11145	0.54225	0.91980
1111.883	-0.34347	0.06940	0.55744	0.97434
1115.884	-0.36489	-0.08878	0.68208	1.02666
1119.843	-0.34844	-0.02423	0.65099	0.99601
1123.884	-0.28503	-0.03722	0.76660	1.01126
1127.884	-0.30878	-0.12419	0.68861	0.93562
1131.883	-0.27039	-0.05320	0.65868	0.96141
1135.842	-0.26582	-0.10794	0.69568	0.80279
1139.885	-0.22167	-0.07271	0.66345	1.01628
1143.884	-0.25589	-0.17705	0.74461	0.81227
1147.883	-0.32359	-0.17566	0.66178	1.12505
1151.887	-0.28078	-0.11575	0.71039	0.80644
1155.841	-0.30779	-0.12315	0.75211	0.94318
1159.884	-0.28803	-0.18907	0.72461	0.89455
1163.883	-0.32144	-0.17533	0.79444	1.09101
1167.888	-0.28041	-0.18497	0.74364	0.86590
1171.840	-0.17720	-0.15881	0.57600	0.96994
1175.858	-0.22100	-0.12129	0.69471	0.95646
1179.888	-0.23760	-0.20297	0.56379	1.03190
1183.781	-0.30248	-0.28959	0.65446	0.99045
1187.883	-0.27188	-0.13682	0.53409	1.10816
1191.892	-0.29947	-0.20130	0.60012	0.97769
1195.886	-0.37593	-0.29922	0.53959	1.02949
1199.887	-0.31188	-0.27217	0.61342	1.02660
1203.881	-0.36174	-0.24851	0.60431	1.00921
1207.884	-0.28706	-0.16984	0.58436	1.03008
1211.886	-0.40082	-0.16221	0.59714	0.98927
1215.777	-0.35732	-0.20520	0.65824	1.10439
1219.757	-0.46004	-0.34785	0.76216	1.02523
1223.763	-0.40184	-0.22940	0.66660	1.01576
1227.761	-0.42579	-0.16561	0.60032	0.84730
1231.780	-0.34238	-0.15595	0.68054	0.78515
1235.757	-0.34109	-0.08091	0.73412	0.98137
1239.722	-0.22095	-0.11358	0.67474	0.89958
1243.761	-0.54359	0.00094	0.68769	0.90531
1247.757	-0.74384	-0.04592	0.63794	0.89586
1251.758	-0.45760	-0.04184	0.65424	0.76422
1255.761	-0.37191	-0.11468	0.72933	0.94493
1259.763	-0.38293	0.02525	0.51639	0.85951
1263.766	-0.33317	0.02853	0.51758	0.85479
1267.760	-0.19631	0.03017	0.49014	1.02312
1271.761	-0.57409	0.10126	0.54188	1.06988
1275.763	-0.49761	-0.10223	0.43500	1.08001
1279.783	-0.35844	0.00012	0.46847	1.04200
1283.760	-0.42331	-0.04483	0.47748	1.10815
1287.761	-0.25148	-0.11008	0.47609	1.11140
1291.764	-0.30352	0.02152	0.42815	1.05539
1295.784	-0.45070	0.04095	0.50925	1.22570
1299.730	-0.38658	0.10672	0.49041	1.03256
1303.747	-0.35462	-0.11296	0.49828	1.16584
1307.756	-0.42981	-0.27214	0.49907	1.15700
1311.758	-0.74032	-0.31819	0.55091	0.93363
1315.761	-0.48195	-0.10205	0.60759	0.94706
1319.761	-0.49264	-0.01036	0.66732	1.17149
1323.761	-0.48110	0.00557	0.69578	1.15557
1327.781	-0.41636	0.19541	0.61545	1.04108
1331.761	-0.42797	-0.00022	0.59297	0.98410
1335.760	-0.41410	-0.27693	0.52811	0.87188
1339.763	-0.37631	-0.42930	0.55840	0.75096
1343.786	0.00315	0.23388	0.68729	0.97444
1347.761	-0.09106	0.34950	0.73784	1.00851
1351.761	-0.25217	0.04704	0.73935	1.08077
1355.718	-0.17164	-0.07810	0.66203	0.94822
1359.783	-0.33657	-0.28019	0.50178	1.06949
1363.764	-0.17065	-0.06113	0.55965	1.10207
1367.762	-0.30682	-0.40572	0.49723	1.14339
1371.760	-0.51170	0.29196	0.37913	0.99531
1375.759	-0.51753	0.21588	0.37521	1.13913
1379.761	-0.41641	0.22980	0.44237	0.99727
1383.763	-0.24098	-0.22781	0.58923	1.11510
1387.744	-0.37080	0.06766	0.52863	1.19333
1391.738	-0.48503	-0.01903	0.44281	1.18396
1395.764	-0.43931	-0.00075	0.38901	1.03600
1399.766	-0.41901	-0.09256	0.56826	1.03349
1403.762	-0.53230	-0.04575	0.55568	1.00266
1407.785	-0.54592	-0.21046	0.40829	1.02420
1411.760	-0.47019	-0.17724	0.42626	0.92155
1415.761	-0.38231	-0.13669	0.37196	1.04405
1419.761	-0.32918	-0.20478	0.30652	0.97793
1423.787	-0.31449	-0.13950	0.47180	1.02533
1427.764	-0.39847	-0.07666	0.48210	0.94293
1431.727	-0.34481	-0.05449	0.25820	0.93282
1435.720	-0.37273	0.00092	0.20266	0.88190
1439.721	-0.33109	0.20122	0.25190	0.93448
1443.764	-0.34928	0.06167	0.45195	1.12484
1447.764	-0.34789	0.03009	0.32354	1.23767
1451.763	-0.32213	0.09370	0.23306	1.11344
1455.749	-0.38037	0.01255	0.31287	1.09011
1459.764	-0.45373	-0.00681	0.41601	1.05078
1463.762	-0.36104	0.12457	0.48999	1.04525
1467.762	-0.39276	0.20403	0.42502	0.97379
1471.721	-0.33069	0.19469	0.51637	1.06554
1475.762	-0.34027	-0.02942	0.44815	0.94795
1479.762	-0.31920	0.08096	0.44998	1.04995
1483.763	-0.37062	0.03946	0.46904	1.01249
1487.785	-0.35067	0.14765	0.41887	0.96167
1491.762	-0.34791	0.00132	0.41251	0.99478
1495.763	-0.42420	-0.08617	0.51731	1.07073
1499.763	-0.35216	0.03906	0.50929	1.04684
1503.722	-0.31873	0.03275	0.54582	0.97807
1507.763	-0.37276	-0.09015	0.56970	1.01396
1511.763	-0.38303	-0.01406	0.53818	1.09882
1515.752	-0.45485	-0.05094	0.49503	1.08430
1519.721	-0.43472	-0.02035	0.50076	1.15548
1523.762	-0.47376	-0.00572	0.42601	1.11898
1527.763	-0.44167	0.05275	0.48850	1.18604
1531.763	-0.44874	0.08004	0.57004	1.24245
1535.748	-0.53284	0.04207	0.59779	1.09645
1539.763	-0.46378	0.02249	0.52808	1.08397
1543.765	-0.44487	0.04346	0.52607	1.00505
1547.727	-0.42502	0.03282	0.47038	1.04361
1551.762	-0.44991	-0.03275	0.44517	1.00660
1555.766	-0.44055	0.00982	0.41162	1.03649
1559.765	-0.40556	0.03911	0.35764	1.00222
1563.763	-0.47899	-0.04311	0.31414	1.02120
1567.787	-0.43611	0.02674	0.42805	1.00787
1571.768	-0.67635	-0.04087	0.34943	0.88606
1575.764	-0.50058	-0.14660	0.39224	0.77006
1579.763	-0.41849	-0.15436	0.36995	0.78035
1583.785	-0.47991	-0.07569	0.33350	0.85824
1587.767	-0.47902	-0.16241	0.35079	0.82601
1591.766	-0.61196	-0.15291	0.41812	0.86079
1595.751	-0.53012	-0.13219	0.36050	0.92456
1599.788	-0.54657	-0.12750	0.34764	0.80890
1603.721	-0.50743	-0.06058	0.28865	0.88785
1607.765	-0.46299	-0.01538	0.52508	0.87536
1611.767	-0.51470	-0.07415	0.45336	0.96681
1615.785	-0.45418	0.02803	0.40154	0.83525
1619.764	-0.46085	0.06731	0.39670	1.03406
1623.762	-0.44160	0.05077	0.29900	0.92646
1627.763	-0.42643	0.04634	0.26009	0.90865
1631.762	-0.46013	0.06438	0.28979	1.11952
1635.720	-0.40926	0.11604	0.31786	0.80947
1639.729	-0.39278	0.13376	0.30190	1.02269
1643.766	-0.40199	0.15006	0.41249	1.18118
1647.753	-0.41110	0.13783	0.34442	0.79782
1651.765	-0.34985	0.15848	0.39914	0.79431
1655.765	-0.38492	0.12770	0.51379	1.01107
1659.764	-0.35149	0.14189	0.49123	1.11803
1663.769	-0.54955	0.05976	0.38097	0.95350
1667.764	-0.38693	0.06607	0.30538	1.06298
1671.722	-0.36531	-0.00944	0.39102	1.06861
1675.765	-0.42611	-0.12297	0.54585	1.10920
1679.788	-0.41958	-0.14263	0.55766	1.07592
1683.765	-0.45343	-0.19660	0.42599	1.11759
1687.769	-0.51061	-0.24296	0.40671	1.09959
1691.765	-0.55806	-0.18855	0.61101	1.10497
1695.793	-0.52600	-0.29914	0.38077	1.09119
1699.767	-0.58248	-0.37371	0.34990	1.12719
1703.769	-0.58962	-0.36302	0.36494	0.98085
1707.767	-0.63560	-0.28572	0.31600	1.06052
1711.770	-0.58841	-0.17366	0.50674	1.01700
1715.763	-0.65650	-0.27454	0.38886	1.02847
1719.767	-0.60893	-0.11992	0.42512	1.04871
1723.768	-0.60635	-0.12921	0.35198	1.03106
1727.768	-0.54741	-0.08528	0.45937	1.00978
1731.766	-0.46279	0.00502	0.43822	0.98653
1735.721	-0.29644	-0.05141	0.42862	0.99289
1739.765	-0.32109	-0.00246	0.39221	0.97653
1743.769	-0.23366	0.04381	0.45425	0.92880
1747.767	-0.38551	0.03916	0.45825	0.99910
1751.765	-0.18904	-0.29573	0.44584	0.97764
1755.765	-0.43867	-0.05988	0.52778	0.98540
1759.727	-0.29121	-0.09368	0.43601	1.03619
1763.736	-0.27920	-0.17335	0.39010	0.95124
1767.765	-0.28257	-0.15516	0.30689	0.92521
1771.766	-0.10083	-0.23917	0.27364	0.87213
1775.768	0.01003	-0.28214	0.43698	1.09280
1779.768	-0.14220	-0.23398	0.44172	1.05768
1783.767	-0.17501	-0.39037	0.52649	1.07813
1787.768	-0.23659	-0.32559	0.45443	1.07255
1791.753	-0.14121	-0.38001	0.40204	1.00522
1795.767	-0.27741	-0.45900	0.44323	0.89723
1799.771	-0.28694	-0.45428	0.35439	0.68311
1803.748	-0.27461	-0.42153	0.38665	0.74214
1807.725	-0.27014	-0.39549	0.41653	0.70646
1811.767	-0.20946	-0.43028	0.39633	0.84486
1815.767	-0.25959	-0.37797	0.46090	1.02754
1819.767	-0.23827	-0.44573	0.50711	0.94767
1823.763	-0.24177	-0.52554	0.51982	0.93562
1827.766	-0.19311	-0.49853	0.48373	0.84587
1831.765	-0.23582	-0.52899	0.35357	0.78410
1835.764	-0.07068	-0.49101	0.24813	0.79266
1839.725	-0.07018	-0.44678	0.22559	0.65459
1843.767	-0.00802	-0.41328	0.30029	0.78028
1847.763	-0.01397	-0.42715	0.37439	1.00733
1851.766	-0.03318	-0.40180	0.13578	0.80697
1855.725	-0.10205	-0.43001	0.12756	0.75957
1859.768	-0.09907	-0.45796	0.05993	0.71651
1863.771	-0.14288	-0.42183	0.39467	1.13322
1867.765	-0.14044	-0.36756	0.09508	0.69159
1871.753	-0.07316	-0.40218	0.08292	0.43465
1875.768	0.01397	-0.35710	0.21070	0.51853
1879.772	-0.08743	-0.37104	0.23172	0.77621
1883.768	-0.02521	-0.33772	0.23507	0.94480
1887.727	-0.07128	-0.31670	0.11674	1.06667
1891.767	-0.07535	-0.30080	0.22197	0.73400
1895.769	-0.15064	-0.34828	0.22187	0.97863
1899.770	-0.08210	-0.35002	0.22884	0.59081
1903.727	-0.04983	-0.28815	0.24537	0.51851
1907.765	-0.03599	-0.27955	0.21254	0.72704
1911.768	-0.01422	-0.34103	0.26761	0.65422
1915.767	0.35216	-0.28702	0.38169	0.56019
1919.727	1.81751	-0.27107	0.89924	0.79709
1923.768	3.30695	-0.20432	2.15549	1.62779
1927.771	4.10935	-0.02184	3.64724	0.75424
1931.757	5.10229	0.09163	4.50656	1.22711
1935.728	5.64248	0.10717	5.58776	0.75005
1939.767	6.12082	-0.11506	5.38863	0.54032
1943.768	6.38011	-0.11787	5.48900	0.48502
1947.764	6.31308	-0.09040	5.74758	0.59638
1951.726	6.01036	-0.07357	5.96463	0.53597
1955.766	5.73657	-0.11947	5.84193	0.52442
1959.766	5.80830	-0.20445	5.95211	0.72182
1963.766	6.07685	-0.23849	5.96124	0.83950
1967.729	6.07162	-0.31156	6.02921	1.04462
1971.734	6.18279	-0.24492	6.07417	0.63123
1975.768	6.24769	-0.32324	6.18578	0.98398
1979.770	6.22002	-0.29581	6.27998	0.72350
1983.727	6.13979	-0.31849	6.18885	0.89625
1987.770	6.03047	-0.30781	6.31036	0.77579
1991.772	6.08492	-0.30637	6.24016	1.08011
1995.769	6.10880	-0.18921	6.39516	1.07626
1999.731	6.13559	0.04200	6.43305	1.20443
2003.770	6.16471	0.05494	6.44549	1.05522
2007.769	6.18267	0.16765	6.60732	1.26150
2011.751	6.18470	0.03555	6.56978	1.43334
2015.729	6.16461	0.05640	6.56196	1.50567
2019.769	6.16640	0.02559	6.47750	1.55544
2023.769	6.13446	0.02219	6.47590	1.53430
2027.725	6.17845	0.14008	6.62441	1.18310
2031.637	6.21424	0.16519	6.56762	1.24596
2035.737	6.20744	0.07804	6.68217	1.46651
2039.769	6.22213	-0.00035	6.61259	1.60388
2043.770	6.26360	-0.06778	6.60338	1.24582
2047.629	6.23484	-0.04110	6.67125	0.95580
2051.726	6.22765	-0.12319	6.67968	1.59030
2055.732	6.25348	-0.05983	6.65392	1.38689
2059.769	6.26799	-0.20445	6.60333	1.08914
2063.773	6.29001	-0.22854	6.72829	0.96008
2067.773	6.34086	0.01971	6.83394	0.96471
2071.771	6.33285	0.10086	6.79447	1.04895
2075.770	6.33020	-0.21027	6.77634	0.99645
2079.773	6.31647	-0.09585	6.82569	1.00402
2083.773	6.22017	-0.11287	6.84331	1.04413
2087.775	6.24175	-0.06894	6.81573	1.16194
2091.772	6.18112	-0.04622	6.80076	1.14836
2095.744	6.30811	-0.16094	6.86148	1.09209
2099.778	6.24781	-0.10177	6.90268	1.10010
2103.770	6.23145	-0.02695	6.92672	1.13415
2107.771	6.27282	0.07613	6.87296	1.09914
2111.775	6.31860	0.04641	6.82283	1.02025
2115.765	6.47585	-0.07405	7.04274	1.02747
2119.770	7.24148	0.03357	7.41202	1.06993
2123.769	9.04996	0.08913	8.68055	1.14129
2127.670	9.90681	0.21509	9.63747	1.02089
2131.774	10.88850	0.21759	10.34484	1.01432
2135.730	11.92058	0.21520	12.02157	1.03379
2139.761	13.04949	0.14873	12.32070	1.14040
2143.632	13.24844	0.15705	12.57363	1.24739
2147.772	13.54875	0.03404	13.37427	1.22949
2151.769	14.39257	0.28207	14.30135	1.11525
2155.769	14.25497	0.37925	14.27527	1.27671
2159.664	14.23060	0.29578	14.31843	1.41331
2163.772	14.25974	0.51492	13.88743	1.39487
2167.770	14.11318	0.30487	14.10380	1.36867
2171.769	14.10837	0.34399	14.20623	1.43819
2175.774	14.14789	0.32018	14.31037	1.48122
2179.766	14.03699	0.29099	14.28063	1.54740
2183.773	14.20772	0.41794	14.34224	1.60118
2187.771	14.16553	0.45803	14.32996	1.74230
2191.773	14.13246	0.51935	14.39697	1.72129
2195.775	14.07352	0.54660	14.40516	1.61768
2199.775	13.99646	0.60799	14.45423	1.68686
2203.773	14.08162	0.63712	14.47552	1.62183
2207.775	14.06049	0.60300	14.50823	1.72295
2211.774	14.01905	0.66916	14.56239	1.55424
2215.766	14.06200	0.63238	14.63202	1.80066
2219.773	14.06200	0.65771	14.61427	1.94766
2223.663	14.00132	0.69419	14.65453	1.69167
2227.776	14.06366	0.75555	14.63567	1.56814
2231.773	14.01770	0.81551	14.69889	1.57124
2235.775	14.10559	0.79481	14.67509	1.53493
2239.607	14.07050	0.81932	14.78036	1.55282
2243.792	14.14425	0.82561	14.73929	1.85249
2247.771	14.12175	0.85740	14.83416	1.46294
2251.646	14.09892	0.74361	14.78396	1.52384
2255.606	14.13381	0.90293	14.80477	1.54246
2259.648	14.12072	0.91053	14.78257	1.73972
2263.649	14.14095	0.91883	14.74093	1.41254
2267.646	14.14751	0.88414	14.65274	1.44494
2271.614	14.15902	0.80939	14.60786	1.58480
2275.647	14.08388	0.90520	14.66531	1.42807
2279.604	14.12177	0.92570	14.67702	1.48797
2283.647	14.16282	1.04813	14.61364	1.49501
2287.647	14.11134	0.97265	14.70595	1.34272
2291.647	14.10258	0.89937	14.67360	1.37607
2295.649	14.02052	0.94055	14.84510	1.45070
2299.604	14.07784	0.88648	14.61673	1.79554
2303.639	14.10069	0.90174	14.62308	1.59365
2307.645	14.05395	0.88293	14.64431	1.55198
2311.650	14.06394	0.84217	14.79465	1.41730
2315.648	13.93134	0.97797	14.82337	1.54144
2319.667	14.00099	0.97449	14.80287	1.69683
2323.648	14.04288	0.95284	14.83701	1.52188
2327.650	14.06763	0.88746	14.93592	1.49872
2331.650	14.02741	0.88496	14.97171	1.62789
2335.669	13.97533	0.85137	14.93436	1.66418
2339.648	14.03526	0.86076	14.93548	1.62867
2343.643	13.91119	0.92414	14.92452	1.67354
2347.648	13.82780	0.87468	15.01642	1.67325
2351.666	13.81642	0.85168	14.98032	1.64619
2355.650	13.79765	0.90999	14.96522	1.57749
2359.650	13.90843	0.89432	14.92693	1.56076
2363.646	13.93681	0.91381	14.78521	1.58267
2367.643	13.81698	0.95737	14.73128	1.52937
2371.647	13.80051	0.98976	14.61729	1.65779
2375.650	13.79285	0.94323	14.54965	1.53729
2379.648	13.84892	0.97953	14.53442	1.59715
2383.669	13.75788	1.02088	14.53070	1.45824
2387.647	13.69774	1.09207	14.44322	1.48522
2391.639	13.53824	1.09261	14.42456	1.59871
2395.648	12.23251	1.14884	13.87426	1.85985
2399.622	10.90143	1.39901	12.02019	2.98537
2403.649	9.56378	1.77365	9.36464	3.05332
2407.653	9.29191	2.02991	8.33158	2.54143
2411.650	7.90280	2.05324	7.55459	2.38499
2415.649	6.65368	2.32461	7.52727	3.43493
2419.605	6.77220	2.25571	7.29895	3.21063
2423.605	6.46980	2.33740	7.20736	3.42131
2427.650	6.29842	2.45355	7.28466	3.41906
2431.639	6.26593	2.46553	7.10536	3.27837
2435.641	6.22775	2.46594	7.13485	3.17711
2439.650	6.26414	2.52612	7.19100	3.11881
2443.653	6.11029	2.53262	7.20538	3.20410
2447.639	6.08605	2.57084	7.05736	3.23761
2451.649	6.03999	2.55128	6.95663	3.34690
2455.649	6.03636	2.58767	7.02218	3.40795
2459.652	5.99257	2.61969	7.04112	3.30185
2463.648	5.96223	2.63143	6.89945	3.21477
2467.650	5.90200	2.58850	6.85950	3.20245
2471.647	5.93834	2.67650	6.91716	3.24226
2475.650	5.91339	2.70151	6.99876	3.11525
2479.668	5.88623	2.74298	7.09600	3.28350
2483.649	5.98132	2.73101	6.90057	3.12913
2487.648	5.91270	2.72100	6.90595	3.29454
2491.646	5.92830	2.75986	6.97800	3.50686
2495.673	5.96193	2.76154	7.03707	3.42924
2499.648	5.88486	2.72473	6.91606	3.36471
2503.651	5.91317	2.70109	6.93640	3.17635
2507.655	5.86853	2.65003	7.02030	3.41936
2511.608	5.92535	2.63831	7.09020	3.62670
2515.638	5.93244	2.69754	7.15325	3.55253
2519.647	5.87729	2.59821	7.03504	3.54992
2523.649	5.85116	2.58050	6.97313	3.25614
2527.607	5.88083	2.58268	6.97934	3.45350
2531.651	5.87410	2.65649	6.98820	3.31418
2535.648	5.86661	2.65455	7.00722	3.28265
2539.650	5.86403	2.68103	6.91395	3.26088
2543.635	5.84500	2.71992	6.87636	3.30348
2547.652	5.83623	2.59974	6.66085	3.21636
2551.652	5.81766	2.69514	6.62339	3.22165
2555.652	5.78472	2.65124	6.70007	3.12056
2559.637	5.79838	2.63677	6.68577	3.00364
2563.649	5.82466	2.62786	6.59131	2.98225
2567.650	5.81553	2.60452	6.54805	3.04753
2571.660	5.80948	2.68862	6.69650	3.06903
2575.636	5.80022	2.58710	6.75081	3.12546
2579.649	5.75323	2.66071	6.67955	3.15239
2583.652	5.69605	2.51717	6.49234	3.16729
2587.651	5.76573	2.52091	6.71571	3.22239
2591.640	5.75934	2.54058	6.69011	3.20549
2595.651	5.75691	2.51734	6.80259	3.17284
2599.632	5.76045	2.49188	6.82934	3.18806
2603.607	5.76807	2.54389	6.78644	3.16860
2607.610	5.77485	2.56054	6.74631	3.21968
2611.649	5.75787	2.61401	6.63634	3.26147
2615.651	5.74303	2.50682	6.25686	3.22584
2619.650	5.72468	2.49357	6.31534	3.21174
2623.674	5.73998	2.45261	6.36153	2.99937
2627.643	5.75212	2.50915	6.50119	3.14778
2631.650	5.51575	2.51735	6.10293	3.10896
2635.653	4.52042	2.48487	3.95439	3.18162
2639.668	2.86888	2.54986	1.73700	3.36291
2643.654	1.79681	2.49463	0.77851	3.21823
2647.651	0.78280	2.52315	0.32290	3.21070
2651.652	0.77082	2.29542	-0.38519	3.06349
2655.642	-0.12605	2.28530	-0.32181	2.48989
2659.649	-0.46011	2.48511	-0.49249	3.10654
2663.655	-0.86473	2.35743	-0.55642	3.07762
2667.654	-0.85175	2.29413	-0.53890	2.81002
2671.636	-0.95006	2.28859	-0.73039	2.55096
2675.653	-0.93691	2.27178	-0.87364	2.60002
2679.650	-0.98864	2.27160	-0.86714	2.64081
2683.628	-0.98152	2.29517	-1.00320	2.73251
2687.621	-1.11162	2.17796	-1.07096	2.63648
2691.652	-1.14786	2.17622	-1.18083	2.54894
2695.654	-1.12348	2.20690	-1.20693	2.50731
2699.652	-1.19284	2.22704	-1.16446	2.53980
2703.677	-1.21554	2.20440	-1.22409	2.58671
2707.651	-1.28708	2.10377	-1.21673	2.64639
2711.654	-1.35313	2.19401	-1.24483	2.68270
2715.653	-1.26440	2.15390	-1.34777	2.61636
2719.674	-1.35467	2.10051	-1.32423	2.65049
2723.641	-1.46732	2.12440	-1.26612	2.68008
2727.654	-1.49567	2.09190	-1.11457	2.76513
2731.649	-1.53808	2.08149	-1.00628	2.85800
2735.611	-1.52555	2.09500	-1.39989	2.85897
2739.653	-1.50777	2.07901	-1.36737	2.81017
2743.657	-1.45212	2.02920	-1.29506	2.75548
2747.650	-1.42253	1.96402	-1.28212	2.81916
2751.653	-1.47784	2.03885	-1.16411	2.85361
2755.654	-1.51018	2.02575	-1.10440	2.80512
2759.657	-1.58909	2.03733	-1.18011	2.71177
2763.654	-1.61701	2.02557	-1.09634	2.67806
2767.651	-1.52506	2.05119	-0.96767	2.64331
2771.657	-1.50192	2.03734	-1.09852	2.62726
2775.652	-1.43984	2.03166	-1.09209	2.66250
2779.654	-1.48188	2.01260	-1.02575	2.62393
2783.652	-1.46499	1.99373	-1.10740	2.48131
2787.653	-1.57327	2.01303	-1.21529	2.55818
2791.655	-1.63921	2.04093	-1.18227	2.59307
2795.653	-1.61845	1.99823	-1.18822	2.54603
2799.643	-1.60801	1.99149	-0.96678	2.48050
2803.657	-1.52404	1.95125	-1.11494	2.47860
2807.647	-1.55760	1.91964	-1.03273	2.45196
2811.656	-1.59658	1.89010	-1.16813	2.58116
2815.654	-1.63794	1.85909	-1.20390	2.71014
2819.655	-1.65833	1.86833	-1.14355	2.62211
2823.654	-1.66415	1.87465	-1.17384	2.52903
2827.655	-1.66031	1.84758	-1.09229	2.30176
2831.658	-1.64697	1.84134	-1.26525	2.64694
2835.655	-1.62438	1.82419	-1.16868	2.65189
2839.656	-1.64347	1.82852	-1.11727	2.72611
2843.654	-1.62294	1.80888	-1.07557	2.73381
2847.650	-1.64094	1.82289	-1.10559	2.58312
2851.646	-1.61282	1.85902	-1.11591	2.55267
2855.612	-1.60977	1.83115	-1.06654	2.55896
2859.655	-1.60662	1.85309	-1.03903	2.51648
2863.675	-1.60769	1.84374	-1.25691	2.43830
2867.654	-1.62480	1.84893	-1.21023	2.54732
2871.648	-1.63717	1.90003	-1.07130	2.64246
2875.654	-1.59184	1.86906	-0.96879	2.66314
2879.658	-1.43394	1.88225	-1.11472	2.65836
2883.652	-1.47511	1.87998	-1.16664	2.57605
2887.667	-1.52466	1.87905	-1.15134	2.57128
2891.627	-1.49974	1.88815	-1.10085	2.63638
2895.650	-1.44594	1.89745	-1.06366	2.76805
2899.653	-1.39443	1.84742	-0.75977	2.82559
2903.658	-1.49639	1.89833	-0.99472	3.04512
2907.655	-1.47613	1.86924	-1.17307	2.96528
2911.658	-1.42089	1.84288	-1.07756	2.84224
2915.655	-1.34621	1.81281	-1.25994	2.70011
2919.659	-1.42719	1.84650	-1.30198	2.74674
2923.655	-1.42670	1.82515	-1.26959	2.75907
2927.658	-1.52268	1.86443	-1.20733	2.74635
2931.632	-1.58634	1.91569	-1.19599	2.75811
2935.650	-1.67353	1.95126	-0.96524	2.67604
2939.657	-1.43520	1.87580	-1.16602	2.62554
2943.660	-1.51434	1.90757	-1.15575	2.50145
2947.656	-1.59782	1.98341	-1.23694	2.60695
2951.656	-1.57057	1.98569	-1.16369	2.61510
2955.658	-1.56704	2.02304	-1.18465	2.64595
2959.660	-1.54036	2.05184	-1.18909	2.75705
2963.653	-1.55737	2.04056	-1.18187	2.77921
2967.656	-1.52000	2.06265	-1.16059	2.65331
2971.660	-1.53515	2.10538	-1.18488	2.70606
2975.647	-1.55383	2.05798	-1.14965	2.67947
2979.656	-1.48071	2.06636	-1.08721	2.69619
2983.613	-1.51531	2.08454	-0.92924	2.76236
2987.658	-1.55951	2.12897	-1.03662	2.84630
2991.561	-1.58797	2.08174	-0.97941	2.90387
2995.655	-1.57493	2.09358	-1.10658	3.02789
2999.655	-1.54572	1.98046	-1.12365	2.96407
3003.655	-1.50118	2.02039	-1.33780	2.87275
3007.618	-1.51633	1.99450	-1.32880	2.83108
3011.654	-1.52712	1.99028	-1.44912	2.82618
3015.655	-1.50418	1.96826	-1.41692	2.89721
3019.656	-1.47833	2.01712	-1.46338	2.82190
3023.614	-1.47300	2.02967	-1.42910	2.81418
3027.654	-1.45993	2.07955	-1.50137	2.80614
3031.656	-1.42831	2.11295	-1.63100	2.88312
3035.656	-1.40589	2.12887	-1.59254	2.89162
3039.615	-1.38726	2.52201	-1.57510	2.91744
3043.656	-1.64655	2.45536	0.90865	2.97319
3047.658	-1.30384	3.12660	-0.37477	3.09100
3051.656	1.09286	6.61184	0.67240	5.00554
3055.617	NaN	NaN	-6.10409	10.13570
3059.646	NaN	NaN	NaN	NaN
3063.656	NaN	NaN	NaN	NaN
3067.654	NaN	NaN	NaN	NaN
3071.657	NaN	NaN	NaN	NaN
3075.656	NaN	NaN	NaN	NaN
3079.653	NaN	NaN	NaN	NaN
3083.654	NaN	NaN	NaN	NaN
3087.614	NaN	NaN	NaN	NaN
3091.657	NaN	NaN	NaN	NaN
3095.656	NaN	NaN	NaN	NaN
3099.627	NaN	NaN	NaN	NaN
3103.615	NaN	NaN	NaN	NaN
3107.658	NaN	NaN	NaN	NaN
3111.613	NaN	NaN	NaN	NaN
3115.657	NaN	NaN	NaN	NaN
3119.613	NaN	NaN	NaN	NaN
3123.617	NaN	NaN	NaN	NaN
3127.657	NaN	NaN	NaN	NaN
3131.664	-7.68011	11.85749	-6.55677	11.64992
3135.611	NaN	NaN	-7.34946	10.24150
3139.657	-9.26285	6.11107	-7.77963	11.25804
3143.652	-4.54651	15.04970	-0.76489	5.74841
3147.657	-2.44972	5.54504	-1.16582	5.68855
3151.655	-2.53669	5.17196	-1.31188	5.66593
3155.618	-11.83022	5.72617	-3.03586	5.96169
3159.657	-2.20951	3.89692	-0.76583	5.55525
3163.658	-2.05442	3.95028	-2.46436	5.95630
3167.658	-2.44747	4.42899	-2.28586	5.48886
3171.518	-6.85911	5.19829	-3.44975	5.50880
3175.659	-6.06517	4.99603	-5.30311	5.67391
3179.658	-6.27231	4.62884	-7.37384	5.97206
3183.623	-6.53877	4.38211	-4.31097	5.19856
3187.538	-6.29188	4.46208	-6.58548	5.67692
3191.661	-6.80012	4.09191	-6.98646	5.83552
3195.658	-6.81933	4.07979	-6.95360	5.89463
3199.657	-6.96223	3.92231	-6.84218	6.04525
3203.661	-6.90789	3.99918	-6.86129	5.93417
3207.661	-6.91359	4.14485	-6.84974	6.03361
3211.658	-7.26449	4.05534	-6.77509	6.06785
3215.659	-7.22595	4.20626	-6.92200	6.04736
3219.663	-7.29311	4.19909	-6.79954	6.00534
3223.661	-7.44803	4.09769	-6.70646	5.95535
3227.656	-7.36991	3.90971	-6.61509	6.11602
3232.079	-7.12383	4.13698	-6.75047	6.17796
3235.661	-7.17194	4.07081	-6.81527	6.13216
3239.619	-7.30109	4.14466	-6.79812	6.01630
3243.662	-7.47378	4.18596	-6.81838	6.08890
3247.657	-7.62750	4.20495	-6.74633	6.34536
3251.663	-7.99391	4.69394	-6.97140	6.38967
3255.657	-7.59568	4.26479	-6.78407	6.21349
3259.662	-5.27533	4.39422	-6.86398	6.40941
3263.653	-7.51788	4.50584	-6.29222	6.39968
3267.662	-4.09621	4.29668	-3.52638	6.31300
3271.660	-2.34228	4.39394	-2.03994	5.89704
3275.660	-3.68634	4.48526	-2.02589	5.52697
3279.659	-2.19244	4.19120	-4.80448	8.78526
3283.557	-2.04493	4.73748	-6.43763	8.93967
3287.659	-11.82972	7.01155	-0.57677	6.93000
3291.664	-2.42116	7.58842	-7.03609	12.00031
3295.535	-12.65871	7.12501	-6.70739	13.22289
3299.527	-7.56898	14.55791	-1.97934	12.20707
3303.533	-7.07180	14.13121	NaN	NaN
3307.535	NaN	NaN	NaN	NaN
3311.492	NaN	NaN	NaN	NaN
3315.534	NaN	NaN	NaN	NaN
3319.534	NaN	NaN	NaN	NaN
3323.534	NaN	NaN	NaN	NaN
3327.488	NaN	NaN	NaN	NaN
3331.533	NaN	NaN	NaN	NaN
3335.529	NaN	NaN	NaN	NaN
3339.534	NaN	NaN	NaN	NaN
3343.492	NaN	NaN	NaN	NaN
3347.534	NaN	NaN	NaN	NaN
3351.558	NaN	NaN	NaN	NaN
3355.526	NaN	NaN	NaN	NaN
3359.488	NaN	NaN	NaN	NaN
3363.531	NaN	NaN	NaN	NaN
3367.533	NaN	NaN	NaN	NaN
3371.534	NaN	NaN	NaN	NaN
3375.533	NaN	NaN	NaN	NaN
3379.490	-7.19329	11.84860	-8.03171	10.27300
3383.535	-5.32988	4.69767	NaN	NaN
3387.541	-5.18884	2.65759	-7.90041	6.79224
3391.555	-4.68831	6.82314	-0.43770	3.86801
3395.512	-4.51280	2.74293	-1.40901	2.43880
3399.538	-0.29029	2.11966	-1.64846	2.41068
3403.537	-0.53922	1.57117	-1.34557	1.97510
3407.561	-0.72632	1.12821	-1.56109	1.88872
3411.535	-0.92282	1.21809	-2.57560	2.73619
3415.538	-4.04102	1.55882	-2.73308	2.36729
3419.536	-5.10563	1.87352	-1.92733	2.30581
3423.559	-5.26135	1.83638	-2.04148	2.00894
3427.535	-5.34836	1.84405	-4.91587	2.53727
3431.529	-5.83805	1.68349	-4.41447	2.33614
3435.525	-5.72684	1.69970	-4.42935	2.07352
3439.558	-5.79074	1.35303	-4.82902	2.51076
3443.537	-5.86462	1.54306	-5.11447	2.83626
3447.538	-5.67379	1.65976	-5.40939	2.87001
3451.537	-5.84186	1.63879	-5.38698	2.82360
3455.558	-5.80838	1.62192	-5.16932	2.78303
3459.539	-5.87933	1.72542	-5.24784	2.75351
3463.539	-6.01537	1.64139	-5.34058	3.03312
3467.539	-6.00968	1.57143	-5.27210	2.94005
3471.560	-6.00082	1.50124	-5.38164	3.00592
3475.543	-5.91290	1.62152	-5.31640	3.12694
3479.492	-5.97398	1.58830	-5.36683	3.02981
3483.534	-5.69846	1.64746	-5.43590	2.92397
3487.558	-5.57365	1.54523	-5.43642	2.91676
3491.537	-5.87130	1.60517	-5.54508	2.98865
3495.536	-5.70173	1.58635	-5.53444	2.99283
3499.538	-5.88704	1.69840	-5.61185	3.10412
3503.555	-5.88636	1.74182	-5.51951	3.02590
3507.539	-5.91312	1.64604	-5.61335	3.02725
3511.539	-5.93873	1.49773	-5.60251	3.05147
3515.537	-5.89227	1.45579	-5.58230	3.06423
3519.549	-5.96768	1.56601	-5.55858	2.95080
3523.531	-5.66668	1.53362	-5.64978	2.82274
3527.537	-5.81059	1.54435	-5.69372	2.87615
3531.537	-5.74571	1.52782	-5.78450	2.97852
3535.559	-5.66305	1.39776	-5.73844	2.99750
3539.536	-5.84662	1.59168	-5.73372	3.04802
3543.542	-5.81786	1.45591	-5.74925	2.96216
3547.535	-5.63358	1.48312	-5.66005	2.88451
3551.560	-5.67443	1.71861	-5.73873	2.86113
3555.537	-5.65297	1.65816	-5.74003	2.98011
3559.528	-5.65725	1.69776	-5.68241	3.02575
3563.501	-5.57899	1.79035	-5.63994	3.02711
3567.531	-5.72239	1.88677	-5.42806	3.02400
3571.538	-5.69551	1.79325	-5.30473	3.15798
3575.534	-5.73188	1.90453	-5.25072	3.36263
3579.538	-5.76475	1.89743	-5.17112	3.41536
3583.553	-5.73728	1.87015	-5.18419	3.07164
3587.535	-5.72212	1.89885	-5.19517	3.08012
3591.539	-5.72935	1.85417	-5.23918	3.15831
3595.537	-5.74028	1.85631	-5.23133	3.22861
3599.560	-5.77155	1.78985	-5.28743	3.00824
3603.517	-5.96485	1.79752	-6.21289	3.47530
3607.498	-6.77352	1.64761	-8.68979	2.85280
3611.538	-8.61700	1.58150	-9.93335	2.92503
3615.560	-9.18639	1.53075	-10.95413	2.28256
3619.538	-9.51017	1.35041	-11.29348	1.35668
3623.532	-11.57472	1.25229	-12.13721	1.21501
3627.538	-11.54056	1.06763	-12.80041	1.02552
3631.496	-11.54604	1.04553	-13.09383	0.98444
3635.536	-11.94527	0.92304	-12.90541	0.84457
3639.540	-11.93284	0.84143	-12.80473	0.65135
3643.527	-11.78711	0.84110	-12.78701	0.83329
3647.536	-11.90524	0.79920	-12.58143	0.96424
3651.538	-11.94971	0.79590	-12.64054	0.88082
3655.541	-12.06029	0.76040	-12.64903	0.93642
3659.539	-12.10022	0.67062	-12.57647	0.96297
3663.560	-12.12127	0.62567	-12.78635	0.95830
3667.539	-12.20710	0.58445	-12.74808	0.92813
3671.538	-12.26131	0.59548	-12.69261	0.89453
3675.539	-12.39080	0.54493	-12.65481	0.82172
3679.561	-12.45068	0.53281	-12.65063	0.74845
3683.539	-12.42946	0.55047	-12.62658	0.81919
3687.495	-12.46687	0.48668	-12.61906	0.93527
3691.541	-12.48729	0.45545	-12.59618	0.88029
3695.561	-12.48731	0.42500	-12.54748	1.06063
3699.539	-12.49062	0.42386	-12.50926	1.02002
3703.538	-12.53847	0.41245	-12.51745	0.93081
3707.540	-12.48724	0.44463	-12.50493	0.75385
3711.562	-12.51118	0.45356	-12.44766	0.94057
3715.539	-12.46396	0.46733	-12.43168	0.87108
3719.540	-12.39393	0.45464	-12.40470	1.00478
3723.544	-12.28967	0.48119	-12.42141	1.03465
3727.553	-12.32509	0.30394	-12.40872	1.12951
3731.541	-12.29896	0.41244	-12.32648	1.11747
3735.539	-12.33224	0.42914	-12.32435	1.13805
3739.496	-12.31620	0.46475	-12.17186	1.07213
3743.499	-12.45430	0.44624	-12.13337	1.04380
3747.540	-12.40169	0.50227	-12.19491	0.90911
3751.539	-12.37274	0.46720	-12.30102	0.95086
3755.540	-12.31741	0.55229	-12.37382	0.97612
3759.526	-12.40455	0.54759	-12.40209	0.99686
3763.540	-12.42534	0.50547	-12.38547	1.02439
3767.538	-12.38682	0.58379	-12.40479	1.02911
3771.534	-12.41407	0.64975	-12.32862	0.99233
3775.543	-12.41563	0.69420	-12.44567	1.08120
3779.543	-12.45878	0.66476	-12.52778	1.01978
3783.539	-12.44602	0.66474	-12.44115	1.05648
3787.540	-12.49852	0.56884	-12.37894	1.04404
3791.526	-12.45814	0.58632	-12.48866	1.06764
3795.539	-12.40929	0.61218	-12.50174	1.08880
3799.545	-12.38244	0.54324	-12.52341	1.07857
3803.536	-12.24600	0.51322	-12.43727	1.09378
3807.500	-12.21826	0.53681	-12.45426	1.11658
3811.519	-12.19664	0.56466	-12.46169	1.07376
3815.540	-12.15355	0.69866	-12.47527	1.09352
3819.541	-12.17155	0.52233	-12.38057	1.06527
3823.499	-12.12578	0.50090	-12.28258	1.02756
3827.540	-12.27507	0.68564	-12.27429	1.02305
3831.539	-12.28891	0.68048	-12.28768	1.03118
3835.542	-12.23286	0.69238	-12.36970	1.17658
3839.525	-12.35758	0.58965	-12.46005	1.11736
3843.542	-12.23727	0.63501	-12.35367	1.13159
3847.542	-12.27062	0.60514	-12.35121	1.15684
3851.539	-12.34524	0.61640	-12.22108	1.17744
3855.500	-12.39996	0.65534	-12.15647	1.22537
3859.542	-12.39168	0.62151	-12.15699	1.26972
3863.544	-12.37508	0.67540	-12.24434	1.27744
3867.542	-12.40628	0.73278	-12.18220	1.20857
3871.501	-12.34699	0.61174	-12.24381	1.22057
3875.538	-12.26524	0.57316	-12.31391	1.14671
3879.541	-12.34122	0.49840	-12.69023	1.07540
3883.542	-12.47905	0.28787	-12.84845	0.62118
3887.500	-12.69056	-0.00017	-13.59905	-1.28026
3891.541	-12.92217	-1.52672	-14.02547	-2.17690
3895.511	-12.98101	-2.49722	-13.94647	-2.76834
3899.544	-12.89930	-2.60825	-13.77230	-3.03180
3903.500	-12.88692	-2.86806	-13.90279	-3.41748
3907.541	-12.96951	-2.89404	-13.82358	-3.71830
3911.540	-12.92232	-2.93969	-13.70957	-3.42178
3915.541	-13.09873	-2.95856	-13.79761	-3.43021
3919.526	-13.07931	-2.98831	-13.71097	-3.43232
3923.541	-13.14684	-3.06167	-13.77485	-3.49871
3927.542	-13.16508	-3.06072	-13.66986	-3.63884
3931.543	-13.19875	-3.03576	-13.77923	-3.87375
3935.532	-13.24687	-3.05178	-13.94609	-3.85230
3939.543	-13.24670	-3.05374	-13.86167	-3.96947
3943.541	-13.19435	-3.08375	-13.91296	-3.88231
3947.541	-13.25096	-3.06560	-13.89753	-3.98050
3951.544	-13.22046	-3.07747	-14.01847	-3.95111
3955.545	-13.25496	-3.08398	-14.08995	-3.85817
3959.543	-13.19781	-3.07515	-14.17661	-3.82022
3963.543	-13.24318	-2.98166	-14.15290	-3.55005
3967.534	-13.23379	-2.95138	-14.20978	-3.44885
3971.546	-13.19783	-2.92139	-14.23370	-3.70844
3975.541	-13.23713	-2.93532	-14.22218	-3.54028
3979.510	-13.26072	-2.93110	-14.12910	-3.63470
3983.500	-13.20576	-3.00424	-14.12163	-3.56780
3987.546	-13.19061	-3.14153	-14.03692	-3.61136
3991.545	-13.21096	-3.22160	-13.97531	-3.70344
3995.542	-13.22547	-3.06170	-13.97961	-3.64696
3999.438	-13.24734	-3.15507	-14.06899	-3.59047
4003.544	-13.36664	-3.05112	-13.92618	-3.64230
4007.557	-13.31253	-3.03927	-13.89035	-3.40197
4011.547	-13.36178	-3.01261	-13.91589	-3.60073
4015.548	-13.46449	-3.05465	-13.87650	-3.60478
4019.542	-13.46040	-3.02967	-13.86130	-3.67715
4023.540	-13.50009	-2.99305	-13.83096	-3.58813
4027.543	-13.25787	-3.54877	-13.83194	-3.66894
4031.546	-13.28566	-3.58489	-13.83971	-3.69255
4035.498	-13.51999	-3.24653	-13.79442	-3.78627
4039.544	-13.40312	-3.11101	-13.71064	-3.67870
4043.542	-13.37904	-3.08095	-13.56376	-3.71766
4047.547	-13.29833	-3.17389	-13.54054	-3.73573
4051.544	-13.39595	-3.14347	-13.55944	-3.75908
4055.507	-13.34258	-3.33001	-13.61614	-3.74551
4059.543	-13.26913	-3.27961	-13.66348	-3.76400
4063.540	-13.33901	-3.36544	-13.70052	-3.76591
4067.544	-13.24957	-3.38044	-13.74664	-3.76303
4071.545	-13.33492	-3.31373	-13.73488	-3.72019
4075.541	-13.38581	-3.25714	-13.73833	-3.65338
4079.546	-13.32068	-3.22311	-13.85716	-3.52921
4083.543	-13.44193	-3.21918	-13.96493	-3.54635
4087.547	-13.50018	-3.22105	-14.07653	-3.50502
4091.544	-13.50739	-3.19193	-14.12242	-3.47404
4095.440	-13.55691	-3.20995	-14.13759	-3.52194
4099.544	-13.61668	-3.20760	-14.12852	-3.55713
4103.543	-13.64853	-3.19018	-14.05687	-3.63978
4107.546	-13.63541	-3.14959	-13.98276	-3.60255
4111.507	-13.67468	-3.11816	-13.77097	-3.63792
4115.542	-13.71767	-3.02213	-13.73355	-3.56498
4119.499	-13.70512	-3.01677	-13.77336	-3.53240
4123.543	-13.64080	-3.06075	-13.72268	-3.58015
4127.546	-13.59755	-3.03200	-13.70697	-3.50706
4131.542	-13.51973	-2.98164	-13.68841	-3.45509
4135.499	-13.53172	-2.99807	-13.62877	-3.42759
4139.544	-13.54940	-2.99725	-13.63020	-3.34383
4143.529	-13.58793	-3.03571	-13.61372	-3.30552
4147.538	-13.54556	-2.98084	-13.60449	-3.24850
4151.543	-13.48089	-3.04765	-13.54560	-3.23780
4155.547	-13.56857	-3.04911	-13.56066	-3.21187
4159.440	-13.54957	-3.08438	-13.57002	-3.18858
4163.543	-13.51724	-3.09376	-13.55231	-3.18345
4167.542	-13.72381	-3.08832	-13.53378	-3.17789
4171.545	-13.69628	-3.14440	-13.49148	-3.24848
4175.548	-13.68991	-3.11989	-13.41577	-3.28995
4179.545	-13.72739	-3.09898	-13.36023	-3.33425
4183.546	-13.75711	-3.12169	-13.34326	-3.37347
4187.537	-13.73334	-3.07931	-13.27386	-3.40555
4191.411	-13.75366	-3.13564	-13.29175	-3.46289
4195.546	-13.81923	-3.04882	-13.34394	-3.48754
4199.545	-13.84883	-3.07548	-13.37902	-3.52528
4203.546	-13.87084	-3.07355	-13.56807	-3.57784
4207.408	-13.87180	-3.08614	-13.61199	-3.65159
4211.548	-13.87049	-3.04666	-13.72231	-3.69152
4215.546	-13.87856	-3.04687	-13.65620	-3.75562
4219.548	-13.90036	-3.16587	-13.74929	-3.78933
4223.406	-13.91535	-3.21448	-13.84790	-3.86956
4227.484	-13.93223	-3.26050	-13.90331	-3.91227
4231.548	-13.98022	-3.34324	-13.90929	-3.96654
4235.546	-13.98293	-3.40054	-13.94614	-3.98257
4239.505	-13.96601	-3.36481	-13.96192	-3.99648
4243.544	-13.92197	-3.31623	-14.00214	-4.00418
4247.545	-13.89601	-3.33917	-14.03902	-4.01251
4251.547	-13.87304	-3.42232	-14.07952	-3.97067
4255.549	-13.81039	-3.44955	-14.07709	-3.91815
4259.548	-13.81649	-3.43804	-14.13566	-3.87587
4263.543	-13.76483	-3.40005	-14.21295	-3.86673
4267.535	-13.76385	-3.33192	-14.24786	-3.73181
4271.445	-13.73294	-3.29885	-14.09574	-3.77844
4275.548	-13.71144	-3.20774	-14.10819	-3.77890
4279.547	-13.72629	-3.15690	-14.05724	-3.73642
4283.546	-13.73683	-3.15753	-13.96804	-3.81669
4287.443	-13.74336	-3.19715	-13.99106	-3.79106
4291.503	-13.76298	-3.21841	-13.90859	-3.84044
4295.546	-13.81291	-3.25763	-13.86170	-3.85641
4299.545	-13.86050	-3.22866	-13.81631	-3.89348
4303.442	-13.85555	-3.23986	-13.79255	-3.91590
4307.546	-13.88733	-3.18546	-13.81890	-3.94921
4311.519	-13.99391	-3.26014	-13.79655	-3.94862
4315.546	-13.98008	-3.34221	-13.88142	-3.97110
4319.396	-13.98578	-3.37056	-13.92416	-3.98451
4323.548	-13.94511	-3.30157	-13.99809	-4.03595
4327.545	-13.92183	-3.25430	-14.04269	-4.05711
4331.420	-13.97166	-3.21870	-14.06133	-4.08218
4335.418	-14.03496	-3.19020	-14.05329	-4.01423
4339.422	-14.08349	-3.13239	-14.05582	-3.71707
4343.421	-14.02982	-3.03709	-14.08015	-3.57606
4347.421	-14.06609	-2.98894	-14.18801	-3.34290
4351.446	-15.53760	-2.87143	-16.97418	-3.06978
4355.377	-17.62830	-1.94485	-17.76593	-1.60614
4359.422	-18.03035	0.66817	-17.15800	0.80392
4363.424	-17.95409	1.88338	-17.12398	1.36926
4367.446	-18.22877	4.04109	-17.60373	3.74143
4371.379	-1.76024	15.08354	-19.46188	11.75615
4375.422	-19.79691	-12.09200	-19.79878	-12.09187
4379.423	-19.88981	-12.08514	-19.86765	-12.08678
4383.420	-19.92391	-12.08261	-19.90112	-12.08430
4387.413	-19.94170	-12.08129	-19.92101	-12.08283
4391.423	-19.95271	-12.08047	-19.93428	-12.08184
4395.422	-19.96020	-12.07992	-19.94385	-12.08113
4399.393	-19.96632	-12.07946	-19.95336	-12.08042
4403.378	-19.97610	-12.07873	-19.95876	-12.08002
4407.418	-19.98007	-12.07844	-19.96312	-12.07970
4411.420	NaN	NaN	-19.96792	-12.07934
4415.421	NaN	NaN	NaN	NaN
4419.420	NaN	NaN	NaN	NaN
4423.421	NaN	NaN	NaN	NaN
4427.421	NaN	NaN	NaN	NaN
4431.421	NaN	NaN	NaN	NaN
4435.423	NaN	NaN	NaN	NaN
4439.378	NaN	NaN	NaN	NaN
4443.421	NaN	NaN	NaN	NaN
4447.419	NaN	NaN	NaN	NaN
4451.414	NaN	NaN	NaN	NaN
4455.421	-2.12820	14.75621	NaN	NaN
4459.423	-0.24473	11.45917	0.98839	13.90595
4463.422	-0.09391	9.00809	-1.41209	14.03809
4467.424	0.59960	2.92976	-2.95844	2.87057
4471.441	1.05024	0.70223	-3.23492	1.73544
4475.427	0.05130	0.77651	-2.89480	2.96502
4479.425	-0.35114	0.55307	-3.07050	1.17932
4483.387	0.14838	0.57327	-2.98232	1.11065
4487.416	-0.07115	0.35156	-2.04741	0.62466
4491.396	0.10332	0.08399	-1.52794	0.86659
4495.424	-0.32558	-0.16306	-1.68664	0.53538
4499.425	-1.69302	-0.01460	-0.55468	0.98741
4503.446	-2.15095	0.05475	-0.85396	0.44909
4507.424	-2.28502	0.11394	-1.04974	1.15697
4511.422	-1.33187	0.12290	-0.95797	1.09141
4515.426	-1.98214	0.45135	-0.90907	0.71406
4519.443	-1.87936	0.24259	-1.06728	0.83547
4523.426	-1.84597	0.47938	-0.73268	0.91785
4527.426	-1.96060	-0.17287	-0.89875	0.63795
4531.424	-2.12647	0.29289	-0.79077	1.14121
4535.447	-2.15851	0.06558	-0.86555	0.95823
4539.430	-2.11524	0.20141	-0.98683	0.96910
4543.424	-2.09732	0.16975	-1.05634	0.92529
4547.427	-2.08339	-0.00710	-1.24478	1.15871
4551.446	-2.01233	0.00387	-1.09626	1.19267
4555.391	-2.04726	0.08282	-1.23436	0.89032
4559.424	-2.01999	0.09258	-1.17895	1.14185
4563.424	-1.94285	0.03157	-1.07875	1.38622
4567.447	-2.06062	-0.03934	-1.12038	0.79385
4571.426	-2.07861	0.08356	-1.24905	1.11929
4575.424	-2.11447	0.04164	-1.28420	1.09209
4579.424	-2.08476	-0.01125	-1.16478	1.08729
4583.448	-2.06495	-0.07904	-1.12874	1.09898
4587.425	-2.16719	-0.17973	-1.16049	1.20762
4591.424	-2.18840	-0.17901	-1.30647	1.03446
4595.424	-2.29168	-0.19625	-1.38892	0.93849
4599.446	-2.23320	-0.17687	-1.30444	0.90288
4603.429	-1.97808	-0.19540	-1.23114	0.85629
4607.396	-2.16929	-0.20041	-1.30580	0.71186
4611.422	-2.22309	-0.20912	-1.20226	0.93936
4615.453	-2.22317	-0.22275	-1.14032	1.22590
4619.417	-2.22701	-0.28552	-1.22139	1.27637
4623.425	-2.18627	-0.25834	-1.30084	1.07216
4627.425	-2.13670	-0.17251	-1.36075	0.97131
4631.446	-1.98422	-0.11950	-1.39805	0.55522
4635.381	-1.92257	-0.07108	-1.32061	1.06197
4639.426	-1.89089	-0.04284	-1.17009	1.25805
4643.427	-1.99466	-0.02615	-1.09574	1.21912
4647.437	-2.08124	0.11100	-0.73451	1.01527
4651.421	-2.04292	0.38114	0.76866	0.38457
4655.428	-0.90788	0.34160	0.45433	-0.26737
4659.426	-1.77025	0.32646	0.36891	0.65501
4663.448	-1.23717	0.33898	-0.51855	0.56751
4667.424	-0.54468	1.02534	0.27902	2.14018
4671.382	NaN	NaN	-5.52165	3.26502
4675.428	NaN	NaN	NaN	NaN
4679.416	NaN	NaN	NaN	NaN
4683.425	NaN	NaN	NaN	NaN
4687.433	NaN	NaN	NaN	NaN
4691.382	NaN	NaN	NaN	NaN
4695.424	NaN	NaN	NaN	NaN
4699.423	NaN	NaN	NaN	NaN
4703.425	NaN	NaN	NaN	NaN
4707.378	NaN	NaN	NaN	NaN
4711.425	NaN	NaN	NaN	NaN
4715.424	NaN	NaN	NaN	NaN
4719.425	NaN	NaN	NaN	NaN
4723.411	NaN	NaN	NaN	NaN
4727.426	NaN	NaN	NaN	NaN
4731.402	NaN	NaN	NaN	NaN
4735.427	NaN	NaN	NaN	NaN
4739.382	NaN	NaN	NaN	NaN
4743.426	NaN	NaN	NaN	NaN
4747.425	NaN	NaN	NaN	NaN
4751.428	NaN	NaN	NaN	NaN
4755.428	6.76687	3.01896	13.45777	2.40276
4759.414	9.46855	3.67559	10.19563	4.77068
4763.426	0.78749	6.07332	10.25754	2.39119
4767.425	6.03957	-0.24639	3.94562	1.03842
4771.427	0.42308	-1.71922	1.50038	0.01481
4775.458	0.46959	-0.99952	3.32135	-0.58365
4779.426	0.37561	-1.45939	0.85136	-1.05471
4783.429	0.33692	-1.36143	1.26351	-1.24355
4787.426	0.30171	-1.75102	0.93331	-1.16206
4791.414	0.29416	-1.61753	0.48498	-1.15077
4795.427	0.45108	-1.32796	0.47649	-0.86644
4799.427	1.59710	-1.56470	0.59200	-0.88007
4803.428	3.22114	-1.56829	2.45592	-0.89961
4807.388	2.89460	-1.56068	3.24771	-1.10804
4811.385	3.29008	-1.62926	3.33013	-1.21334
4815.402	3.23969	-1.58814	3.63191	-1.12247
4819.427	3.02720	-1.70346	3.53530	-1.12869
4823.416	3.15887	-1.61422	3.37462	-1.13443
4827.427	3.13979	-1.66763	3.52378	-1.00835
4831.426	3.17391	-1.61889	3.38325	-0.99018
4835.427	3.21169	-1.56052	3.49747	-1.28824
4839.386	3.29797	-1.68737	3.47814	-1.28849
4843.426	3.30611	-1.65333	3.44500	-1.31259
4847.427	3.24825	-1.62008	3.44345	-1.28923
4851.427	3.15043	-1.59497	3.45524	-1.29001
4855.386	3.36139	-3.76989	3.48160	-1.32659
4859.422	3.23168	-1.58600	3.44392	-1.23771
4863.430	3.06397	-1.84988	3.41924	-1.19433
4867.428	3.10287	-1.57469	3.43128	-1.39506
4871.387	3.09710	-1.69286	3.40133	-1.42029
4875.429	2.95817	-1.77447	3.44958	-1.45477
4879.429	2.86603	-1.61052	3.49656	-1.40587
4883.426	2.74935	-1.67989	3.56250	-1.39119
4887.418	2.81058	-1.77118	3.62571	-1.41511
4891.428	2.67197	-1.89532	3.58539	-1.48133
4895.430	2.57981	-2.00716	3.64066	-1.48228
4899.426	2.72422	-1.94116	3.62363	-1.43014
4903.387	2.70012	-2.08665	3.62578	-1.46433
4907.429	2.66199	-2.07308	3.65463	-1.45656
4911.428	2.70693	-1.97773	3.64138	-1.35528
4915.433	2.72560	-2.13253	3.64820	-1.27497
4919.387	2.89121	-2.14172	3.48561	-1.11585
4923.427	2.95423	-2.16817	3.39421	-0.84477
4927.429	3.01702	-2.13025	3.39109	-1.15777
4931.428	3.10225	-2.10677	3.35395	-1.16912
4935.414	3.02220	-2.01275	3.38157	-1.20070
4939.406	2.97381	-1.99554	3.42982	-1.31652
4943.430	2.93247	-2.03579	3.24603	-1.40658
4947.428	2.95376	-2.00031	3.05677	-1.28839
4951.413	2.90190	-1.93432	2.96101	-1.31454
4955.428	2.80528	-2.00573	2.94995	-1.11195
4959.428	2.83204	-2.05102	2.85329	-1.15090
4963.426	2.73741	-2.11238	2.84162	-1.22206
4967.432	2.79607	-2.00408	2.77619	-1.26643
4971.430	2.77931	-2.11045	2.84779	-1.21533
4975.430	2.75633	-2.12707	2.87482	-1.13197
4979.422	2.76101	-2.28459	2.82155	-1.10952
4983.427	2.76983	-2.25204	2.74313	-1.09729
4987.429	2.82135	-2.05642	2.66778	-1.03403
4991.429	2.81159	-2.23691	2.74593	-1.00657
4995.427	2.78156	-2.28891	2.78654	-1.00165
4999.424	2.81501	-2.28493	2.85554	-1.07949
5003.431	2.84947	-2.23538	2.83977	-1.13717
5007.431	2.84264	-2.18952	2.87933	-1.16345
5011.430	2.85789	-2.16240	2.96349	-1.16492
5015.326	2.85772	-2.17455	3.10213	-1.19972
5019.430	2.86475	-2.18239	3.07607	-1.26009
5023.401	2.91245	-2.14490	3.16663	-1.32476
5027.386	2.88289	-2.15185	3.39760	-1.36650
5031.435	2.91000	-2.18156	3.30102	-1.32282
5035.384	2.91188	-2.13829	3.60744	-1.39204
5039.430	2.94426	-2.12502	3.53780	-1.33890
5043.431	2.96465	-2.12310	3.62348	-1.35286
5047.390	2.91497	-2.15662	3.47030	-1.43657
5051.428	2.90190	-2.05300	3.08933	-1.31672
5055.418	0.61995	-2.10264	0.68863	-1.20775
5059.428	-0.47644	-2.08420	-1.52325	-1.29652
5063.417	-1.09428	-2.06176	-3.33332	-1.20203
5067.427	-1.95232	-2.02185	-3.92218	-1.31835
5071.431	-3.38466	-2.03815	-5.27205	-1.14028
5075.430	-4.47109	-1.96117	-5.56561	-1.14843
5079.433	-5.07178	-1.84133	-8.06404	-1.12655
5083.430	-6.03834	-1.75741	-7.67977	-1.21599
5087.429	-7.73738	-1.75986	-8.68114	-1.16027
5091.431	-8.16914	-1.47309	-9.55673	-1.07216
5095.432	-9.23904	-1.53474	-9.79397	-1.11955
5099.430	-10.26641	-1.37402	-10.63140	-1.18618
5103.435	-10.48132	-1.05489	-11.32338	-1.14293
5107.394	-10.95248	-0.97530	-11.19170	-1.12152
5111.433	-10.93868	-0.83451	-10.49419	-1.08552
5115.431	-10.57620	-0.83986	-10.24714	-1.11987
5119.420	-10.07668	-0.88307	-10.68082	-1.05394
5123.432	-10.25668	-0.78699	-10.86660	-1.00005
5127.434	-10.79662	-0.77387	-10.81506	-0.98207
5131.432	-10.78851	-0.69179	-10.84398	-0.91498
5135.385	-10.86586	-0.59455	-10.93251	-0.94659
5139.431	-10.91014	-0.58282	-10.91062	-0.90736
5143.433	-10.92818	-0.54600	-10.86668	-0.86982
5147.407	-11.05390	-0.57839	-10.88843	-0.89884
5151.432	-10.93222	-0.59098	-10.83953	-0.85324
5155.431	-11.01216	-0.66171	-10.83532	-0.82714
5159.434	-11.01962	-0.61278	-10.85636	-0.81264
5163.431	-11.06726	-0.63950	-10.84307	-0.85884
5167.430	-11.11363	-0.61241	-10.80426	-0.86346
5171.388	-11.08010	-0.57332	-10.76362	-0.92445
5175.428	-11.11717	-0.56491	-10.70924	-0.90401
5179.431	-11.08682	-0.56194	-10.67888	-0.89685
5183.432	-11.04154	-0.53284	-10.65582	-0.86545
5187.426	-11.05390	-0.48375	-10.64712	-0.86379
5191.391	-11.05787	-0.46826	-10.59968	-0.78324
5195.430	-11.09401	-0.47474	-10.54895	-0.78281
5199.431	-11.13057	-0.38818	-10.54536	-0.74945
5203.432	-11.05907	-0.46028	-10.56241	-0.69236
5207.391	-11.14928	-0.39673	-10.56016	-0.52595
5211.432	-11.12522	-0.36380	-10.60481	-0.41233
5215.431	-11.07135	-0.42349	-10.65280	-0.50660
5219.431	-11.03865	-0.44312	-10.66471	-0.51947
5223.295	-10.93593	-0.42678	-10.78491	-0.66398
5227.434	-11.09752	-0.55987	-10.68746	-0.62278
5231.390	-11.08584	-0.46548	-10.73447	-0.66167
5235.436	-11.00195	-0.49367	-10.74853	-0.67299
5239.436	-10.93433	-0.48963	-10.74944	-0.55775
5243.432	-10.95413	-0.55778	-10.82217	-0.51476
5247.432	-10.92076	-0.47233	-10.81851	-0.37099
5251.434	-10.87412	-0.53565	-10.87527	-0.44439
5255.328	-10.85176	-0.63313	-10.81916	-0.47366
5259.434	-10.84137	-0.61288	-10.79713	-0.58334
5263.431	-10.83934	-0.59394	-10.86400	-0.68737
5267.434	-10.87137	-0.67723	-10.79461	-0.66227
5271.399	-10.85567	-0.61821	-10.80591	-0.80589
5275.435	-10.86653	-0.66023	-10.79682	-0.83232
5279.430	-10.90329	-0.59701	-10.70100	-0.68386
5283.434	-10.96497	-0.62555	-10.65328	-0.85823
5287.328	-10.89111	-0.61153	-10.60613	-0.94598
5291.389	-10.91636	-0.61494	-10.44201	-0.90321
5295.433	-10.94789	-0.60983	-10.44072	-0.95416
5299.433	-10.97949	-0.54534	-10.37602	-0.94133
5303.437	-10.98633	-0.58187	-10.37659	-0.96449
5307.423	-11.03805	-0.56387	-10.32049	-0.89609
5311.434	-11.00881	-0.47883	-10.33166	-0.84700
5315.398	-11.01381	-0.44753	-10.25918	-0.75950
5319.308	-11.02206	-0.42866	-10.21339	-0.66897
5323.436	-11.03193	-0.43267	-10.22325	-0.59337
5327.432	-11.00309	-0.42288	-10.20447	-0.48185
5331.434	-11.04496	-0.31822	-10.19260	-0.28859
5335.435	-11.03423	-0.34338	-10.32688	-0.32049
5339.439	-11.12142	-0.27347	-11.69935	0.69769
5343.432	-4.45367	-0.59131	-13.93183	3.69049
5347.433	-5.21001	0.08661	-13.93906	4.09006
5351.329	-15.66017	4.39558	-14.11689	4.55003
5355.412	-15.47358	5.00544	-14.27706	9.12549
5359.435	-10.52607	10.68927	NaN	NaN
5363.307	NaN	NaN	NaN	NaN
5367.306	NaN	NaN	NaN	NaN
5371.433	NaN	NaN	NaN	NaN
5375.311	NaN	NaN	NaN	NaN
5379.308	NaN	NaN	NaN	NaN
5383.307	NaN	NaN	NaN	NaN
5387.263	NaN	NaN	NaN	NaN
5391.307	NaN	NaN	NaN	NaN
5395.304	NaN	NaN	NaN	NaN
5399.309	NaN	NaN	NaN	NaN
5403.263	NaN	NaN	NaN	NaN
5407.309	NaN	NaN	NaN	NaN
5411.304	NaN	NaN	NaN	NaN
5415.306	NaN	NaN	NaN	NaN
5419.310	NaN	NaN	NaN	NaN
5423.308	NaN	NaN	NaN	NaN
5427.308	NaN	NaN	NaN	NaN
5431.310	NaN	NaN	NaN	NaN
5435.310	NaN	NaN	NaN	NaN
5439.290	-11.30462	3.25265	NaN	NaN
5443.310	-11.46359	2.58849	-15.27009	7.16304
5447.303	-14.92271	3.49130	-12.17044	5.27369
5451.311	-16.62651	5.41045	-12.62481	7.42090
5455.330	-15.78628	5.73622	-14.89807	7.44870
5459.310	-6.99661	2.82680	-13.95984	7.16522
5463.309	-5.90347	1.52525	-13.47430	5.38637
5467.310	-15.04881	2.84712	-5.29836	2.20005
5471.329	-15.23292	2.50733	-5.43718	0.95497
5475.312	-15.21749	2.07033	-5.74043	0.09467
5479.311	-12.33200	1.71620	-5.84888	-0.24720
5483.305	-14.37950	1.49101	-5.92216	-0.04061
5487.295	-12.36923	1.26599	-11.31331	0.36571
5491.311	-12.34444	1.14333	-12.28415	0.97031
5495.306	-12.04248	1.25397	-11.39828	0.56319
5499.310	-11.71356	1.22389	-11.23451	0.56648
5503.328	-11.57951	1.06607	-10.86696	0.89276
5507.312	-11.56872	0.90108	-10.63542	0.88985
5511.266	-11.37510	1.06214	-10.63142	0.94075
5515.308	-11.30285	0.99092	-10.51223	1.04607
5519.334	-11.34208	0.88641	-10.32301	1.00303
5523.312	-11.39279	0.75734	-10.53787	0.92220
5527.287	-11.38051	0.88054	-10.66452	0.98107
5531.310	-11.18740	0.96811	-10.48236	1.05122
5535.305	-11.25189	0.89115	-10.48420	0.99247
5539.312	-11.10897	0.88593	-10.45411	1.07355
5543.311	-11.14653	0.84635	-10.27112	1.07484
5547.310	-11.09446	0.83124	-10.33130	1.05217
5551.330	-11.07193	0.90301	-10.33531	0.96142
5555.267	-11.06222	0.97662	-10.35601	1.00070
5559.313	-11.19817	0.89124	-10.47295	0.98066
5563.312	-10.96456	0.79288	-10.41698	0.97871
5567.331	-11.00902	0.92686	-10.44715	0.96635
5571.315	-11.05120	0.88574	-10.23550	1.02621
5575.312	-11.13050	0.89086	-10.23798	0.96604
5579.312	-10.97999	0.84264	-10.21637	0.92860
5583.335	-11.07415	0.86629	-10.34506	0.88739
5587.313	-11.08003	0.82694	-10.06530	0.90500
5591.311	-11.13176	0.81590	-10.30692	0.85887
5595.320	-10.95342	0.75617	-10.20599	0.87215
5599.333	-11.12085	0.68346	-10.13850	0.80983
5603.315	-11.00415	0.70305	-10.14737	0.83730
5607.312	-10.98200	0.72195	-10.32340	0.88256
5611.283	-11.09050	0.67861	-10.15771	1.00597
5615.279	-10.97310	0.72090	-10.13850	0.96478
5619.316	-10.89997	0.70551	-10.26492	0.81137
5623.312	-11.09910	0.73434	-10.48036	1.13337
5627.309	-10.91248	0.61951	-10.23740	0.96678
5631.333	-11.00462	0.65688	-10.25168	1.03841
5635.267	-10.94167	0.60118	-10.27631	1.34583
5639.313	-10.97614	0.64153	-10.19156	1.10801
5643.311	-10.95241	0.72915	-10.34960	1.20921
5647.306	-11.05534	0.68249	-10.54670	1.15621
5651.296	-11.14216	0.73272	-10.24557	1.25032
5655.318	-11.01046	0.76666	-10.25946	1.18506
5659.311	-11.07601	0.64940	-10.50630	1.08338
5663.310	-11.06958	0.73800	-10.53015	1.25177
5667.314	-11.04534	0.61223	-10.29106	1.28917
5671.269	-11.06588	0.64287	-10.23461	1.25494
5675.313	-11.00362	0.71361	-10.25528	1.14130
5679.336	-10.89348	0.70094	-10.09554	1.07288
5683.311	-10.58730	0.68847	-9.92926	1.09519
5687.313	-10.42538	0.72199	-9.70864	1.12503
5691.317	-10.55421	0.67752	-9.73863	1.18412
5695.310	-10.71255	0.60957	-9.71242	1.17491
5699.317	-10.80584	0.62503	-9.71322	1.11537
5703.311	-10.59625	0.57180	-9.69593	1.14970
5707.317	-10.60035	0.52273	-9.76765	1.13423
5711.335	-10.51755	0.54239	-9.83464	1.05174
5715.312	-10.48514	0.53165	-9.92403	1.11101
5719.312	-10.47480	0.52590	-9.87008	1.17443
5723.316	-10.42579	0.62937	-9.90621	1.17432
5727.311	-10.43152	0.65876	-9.93576	1.13952
5731.310	-10.43808	0.60511	-9.94132	1.11193
5735.292	-10.46217	0.53880	-9.87779	1.14384
5739.269	-10.42869	0.66734	-9.76948	1.15547
5743.337	-10.42070	0.69309	-9.93884	1.20606
5747.313	-10.35897	0.66326	-9.93140	1.11426
5751.313	-10.33459	0.72396	-9.87620	1.22623
5755.313	-10.25795	0.72200	-9.76770	1.27902
5759.303	-10.32760	0.81162	-9.79703	1.21255
5763.313	-10.29022	0.77478	-9.74641	1.21908
5767.315	-10.28878	0.74953	-9.71589	1.14072
5771.313	-10.32613	0.72388	-9.70138	1.33188
5775.287	-10.41133	0.76872	-9.61836	1.06621
5779.305	-10.40276	0.75354	-9.60835	1.21147
5783.313	-10.34650	0.78400	-9.63662	1.39587
5787.314	-10.33706	0.72676	-9.66043	1.07237
5791.301	-10.36699	0.75265	-9.74135	1.16879
5795.270	-10.31314	0.74911	-9.78958	1.11146
5799.312	-10.34833	0.70066	-9.71654	1.27456
5803.312	-10.40725	0.64383	-9.80426	1.04814
5807.298	-10.32902	0.73264	-9.77640	1.12348
5811.313	-10.29048	0.66749	-9.68228	1.21397
5815.313	-10.32594	0.65666	-9.83308	1.06760
5819.279	-10.30038	0.65094	-9.92182	1.09844
5823.298	-10.27849	0.69844	-9.79175	1.29185
5827.314	-10.35097	0.71649	-9.96691	1.12985
5831.314	-10.31801	0.78319	-9.89424	1.22937
5835.315	-10.30048	0.70370	-9.86293	1.10145
5839.300	-10.32894	0.67122	-9.82855	1.16319
5843.314	-10.32926	0.73506	-9.75275	1.23335
5847.314	-10.31609	0.62781	-9.76331	1.22293
5851.314	-10.31124	0.70294	-9.73709	1.20352
5855.305	-10.26516	0.75076	-9.72144	1.18254
5859.296	-10.25944	0.75422	-9.67917	1.25066
5863.317	-9.29679	0.72885	-9.11982	1.35918
5867.312	-6.75637	0.61225	-7.67104	1.31912
5871.274	-4.57672	0.57110	-5.64661	1.14362
5875.315	-3.49770	0.18751	-5.08778	1.00759
5879.314	-2.13276	-0.14951	-3.54784	0.81872
5883.315	-1.76100	-0.96641	-2.48336	0.41260
5887.274	-0.35102	-1.32614	-1.42816	0.14008
5891.314	1.02719	-1.17501	-0.33101	-0.15545
5895.314	1.86922	-1.15476	0.81632	-0.24136
5899.317	2.19479	-1.01185	1.61215	-0.45716
5903.275	2.08300	-1.46948	2.49401	-0.34254
5907.315	2.06939	-1.26809	2.53632	-0.30524
5911.320	2.09388	-1.19807	2.49426	-0.46649
5915.314	2.00874	-1.33810	2.16989	-0.32946
5919.314	2.09482	-1.44564	2.27957	-0.47547
5923.317	2.13812	-1.56054	2.47236	-0.49306
5927.315	2.02606	-1.67140	2.53360	-0.52444
5931.314	2.18934	-1.50982	2.38224	-0.53390
5935.274	2.27503	-1.66488	2.58239	-0.65761
5939.319	2.25206	-1.65694	2.61719	-0.70450
5943.292	2.25407	-1.59444	2.63304	-0.74797
5947.315	2.28524	-1.72004	2.74190	-0.66720
5951.313	2.26896	-1.75965	2.63992	-0.77902
5955.319	2.22946	-1.63975	2.68549	-0.76067
5959.315	2.38489	-1.67100	2.64562	-0.69210
5963.316	2.23999	-1.79119	2.56803	-0.67449
5967.306	2.29706	-1.70117	2.69279	-0.81919
5971.319	2.27786	-1.58330	2.69829	-0.96368
5975.317	2.32654	-1.56729	2.63279	-1.13039
5979.316	2.27429	-1.52155	2.67348	-1.10010
5983.319	2.21313	-1.58649	2.73477	-1.04457
5987.305	2.17108	-1.31987	2.74385	-0.97551
5991.318	2.23365	-1.32039	2.61986	-1.11345
5995.318	2.16439	-1.47779	2.67942	-1.18977
5999.318	2.20535	-1.55591	2.66020	-1.24480
6003.318	2.17353	-1.59425	2.58026	-1.27646
6007.316	2.18493	-1.51454	2.69656	-1.33630
6011.316	2.14050	-1.49809	2.65748	-1.36180
6015.317	2.12773	-1.50822	2.59460	-1.32416
6019.319	2.14193	-1.48245	2.61171	-1.30263
6023.319	2.15522	-1.49934	2.55381	-1.30160
6027.286	2.20250	-1.57212	2.54816	-1.22617
6031.309	2.24492	-1.61308	2.53323	-1.27611
6035.271	2.22173	-1.62020	2.55946	-1.24686
6039.317	2.27072	-1.65994	2.56089	-1.33541
6043.317	2.27268	-1.65508	2.54028	-1.18410
6047.278	2.21675	-1.64323	2.55418	-1.17237
6051.316	2.24725	-1.64332	2.60347	-1.21150
6055.319	2.31495	-1.64476	2.47296	-1.23758
6059.316	2.21539	-1.69551	2.55824	-1.16413
6063.211	2.28782	-1.66794	2.63222	-1.21756
6067.315	2.29334	-1.64228	2.72657	-1.25629
6071.321	2.31772	-1.61620	2.84118	-1.23903
6075.316	2.32583	-1.59776	2.90975	-1.23833
6079.319	2.30633	-1.70627	2.92379	-1.20384
6083.315	2.29758	-1.75517	2.93700	-1.21868
6087.318	2.33162	-1.62040	2.91757	-1.29341
6091.317	2.35397	-1.53950	2.95819	-1.40227
6095.314	2.37367	-1.73035	3.02108	-1.33347
6099.317	2.33120	-1.40201	3.04833	-1.42539
6103.322	2.34314	-1.53055	3.13093	-1.36376
6107.316	2.34651	-1.54593	3.16470	-1.37641
6111.321	2.42195	-1.59936	3.14315	-1.34758
6115.318	2.34389	-1.47128	3.10601	-1.42504
6119.319	2.38170	-1.72205	3.11373	-1.48204
6123.319	2.36195	-1.42290	2.68928	-1.55371
6127.313	2.33705	-1.49836	3.10777	-1.64076
6131.317	2.34349	-1.49594	3.25958	-1.55226
6135.272	2.34966	-1.38840	3.25595	-1.46986
6139.317	2.26814	-1.30989	3.22074	-1.45092
6143.214	2.27297	-1.37587	3.16847	-1.43584
6147.318	2.26571	-1.23640	3.10421	-1.46926
6151.295	2.30546	-1.21264	3.11037	-1.48309
6155.320	2.44680	-1.36800	3.35461	-1.50598
6159.214	5.05501	-1.33028	3.95743	-1.33769
6163.316	6.30553	-1.31861	5.26322	-1.41408
6167.319	6.61531	-1.63712	6.49734	-1.38045
6171.275	6.90857	-1.86940	6.91513	-1.30311
6175.323	7.55786	-1.70589	7.39174	-1.32635
6179.317	8.11372	-1.89826	8.20250	-1.37966
6183.318	8.60931	-1.77136	8.64800	-1.27023
6187.319	9.37803	-1.95563	8.45524	-1.25697
6191.187	8.88758	-1.77301	8.76634	-1.27874
6195.305	8.68637	-1.73316	8.59737	-1.17720
6199.319	8.39093	-1.83026	8.60788	-1.14200
6203.318	8.45254	-1.93692	8.83963	-1.18414
6207.278	8.63857	-1.84181	8.68776	-1.09262
6211.317	8.58993	-1.78891	8.72728	-1.16680
6215.318	8.51785	-1.64578	8.84949	-1.09711
6219.320	8.59657	-1.67264	8.88583	-1.10650
6223.281	8.83217	-1.63010	9.00026	-1.01753
6227.319	8.77565	-1.59789	9.05219	-0.97057
6232.040	8.61227	-1.56878	9.19566	-1.00233
6235.283	8.61324	-1.59539	9.18830	-0.98960
6239.186	8.52746	-1.56296	9.24240	-0.98293
6243.318	8.54518	-1.55943	9.24240	-1.04516
6247.320	8.62559	-1.47030	9.18903	-1.07884
6251.320	8.47014	-1.46012	9.19220	-1.17460
6255.325	8.43411	-1.44718	9.17679	-1.11691
6259.322	8.41910	-1.46365	9.14820	-1.13281
6263.318	8.30512	-1.45575	9.10516	-1.11578
6267.319	8.29958	-1.42171	9.12795	-1.05646
6271.323	8.29268	-1.44432	9.00765	-1.06425
6275.298	8.37689	-1.41271	8.99046	-1.04776
6279.320	8.37283	-1.42680	8.95390	-1.10801
6283.318	8.42772	-1.45084	8.98852	-1.10405
6287.215	8.46213	-1.35042	9.03183	-1.07703
6291.275	8.55649	-1.39405	9.07240	-1.03658
6295.320	8.51530	-1.43148	8.96026	-1.02358
6299.322	8.55166	-1.43928	9.09640	-1.05380
6303.222	8.60082	-1.44997	9.02985	-1.03631
6307.322	8.66168	-1.35781	9.04519	-0.96789
6311.321	8.76135	-1.38845	9.08905	-0.98598
6315.317	8.88717	-1.39075	9.15858	-0.97171
6319.217	8.81944	-1.41275	9.18741	-0.98384
6323.326	8.85589	-1.43968	9.20245	-1.02348
6327.320	8.85608	-1.47695	9.19019	-1.05497
6331.322	8.90064	-1.49235	9.15684	-1.11589
6335.323	8.89262	-1.46149	9.15684	-1.11665
6339.321	8.88620	-1.47374	9.19014	-1.06888
6343.319	8.87915	-1.49864	9.19919	-1.03888
6347.319	8.82589	-1.51113	9.21365	-1.09296
6351.324	8.89722	-1.46295	9.24730	-1.18374
6355.322	8.77994	-1.46690	9.20666	-1.18986
6359.277	8.74685	-1.46666	9.18243	-1.23554
6363.276	8.73587	-1.41668	9.16612	-1.26647
6367.216	8.71686	-1.42848	9.12996	-1.24831
6371.321	8.69857	-1.43133	9.10976	-1.22714
6375.319	8.71256	-1.42732	9.09081	-1.22382
6379.322	8.71710	-1.44746	9.09101	-1.14597
6383.322	8.67861	-1.51531	9.10100	-1.19730
6387.322	8.65506	-1.53438	9.07796	-1.23448
6391.321	8.66302	-1.62910	9.14099	-1.22230
6395.322	8.86560	-1.63081	9.10332	-1.23356
6399.185	10.20652	-1.59653	9.29908	-1.14846
6403.322	11.69697	-1.35858	11.67153	-0.80657
6407.162	12.79994	-0.22511	12.22333	-0.74903
6411.198	13.62439	0.22925	12.58061	0.71054
6415.187	13.81661	0.36185	14.03863	2.02407
6419.195	14.40076	0.30689	13.94490	1.14875
6423.197	14.57078	0.20849	14.50155	1.20012
6427.198	14.65075	0.39715	14.49646	1.05449
6431.193	14.66229	0.62977	14.54574	1.14079
6435.197	14.81514	0.87187	14.61664	1.18467
6439.198	14.62763	0.54568	14.72255	1.32544
6443.200	14.94009	0.63867	14.92751	1.46764
6447.174	14.73383	0.61061	14.77992	1.54295
6451.198	14.82620	0.69401	14.81739	1.50264
6455.198	14.90524	0.73411	14.77776	1.58542
6459.197	14.85869	0.69729	14.85111	1.42843
6463.216	14.74393	0.83333	14.84858	1.55274
6467.196	14.62779	0.84628	14.88931	1.66549
6471.199	14.67541	0.91949	14.92512	1.65540
6475.197	14.70300	0.98336	14.95227	1.68198
6479.187	14.72002	0.86913	14.93907	1.68602
6483.199	14.75987	0.99360	14.88628	1.64164
6487.196	14.60353	0.85873	14.87997	1.65656
6491.189	14.54621	0.93547	14.93580	1.63070
6495.186	14.63506	0.96225	14.93434	1.70875
6499.196	14.59259	0.87755	14.91286	1.59148
6503.199	14.55002	0.94154	14.88931	1.54544
6507.194	14.62036	0.96078	14.94639	1.46909
6511.198	14.69571	0.93202	14.95037	1.38353
6515.199	14.66975	0.95285	14.86604	1.44674
6519.199	14.58694	1.14572	14.86442	1.40578
6523.198	14.51616	1.18170	14.82019	1.32036
6527.192	14.48729	1.07781	14.86764	1.49269
6531.199	14.48783	1.07120	14.84877	1.62529
6535.153	14.53481	1.09227	14.84192	1.70039
6539.197	14.53893	1.03305	14.85299	1.62276
6543.157	14.56241	1.32393	14.90542	1.64079
6547.197	14.55118	1.26912	14.94748	1.60934
6551.197	14.54072	1.20169	14.94312	1.62439
6555.193	14.52612	1.22673	14.97699	1.87587
6559.196	14.53993	1.21833	14.99790	1.77875
6563.197	14.55993	1.12641	15.06248	1.78658
6567.197	14.56890	1.10165	15.12074	1.78484
6571.184	14.60174	0.99492	15.19882	1.74820
6575.195	14.61715	1.06862	15.23805	1.69728
6579.198	14.57550	1.09779	15.11206	1.70834
6583.198	14.53440	1.08932	15.06998	1.81528
6587.200	14.47378	1.05751	15.07486	1.82164
6591.194	14.41238	1.03194	15.04473	1.81060
6595.199	14.40358	0.99124	15.13140	1.81883
6599.195	14.38405	1.06636	15.12201	1.69102
6603.200	14.34811	1.04013	15.08720	1.69094
6607.196	14.32067	1.08461	14.90693	1.69316
6611.198	14.34846	1.13499	14.80127	1.73323
6615.161	14.31095	1.29746	14.91631	1.79823
6619.199	14.29792	1.30784	14.93365	1.83342
6623.219	14.33464	1.24703	14.93550	1.74060
6627.203	14.34345	1.32995	14.97442	1.67090
6631.199	14.35465	1.39059	14.94636	1.61572
6635.154	14.37762	1.37135	14.81219	1.67508
6639.195	14.39033	1.32770	14.88567	1.62825
6643.199	14.38197	1.35412	14.80906	1.72921
6647.198	14.34592	1.37183	14.84262	1.77713
6651.200	14.21850	1.32005	14.92055	1.84140
6655.157	13.36333	1.44766	13.92844	1.84332
6659.198	11.52800	1.45362	11.47655	2.05453
6663.198	10.63619	1.43875	10.29046	2.09194
6667.198	9.62528	1.57584	9.50378	2.38052
6671.223	9.31968	1.63441	9.28253	2.18656
6675.199	9.16489	1.68743	9.21000	2.30165
6679.198	9.05712	1.75203	9.42873	2.21357
6683.198	9.00753	1.88420	9.76346	2.32603
6687.158	8.85238	1.90266	9.83457	2.37185
6691.201	8.84011	1.99156	9.75692	2.49090
6695.193	8.77145	1.98410	9.79657	2.48143
6699.188	8.69069	2.02342	9.59872	2.44440
6703.197	8.60963	2.01283	9.51462	2.30624
6707.200	8.61853	2.03406	9.51650	2.13902
6711.199	8.53224	1.93519	9.45636	2.08045
6715.199	8.50180	1.98603	9.42472	2.27686
6719.189	8.50129	1.97671	9.53627	2.20558
6723.201	8.46262	1.98263	9.45744	2.15349
6727.202	8.42364	2.02108	9.57795	2.20299
6731.202	8.45055	2.00073	9.54300	2.20424
6735.159	8.45888	2.03076	9.49680	2.17762
6739.170	8.40354	2.02310	9.48427	2.09891
6743.199	8.40099	2.04727	9.44020	2.03955
6747.200	8.44606	2.06662	9.48729	2.04590
6751.225	8.46794	2.01019	9.40356	2.06603
6755.199	8.50146	1.95680	9.41107	2.03132
6759.201	8.52142	2.02722	9.33316	1.90219
6763.211	8.50768	1.85703	9.42344	2.00987
6767.222	8.51040	1.88493	9.45286	1.97021
6771.200	8.53685	1.79981	9.47106	1.96624
6775.218	8.52445	1.73144	9.45501	2.01760
6779.158	8.51809	1.74456	9.45245	1.89297
6783.197	8.52207	1.72635	9.42747	1.88637
6787.199	8.53508	1.68499	9.47266	1.87251
6791.203	8.51166	1.65732	9.47708	1.87302
6795.201	8.48627	1.68698	9.49651	1.89015
6799.196	8.43831	1.68358	9.53323	1.95438
6803.199	8.40684	1.71913	9.58060	2.05838
6807.201	8.38549	1.81808	9.56841	2.02035
6811.201	8.38311	1.79979	9.55961	2.05780
6815.197	8.36613	2.01035	9.50841	2.07774
6819.199	8.35719	2.02950	9.43757	2.07606
6823.202	8.35828	2.01761	9.35723	2.12414
6827.205	8.39967	2.09950	9.25323	2.14079
6831.198	8.38369	2.09082	9.16463	2.19400
6835.201	8.40796	2.29628	9.11951	2.23247
6839.202	8.40737	2.24835	9.10368	2.35586
6843.200	8.39591	2.27424	9.02629	2.27443
6847.225	8.39020	2.17715	8.96763	2.30681
6851.201	8.36251	2.10294	8.98559	2.33847
6855.203	8.44562	2.20688	8.96980	2.32838
6859.202	8.43428	2.11914	8.96259	2.31181
6863.205	8.44960	2.00415	8.99973	2.17060
6867.200	8.47318	1.99281	9.07552	2.00745
6871.194	8.47211	1.92349	9.08989	1.84306
6875.202	8.55306	1.82966	9.18129	1.94357
6879.199	8.48503	1.76821	9.19752	2.20212
6883.199	8.57262	1.75371	9.33587	2.04976
6887.202	8.59614	1.87326	9.27583	2.19078
6891.202	8.37929	1.75369	9.10269	2.24835
6895.204	7.55264	1.81663	6.48499	2.16311
6899.204	5.68789	1.66399	5.00635	2.16025
6903.204	4.51060	1.70603	3.86674	2.17609
6907.192	4.19785	1.61091	3.43739	1.67380
6911.199	3.23536	1.57548	3.11361	1.69539
6915.202	3.24345	1.65380	2.91668	1.86634
6919.203	3.04269	1.55130	2.75834	1.65883
6923.204	2.74123	1.34923	2.54303	1.57957
6927.209	2.77233	1.31238	2.81239	1.63693
6931.202	2.71092	1.23462	2.86532	1.54530
6935.159	2.43337	1.03953	2.90710	1.52344
6939.202	2.44950	1.05079	2.73803	1.49303
6943.206	2.36591	0.96974	2.68591	1.49131
6947.174	2.24673	0.93494	2.64247	1.43646
6951.203	2.23293	0.86035	2.55577	1.39200
6955.204	2.29585	0.92002	2.66966	1.44306
6959.207	2.22882	0.91470	2.74534	1.37668
6963.202	2.17016	0.88209	2.80595	1.36069
6967.208	2.12037	0.87623	2.71699	1.27037
6971.202	2.11854	0.87750	2.63854	1.24861
6975.192	2.04163	0.84417	2.62041	1.21072
6979.201	2.08976	0.92590	2.53454	1.09752
6983.160	2.13061	0.95155	2.60027	1.11945
6987.202	2.13252	0.96384	2.57494	1.08612
6991.209	2.14773	0.96067	2.59081	1.10124
6995.203	2.13859	0.98997	2.62870	1.11352
6999.196	2.12206	0.97484	2.63135	1.09905
7003.203	2.08270	0.94507	2.60054	1.12600
7007.199	2.06664	0.95998	2.53162	1.15279
7011.201	2.06964	0.95290	2.49057	1.14337
7015.205	2.06443	0.98436	2.59789	1.16752
7019.203	2.07764	1.02139	2.55822	1.15398
7023.192	2.10387	1.03585	2.52203	1.16791
7027.209	2.06946	1.04026	2.54038	1.22050
7031.206	2.05246	1.05718	2.53979	1.30320
7035.162	2.05097	1.09591	2.49127	1.30474
7039.200	2.08850	1.11921	2.44014	1.37811
7043.202	2.14595	1.15400	2.35063	1.10058
7047.157	2.16679	1.18707	2.29946	1.20041
7051.206	2.19187	1.19824	2.40491	1.07221
7055.195	2.19777	1.18287	2.41172	1.16969
7059.205	2.18585	1.13014	2.37082	1.10197
7063.205	2.18344	1.14352	2.40734	1.16205
7067.205	2.10942	1.09105	2.38685	1.16795
7071.184	2.15234	1.11535	2.41697	1.20034
7075.205	2.19628	1.18757	2.45976	1.34995
7079.208	2.20419	1.17654	2.38063	1.32896
7083.205	2.20748	1.16083	2.47737	1.38450
7087.206	2.18253	1.11768	2.50372	1.38425
7091.203	2.11120	1.10209	2.61810	1.44460
7095.204	2.08211	1.11217	2.53924	1.49932
7099.205	1.84570	1.10994	2.68544	1.62101
7103.206	-1.36333	1.24022	2.39468	1.55399
7107.206	1.39607	2.14108	3.18494	6.33909
7111.197	-1.04662	7.72882	-0.52232	4.06045
7115.203	2.54165	5.37147	5.75809	8.21304
7119.208	NaN	NaN	1.96053	11.69821
7123.205	NaN	NaN	NaN	NaN
7127.204	NaN	NaN	NaN	NaN
7131.206	NaN	NaN	NaN	NaN
7135.159	NaN	NaN	NaN	NaN
7139.203	NaN	NaN	NaN	NaN
7143.203	NaN	NaN	NaN	NaN
7147.159	NaN	NaN	NaN	NaN
7151.204	NaN	NaN	NaN	NaN
7155.202	NaN	NaN	NaN	NaN
7159.202	NaN	NaN	NaN	NaN
7163.203	NaN	NaN	NaN	NaN
7167.162	NaN	NaN	NaN	NaN
7171.204	NaN	NaN	NaN	NaN
7175.164	1.70946	-5.06023	-1.23873	13.32023
7179.205	NaN	NaN	2.74492	13.69025
7183.208	2.04711	3.37271	1.23283	12.56145
7187.209	2.73618	1.22105	-4.27044	1.74683
7191.206	3.99860	1.95809	-1.19301	0.96136
7195.192	-4.05648	0.68079	-1.41750	1.17963
7199.208	-0.70213	1.40237	-1.06307	0.88995
7203.163	-0.56635	0.33733	-0.20142	0.51583
7207.206	-0.63220	0.34508	-0.99045	0.41521
7211.205	-1.87332	0.37010	-0.89158	0.41316
7215.208	-0.59870	0.22177	0.07540	0.34267
7219.207	-0.78727	0.19264	-0.44768	0.23221
7223.204	-0.83927	0.32809	-0.71067	0.12337
7227.206	-1.00285	0.37362	-0.97616	0.16328
7231.210	-1.39587	0.22432	-1.38193	0.20601
7235.162	-1.40308	0.19453	-1.57845	0.18520
7239.160	-1.43758	0.14736	-1.29556	0.16928
7243.159	-1.48399	0.10329	-1.14556	0.22454
7247.102	-1.64268	0.04829	-1.29643	0.24177
7251.208	-1.61024	-0.01292	-1.24317	0.29280
7255.199	-1.63489	-0.05894	-1.27661	0.29568
7259.207	-1.65637	-0.05080	-1.14298	0.30113
7263.208	-1.69810	0.02732	-1.21559	0.30520
7267.208	-1.70849	-0.05137	-1.29196	0.15802
7271.208	-1.72567	-0.12737	-1.44217	0.21334
7275.208	-1.73011	-0.09438	-1.57166	0.22937
7279.189	-1.70993	-0.15598	-1.37049	0.19970
7283.208	-1.71474	-0.12690	-1.13973	0.20524
7287.208	-1.74427	-0.16475	-1.25989	0.19278
7291.206	-1.72389	-0.14225	-1.38853	0.08638
7295.208	-1.75089	-0.12488	-1.25208	-0.01061
7299.207	-1.70693	-0.13937	-1.13650	0.00857
7303.208	-1.55797	-0.13640	-1.19271	0.00303
7307.203	-1.60947	-0.13912	-1.30943	0.12059
7311.210	-1.62914	-0.18592	-1.09026	0.15046
7315.206	-1.64746	-0.19493	-1.30727	0.13907
7319.196	-1.66609	-0.20407	-1.27443	0.12185
7323.194	-1.69465	-0.15991	-1.27105	0.10752
7327.101	-1.78344	-0.15950	-1.32654	0.07321
7331.207	-1.66185	-0.12049	-1.41499	0.04221
7335.162	-1.63298	-0.10291	-1.41231	0.17779
7339.209	-1.78369	-0.10153	-1.46239	0.32102
7343.211	-1.83119	-0.03912	-1.43689	0.33953
7347.205	-1.85623	-0.01937	-1.42241	0.39962
7351.206	-1.86766	0.00979	-1.39115	0.35153
7355.163	-1.86573	0.00087	-1.44413	0.43705
7359.210	-1.87450	0.04833	-1.33949	0.42291
7363.179	-1.89307	0.02054	-1.33346	0.38982
7367.206	-1.86070	-0.00012	-1.20169	0.37772
7371.210	-1.80573	-0.01423	-1.16131	0.42582
7375.210	-1.73993	-0.04923	-1.14072	0.39335
7379.208	-1.77340	-0.08358	-1.19207	0.33998
7383.207	-1.73313	-0.10598	-1.13261	0.33900
7387.210	-1.73385	-0.17364	-1.14409	0.34508
7391.210	-1.68357	-0.16334	-1.20695	0.29792
7395.206	-1.65399	-0.26508	-1.23434	0.21795
7399.207	-1.58671	-0.21012	-1.33696	0.05967
7403.195	-1.39535	-0.17287	-1.39731	0.03679
7407.102	-1.49557	-0.20143	-1.38642	0.00847
7411.208	-1.50051	-0.29669	-1.54663	-0.11255
7415.207	-1.51340	-0.29264	-1.45621	-0.18544
7419.208	-1.49160	-0.24627	-1.47300	-0.07832
7423.211	-1.52159	-0.21966	-1.39386	-0.11775
7427.207	-1.57627	-0.29042	-1.46286	-0.07321
7431.208	-1.54254	-0.28221	-1.52999	-0.24366
7435.206	-1.49175	-0.27190	-1.49651	-0.26152
7439.073	-1.48106	-0.23932	-1.52565	-0.33527
7443.088	-1.81763	-0.22124	-1.65468	-0.28408
7447.083	-2.48245	-0.22644	-4.13061	-0.18132
7451.059	-3.40061	-0.33971	-4.18637	-0.23162
7455.205	-3.99909	-0.64197	-5.59295	-0.40682
7459.082	-4.58405	-0.43822	-5.35197	-0.51022
7463.084	-4.93699	-0.46146	-5.24055	-0.94684
7467.085	-4.88468	-0.52517	-4.68972	-0.78998
7471.069	-4.83664	-0.69983	-4.89555	-0.77420
7475.084	-4.79615	-0.70014	-4.90045	-0.95328
7479.083	-4.47193	-0.84229	-4.92267	-0.95345
7483.085	-4.55832	-0.81269	-4.81653	-0.90243
7487.069	-4.54804	-0.89839	-5.02112	-0.97315
7491.041	-4.76330	-0.87324	-5.18020	-1.15027
7495.084	-4.88734	-0.87612	-4.94561	-1.12576
7499.081	-4.94425	-0.86761	-4.92442	-0.99757
7503.083	-4.92573	-0.87288	-4.92928	-1.00823
7507.085	-5.03735	-1.41332	-4.93723	-1.01676
7511.082	-5.11145	-1.25021	-5.01186	-1.00452
7515.083	-4.78531	-1.07558	-4.98957	-1.04118
7519.106	-4.88439	-1.06320	-5.03213	-0.99288
7523.086	-4.93361	-0.95620	-5.09286	-1.08117
7527.085	-4.98746	-0.85396	-5.13870	-1.15704
7531.089	-4.99317	-0.89160	-5.17294	-1.18360
7535.103	-5.01765	-0.75906	-5.08692	-1.01564
7539.086	-5.04925	-0.79676	-5.08542	-0.93233
7543.082	-5.11827	-0.77235	-5.14345	-0.94919
7547.085	-5.07353	-0.72529	-5.13656	-0.94522
7551.103	-5.01797	-0.84613	-5.13193	-1.06282
7555.075	-5.03019	-0.81436	-5.17883	-1.13785
7559.084	-4.99598	-0.72592	-5.22168	-1.11877
7563.084	-4.94492	-0.74496	-5.18663	-0.91751
7567.109	-4.91378	-0.73710	-5.19812	-1.02080
7571.088	-4.97906	-0.80856	-5.22377	-0.98736
7575.068	-4.97376	-0.82133	-5.19610	-1.02407
7579.078	-5.00147	-0.83004	-5.26797	-1.12720
7583.082	-5.04223	-0.82380	-5.30097	-1.20651
7587.087	-5.03339	-0.73934	-5.24575	-1.02847
7591.084	-5.04797	-0.71463	-5.28320	-1.03335
7595.086	-5.12826	-0.68096	-5.11891	-0.95145
7599.110	-5.00763	-0.68470	-5.04164	-0.98319
7603.086	-5.11243	-0.73420	-5.02204	-0.94954
7607.086	-5.16735	-0.67334	-5.00684	-0.96110
7611.088	-5.12691	-0.73587	-5.00024	-0.86753
7615.104	-4.99824	-0.80442	-5.04602	-0.78603
7619.076	-4.98536	-0.72529	-5.06488	-0.91293
7623.041	-4.90089	-0.74305	-5.14436	-0.89067
7627.085	-4.96115	-0.80286	-5.26782	-0.91640
7631.077	-4.93073	-0.91614	-5.35519	-1.01760
7635.039	-4.92928	-0.85740	-5.38457	-1.03998
7639.086	-5.02689	-0.87873	-5.29600	-1.11659
7643.084	-4.94280	-0.89127	-5.42958	-1.07161
7647.105	-4.93947	-0.89464	-5.52023	-1.06126
7651.089	-4.88493	-0.96843	-5.57938	-1.06738
7655.087	-4.95209	-0.99298	-5.61618	-1.06373
7659.063	-5.00610	-0.99557	-5.63599	-1.06852
7663.077	-5.05984	-0.93174	-5.65759	-0.94529
7667.085	-5.09108	-0.92695	-5.68841	-0.97775
7671.083	-5.08192	-0.94945	-5.65762	-0.89264
7675.087	-5.08616	-0.91518	-5.60089	-0.83657
7679.105	-5.10014	-0.83429	-2.87064	-0.69976
7683.085	-4.72881	-0.63692	0.37377	-0.64246
7687.086	-4.29589	-0.08306	0.42348	2.86959
7691.088	-2.65632	7.02076	0.37683	2.78431
7695.108	-2.67170	1.97161	-6.26046	6.00026
7699.074	NaN	NaN	NaN	NaN
7703.076	NaN	NaN	NaN	NaN
7707.088	NaN	NaN	NaN	NaN
7711.085	NaN	NaN	NaN	NaN
7715.085	NaN	NaN	NaN	NaN
7719.086	NaN	NaN	NaN	NaN
7723.042	NaN	NaN	NaN	NaN
7727.086	NaN	NaN	NaN	NaN
7731.086	NaN	NaN	NaN	NaN
7735.088	NaN	NaN	NaN	NaN
7739.042	NaN	NaN	NaN	NaN
7743.057	NaN	NaN	NaN	NaN
7747.086	NaN	NaN	NaN	NaN
7751.085	NaN	NaN	NaN	NaN
7755.112	NaN	NaN	NaN	NaN
7759.039	NaN	NaN	NaN	NaN
7763.087	NaN	NaN	NaN	NaN
7767.088	1.02474	8.55220	NaN	NaN
7771.087	3.34650	0.24680	NaN	NaN
7775.084	7.45855	2.18628	-0.53617	10.55366
7779.044	1.80943	-0.78546	-1.46586	-0.96593
7783.069	3.56618	-2.34784	-0.92430	-0.92339
7787.086	1.50509	-1.82477	1.97803	-2.56422
7791.109	0.14972	-2.15926	0.87743	-2.36395
7795.043	-0.30339	-2.62795	1.38929	-2.52947
7799.084	-0.58923	-2.95065	0.41254	-2.50467
7803.088	0.13861	-2.85456	0.23463	-2.35629
7807.107	0.22887	-2.72321	1.89992	-2.35197
7811.087	1.07227	-2.74759	1.73574	-2.37313
7815.090	1.02670	-2.58019	2.35182	-2.51014
7819.088	1.10048	-2.81312	1.63690	-2.49958
7823.077	1.35130	-2.88713	1.56618	-2.43131
7827.051	1.30211	-2.51984	1.70494	-2.49359
7831.091	1.32649	-2.68356	1.90760	-2.47398
7835.046	1.44889	-2.75225	1.65409	-2.50831
7839.084	1.46276	-2.69900	1.58701	-2.37963
7843.090	1.53185	-2.74501	1.86211	-2.39012
7847.090	1.66522	-2.74528	1.78151	-2.43592
7851.090	1.55802	-2.53009	1.79185	-2.43668
7855.086	1.45423	-2.43448	1.77975	-2.45360
7859.092	1.54609	-2.75865	1.69817	-2.43092
7863.088	1.54877	-2.71274	1.76190	-2.34416
7867.066	1.61094	-2.62366	1.85118	-2.37130
7871.055	1.46502	-2.46822	1.83236	-2.34628
7875.088	1.49733	-2.63617	1.78753	-2.32464
7879.089	1.44319	-2.64342	1.74288	-2.38770
7883.089	1.52712	-2.72060	1.79276	-2.44218
7887.108	1.55574	-2.71915	1.75637	-2.46162
7891.088	1.35621	-2.54443	1.77645	-2.50822
7895.090	1.26324	-2.69634	1.80521	-2.53855
7899.085	1.25366	-2.72942	1.98360	-2.52081
7903.047	1.23052	-2.74979	2.04917	-2.50247
7907.078	1.39046	-2.67340	1.91618	-2.49558
7911.092	1.33537	-2.74376	1.87773	-2.62829
7915.089	1.47094	-2.79916	1.93943	-2.70673
7919.084	1.54413	-2.80241	2.00222	-2.69994
7923.086	1.59110	-2.80413	2.02862	-2.65026
7927.090	1.30290	-2.79765	2.09799	-2.57605
7931.087	1.48699	-2.75448	2.28593	-2.51276
7935.087	1.49445	-2.78402	2.25717	-2.63255
7939.089	1.50611	-2.76266	1.95616	-2.69350
7943.089	1.58934	-2.77844	2.08414	-2.76531
7947.092	1.55477	-2.80991	2.16642	-2.76348
7951.093	1.50542	-2.91488	2.10337	-2.73436
7955.089	1.61763	-2.89305	2.04706	-2.73408
7959.091	1.48575	-2.89370	2.00705	-2.72007
7963.088	1.44344	-2.96125	1.88482	-2.67024
7967.079	1.46655	-2.94459	2.03055	-2.73349
7971.091	1.48327	-2.95081	2.05244	-2.72297
7975.092	1.47404	-2.99609	1.99860	-2.78827
7979.094	1.41938	-2.91785	1.89079	-2.86300
7983.047	1.41432	-3.07935	1.97188	-2.83923
7987.090	1.39927	-3.03454	2.04317	-2.84884
7991.087	1.42251	-3.04823	1.97746	-2.85329
7995.087	1.49254	-3.07332	1.97213	-2.84181
7999.088	1.53304	-3.04533	1.96345	-2.84700
8003.090	1.58115	-3.08865	1.95207	-2.80688
8007.090	1.56742	-3.04741	1.98435	-2.73664
8011.089	1.66663	-3.05808	1.96776	-2.71771
8015.091	1.74412	-3.09541	1.97818	-2.72924
8019.089	1.83801	-3.03784	3.01029	-2.69261
8023.092	2.54058	-3.02281	3.64736	-2.56410
8027.091	2.27013	-3.01761	3.38773	-2.59848
8031.078	2.15480	-3.06026	3.03103	-2.60327
8035.086	2.08347	-3.12411	3.45104	-2.60645
8039.092	2.29451	-3.12224	3.61060	-2.60464
8043.047	2.53761	-3.13997	3.67561	-2.60487
8047.084	2.44024	-3.15089	3.38966	-2.58585
8051.088	2.39089	-3.16051	3.15946	-2.56653
8055.088	2.57266	-3.18260	3.27633	-2.53814
8059.089	2.63046	-3.24224	3.32921	-2.54318
8063.093	2.75096	-3.22094	3.40366	-2.45938
8067.094	2.63504	-3.33941	3.30210	-2.48085
8071.093	2.81786	-3.27345	3.20023	-2.55816
8075.091	2.85838	-3.20251	3.29367	-2.49246
8079.059	2.86061	-3.21480	3.30304	-2.46183
8083.091	2.94166	-3.16180	3.25599	-2.48428
8087.103	2.83779	-3.17968	3.20080	-2.54311
8091.089	2.87141	-3.13057	3.31969	-2.59767
8095.086	2.98678	-3.02392	3.36787	-2.58724
8099.089	3.01853	-3.11831	3.52593	-2.58352
8103.093	3.07528	-2.98230	3.55936	-2.66599
8107.090	3.08090	-2.97642	3.47050	-2.74645
8111.093	3.11688	-2.99587	3.42008	-2.86011
8115.077	2.97153	-2.98546	3.49923	-2.89228
8119.093	3.09884	-2.98944	3.51236	-2.85463
8123.091	3.04677	-2.92492	3.47945	-2.90664
8126.987	3.15755	-2.94372	3.39775	-2.89239
8131.091	3.19244	-2.85517	3.40202	-2.87006
8135.046	2.97210	-2.91378	3.35904	-2.88751
8139.091	3.03086	-2.71517	3.35170	-2.87130
8143.096	2.91940	-2.81572	3.25137	-2.87824
8147.090	3.09755	-2.70222	3.17250	-2.83520
8151.092	3.08718	-2.75535	3.21241	-2.79656
8155.094	3.03373	-2.85127	3.40091	-2.75049
8159.095	3.11465	-2.83536	3.51300	-2.71654
8163.090	2.93688	-2.85875	3.17581	-2.83737
8167.091	2.97883	-2.90168	3.13682	-3.03798
8171.093	2.91634	-2.98608	3.14630	-3.00885
8174.991	2.82694	-2.99388	3.30035	-2.96285
8179.092	2.93973	-3.08089	3.47982	-2.85567
8183.088	2.87071	-3.20604	3.30759	-2.83082
8187.092	2.84358	-3.22843	3.30393	-3.00727
8191.057	2.66565	-3.24286	3.28627	-2.92147
8195.091	2.60597	-3.32934	3.08958	-2.94628
8199.073	2.62576	-3.30940	3.18106	-2.97837
8203.091	2.57380	-3.33915	3.17970	-2.95934
8207.049	2.63527	-3.35898	3.30591	-2.85641
8211.092	2.59893	-3.35873	3.45697	-2.83570
8215.090	2.64760	-3.33438	3.57444	-2.83082
8219.093	2.64232	-3.33979	3.69145	-2.82229
8223.051	2.70379	-3.36052	3.50598	-2.89748
8227.089	2.61139	-3.33049	3.29095	-3.08326
8231.093	2.69205	-3.30982	3.30084	-3.08513
8235.051	2.79845	-3.31961	3.24410	-3.15187
8238.991	2.75717	-3.32906	3.25127	-3.24825
8243.088	2.73043	-3.32431	3.24321	-3.24808
8247.093	2.70820	-3.35143	3.17574	-3.19143
8251.094	2.71639	-3.35329	3.24509	-3.28030
8254.988	2.72273	-3.37321	3.17252	-3.29121
8259.095	2.69874	-3.38067	3.00450	-3.28770
8263.094	2.70540	-3.37439	3.02182	-3.16790
8267.093	2.68556	-3.39347	2.99071	-3.22232
8271.096	2.61441	-3.38013	2.95000	-3.24386
8275.096	2.52981	-3.38291	2.55034	-2.97604
8279.092	0.53498	-3.31020	-0.05363	-2.96952
8283.066	-0.79057	-3.09590	-2.01717	-2.52217
8286.988	-1.61305	-2.66131	-3.15491	-2.21533
8291.092	-1.88846	-2.72289	-4.00598	-1.91117
8295.092	-3.52601	-2.14158	-5.55556	-1.50069
8299.094	-5.04376	-1.98694	-6.31615	-1.58496
8303.095	-5.62876	-2.33713	-6.65718	-1.14399
8307.096	-7.09196	-1.69479	-7.44435	-1.19116
8311.094	-7.54962	-1.29108	-7.83524	-1.30485
8315.093	-7.44162	-1.15432	-7.83887	-1.25620
8319.098	-7.41836	-1.02065	-7.67679	-1.24932
8323.081	-7.06840	-1.30618	-7.64632	-1.27194
8327.049	-7.12647	-1.20014	-7.73375	-1.26407
8331.094	-7.28708	-1.21528	-7.91699	-1.24044
8335.100	-7.22549	-1.10333	-7.88748	-1.25679
8339.051	-7.35009	-1.11376	-7.68620	-1.19849
8343.093	-7.34628	-1.06805	-7.67467	-1.16844
8347.095	-7.35944	-1.12157	-7.64717	-1.20904
8350.987	-7.39920	-1.13492	-7.52008	-1.20915
8355.050	-7.39901	-1.23155	-7.45538	-1.11773
8359.091	-7.35603	-1.30316	-7.37453	-1.08520
8363.096	-7.37746	-1.35952	-7.32607	-0.98260
8366.990	-7.38583	-1.30590	-7.27829	-0.93355
8371.096	-7.39349	-1.25746	-7.24471	-0.90532
8375.093	-7.37255	-1.08661	-7.23406	-0.82786
8379.094	-7.35800	-1.05496	-7.19828	-0.83372
8383.097	-7.31101	-1.01319	-7.20084	-0.78202
8387.095	-7.33891	-0.85896	-7.20619	-0.76708
8391.095	-7.38039	-1.00438	-7.23428	-0.71650
8395.092	-7.34072	-0.81837	-7.27848	-0.72903
8399.102	-7.32251	-0.94836	-7.32749	-0.69147
8403.097	-7.39874	-0.96512	-7.34101	-0.71274
8407.076	-7.31294	-0.94138	-7.39925	-0.72760
8411.095	-7.40020	-0.97692	-7.50466	-0.74237
8414.989	-7.56927	-0.98639	-7.54613	-0.74312
8419.051	-7.56369	-1.00504	-7.60668	-0.74003
8423.094	-7.49571	-1.02798	-7.66285	-0.73506
8427.096	-7.44508	-1.11535	-7.64410	-0.76301
8431.095	-7.40645	-1.11835	-7.64786	-0.78332
8435.051	-7.42600	-1.15778	-7.65285	-0.85199
8439.092	-7.56396	-1.16801	-7.66965	-0.84006
8443.096	-7.48412	-1.15352	-7.61938	-0.88855
8446.992	-7.46895	-1.15986	-7.64018	-0.89813
8451.089	-7.43600	-1.12044	-7.59693	-0.89815
8455.095	-7.41944	-1.11127	-7.55113	-0.86145
8459.094	-7.41329	-1.11624	-7.50156	-0.73171
8462.992	-7.38912	-1.14118	-7.49459	-0.68064
8467.052	-7.42505	-1.16712	-7.48788	-0.53747
8471.094	-7.44474	-1.13237	-7.50605	-0.65719
8474.971	-7.47807	-1.14026	-7.50283	-0.60116
8478.994	-7.43747	-1.12726	-7.68415	-0.75662
8482.978	-7.39793	-1.22264	-7.61102	-0.70498
8486.970	-7.39801	-1.27596	-7.61190	-0.84525
8490.973	-7.41819	-1.21950	-7.72912	-0.91384
8494.984	-7.42090	-1.19531	-7.70117	-1.03461
8498.968	-7.42890	-1.16371	-7.72485	-0.94829
8502.972	-7.42127	-1.15942	-7.74976	-0.93472
8506.971	-7.43515	-1.16855	-7.72907	-0.90518
8510.929	-7.55288	-1.11810	-7.70470	-0.87305
8514.970	-7.45265	-1.14806	-7.72015	-0.76921
8518.972	-7.43491	-1.17424	-7.67879	-0.64279
8522.971	-7.50295	-1.19422	-7.61538	-0.57869
8526.995	-7.51115	-1.12806	-7.62231	-0.67839
8530.971	-7.53071	-1.10262	-7.62428	-0.81986
8534.925	-7.53257	-1.16656	-7.62750	-1.00128
8538.973	-7.55464	-1.15991	-7.63691	-0.84153
8542.996	-7.53837	-1.11848	-7.61824	-0.93211
8546.972	-7.58759	-1.13665	-7.61387	-0.85467
8550.971	-7.58639	-1.13675	-7.60095	-0.66316
8554.964	-7.56832	-1.04591	-7.58854	-0.56779
8558.992	-7.57252	-0.97845	-7.56493	-0.58920
8562.971	-7.57476	-1.06685	-7.58468	-0.58880
8566.970	-7.64006	-1.05275	-7.68159	-0.50766
8570.973	-8.67110	-1.08378	-8.57372	-0.82505
8574.994	-9.82016	-1.13011	-10.95583	-1.09394
8578.950	-10.22267	-1.05231	-11.14065	-0.98036
8582.970	-10.82469	-1.07935	-11.40915	-1.21692
8586.974	-11.14469	-1.10416	-11.22098	-1.00609
8590.970	-11.00128	-1.14964	-11.23535	-0.95860
8594.972	-10.79753	-1.14818	-11.02198	-0.80114
8598.971	-10.79519	-1.19452	-10.98982	-1.10818
8602.975	-10.86452	-1.23618	-10.96440	-1.04777
8606.966	-10.76060	-1.25156	-11.03760	-1.06231
8610.940	-10.75720	-1.22386	-11.19292	-1.17651
8614.972	-10.78429	-1.19183	-11.18162	-1.20195
8618.930	-10.77239	-1.13927	-11.24638	-1.12228
8622.963	-10.86766	-1.11776	-11.15644	-1.17664
8626.971	-10.84042	-1.09627	-11.09186	-1.17171
8630.970	-10.82806	-1.05774	-11.08703	-1.14230
8634.925	-10.80335	-1.01476	-11.01134	-1.17242
8638.971	-10.81844	-0.96764	-11.03387	-1.23457
8642.972	-10.76705	-0.93989	-11.04061	-1.18632
8646.970	-10.82890	-0.92664	-11.07761	-1.18924
8650.970	-10.88319	-0.97495	-10.98843	-1.15483
8654.931	-10.86646	-1.03499	-11.04436	-1.17121
8658.972	-10.86040	-1.07104	-11.00855	-1.17111
8662.943	-10.85246	-1.11838	-10.97925	-1.13836
8666.971	-10.82074	-1.11044	-11.01591	-1.07838
8670.931	-10.74887	-1.11991	-11.01759	-1.05170
8674.973	-10.72738	-1.06276	-11.02146	-1.02782
8678.976	-10.71540	-1.01279	-11.03294	-0.99679
8682.974	-10.76259	-1.09160	-11.05754	-1.02789
8686.963	-10.79057	-1.08271	-11.04661	-1.04445
8690.970	-10.76245	-1.07447	-11.02509	-0.97721
8694.970	-10.78927	-0.99795	-11.00678	-0.96103
8698.973	-10.76480	-0.92891	-10.92868	-0.92626
8702.964	-10.84468	-0.92954	-10.88221	-0.85597
8706.970	-10.83781	-0.92220	-10.79694	-0.89531
8710.973	-10.92198	-0.96999	-10.82414	-0.89515
8714.972	-10.93375	-0.99724	-10.69381	-0.93382
8718.932	-10.89329	-1.06697	-10.78111	-0.88674
8722.972	-10.86507	-1.10723	-10.82833	-0.85154
8726.973	-10.79064	-1.10877	-10.82145	-0.90253
8730.975	-10.81729	-1.13915	-10.80158	-0.91013
8734.997	-10.85073	-1.06388	-10.72726	-0.95129
8738.966	-10.80900	-1.02623	-10.75749	-0.89618
8742.975	-10.76980	-0.94613	-10.75342	-0.96956
8746.935	-10.83067	-0.92690	-10.69680	-1.01434
8750.969	-10.79955	-0.96741	-10.75852	-1.05550
8754.972	-10.85097	-0.87011	-10.78235	-1.06852
8758.975	-10.81901	-0.83143	-10.76228	-1.01751
8762.972	-10.84116	-0.77905	-10.68108	-1.02865
8766.996	-10.87960	-0.81245	-10.62317	-1.04129
8770.974	-10.93686	-0.78402	-10.54469	-0.99682
8774.975	-10.93581	-0.75207	-10.53147	-0.90969
8778.975	-10.97435	-0.78036	-10.50529	-0.90660
8782.968	-11.05373	-0.82012	-10.46856	-0.94767
8786.951	-11.05871	-0.82998	-10.45245	-0.88432
8790.978	-10.99353	-0.65615	-10.48732	-0.68456
8794.974	-10.90341	0.40255	-10.45317	0.99655
8798.933	-10.85933	0.68507	-10.39105	1.77409
8802.975	-10.84178	1.02441	-10.32544	2.05480
8806.941	-10.76719	1.06166	-10.23300	1.90670
8810.974	-10.72330	0.99643	-10.25437	1.41459
8814.993	-10.57078	0.64161	-10.24911	1.25263
8818.974	-10.58210	0.33740	-10.26434	0.77910
8822.975	-10.62545	0.81316	-10.20906	1.21593
8826.971	-10.58807	0.78627	-10.16420	1.26040
8830.974	-10.60505	0.83981	-10.12077	1.52906
8834.975	-10.57301	0.72154	-10.09090	1.49458
8838.979	-10.57989	0.58778	-10.01965	1.48762
8842.973	-10.58356	0.85828	-10.03828	1.27579
8846.995	-10.57107	1.04975	-10.12484	1.09071
8850.973	-10.65947	0.87858	-10.13407	1.18536
8854.931	-10.65513	0.75023	-10.11562	1.22741
8858.976	-10.62094	0.59191	-10.09650	1.36913
8862.970	-10.63370	0.76970	-10.10321	1.24438
8866.975	-10.63749	0.86160	-10.19233	1.18240
8870.975	-10.60016	0.93452	-10.19575	1.24614
8874.974	-10.58402	0.92585	-10.36235	1.17666
8878.996	-10.58107	1.20933	-10.27352	1.13405
8882.976	-10.59773	1.07591	-10.21322	1.09630
8886.978	-10.67538	1.17161	-10.13446	1.10823
8890.974	-10.70263	1.06785	-10.12801	1.10175
8894.974	-10.69939	0.98584	-10.16634	1.10353
8898.973	-10.73653	0.98824	-10.20827	1.00611
8902.978	-10.76032	1.02650	-10.29454	0.98401
8906.974	-10.72340	0.87446	-10.40754	0.91438
8910.963	-10.71283	0.87754	-10.39112	1.00486
8914.976	-10.69117	0.75142	-10.48384	0.97845
8918.933	-10.68820	0.97829	-10.36936	1.01190
8922.975	-10.67715	0.70408	-10.32986	1.04619
8927.001	-10.65844	0.84909	-10.26972	1.08907
8930.974	-10.63808	0.77833	-10.25579	1.08212
8934.932	-10.65743	0.69912	-10.29476	1.12400
8938.978	-10.66529	0.72638	-10.26453	1.14349
8942.971	-10.60263	0.72438	-10.23459	1.20273
8946.976	-10.60500	0.80503	-10.20880	1.25580
8950.976	-10.63120	0.84728	-10.14785	1.26948
8954.940	-10.59570	0.97883	-10.11219	1.21578
8958.971	-10.60538	0.90391	-10.14085	1.16105
8962.974	-10.61217	0.96989	-10.14965	1.15334
8966.979	-10.75919	0.87877	-10.19252	1.08574
8970.975	-10.91093	0.88740	-10.27564	1.03745
8974.980	-10.84382	0.88080	-10.33264	1.01602
8978.977	-10.82476	0.91040	-10.35337	1.05036
8982.933	-10.83647	0.83514	-10.27782	1.08703
8986.934	-10.81011	0.78951	-10.37611	1.10580
8990.970	-10.79253	0.71260	-10.45608	0.94407
8994.979	-10.87000	0.70493	-10.43313	0.91677
8998.977	-10.83106	0.64245	-10.46191	0.84682
9002.980	-10.86342	0.74781	-10.47273	0.97082
9007.001	-10.95818	0.65981	-10.49390	0.97383
9010.978	-10.93780	0.62324	-10.52324	1.07411
9014.979	-10.86751	0.72101	-10.54106	1.08038
9018.980	-10.93141	0.75530	-10.43623	1.06667
9022.980	-10.99451	0.69680	-10.37887	1.09094
9026.978	-11.03301	0.75992	-10.51787	1.15568
9030.975	-10.95421	0.80552	-10.49543	0.98306
9034.933	-11.13143	0.78029	-10.55977	0.95103
9038.976	-11.13033	0.84338	-10.49500	0.97695
9042.975	-11.11676	0.91145	-10.37304	1.13127
9046.976	-11.16915	0.87037	-10.35272	1.15370
9050.977	-11.20741	0.81842	-10.46198	1.04206
9054.936	-11.18303	0.90881	-10.37875	0.97306
9058.974	-11.10761	0.87928	-10.45118	0.89933
9062.978	-11.13693	0.82152	-10.45838	0.99544
9066.977	-11.15370	0.79675	-10.47693	1.03246
9070.938	-11.04580	0.84608	-10.48416	0.99692
9074.978	-11.03635	0.83199	-10.41652	1.02381
9078.947	-11.06033	0.79969	-10.31528	1.09348
9082.977	-10.86450	0.78465	-10.48987	1.21274
9086.967	-10.87486	0.69162	-10.58160	1.07894
9090.977	-10.78115	0.69305	-10.54627	1.02360
9094.977	-10.83639	0.74493	-10.46160	1.12831
9098.975	-10.68971	0.78462	-10.48370	1.14418
9102.936	-10.74858	0.78213	-10.39743	1.11789
9106.976	-10.66309	0.91826	-10.40903	1.06794
9110.944	-10.70593	0.92116	-10.43040	1.21932
9114.978	-13.00384	1.02914	-10.36984	1.39768
9118.937	-13.50321	3.56399	-12.37385	3.38459
9122.978	-14.88470	6.78801	-13.60020	7.54669
9126.978	-13.32207	3.12995	-14.42667	4.89959
9130.978	-10.38274	10.94556	-11.76823	10.68960
9134.936	NaN	NaN	NaN	NaN
9138.979	NaN	NaN	NaN	NaN
9142.976	NaN	NaN	NaN	NaN
9146.977	NaN	NaN	NaN	NaN
9150.981	NaN	NaN	NaN	NaN
9154.931	NaN	NaN	NaN	NaN
9158.976	NaN	NaN	NaN	NaN
9162.938	NaN	NaN	NaN	NaN
9166.974	NaN	NaN	NaN	NaN
9170.932	NaN	NaN	NaN	NaN
9174.933	NaN	NaN	NaN	NaN
9178.933	NaN	NaN	NaN	NaN
9182.976	NaN	NaN	NaN	NaN
9186.934	NaN	NaN	NaN	NaN
9190.978	-8.20321	8.80058	14.59135	5.85575
9194.981	NaN	NaN	14.97476	5.84126
9198.979	NaN	NaN	5.42533	3.07261
9202.955	6.59495	-0.20365	-0.48381	-0.92132
9206.981	0.69340	-2.51358	0.72424	-0.52235
9210.976	-0.32833	-1.95476	0.12493	-2.79985
9214.977	-0.26925	-2.33817	0.85014	-2.07638
9218.878	-0.19055	-2.50574	1.08783	-2.03641
9222.980	-0.34417	-2.51387	0.04179	-1.55860
9226.980	-0.24210	-2.55992	1.21725	-1.18549
9230.979	0.80188	-2.49147	2.06295	-1.16061
9234.940	2.40689	-2.54198	2.83212	-0.98330
9238.979	2.48128	-2.65910	1.97022	-1.17739
9242.971	1.62222	-2.63083	2.34376	-1.67752
9246.971	2.52973	-2.57787	1.52362	-1.56294
9250.983	2.21581	-2.42812	2.47068	-1.68344
9254.976	1.99164	-2.51465	2.06951	-1.62036
9258.981	2.07261	-2.70148	2.87217	-1.62655
9262.979	2.14662	-2.80724	2.81947	-1.60465
9266.984	2.24874	-2.37425	2.52324	-1.57604
9270.980	2.31644	-2.52183	2.44960	-1.66209
9274.982	2.20917	-2.69135	2.35585	-1.80401
9278.979	2.16248	-2.66929	2.63923	-1.79591
9282.880	2.08865	-2.30214	2.73576	-1.85461
9286.977	2.24128	-2.50967	2.55505	-1.82624
9290.981	2.24074	-2.33210	2.44628	-1.79144
9294.980	2.20030	-2.24847	2.52319	-1.89716
9298.878	2.23747	-2.66291	2.67298	-1.90789
9302.980	2.31943	-2.60525	2.65656	-2.04004
9306.979	2.41692	-2.26721	2.56708	-2.08878
9310.980	2.39168	-2.39639	2.51306	-2.01476
9314.878	2.35712	-2.31273	2.47732	-1.91476
9318.979	2.36485	-2.41181	2.46654	-2.04882
9322.982	2.43060	-2.35283	2.63863	-2.08702
9326.966	2.44021	-2.72857	2.76497	-2.16669
9330.877	2.53823	-2.53333	2.69398	-2.19014
9334.980	2.47876	-2.35118	2.68314	-2.23016
9338.982	2.44239	-2.62130	2.48832	-2.19694
9342.982	2.37974	-2.44417	2.59500	-2.29119
9346.981	2.32045	-2.26331	2.51408	-2.28834
9350.981	2.26715	-2.48380	2.67647	-2.34534
9354.938	2.03509	-2.59727	2.77983	-2.31243
9358.981	2.06567	-2.71663	2.72073	-2.36738
9362.985	2.22540	-2.40555	2.85093	-2.30117
9366.983	2.25687	-2.75365	2.81461	-2.30035
9370.971	2.27714	-2.69232	2.78181	-2.27883
9374.981	2.31708	-2.63566	2.72191	-2.23800
9378.874	2.21472	-2.78182	2.66313	-2.25062
9382.979	2.29887	-2.89240	2.71543	-2.28718
9386.982	2.28920	-2.72497	2.69500	-2.27726
9390.979	2.41598	-2.77984	2.70196	-2.28307
9394.877	2.44180	-2.75447	2.70693	-2.23790
9398.980	2.46290	-2.73191	2.72553	-2.27207
9402.983	2.50172	-2.66245	2.72820	-2.30492
9406.983	2.49944	-2.71579	2.64433	-2.36880
9410.878	2.54665	-2.63769	2.59705	-2.41277
9414.979	2.50816	-2.57197	2.63641	-2.43487
9418.981	2.51908	-2.48381	2.56996	-2.40871
9422.981	2.55629	-2.50086	2.60094	-2.36558
9426.878	2.53622	-2.33063	2.51225	-2.37459
9430.982	2.54841	-2.32030	2.53006	-2.36926
9434.981	2.55470	-2.36383	2.52178	-2.32027
9438.984	2.54053	-2.38530	2.53791	-2.29588
9442.881	2.55311	-2.36899	2.51534	-2.25393
9446.984	2.56374	-2.41115	2.54405	-2.19286
9450.975	2.61295	-2.21698	2.58900	-2.21893
9454.984	2.55854	-2.40908	2.63415	-2.22076
9458.877	2.34793	-2.53894	2.64339	-2.19908
9462.982	2.28980	-2.45945	2.62063	-2.26433
9466.981	2.48661	-2.50885	2.71050	-2.28887
9470.985	2.44239	-2.62851	2.73031	-2.36989
9474.984	2.35600	-2.45670	2.77302	-2.36542
9478.979	2.33977	-2.54941	2.73043	-2.35941
9482.981	2.32365	-2.50343	2.70985	-2.43324
9486.986	2.26777	-2.60272	2.70285	-2.47067
9490.881	2.24064	-2.51294	2.61528	-2.50466
9494.951	2.16910	-2.62814	2.59614	-2.56347
9498.978	2.02686	-2.61163	2.56644	-2.62296
9502.984	2.15006	-2.37614	2.56173	-2.64950
9506.986	2.14037	-2.55492	2.56835	-2.73003
9510.858	2.15229	-2.46181	2.52171	-2.79507
9514.857	2.12141	-2.47276	2.52552	-2.81465
9518.858	2.17403	-2.46078	2.56285	-2.86274
9522.879	2.13108	-2.53211	2.62717	-2.86301
9526.858	2.06168	-2.69122	2.66531	-2.81382
9530.857	2.11197	-2.68845	2.71624	-2.78008
9534.813	2.10862	-2.71435	2.71238	-2.73445
9538.847	2.08860	-2.54937	2.68539	-2.67068
9542.820	1.97404	-2.68494	2.69846	-2.53110
9546.814	2.07720	-2.69714	2.64780	-2.60641
9550.858	2.17036	-2.49434	2.64369	-2.43357
9554.817	2.12027	-2.59998	2.62910	-2.45161
9558.858	2.18909	-2.65541	2.64760	-2.42796
9562.858	2.15004	-2.31957	2.53157	-2.40615
9566.857	2.12213	-2.45891	2.46669	-2.38724
9570.816	2.26772	-2.47304	2.46853	-2.51436
9574.855	2.18763	-2.82200	2.40922	-2.42573
9578.859	1.99843	-2.71610	2.44346	-2.40329
9582.836	2.11916	-2.75925	2.44640	-2.43404
9586.817	2.02376	-2.69886	2.46156	-2.45423
9590.815	2.14664	-2.37560	2.45805	-2.46061
9594.857	2.34661	-2.30020	2.54254	-2.40160
9598.857	2.89240	-1.48167	2.95129	-2.39122
9602.817	3.36619	-0.23526	3.93860	-1.28936
9606.858	3.95118	-0.26054	4.35852	-0.18479
9610.861	4.11051	-0.18904	4.87626	0.06549
9614.858	4.32720	-0.12330	5.14311	0.14703
9618.847	4.58659	0.16118	5.31384	0.31252
9622.846	4.50320	0.13456	4.75977	0.17040
9626.846	4.15880	0.06273	5.07242	0.03084
9630.860	4.17820	-0.29442	5.15679	-0.12010
9634.817	4.27084	-0.35740	4.86916	-0.19679
9638.858	4.43233	0.08208	4.86667	-0.08465
9642.863	4.51073	0.12067	4.68148	-0.10895
9646.859	4.54888	0.16787	4.95903	0.02924
9650.880	4.55021	0.14161	4.91031	-0.06214
9654.861	4.37014	0.21107	5.04390	0.00035
9658.859	4.53396	0.32321	4.75571	0.05919
9662.859	4.45039	0.11082	4.81234	0.02211
9666.857	4.44025	0.15496	4.82602	0.01991
9670.814	4.50340	0.13573	4.79797	0.08011
9674.852	4.53354	0.22953	4.72906	0.08769
9678.859	4.54382	0.17268	4.77870	0.13998
9682.883	4.45054	0.22562	4.68225	0.08619
9686.860	4.40663	0.25938	4.81697	0.09491
9690.861	4.37058	0.23226	4.65395	-0.00562
9694.860	4.33959	0.22862	4.66896	0.02147
9698.891	4.36103	0.26108	4.70244	0.15028
9702.860	4.31205	0.19258	4.81298	0.04729
9706.842	4.32516	0.18869	4.84051	0.02511
9710.855	4.31220	0.09034	4.79240	0.01461
9714.853	4.35630	0.15136	4.70998	0.00874
9718.859	4.35773	0.11881	4.73239	0.00817
9722.862	4.35918	-0.01048	4.82271	0.01983
9726.858	4.36424	0.04006	4.82454	0.05720
9730.884	4.34593	-0.01452	4.80781	0.05126
9734.863	4.32977	-0.11202	4.93228	0.06105
9738.818	4.23846	-0.16165	5.02886	0.08483
9742.858	4.17847	-0.16731	5.06373	0.04121
9746.879	4.26003	-0.16856	5.07784	0.05203
9750.855	4.33140	-0.15125	5.08894	0.02723
9754.858	4.24292	0.04835	5.15970	0.02000
9758.864	4.29317	-0.11827	5.22121	0.02920
9762.883	4.21893	-0.15127	5.26423	0.03350
9766.860	4.17880	-0.15422	5.35310	0.03763
9770.861	4.19185	-0.13913	5.36949	0.04171
9774.859	4.16174	-0.09395	5.31918	0.04530
9778.883	4.20568	-0.11950	5.31115	0.05619
9782.865	4.21893	0.12502	5.25712	0.09175
9786.862	4.25369	0.21661	5.16118	0.11976
9790.863	4.30704	0.04906	5.11034	0.10237
9794.881	4.33601	0.33874	5.06437	0.12685
9798.861	4.35911	0.29408	5.14599	0.10291
9802.863	4.37761	0.38946	5.06321	0.06624
9806.851	4.34433	0.56734	5.03336	0.06985
9810.819	4.34455	0.64491	5.00403	0.06914
9814.860	4.35200	0.46905	5.03757	0.07332
9818.857	4.37641	0.49037	5.05942	0.08589
9822.862	4.34275	0.53682	5.03647	0.12188
9826.883	4.34855	0.64407	5.06314	0.12651
9830.849	4.31674	0.72072	5.06343	0.11661
9834.862	4.33754	0.66107	5.02957	0.06438
9838.863	4.28345	0.39478	5.13109	0.08949
9842.882	4.20141	0.63554	4.53058	0.15163
9846.860	1.99456	0.56933	2.00128	0.26257
9850.859	1.37464	0.66534	0.17417	0.33518
9854.863	0.42313	0.34934	-1.52330	0.36167
9858.881	-1.77241	0.46713	-2.53432	0.42671
9862.818	-2.34537	0.58796	-3.68824	0.38877
9866.862	-2.69113	0.45537	-4.28054	0.39300
9870.820	-4.35531	0.47646	-5.60305	0.36019
9874.859	-4.79556	0.33755	-5.69583	0.32948
9878.864	-5.77453	0.41289	-5.92869	0.29298
9882.860	-5.92474	0.38525	-6.16309	0.26012
9886.866	-6.33270	0.31188	-6.34287	0.18636
9890.867	-6.22191	0.24762	-6.29889	0.13725
9894.863	-5.97136	0.16588	-6.24707	0.10029
9898.858	-6.02300	0.10169	-6.32566	0.06896
9902.865	-6.14491	0.06784	-6.39175	0.05621
9906.897	-6.12264	0.08759	-6.49768	0.02822
9910.862	-6.22478	0.10990	-6.42449	0.01138
9914.842	-6.21522	0.14419	-6.50312	-0.01341
9918.818	-6.32701	0.22430	-6.46968	-0.02193
9922.857	-6.39393	0.23163	-6.53120	-0.01859
9926.862	-6.35672	0.25027	-6.53659	0.02701
9930.860	-6.39641	0.14404	-6.46135	0.05084
9934.820	-6.42910	0.17085	-6.33370	0.12588
9938.885	-6.43998	0.15606	-6.34895	0.08999
9942.860	-6.42136	0.20256	-6.35486	0.14852
9946.864	-6.43822	0.20080	-6.42645	0.09119
9950.865	-6.50575	0.15090	-6.26179	0.01904
9954.852	-6.57041	0.17552	-6.35515	0.00200
9958.826	-6.60504	0.29870	-6.37172	-0.06342
9962.863	-6.62395	0.07200	-6.42266	-0.08583
9966.865	-6.62476	0.12314	-6.38489	-0.09033
9970.883	-6.64329	0.03858	-6.45116	-0.17388
9974.864	-6.62598	0.12006	-6.44067	-0.20040
9978.865	-6.60823	0.04559	-6.53647	-0.18227
9982.820	-6.62652	0.03779	-6.56868	-0.19381
9986.824	-6.63798	-0.05413	-6.62405	-0.17843
9990.866	-6.66545	-0.10018	-6.64290	-0.14116
9994.864	-6.67037	0.05378	-6.72726	-0.08408
9998.865	-6.61898	-0.06472	-6.72450	0.07401
10002.822	-6.64917	-0.09056	-6.76701	-0.01972
10006.863	-6.65189	-0.06997	-6.79716	-0.03045
10010.865	-6.64315	-0.00202	-6.80810	0.12110
10014.864	-6.66060	-0.03446	-6.76809	0.17137
10018.821	-6.61401	-0.06524	-6.74648	0.10653
10022.863	-6.60184	0.05875	-6.64315	0.02110
10026.863	-6.60686	0.09313	-6.61800	-0.03029
10030.861	-6.64425	0.03673	-6.58790	0.17825
10034.821	-6.67578	0.08088	-6.38859	0.26574
10038.863	-6.78439	0.08007	-6.40305	0.18182
10042.821	-6.90823	0.04421	-6.21728	0.17685
10046.822	-6.80910	0.02551	-6.27908	0.14212
10050.860	-6.80521	0.00925	-6.22785	0.11089
10054.860	-6.86229	-0.08632	-6.22407	0.07312
10058.863	-6.78625	-0.03563	-6.20828	0.05645
10062.861	-6.69586	-0.04045	-6.24742	0.01336
10066.868	-6.85143	-0.14472	-6.32917	-0.10133
10070.867	-6.66225	-0.17062	-6.35557	-0.11570
10074.865	-6.68019	-0.11745	-6.31828	-0.11591
10078.864	-6.66606	-0.14118	-6.31747	-0.16111
10082.867	-6.55675	-0.15898	-6.26937	-0.14492
10086.867	-6.54372	-0.18935	-6.31764	-0.11981
10090.865	-6.58119	-0.19701	-6.35520	-0.14460
10094.864	-6.59704	-0.20617	-6.26162	-0.06175
10098.868	-6.55542	-0.14975	-6.34777	-0.04804
10102.868	-6.63570	-0.24169	-6.95492	-0.02398
10106.864	-7.86364	-0.15567	-8.46325	0.04377
10110.867	-9.66214	-0.24359	-10.22411	0.06182
10114.863	-10.40673	-0.16996	-12.03695	-0.27173
10118.837	-10.65091	-0.09578	-12.18289	-0.19038
10122.852	-12.05020	-0.17069	-12.26500	0.00670
10126.863	-12.41705	-0.05834	-12.77945	-0.14208
10130.867	-12.40517	-0.06883	-12.61346	-0.28454
10134.818	-12.32295	-0.01949	-12.37392	-0.66274
10138.862	-12.18614	0.02713	-11.95299	-0.63384
10142.864	-12.05680	0.00984	-12.08309	-0.47000
10146.870	-12.09349	0.07355	-12.34311	-0.42232
10150.822	-12.15042	0.13754	-12.11716	-0.50805
10154.867	-12.20408	0.19289	-12.28607	-0.62016
10158.865	-12.20809	0.14864	-12.39279	-0.49124
10162.855	-12.22526	0.19538	-12.25062	-0.55500
10166.859	-12.26322	0.22522	-12.38332	-0.53460
10170.822	-12.24623	0.20690	-12.36831	-0.53417
10174.822	-12.22338	0.18911	-12.27657	-0.48264
10178.864	-12.23023	0.22464	-12.32525	-0.46680
10182.865	-12.29509	0.19642	-12.36660	-0.42535
10186.864	-12.32383	0.16853	-12.38057	-0.43821
10190.867	-12.34837	0.24301	-12.39049	-0.44851
10194.869	-12.33418	0.23914	-12.44039	-0.45119
10198.869	-12.31059	0.27388	-12.42576	-0.43867
10202.865	-12.33008	0.23654	-12.43080	-0.47879
10206.868	-12.32452	0.22871	-12.50666	-0.47271
10210.765	-12.34744	0.22175	-12.49058	-0.46772
10214.865	-12.33463	0.17626	-12.45042	-0.46747
10218.865	-12.36933	0.17573	-12.46254	-0.47561
10222.868	-12.38048	0.13949	-12.44659	-0.44846
10226.870	-12.42801	0.08957	-12.47976	-0.46315
10230.864	-12.41795	0.09122	-12.47726	-0.42172
10234.865	-12.39260	0.12800	-12.47333	-0.36275
10238.829	-12.41473	0.14915	-12.54545	-0.39961
10242.873	-12.40143	0.03434	-12.44216	-0.32023
10246.856	-12.32755	0.04998	-12.42920	-0.28661
10250.857	-12.32255	-0.00218	-12.35161	-0.26327
10254.867	-12.24137	-0.04138	-12.32165	-0.23403
10258.826	-12.32388	-0.02418	-12.32980	-0.25992
10262.865	-12.27157	-0.03016	-12.34747	-0.33408
10266.866	-12.23997	-0.03036	-12.31938	-0.37466
10270.865	-12.13235	0.11078	-12.30770	-0.33319
10274.824	-12.09944	0.09034	-12.28988	-0.43814
10278.868	-12.03942	0.09031	-12.30369	-0.40770
10282.868	-12.02720	0.13943	-12.25083	-0.41912
10286.868	-11.98341	0.16174	-12.28412	-0.45262
10290.825	-11.99244	0.16847	-12.25721	-0.43249
10294.867	-11.98422	0.19568	-12.22722	-0.42093
10298.868	-11.98234	0.23185	-12.22767	-0.47241
10302.866	-11.95752	0.18906	-12.06565	-0.35048
10306.736	-11.95406	0.15841	-12.11116	-0.12809
10310.868	-11.96603	0.24574	-12.08978	-0.01626
10314.867	-12.31921	0.57030	-12.32952	-0.12012
10318.865	-16.60755	2.37050	-15.76283	2.20368
10322.826	-16.01780	3.57584	-15.73529	5.16781
10326.869	-14.16396	2.79939	-15.57007	8.76659
10330.857	-15.46360	3.81864	-16.58268	4.55628
10334.868	NaN	NaN	-19.99361	-12.07743
10338.825	NaN	NaN	-19.99366	-12.07743
10342.869	NaN	NaN	-19.99368	-12.07743
10346.870	NaN	NaN	-19.99370	-12.07743
10350.866	NaN	NaN	-19.99370	-12.07743
10354.868	NaN	NaN	-19.99370	-12.07743
10358.823	NaN	NaN	-19.99370	-12.07743
10362.822	NaN	NaN	-19.99370	-12.07743
10366.867	NaN	NaN	-19.99370	-12.07743
10370.863	NaN	NaN	NaN	NaN
10374.862	NaN	NaN	NaN	NaN
10378.821	NaN	NaN	NaN	NaN
10382.866	NaN	NaN	NaN	NaN
10386.866	NaN	NaN	NaN	NaN
10390.866	NaN	NaN	NaN	NaN
10394.821	NaN	NaN	NaN	NaN
10398.763	NaN	NaN	NaN	NaN
10402.867	NaN	NaN	NaN	NaN
10406.871	NaN	NaN	NaN	NaN
10410.822	NaN	NaN	NaN	NaN
10414.845	NaN	NaN	NaN	NaN
10418.865	NaN	NaN	NaN	NaN
10422.869	NaN	NaN	NaN	NaN
10426.822	NaN	NaN	NaN	NaN
10430.872	NaN	NaN	-10.42581	12.80279
10434.825	-17.36120	5.15488	-12.18516	8.68155
10438.869	-17.12516	4.95649	-13.40915	6.63107
10442.870	-8.22443	11.56754	-12.91409	4.69502
10446.730	-16.44841	5.06198	-11.89338	4.49009
10450.870	-16.18109	4.85023	-12.37238	6.73345
10454.858	-15.84282	3.75496	-13.82064	4.34840
10458.870	-15.34651	2.78811	-10.66563	1.06046
10462.729	-14.85772	2.46379	-11.14060	1.75159
10466.870	-14.41808	2.55653	-11.68255	1.40814
10470.868	-14.55525	2.30701	-12.08501	1.31944
10474.868	-14.58680	1.88398	-12.29469	1.25055
10478.732	-14.84306	1.94900	-13.59420	1.26510
10482.869	-14.20448	1.41971	-12.10604	1.03752
10486.869	-13.47404	1.53272	-12.19166	1.03736
10490.869	-13.04681	1.59004	-12.06736	0.79386
10494.829	-12.29806	1.10307	-12.33300	0.45904
10498.841	-10.98363	0.71144	-11.01464	0.37743
10502.867	-10.79176	0.98081	-11.56262	0.40453
10506.871	-10.96641	0.59366	-11.25438	-0.28129
10510.828	-10.98686	0.91234	-10.69525	0.32409
10514.868	-11.01271	0.84954	-10.44933	0.06974
10518.869	-10.94902	0.66561	-10.40785	0.17492
10522.869	-10.97078	0.56997	-10.88860	0.08353
10526.828	-11.10787	0.68042	-10.62087	-0.06577
10530.870	-11.03504	0.52919	-10.49874	0.00117
10534.870	-10.97777	0.65111	-10.38785	0.05734
10538.868	-10.95428	0.64560	-10.50203	0.10355
10542.828	-11.00001	0.72147	-10.36876	0.09198
10546.869	-11.02739	0.61895	-10.41025	0.07344
10550.873	-11.02844	0.71694	-10.42519	0.11919
10554.745	-11.02397	0.58696	-10.40106	0.14467
10558.730	-11.00757	0.61363	-10.44237	0.14843
10562.744	-11.02440	0.57045	-10.48655	0.24444
10566.744	-11.00415	0.68488	-10.47535	0.22549
10570.746	-10.99652	0.62941	-10.41918	0.22401
10574.704	-10.96956	0.65074	-10.49654	0.18980
10578.745	-10.95385	0.73619	-10.52921	0.21660
10582.743	-10.95602	0.62493	-10.61941	0.23566
10586.717	-11.07439	0.64512	-10.57443	0.26557
10590.699	-11.02160	0.69228	-10.65187	0.26509
10594.743	-10.92729	0.61572	-10.57927	0.25284
10598.744	-10.89595	0.69086	-10.55243	0.20256
10602.744	-10.91657	0.63217	-10.49402	0.20404
10606.703	-10.90741	0.63484	-10.49555	0.15273
10610.746	-10.95043	0.60904	-10.54044	0.07703
10614.747	-11.00252	0.54689	-10.60519	0.07569
10618.745	-11.02007	0.52712	-10.53830	0.12110
10622.731	-11.11669	0.52748	-10.52746	0.12272
10626.732	-11.08978	0.51429	-10.46472	0.11991
10630.745	-11.06944	0.50704	-10.41405	0.21617
10634.744	-11.09217	0.51704	-10.36603	0.22270
10638.705	-11.12003	0.49973	-10.40394	0.33850
10642.745	-11.18587	0.47690	-10.37013	0.47172
10646.746	-11.27104	0.49635	-10.40238	0.26792
10650.746	-11.18117	0.57149	-10.39467	0.33983
10654.733	-10.96700	0.55642	-10.34780	0.38361
10658.746	-10.94820	0.53711	-10.28808	0.47659
10662.746	-10.90413	0.53702	-10.40927	0.53733
10666.746	-10.85653	0.73148	-10.36737	0.49810
10670.768	-10.80714	0.64145	-10.33608	0.48106
10674.747	-10.86316	0.59753	-10.30266	0.40968
10678.746	-10.84362	0.61253	-10.34693	0.38481
10682.747	-10.74424	0.57624	-10.34393	0.33345
10686.769	-10.76209	0.67921	-10.28433	0.32384
10690.750	-10.74348	0.45240	-10.24908	0.39446
10694.746	-10.71739	0.61467	-10.23351	0.48024
10698.752	-10.79361	0.55872	-10.28741	0.57895
10702.768	-10.76470	0.56131	-10.28131	0.53703
10706.747	-10.78427	0.57548	-10.21142	0.48277
10710.723	-10.82627	0.64263	-10.22772	0.45156
10714.703	-10.78858	0.58880	-10.15290	0.41973
10718.738	-10.83850	0.58016	-10.14453	0.43825
10722.747	-10.82344	0.57530	-10.09739	0.57607
10726.746	-10.88302	0.47554	-10.11538	0.50148
10730.749	-10.84240	0.58254	-10.12690	0.43818
10734.747	-10.77814	0.56348	-10.14612	0.47425
10738.703	-10.80833	0.51232	-10.12577	0.50246
10742.706	-10.71583	0.50342	-10.04947	0.48303
10746.749	-10.78982	0.47544	-10.08746	0.35638
10750.748	-10.77926	0.46443	-10.11175	0.38199
10754.735	-10.78108	0.44631	-10.06280	0.56206
10758.746	-10.83352	0.48682	-10.11760	0.53829
10762.747	-10.80836	0.24799	-10.31355	0.54592
10766.743	-10.90827	0.43009	-10.36932	0.64163
10770.745	-11.00639	0.39078	-10.39679	0.73273
10774.752	-10.92779	0.41367	-10.40060	0.69010
10778.748	-10.94256	0.43705	-10.38048	0.85056
10782.744	-11.05507	0.46980	-10.44729	0.80049
10786.746	-10.98102	0.50936	-10.42994	0.77881
10790.751	-11.03368	0.45649	-10.43505	0.75896
10794.749	-11.05620	0.59231	-10.40893	0.84176
10798.762	-11.07334	0.59472	-10.39983	0.72806
10802.746	-10.99539	0.58587	-10.46052	0.78899
10806.744	-11.07240	0.66314	-10.42408	0.77987
10810.746	-10.99085	0.71286	-10.36557	0.69341
10814.771	-10.98191	0.68493	-10.37628	0.73647
10818.747	-10.98042	0.66891	-10.35092	0.59917
10822.750	-11.02705	0.74886	-10.34624	0.59905
10826.746	-10.98745	0.71001	-10.30848	0.64917
10830.705	-11.00230	0.76619	-10.31006	0.55913
10834.730	-11.13246	0.72778	-10.31405	0.49185
10838.736	-11.09057	0.79688	-10.32452	0.50288
10842.748	-11.03121	0.87402	-10.27821	0.53198
10846.744	-11.04044	0.72137	-10.32678	0.55983
10850.750	-11.03265	0.74687	-10.22894	0.69305
10854.750	-11.11772	0.80246	-10.26619	0.63297
10858.748	-11.06879	0.79667	-10.20565	0.62690
10862.770	-10.82995	0.83601	-10.23786	0.60222
10866.750	-11.00783	0.89089	-10.24507	0.62893
10870.742	-11.06779	0.93223	-10.25778	0.57798
10874.750	-11.09654	0.84004	-10.22185	0.66499
10878.747	-10.92236	0.92979	-10.23687	0.70897
10882.747	-10.96978	0.88269	-10.25141	0.72219
10886.753	-11.06466	0.80497	-10.29423	0.76631
10890.750	-11.06452	0.82735	-10.24812	0.78327
10894.770	-11.05868	0.84888	-10.29502	0.74497
10898.750	-11.11255	0.88019	-10.25716	0.74780
10902.750	-10.95820	0.91141	-10.26504	0.69155
10906.758	-11.00836	0.89050	-10.26285	0.69872
10910.769	-11.07154	0.91120	-10.27612	0.71150
10914.749	-11.08947	0.78991	-10.26393	0.70710
10918.712	-11.10137	0.80519	-10.26847	0.69455
10922.749	-11.14620	0.88284	-10.26480	0.68297
10926.773	-11.26641	0.86303	-10.21221	0.65127
10930.747	-11.14517	0.66137	-10.21534	0.63872
10934.706	-10.99704	0.83874	-10.28664	0.57565
10938.749	-11.05340	0.89234	-10.32712	0.53446
10942.772	-11.09740	0.85410	-10.34117	0.48242
10946.747	-11.14462	0.74469	-10.36031	0.61220
10950.758	-11.14858	0.75925	-10.28078	0.66321
10954.749	-11.21835	0.73036	-10.28294	0.58416
10958.765	-11.12617	0.85975	-10.24889	0.64386
10962.742	-11.15635	0.86772	-10.22385	0.64433
10966.755	-11.16254	0.74020	-10.24430	0.57299
10970.748	-11.18363	0.86555	-10.29409	0.60976
10974.751	-11.11540	0.91287	-10.36038	0.58368
10978.749	-11.14670	0.75653	-10.30305	0.52807
10982.750	-11.13996	0.53873	-10.29964	0.57291
10986.749	-11.14144	0.64892	-10.30230	0.58149
10990.742	-11.14101	0.71227	-10.25350	0.51840
10994.749	-11.11169	0.65849	-10.29454	0.42311
10998.753	-11.08309	0.71142	-10.41172	0.43519
11002.755	-11.13721	0.66389	-10.41314	0.44199
11006.743	-11.13599	0.65337	-10.41645	0.41459
11010.757	-11.15867	0.65578	-10.40843	0.45348
11014.750	-11.13872	0.58108	-10.34996	0.47358
11018.754	-11.09131	0.50137	-10.29829	0.47836
11022.753	-11.14629	0.55308	-10.25526	0.49517
11026.751	-11.13260	0.57495	-10.22555	0.56085
11030.751	-11.10985	0.62675	-10.24125	0.62789
11034.704	-11.07769	0.65669	-10.23019	0.76999
11038.741	-11.12949	0.66484	-10.22788	0.79014
11042.751	-11.08182	0.62798	-10.09792	0.72797
11046.747	-11.03081	0.62675	-10.10511	0.77848
11050.756	-11.02660	0.67692	-10.13085	0.77512
11054.735	-11.07910	0.67429	-11.28660	0.39866
11058.751	-11.56917	0.48369	-12.27038	-0.56720
11062.751	-12.31947	-1.46793	-12.69275	-2.40583
11066.752	-12.68900	-2.37065	-12.69535	-3.01233
11070.709	-12.55942	-2.51184	-12.21667	-3.38302
11074.751	-12.25796	-2.75667	-12.35377	-3.43385
11078.751	-12.11266	-2.75006	-12.50292	-3.24168
11082.752	-12.24571	-3.15830	-12.44602	-3.50222
11086.737	-11.63582	-2.81914	-12.30116	-3.69967
11090.752	-12.14857	-2.74741	-12.30910	-3.67444
11094.751	-11.94593	-3.10626	-12.25159	-3.85678
11098.753	-12.10986	-3.41431	-12.30054	-3.86947
11102.740	-12.21252	-2.84461	-12.25917	-3.90419
11106.750	-12.13489	-3.16601	-12.18324	-3.95752
11110.752	-12.18073	-3.14118	-12.13394	-3.94728
11114.751	-12.10737	-2.91999	-12.16190	-3.91483
11118.721	-12.03638	-3.04667	-12.18109	-4.03113
11122.750	-12.10212	-3.05831	-12.09080	-4.06823
11126.751	-12.05003	-3.15228	-12.09757	-4.06713
11130.750	-12.22016	-2.90940	-12.05753	-4.09407
11134.709	-12.19164	-3.27434	-11.99400	-4.10488
11138.750	-12.24943	-3.04347	-12.04666	-4.07818
11142.753	-12.26178	-2.97685	-12.02325	-3.97152
11146.751	-12.16671	-2.94744	-11.96144	-3.96587
11150.743	-12.07664	-3.49678	-11.86536	-3.99750
11154.758	-11.99322	-3.20018	-11.85861	-4.06634
11158.752	-11.91538	-3.42258	-11.83082	-4.06734
11162.752	-12.11636	-3.48382	-11.80005	-4.11798
11166.751	-11.97565	-3.24398	-11.83217	-4.10494
11170.742	-11.99742	-3.18421	-11.81451	-4.10966
11174.750	-11.97771	-3.11462	-11.84292	-4.02019
11178.753	-11.89542	-3.06462	-11.86650	-3.97989
11182.756	-11.84886	-3.18052	-11.88665	-4.01274
11186.752	-11.80611	-3.16302	-11.86923	-3.97200
11190.757	-11.83022	-3.08842	-11.90219	-3.99013
11194.753	-11.87864	-2.99216	-12.01627	-3.98229
11198.756	-11.89929	-3.00222	-11.97463	-3.99623
11202.751	-11.93348	-2.97978	-12.00421	-3.97712
11206.757	-11.93011	-2.91987	-11.99495	-3.98802
11210.722	-11.83659	-3.01246	-11.97610	-3.98494
11214.747	-11.91650	-2.78709	-11.88622	-4.00256
11218.752	-11.97444	-2.85824	-11.82818	-4.03541
11222.755	-11.96501	-2.93092	-11.83229	-4.05599
11226.753	-11.89181	-3.35040	-11.82718	-4.04675
11230.652	-12.00250	-2.90939	-11.85526	-4.05025
11234.751	-11.98037	-3.39422	-11.84836	-4.03041
11238.714	-11.93234	-3.17440	-11.82226	-4.00062
11242.752	-12.02007	-3.17713	-11.83588	-3.97479
11246.758	-11.96724	-3.14567	-11.82899	-3.98561
11250.754	-11.99609	-3.12984	-11.92139	-3.95496
11254.750	-12.01988	-3.08721	-11.90060	-3.92668
11258.756	-12.07543	-3.14130	-11.94498	-3.86032
11262.758	-12.05430	-3.16444	-11.98572	-3.85630
11266.752	-12.03560	-3.18160	-11.98453	-3.83273
11270.754	-12.01537	-3.16745	-12.00569	-3.81500
11274.757	-12.00910	-3.22138	-12.02971	-3.85217
11278.757	-12.08660	-3.14854	-11.96230	-3.90513
11282.753	-12.07182	-3.17771	-11.92512	-4.06576
11286.754	-12.11833	-3.15889	-11.89480	-4.11530
11290.759	-12.19839	-3.14102	-11.84620	-4.11746
11294.756	-12.16007	-3.19318	-11.82476	-4.17222
11298.755	-11.93938	-3.15883	-11.90369	-4.27691
11302.754	-12.07412	-3.11905	-11.90932	-4.29111
11306.746	-12.08466	-3.10418	-11.93455	-4.35212
11310.656	-12.22317	-3.08319	-11.95460	-4.41937
11314.755	-12.25502	-3.10180	-11.97636	-4.41271
11318.753	-12.22246	-3.12354	-11.94660	-4.42779
11322.756	-11.93218	-3.00600	-11.83281	-4.32760
11326.769	-10.22793	-3.06967	-11.58951	-4.30806
11330.752	-8.55355	-3.06067	-8.96867	-4.14292
11334.732	-5.85266	-2.94500	-7.39108	-3.87072
11338.753	-5.25845	-3.00865	-6.92425	-3.55430
11342.650	-3.58227	-2.99282	-4.71060	-3.44559
11346.753	-1.52099	-3.04812	-3.83403	-3.52520
11350.751	-0.83520	-3.11403	-2.89477	-3.41181
11354.710	0.13585	-3.13310	-1.21221	-2.74458
11358.651	1.73356	-3.10709	-0.20095	-3.16391
11362.756	1.84463	-3.10750	0.90537	-2.77527
11366.753	2.03179	-3.09678	1.62686	-3.01849
11370.754	2.12855	-3.09030	2.18203	-2.88822
11374.652	1.83330	-3.10521	2.25337	-2.89001
11378.744	1.68520	-3.14498	2.22255	-2.84219
11382.755	1.83040	-3.18289	2.00680	-2.80964
11386.757	1.72198	-3.22688	1.99221	-2.84792
11390.757	1.90646	-3.22606	2.15544	-2.80618
11394.754	1.97195	-3.15270	2.14664	-2.79076
11398.754	1.99612	-3.14909	2.10572	-2.82745
11402.756	2.01283	-3.17993	2.04433	-2.87867
11406.651	1.94811	-3.13831	2.13227	-2.92269
11410.754	1.95391	-3.13355	2.12644	-2.87304
11414.757	1.93926	-3.11812	2.07878	-2.86884
11418.730	1.99798	-3.10182	2.08518	-2.85694
11422.757	2.02941	-3.11112	2.10382	-2.83731
11426.755	2.04926	-3.06572	2.14751	-2.81316
11430.754	2.05712	-3.03242	2.18922	-2.76140
11434.712	2.04721	-3.04284	2.15284	-2.73214
11438.649	2.05489	-3.09272	2.19611	-2.70339
11442.753	2.13539	-3.09972	2.23541	-2.70672
11446.754	2.15157	-3.08149	2.31170	-2.73806
11450.757	2.10937	-3.13404	2.36651	-2.76146
11454.761	2.12972	-3.15259	2.38895	-2.77457
11458.735	2.14548	-3.15696	2.43617	-2.79778
11462.751	2.18000	-3.22229	2.53768	-2.80366
11466.757	2.25642	-3.21698	2.61367	-2.85812
11470.651	2.24715	-3.23623	2.76044	-2.87968
11474.754	2.23449	-3.24400	2.68118	-2.89535
11478.755	2.22094	-3.25074	2.76057	-2.90041
11482.755	2.21519	-3.24397	2.78114	-2.89996
11486.654	2.18253	-3.23157	2.77574	-2.89646
11490.755	2.10563	-3.23091	2.65463	-2.92205
11494.756	2.11879	-3.19648	2.74658	-2.88816
11498.758	2.08022	-3.22760	2.73529	-2.95189
11502.715	2.06409	-3.27546	2.63584	-3.00706
11506.757	2.06882	-3.24282	2.64530	-3.10406
11510.756	2.06277	-3.22773	2.64814	-3.19441
11514.757	2.06867	-3.24782	2.65399	-3.28421
11518.615	2.12620	-3.21706	2.66481	-3.16786
11522.757	2.22835	-3.22897	2.68321	-3.16987
11526.758	2.31019	-3.22532	2.62504	-3.23881
11530.757	2.38568	-3.22629	2.62999	-3.22588
11534.614	2.37067	-3.23954	2.68125	-3.18762
11538.754	2.45329	-3.27488	2.62796	-3.19570
11542.743	2.39973	-3.27760	2.48401	-3.20224
11546.710	2.46256	-3.26362	2.49632	-3.18440
11550.652	2.46860	-3.27756	2.38757	-3.08408
11554.758	2.45530	-3.33275	2.45057	-3.04492
11558.756	2.38749	-3.35588	2.41638	-3.01858
11562.756	2.45443	-3.33253	2.93745	-3.00315
11566.657	4.79679	-3.23147	3.41924	-3.02117
11570.759	5.87491	-3.20481	5.43848	-2.95161
11574.756	8.05200	-3.11617	6.82371	-2.89475
11578.757	8.25374	-3.11899	7.55657	-2.80608
11582.590	8.94731	-2.87023	8.31773	-2.63636
11586.632	9.22378	-2.84473	8.83444	-2.45499
11590.637	9.94775	-2.61467	9.21865	-2.14504
11594.631	10.22976	-2.58513	9.45452	-2.01114
11598.629	10.81791	-2.55322	10.16709	-2.09378
11602.632	10.96825	-2.39451	10.59107	-1.89053
11606.635	10.52425	-1.93665	10.00083	-1.92692
11610.632	10.43368	-1.65990	10.18469	-1.70686
11614.598	10.57565	-1.80996	10.40255	-1.68839
11618.632	10.73818	-1.66201	10.30860	-1.73237
11622.624	10.70637	-1.58060	10.46635	-1.69586
11626.633	10.85394	-1.79908	10.55310	-1.62335
11630.630	10.79696	-1.56788	10.48987	-1.51105
11634.632	10.81609	-1.64711	10.52430	-1.48369
11638.633	10.82828	-1.54252	10.55159	-1.46246
11642.634	10.77653	-1.48380	10.56263	-1.44559
11646.630	10.73902	-1.35977	10.52346	-1.37419
11650.630	10.82806	-1.38969	10.60574	-1.32697
11654.632	10.79464	-1.42488	10.65606	-1.17173
11658.635	10.82845	-1.35525	10.63442	-1.17733
11662.651	10.84094	-1.30992	10.63267	-1.26835
11666.631	10.87759	-1.33193	10.70227	-1.24455
11670.588	10.87429	-1.24955	10.76918	-1.16986
11674.596	10.89597	-1.28180	10.71183	-1.26460
11678.591	10.89958	-1.29071	10.74587	-1.25782
11682.631	10.81351	-1.30923	10.79207	-1.22220
11686.632	10.80745	-1.38432	10.81853	-1.22875
11690.633	10.79260	-1.36548	10.90408	-1.21948
11694.623	10.79938	-1.37787	10.91648	-1.28581
11698.634	10.73284	-1.29911	10.96327	-1.34178
11702.633	10.64456	-1.31538	10.99130	-1.38708
11706.636	10.61437	-1.30992	11.06879	-1.39914
11710.592	10.55193	-1.30638	11.05216	-1.38901
11714.633	10.57495	-1.30296	11.07357	-1.40957
11718.632	10.57008	-1.27283	11.06363	-1.38313
11722.633	10.55399	-1.24238	11.04790	-1.36775
11726.592	10.57440	-1.19322	11.04989	-1.36737
11730.632	10.64496	-1.13194	10.99731	-1.35960
11734.633	10.57800	-1.14124	10.99606	-1.40816
11738.634	10.60109	-1.11601	10.93624	-1.37065
11742.656	10.60303	-1.11935	10.93105	-1.43686
11746.634	10.60097	-1.13269	10.96210	-1.42710
11750.638	10.64528	-1.12803	10.92361	-1.38249
11754.624	10.64580	-1.12127	10.91062	-1.35004
11758.591	10.61397	-1.14060	10.89255	-1.34710
11762.630	10.62416	-1.13333	10.89738	-1.28894
11766.633	10.59126	-1.17958	10.96547	-1.28950
11770.634	10.59996	-1.19151	11.01393	-1.26352
11774.593	10.58275	-1.20461	11.09678	-1.19082
11778.635	10.60044	-1.18777	11.12629	-1.15694
11782.634	10.64499	-1.24425	11.17152	-1.12845
11786.634	10.63221	-1.38356	11.16005	-1.10615
11790.625	10.77574	-1.30008	11.15374	-1.07863
11794.635	10.73797	-1.35075	11.16552	-1.06067
11798.636	10.70363	-1.32091	11.16827	-1.06118
11802.636	10.68724	-1.26358	11.15296	-1.04632
11806.653	10.70457	-1.29265	11.14844	-1.02052
11810.625	10.77241	-1.20823	11.09802	-0.99013
11814.632	10.72858	-1.22082	11.04716	-1.03056
11818.632	10.76187	-1.24973	11.02289	-1.07368
11822.632	10.76961	-1.30205	10.99769	-1.11044
11826.636	10.73890	-1.29489	10.98002	-1.14784
11830.637	10.74561	-1.28308	10.95043	-1.21531
11834.593	10.67991	-1.28282	10.93318	-1.25118
11838.595	10.67210	-1.26718	10.92681	-1.24928
11842.636	10.68662	-1.30332	10.93344	-1.29451
11846.635	10.69700	-1.32677	10.93404	-1.33672
11850.634	10.71008	-1.36430	10.92409	-1.35150
11854.628	10.66098	-1.40435	10.93681	-1.36599
11858.596	10.73998	-1.44041	10.95091	-1.33869
11862.633	10.80915	-1.42037	10.97315	-1.27539
11866.631	10.88891	-1.33868	11.03047	-1.27683
11870.630	10.84982	-1.39574	11.11327	-1.29316
11874.636	10.74149	-1.39761	11.08596	-1.31741
11878.637	10.72302	-1.39757	11.08899	-1.30738
11882.635	10.68916	-1.40932	11.12321	-1.31405
11886.632	10.80673	-1.30707	11.12756	-1.28740
11890.635	10.74621	-1.19757	11.19292	-1.26842
11894.635	10.66054	-1.24433	11.24805	-1.28767
11898.638	10.74465	-1.16988	11.16944	-1.28882
11902.632	10.65328	-1.13083	11.19012	-1.33390
11906.635	10.57104	-1.17477	11.14493	-1.34200
11910.635	10.56985	-1.17641	11.16411	-1.27232
11914.639	10.52696	-1.23394	11.10859	-1.29881
11918.659	10.49769	-1.15182	11.12488	-1.27232
11922.614	10.51671	-1.14411	11.03093	-1.23612
11926.635	10.54696	-1.09625	11.01799	-1.28564
11930.640	10.58778	-1.10299	11.07317	-1.23075
11934.631	10.88142	-1.07297	11.62392	-1.04984
11938.636	12.71654	-0.93387	12.65510	-0.33563
11942.636	13.39461	-0.72724	13.11796	-0.19295
11946.638	13.62270	-0.32411	13.84212	1.12830
11950.634	13.70219	0.50103	14.19070	1.38460
11954.638	14.18144	1.18498	14.17504	1.46810
11958.639	14.81530	1.40007	14.67383	1.92122
11962.623	14.57780	1.30377	15.07315	2.23644
11966.595	14.40579	1.39917	15.30117	2.07848
11970.636	14.17689	1.47064	15.02702	2.11320
11974.635	14.14614	1.57510	15.11632	2.00162
11978.636	14.34788	1.45903	14.85081	1.89780
11982.596	14.36190	1.64491	14.77124	2.10613
11986.637	14.56778	1.56161	14.89905	2.14218
11990.638	14.67632	1.72942	14.98092	2.19451
11994.636	14.57785	1.73181	15.01976	2.13230
11998.595	14.44916	1.70370	15.02330	2.20833
12002.638	14.42342	1.79718	15.12430	2.36282
12006.637	14.55695	1.76708	15.21793	2.36661
12010.638	14.59886	1.87530	15.07468	2.32123
12014.622	14.47801	1.88865	14.96358	1.99428
12018.634	14.57478	1.93023	14.94866	2.15022
12022.638	14.60135	1.91390	14.92417	2.12975
12026.636	14.55435	1.89658	14.99500	2.21406
12030.597	14.52549	1.87405	15.02496	2.18931
12034.617	14.41580	1.85855	15.05698	2.11137
12038.635	14.36187	1.87011	15.06385	2.16023
12042.637	14.47911	1.88809	15.04228	2.22632
12046.636	14.46694	1.88010	14.88635	2.03733
12050.639	14.40637	1.89539	14.91970	2.03387
12054.639	14.41857	1.73562	14.92313	2.10206
12058.639	14.42316	1.78019	14.99697	2.09734
12062.635	14.39282	1.83778	14.90531	2.09871
12066.638	14.36784	1.91702	14.91244	2.11248
12070.638	14.33984	1.77210	14.98375	2.15694
12074.637	14.41611	1.89074	15.04559	2.33288
12078.638	14.40724	1.85185	14.87121	2.19174
12082.638	14.48992	1.69692	14.83583	2.18140
12086.634	14.44001	1.75363	14.92243	2.09174
12090.636	14.46466	1.74577	14.96925	2.17924
12094.641	14.44858	1.78741	14.81045	2.10093
12098.637	14.30331	1.82771	14.78280	2.22963
12102.639	14.32889	1.86483	14.75505	2.21276
12106.639	14.30655	1.87702	14.82242	2.22985
12110.640	14.25399	1.78269	14.90074	2.30425
12114.637	14.42495	1.84117	14.90670	2.21972
12118.603	14.40649	1.82651	14.93235	2.25872
12122.642	14.50065	1.78808	15.07267	2.37472
12126.640	14.50602	1.85600	15.08160	2.43723
12130.638	14.38370	1.86452	15.20843	2.38579
12134.594	14.40353	1.87188	15.15300	2.50217
12138.637	14.32752	1.87189	15.08659	2.42026
12142.634	14.34401	1.80788	15.11491	2.31780
12146.640	14.43366	1.76267	15.06464	2.40219
12150.638	14.35913	1.58520	15.04545	2.34060
12154.641	13.90134	1.92898	13.73641	2.64634
12158.637	11.57172	2.29175	12.06211	4.05631
12162.639	10.71856	3.75029	9.49004	4.70684
12166.639	9.02379	4.03544	8.10024	5.42274
12170.595	8.10138	4.68887	6.75930	5.73915
12174.598	7.05051	4.62528	5.43384	5.81692
12178.639	5.24779	4.82013	4.59933	5.95773
12182.644	3.95814	5.53992	4.21160	6.09292
12186.635	3.45774	6.01768	3.05194	6.38606
12190.597	1.82802	6.72515	2.49964	7.11156
12194.637	0.85749	6.79422	1.50105	7.88008
12198.638	0.08125	8.17195	1.19485	9.43730
12202.638	-0.17692	8.09629	0.98172	10.01556
12206.625	-0.26269	8.02399	1.11393	9.95724
12210.640	-0.24247	8.29896	1.49996	9.13812
12214.639	-0.20167	7.85067	1.70871	8.86428
12218.639	-0.18358	7.89786	1.33537	8.67735
12222.598	-0.25962	7.72235	1.15280	8.50711
12226.639	-0.27699	7.77036	1.22491	9.03944
12230.638	-0.33436	7.95519	1.09673	9.60278
12234.777	-0.39728	8.01243	1.04578	9.17508
12238.632	-0.37886	8.02034	1.14149	9.27336
12242.642	-0.43090	7.99405	1.17346	9.14048
12246.639	-0.40611	7.89551	1.14335	9.07561
12250.640	-0.66985	7.82517	1.19564	9.08405
12254.640	-0.57151	7.78658	1.50452	9.14433
12258.645	-0.56692	7.77800	1.83496	9.12664
12262.639	-0.58672	7.79551	1.09031	9.20386
12266.641	-0.56647	7.91694	1.13677	9.04506
12270.642	-0.54791	7.89300	1.19954	9.20611
12274.641	-0.55223	7.88193	1.29625	9.18132
12278.641	-0.56776	7.91153	1.40306	9.11034
12282.640	-0.53905	7.98632	1.13553	9.19171
12286.643	-0.47805	7.92958	1.22375	9.18395
12290.645	-0.59531	7.88536	1.46814	9.22513
12294.639	-0.53689	7.86722	1.22238	9.25616
12298.633	-0.50054	7.81979	1.16925	9.22879
12302.642	-0.58575	8.00280	1.10326	9.29693
12306.607	-0.54121	7.82081	1.24654	9.33763
12310.640	-0.67253	7.77092	1.18550	9.31590
12314.639	-0.77809	7.74159	1.06870	9.37024
12318.643	-0.81650	7.59411	0.96633	9.23401
12322.641	-0.86691	7.72271	1.16545	9.24129
12326.639	-0.82032	7.63661	1.02451	9.11896
12330.643	-0.88071	7.54333	0.83684	9.31040
12334.644	-0.83014	7.48274	0.81307	9.20585
12338.607	-0.86170	7.45425	0.88944	9.00320
12342.643	-0.87165	7.53124	1.02159	9.08527
12346.641	-0.84158	7.50929	0.90574	9.07877
12350.638	-0.86560	7.63303	0.97425	9.05470
12354.597	-0.81384	7.63164	0.95393	9.06217
12358.645	-0.78903	7.67178	0.95403	9.02677
12362.643	-0.75642	7.64016	1.04213	9.10188
12366.642	-0.77680	7.67881	1.03411	9.10469
12370.643	-0.84478	7.63080	1.08884	9.09419
12374.640	-0.94921	7.68281	1.13117	9.06671
12378.626	-0.94155	7.68375	1.16905	9.10416
12382.538	-1.05292	7.34482	1.09368	9.14772
12386.642	-0.96919	7.39512	1.03689	9.20414
12390.649	-0.87381	7.40157	1.07349	9.02278
12394.640	-0.86701	7.57380	0.98209	9.19855
12398.643	-0.93085	7.49548	0.97296	9.19565
12402.640	-0.89366	7.53082	0.94914	9.05790
12406.640	-0.83652	7.40929	1.02049	8.86003
12410.641	-0.81861	7.23524	1.77380	8.79444
12414.644	-0.82508	7.90052	0.73779	9.22053
12418.642	-1.01273	7.44948	-0.04197	9.41687
12422.611	-1.89092	7.16165	-2.18002	10.32204
12426.644	-3.89061	7.08133	-3.93559	11.98408
12430.645	-6.39744	9.07100	-4.91400	12.27469
12434.641	-6.64302	9.36710	-6.17683	12.47353
12438.645	-7.05357	9.26718	-6.34755	12.53208
12442.640	-8.26308	9.01193	-7.22939	12.29988
12446.646	-8.57219	9.17527	-8.13060	12.08696
12450.643	-8.90400	9.12582	-7.78974	12.11385
12454.644	-9.02902	9.36138	-7.80801	12.08474
12458.643	-9.02312	9.51249	-7.31233	12.18820
12462.626	-8.75674	9.34587	-6.95594	12.21070
12466.641	-8.89996	9.26281	-7.14118	12.32893
12470.645	-9.04270	9.46703	-7.39198	12.45556
12474.641	-9.16842	9.59096	-7.33105	12.37896
12478.645	-9.19602	9.89414	-7.46531	12.44262
12482.643	-9.28494	9.76181	-7.35393	12.50062
12486.644	-9.21220	9.71187	-7.29838	12.44285
12490.642	-9.26053	9.50970	-7.37763	12.62666
12494.643	-9.33978	9.68278	-7.31989	12.55752
12498.642	-9.38516	9.76387	-7.27108	12.55673
12502.644	-9.30450	9.58809	-7.27416	12.56073
12506.640	-9.31066	9.60623	-7.27543	12.57760
12510.550	-9.44134	9.67170	-7.29687	12.54098
12514.642	-9.33901	9.56846	-7.29274	12.54024
12518.644	-9.37885	9.85098	-7.32619	12.47903
12522.640	-9.44238	9.87529	-7.37965	12.41463
12526.645	-9.34229	9.67372	-7.37153	12.35403
12530.644	-9.39098	9.72792	-7.42456	12.33041
12534.597	-9.37849	9.86277	-7.49098	12.33641
12538.645	-9.44329	9.91468	-7.44467	12.23002
12542.640	-9.38385	9.77046	-7.39127	12.24483
12546.644	-9.39023	9.72739	-7.43335	12.26549
12550.642	-9.43465	9.78857	-7.49944	12.26477
12554.645	-9.46691	9.86075	-7.48776	12.24060
12558.646	-9.42409	9.89091	-7.51800	12.23728
12562.645	-9.42689	9.87522	-7.51869	12.15992
12566.643	-9.29659	9.74251	-7.50856	12.31358
12570.646	-9.37979	9.82611	-7.49173	12.29596
12574.646	-9.36368	9.80994	-7.45206	12.34191
12578.644	-9.36104	9.44242	-7.39401	12.49039
12582.643	-9.23057	9.50895	-7.43466	12.32198
12586.634	-9.25538	9.58103	-7.50974	12.35268
12590.643	-9.34747	9.78487	-7.43169	12.45983
12594.643	-9.29220	9.59879	-7.40243	12.36784
12598.643	-9.24136	9.45130	-7.43906	12.42116
12602.646	-9.31366	9.41652	-7.41809	12.47220
12606.643	-9.41537	9.83769	-7.45545	12.38943
12610.600	-9.30926	9.51229	-7.30869	12.32512
12614.642	-9.45858	9.49077	-7.34118	12.38675
12618.645	-9.46742	9.57656	-7.31084	12.40934
12622.477	-9.35696	9.41208	-7.38412	12.28599
12626.519	-9.48676	9.57320	-7.41002	12.29623
12630.520	-9.45423	9.83736	-7.38266	12.36360
12634.474	-9.51220	9.79937	-7.44545	12.36314
12638.517	-9.46544	9.63464	-7.46050	12.32678
12642.519	-9.53265	9.77405	-7.52488	12.26323
12646.519	-9.52014	9.82911	-7.55654	12.19942
12650.520	-9.44902	9.80014	-7.60248	12.18613
12654.477	-9.48079	9.93274	-7.59315	12.17392
12658.521	-9.49634	9.86594	-7.64442	12.20406
12662.521	-9.43933	9.31705	-7.71593	12.04521
12666.520	-9.47734	9.84506	-7.73385	12.16912
12670.505	-9.49646	9.75109	-7.71628	11.96687
12674.514	-9.54397	9.83864	-7.67477	12.23274
12678.523	-9.55374	9.80301	-7.67377	12.01346
12682.519	-9.59974	9.72234	-7.65676	12.08332
12686.506	-9.63049	9.63615	-7.59154	12.07538
12690.521	-9.60787	9.65110	-7.63079	12.07984
12694.520	-9.60808	9.69535	-7.49102	12.09615
12698.520	-9.60116	9.72359	-7.51791	12.10666
12702.479	-9.57742	9.54356	-7.53171	12.22667
12706.518	-9.63698	9.71506	-7.53152	12.24945
12710.521	-9.67837	9.78657	-7.48968	12.36096
12714.531	-9.63378	9.48886	-7.43029	12.38217
12718.479	-9.63532	9.60258	-7.51010	12.39500
12722.518	-9.57865	9.72794	-7.56956	12.43766
12726.518	-9.59735	9.81172	-7.53744	12.33409
12730.519	-10.02367	9.86168	-7.48051	12.43875
12734.540	-9.34053	10.23478	-7.50649	12.76876
12738.520	-14.49830	12.90666	NaN	NaN
12742.520	NaN	NaN	NaN	NaN
12746.522	NaN	NaN	NaN	NaN
12750.521	NaN	NaN	NaN	NaN
12754.516	NaN	NaN	NaN	NaN
12758.475	NaN	NaN	NaN	NaN
12762.521	NaN	NaN	NaN	NaN
12766.521	NaN	NaN	NaN	NaN
12770.519	NaN	NaN	NaN	NaN
12774.475	NaN	NaN	NaN	NaN
12778.522	NaN	NaN	NaN	NaN
12782.517	NaN	NaN	NaN	NaN
12786.520	NaN	NaN	NaN	NaN
12790.476	NaN	NaN	NaN	NaN
12794.474	NaN	NaN	NaN	NaN
12798.476	NaN	NaN	NaN	NaN
12802.519	NaN	NaN	NaN	NaN
12806.479	NaN	NaN	NaN	NaN
12810.520	NaN	NaN	NaN	NaN
12814.544	NaN	NaN	NaN	NaN
12818.520	NaN	NaN	NaN	NaN
12822.476	NaN	NaN	NaN	NaN
12826.524	-14.44690	8.74506	NaN	NaN
12830.522	-19.04678	6.45353	NaN	NaN
12834.522	-8.29832	14.05358	-7.67621	5.04913
12838.538	-7.49576	3.76060	-15.26409	9.26617
12842.523	-15.31390	4.24983	-15.02108	9.23431
12846.522	-16.77734	3.84323	-5.29789	3.43015
12850.518	-15.01325	3.35612	-15.24205	5.43803
12854.544	-15.19211	3.19602	-15.21506	5.21511
12858.521	-15.28940	3.00087	-7.23350	0.64914
12862.523	-14.71043	2.63743	-10.33000	1.37954
12866.523	-13.98690	2.12877	-11.77308	1.55617
12870.543	-13.32256	2.44441	-11.88713	1.51713
12874.523	-12.77535	2.25529	-12.04232	1.54979
12878.523	-12.75176	2.24734	-11.75481	1.56512
12882.523	-12.59942	2.05459	-11.68876	1.49284
12886.544	-12.66044	2.07250	-11.65204	1.56468
12890.522	-12.64704	2.09145	-11.76440	1.55887
12894.520	-12.72820	1.92251	-11.75044	1.67356
12898.527	-12.71167	1.89893	-11.36589	1.82632
12902.545	-12.74596	1.88591	-11.59525	1.67688
12906.523	-12.72976	1.83809	-11.58279	1.76130
12910.522	-12.61651	1.88782	-11.58470	1.83481
12914.524	-12.56212	1.89408	-11.54761	1.86078
12918.547	-12.59602	1.88339	-11.47066	2.00508
12922.478	-12.56928	1.90452	-11.49490	2.02460
12926.493	-12.61474	1.90992	-11.51375	2.09754
12930.525	-12.62029	1.91705	-11.49321	2.18035
12934.546	-12.57711	1.91967	-11.45262	2.21515
12938.522	-12.55798	1.92939	-11.43021	2.28599
12942.521	-12.49852	1.92503	-11.48601	2.21172
12946.526	-12.50503	1.95535	-11.49786	2.24851
12950.546	-12.50900	1.98374	-11.44783	2.24821
12954.523	-12.54223	1.92933	-11.48592	2.20577
12958.522	-12.54223	1.90607	-11.52162	2.25632
12962.529	-12.55415	1.88527	-11.52105	2.22518
12966.536	-12.57718	1.88488	-11.53479	2.13237
12970.517	-12.55188	1.89762	-11.44518	2.00414
12974.524	-12.49933	1.91962	-11.42859	2.01031
12978.529	-12.52258	1.91894	-11.38438	1.96223
12982.547	-12.53868	1.89701	-11.41392	1.91230
12986.525	-12.54547	1.92318	-11.42802	1.90996
12990.522	-12.50039	1.90231	-11.45515	1.89827
12994.515	-12.45856	1.89908	-11.42945	1.87725
12998.546	-12.43329	1.91359	-11.47698	1.90820
13002.521	-12.37150	1.92197	-11.39673	1.87472
13006.526	-12.33015	1.93091	-11.32793	1.89051
13010.528	-12.28014	1.90074	-11.32335	1.93033
13014.544	-12.16335	1.90592	-11.27677	1.96674
13018.524	-12.16159	1.93170	-11.16970	2.01225
13022.525	-12.12241	1.95152	-11.00266	2.03147
13026.524	-12.04035	1.92501	-11.08337	2.09492
13030.551	-12.02468	1.93257	-11.07888	2.18342
13034.525	-11.97109	1.83276	-11.03470	2.47959
13038.524	-12.00376	1.84260	-11.01689	2.23642
13042.525	-12.02304	1.88782	-10.95995	2.30157
13046.528	-11.98621	1.83536	-10.91380	2.34460
13050.513	-11.99569	1.85576	-10.89812	2.26596
13054.520	-11.97140	1.84469	-10.90234	2.21847
13058.521	-11.96912	1.82416	-10.94303	2.32106
13062.522	-11.93786	1.78352	-10.94050	2.23159
13066.525	-11.96947	1.69777	-10.96193	2.22799
13070.523	-11.97099	1.68263	-10.99769	2.14754
13074.526	-11.95636	1.69064	-10.95689	2.18109
13078.523	-11.94641	1.75482	-10.96887	2.10287
13082.525	-11.86562	1.77869	-10.94062	2.12537
13086.525	-11.83322	1.77370	-10.95301	2.09248
13090.526	-11.84399	1.76936	-10.97007	2.02378
13094.516	-11.79629	1.75914	-10.99219	1.98560
13098.524	-11.79560	1.82330	-10.94746	2.01848
13102.526	-11.85179	1.77983	-10.90045	1.99364
13106.482	-11.86274	1.73214	-10.85327	2.04934
13110.523	-11.90027	1.74480	-10.79040	2.02232
13114.524	-11.88342	1.74743	-10.80438	2.20833
13118.526	-11.83655	1.68971	-10.82040	2.25442
13122.495	-11.88634	1.72212	-10.79559	2.34129
13126.523	-11.84237	1.72597	-10.80103	2.20126
13130.522	-11.70000	1.75278	-10.86490	2.22026
13134.496	-11.81182	1.85908	-11.08892	2.24816
13138.524	-11.93893	1.70906	-11.06502	2.20459
13142.528	-11.99875	1.74023	-11.14381	2.20107
13146.525	-11.96486	1.75876	-11.07166	2.19830
13150.526	-11.95023	1.85355	-11.11726	2.19190
13154.530	-11.95220	1.84028	-11.18007	2.27623
13158.530	-11.89730	1.82338	-11.28775	2.18487
13162.523	-11.97522	1.84493	-11.27598	2.13368
13166.524	-11.88772	1.88417	-11.32848	2.13818
13170.481	-12.04277	1.90530	-11.26949	2.16914
13174.509	-12.05936	1.91744	-11.20954	2.23601
13178.520	-12.12903	1.88302	-11.10567	2.26792
13182.524	-12.12056	1.93040	-11.02952	2.34424
13186.523	-12.15161	1.99557	-10.99685	2.37161
13190.484	-12.13294	2.02497	-10.90494	2.41153
13194.524	-12.13455	1.97985	-10.91612	2.42060
13198.526	-12.10734	2.04865	-10.83010	2.46744
13202.525	-12.10143	2.08920	-10.78008	2.48269
13206.484	-12.00421	2.12592	-10.75330	2.55774
13210.527	-11.91695	2.14560	-10.76068	2.62338
13214.527	-11.89309	2.15045	-10.73198	2.64731
13218.490	-11.85554	2.16976	-10.73253	2.68507
13222.486	-11.70697	2.19659	-10.73442	2.64812
13226.526	-11.76304	1.76009	-10.73986	2.58823
13230.524	-11.76504	2.07988	-10.78949	2.51399
13234.525	-11.76702	2.04692	-10.84537	2.53308
13238.487	-11.82537	2.00536	-10.95861	2.47609
13242.526	-11.78709	1.88486	-11.07826	2.40094
13246.485	-11.90136	1.97843	-11.12758	2.28358
13250.527	-11.82183	1.83438	-11.23614	2.21047
13254.540	-11.80711	1.90572	-11.24457	2.15188
13258.526	-11.91992	1.83049	-11.29899	2.18928
13262.525	-11.86857	1.79889	-11.31445	2.10466
13266.526	-11.98629	1.78473	-11.42093	2.08176
13270.532	-12.02371	1.81466	-11.47055	2.10008
13274.530	-11.94565	1.81788	-11.44060	2.06792
13278.527	-11.84242	1.82914	-11.45107	2.03927
13282.528	-11.81622	1.84571	-11.39263	2.04178
13286.532	-11.80395	1.90472	-11.35015	2.07625
13290.529	-11.77444	1.86327	-11.35437	2.16529
13294.528	-11.71775	1.83889	-11.26882	2.16931
13298.528	-11.73297	1.85509	-11.35745	2.20406
13302.517	-11.68938	1.89041	-11.29834	2.18522
13306.515	-11.75607	1.92223	-11.27314	2.21895
13310.524	-11.78547	1.91879	-11.24306	2.20188
13314.526	-11.76461	1.91551	-11.23284	2.19395
13318.530	-11.76928	1.93733	-11.22375	2.28392
13322.532	-11.86795	1.96616	-11.22016	2.33456
13326.526	-11.92310	1.95816	-11.20383	2.33275
13330.526	-11.87829	1.91992	-11.18855	2.32082
13334.533	-11.84741	1.96687	-11.12123	2.26732
13338.541	-11.89984	2.01907	-11.18905	2.34421
13342.500	-11.90148	2.06369	-11.12627	2.24155
13346.527	-11.86859	2.03392	-11.08096	2.23218
13350.532	-11.87066	2.07483	-11.09728	2.27578
13354.530	-11.82542	1.98158	-11.12809	2.29582
13358.528	-11.80799	2.04963	-11.13485	2.16189
13362.529	-11.82471	2.06248	-11.09148	2.26253
13366.530	-11.80290	1.97611	-11.10304	2.19495
13370.518	-11.77877	2.04227	-11.11286	2.15456
13374.525	-11.73245	1.91190	-10.88628	2.05169
13378.529	-11.56097	1.85500	-10.69908	1.85840
13382.422	-11.29558	1.65136	-10.32868	1.77246
13386.485	-11.21842	1.33835	-10.45524	1.80009
13390.526	-11.17878	1.13368	-10.31568	1.61768
13394.528	-11.20266	1.02879	-10.06453	1.55866
13398.424	-11.12961	1.08418	-10.15480	1.49648
13402.530	-11.11420	1.14727	-10.12397	1.42908
13406.528	-11.15042	1.06534	-10.00642	1.32226
13410.528	-11.02220	0.99809	-9.96463	1.21913
13414.531	-10.96229	0.90903	-9.96990	1.09789
13418.484	-11.01429	0.87468	-9.98451	1.04093
13422.531	-11.01091	0.80975	-10.01190	0.92027
13426.530	-11.05407	0.77489	-10.05787	0.85756
13430.530	-11.05840	0.73796	-10.08120	0.74811
13434.486	-11.03841	0.78627	-10.08568	0.70879
13438.530	-11.04169	0.77667	-10.16019	0.71372
13442.528	-10.98817	0.87866	-10.20103	0.60429
13446.530	-10.93332	0.82355	-10.24379	0.56957
13450.529	-10.90499	0.80919	-10.34093	0.49406
13454.531	-11.02636	0.87013	-10.42113	0.52362
13458.529	-11.04137	0.93085	-10.49966	0.51130
13462.534	-11.07704	0.91421	-10.52420	0.50058
13466.534	-11.07109	0.97559	-10.50940	0.49455
13470.519	-11.09210	1.01923	-10.53010	0.55287
13474.529	-11.05290	1.04933	-10.49994	0.60863
13478.423	-11.03657	1.05773	-10.49582	0.74525
13482.528	-11.01730	1.07377	-10.47967	0.79334
13486.529	-11.10579	1.04917	-10.41952	0.89421
13490.528	-11.14921	1.06127	-10.43949	0.94473
13494.533	-11.18327	1.02259	-10.36924	1.01104
13498.529	-11.13112	1.02714	-10.36996	1.08188
13502.530	-11.09286	1.00480	-10.33471	1.06218
13506.520	-11.07697	0.99671	-10.32986	0.91781
13510.533	-11.05727	0.88909	-10.31066	1.04181
13514.528	-11.05357	0.88164	-10.28034	1.04562
13518.529	-11.07735	0.89256	-10.32789	1.04287
13522.531	-11.09850	0.90005	-10.33774	0.96896
13526.489	-11.12228	0.86931	-10.36771	0.97684
13530.531	-11.08882	0.86737	-10.32697	0.94986
13534.531	-11.00599	0.84147	-10.23055	0.92729
13538.530	-11.00202	0.81799	-10.22252	1.03051
13542.430	-10.94359	0.79798	-10.17759	1.01735
13546.534	-10.91052	0.76019	-10.22935	1.15777
13550.500	-10.99831	0.77667	-10.22380	1.09798
13554.532	-10.96645	0.80285	-10.31451	1.07442
13558.534	-10.97844	0.82499	-10.29707	1.03264
13562.530	-10.87915	0.78893	-10.24526	1.02936
13566.534	-10.96779	0.80382	-10.19873	1.03567
13570.533	-11.02218	0.78392	-10.17836	0.96705
13574.533	-10.98762	0.78789	-10.19680	0.89494
13578.531	-11.01890	0.80517	-10.21409	0.82074
13582.528	-10.95150	0.81513	-10.20296	0.88586
13586.532	-10.97715	0.86677	-10.22053	0.83872
13590.512	-10.98312	0.86841	-10.17476	0.83815
13594.527	-10.96241	0.82886	-10.08464	0.80422
13598.530	-10.93315	0.91063	-10.08625	0.76366
13602.531	-10.95007	0.84063	-10.08464	0.75806
13606.534	-10.98183	0.81983	-10.09619	0.77200
13610.534	-10.96822	0.75111	-10.13200	0.78223
13614.530	-10.92643	0.72853	-10.16476	0.82358
13618.527	-10.92823	0.80673	-10.15345	0.83677
13622.427	-10.92803	0.73760	-10.10540	0.86375
13626.532	-10.95131	0.71164	-10.12525	0.89771
13630.532	-10.90190	0.66294	-10.10475	1.02852
13634.486	-11.00742	0.64724	-10.07798	0.97210
13638.406	-10.98975	0.67876	-10.09607	0.97004
13642.530	-11.00838	0.68375	-10.16519	0.95230
13646.530	-11.00771	0.70472	-10.15608	0.94687
13650.530	-10.97937	0.73064	-10.09859	0.98811
13654.396	-10.99745	0.75523	-10.10502	0.96146
13658.406	-10.98834	0.92697	-10.07329	0.97989
13662.407	-11.01464	0.77275	-10.04391	1.03446
13666.408	-11.02325	0.82847	-10.23370	0.99463
13670.392	-11.01797	0.84663	-10.16225	0.95524
13674.404	-11.13506	0.85757	-10.10413	0.92460
13678.399	-11.10529	0.82873	-10.12253	0.93829
13682.393	-11.05285	0.80932	-10.08409	0.97578
13686.365	-11.00065	0.78942	-10.04822	1.02302
13690.406	-10.96724	0.84348	-10.06913	0.97895
13694.407	-11.02964	0.81782	-10.08481	0.91306
13698.404	-10.96923	0.85296	-10.07740	0.89420
13702.391	-11.00132	0.81961	-10.04052	0.82035
13706.406	-10.97837	0.87825	-10.04899	0.79773
13710.407	-10.95588	0.82741	-10.01354	0.80124
13714.403	-10.99262	0.83412	-9.99893	0.74857
13718.365	-10.93189	0.78418	-10.03638	0.72691
13722.376	-10.86737	0.71699	-10.02112	0.71556
13726.406	-10.87821	0.69107	-10.06208	0.72683
13730.406	-10.90049	0.77497	-10.08734	0.75986
13734.428	-10.97047	0.78550	-10.04769	0.76353
13738.362	-10.95497	0.88208	-10.02386	0.81736
13742.405	-10.97401	0.94870	-10.00687	0.84236
13746.407	-10.94418	1.04721	-10.00394	0.88141
13750.427	-10.87860	1.05661	-9.99224	0.91548
13754.407	-10.92569	1.04188	-9.99840	0.99654
13758.409	-10.96909	1.10260	-10.03746	0.96261
13762.391	-11.06380	1.13384	-10.00803	1.00458
13766.388	-11.06210	1.16071	-10.08156	0.92401
13770.409	-11.09432	1.17913	-10.14605	0.94823
13774.407	-11.08060	1.17000	-10.16569	0.87557
13778.411	-11.05679	1.14579	-10.16932	0.86157
13782.408	-11.06528	1.12786	-10.21171	0.79507
13786.415	-10.89293	1.07444	-10.22882	0.82229
13790.409	-11.00116	1.03315	-10.26912	0.81977
13794.406	-11.09991	0.93518	-10.25300	0.78573
13798.376	-11.06296	0.91289	-10.31439	0.77929
13802.407	-11.00118	0.81109	-10.25862	0.79794
13806.396	-10.96997	0.79477	-10.29904	0.78001
13810.364	-10.97444	0.78768	-10.26583	0.86693
13814.406	-10.99126	0.73493	-10.20478	0.83697
13818.407	-11.04302	0.68610	-10.17315	0.82238
13822.410	-11.03683	0.70670	-10.21531	0.78753
13826.407	-11.04446	0.71985	-10.21303	0.73546
13830.431	-11.10300	0.72249	-10.19063	0.74879
13834.406	-11.07969	0.69887	-10.16952	0.77684
13838.412	-11.06748	0.70724	-10.19416	0.74633
13842.408	-11.03602	0.73011	-10.14910	0.77248
13846.431	-11.04886	0.72096	-10.16634	0.73681
13850.408	-11.03949	0.71538	-10.12734	0.78110
13854.408	-11.03176	0.67384	-10.12577	0.79191
13858.407	-11.05973	0.66522	-10.14251	0.70571
13862.431	-11.01704	0.65678	-10.17654	0.70823
13866.408	-11.01620	0.64061	-10.16124	0.73081
13870.400	-11.02215	0.62626	-10.16716	0.76046
13874.408	-11.04171	0.59524	-10.10206	0.84177
13878.432	-10.99609	0.56509	-10.06655	0.85637
13882.410	-10.97038	0.52445	-10.09713	0.89676
13886.399	-10.97947	0.47978	-10.09390	0.92204
13890.398	-10.94382	0.50247	-10.11791	0.93151
13894.376	-10.86993	0.57046	-10.16947	0.90933
13898.409	-10.89288	0.57861	-10.18483	0.88302
13902.412	-10.88226	0.56277	-10.14850	0.92584
13906.408	-10.92646	0.54710	-10.06913	0.89814
13910.429	-10.83232	0.56392	-10.04908	0.89298
13914.406	-10.95624	0.63628	-9.96109	0.88755
13918.364	-10.83797	0.64658	-10.00906	0.83954
13922.408	-10.90540	0.73292	-9.98362	0.87474
13926.368	-10.93473	0.74739	-9.93049	1.02655
13930.379	-10.88506	0.80417	-9.88131	1.03162
13934.366	-10.92413	0.75000	-9.86987	0.98981
13938.410	-10.98834	0.71235	-9.85291	0.98225
13942.407	-10.99848	0.66672	-9.84144	0.93203
13946.409	-11.01766	0.70784	-9.86710	0.86945
13950.409	-10.99767	0.70070	-9.88815	0.94631
13954.415	-10.98652	0.74284	-9.87227	1.10969
13958.406	-11.04398	0.66033	-9.87663	0.92395
13962.410	-11.07890	0.66793	-9.88694	0.88178
13966.409	-11.06932	0.68794	-9.94840	0.92651
13970.414	-11.06045	0.68380	-9.94929	0.99431
13974.388	-11.00154	0.70598	-9.96768	0.98320
13978.411	-11.15042	0.69480	-9.97009	0.96107
13982.367	-11.14467	0.66293	-10.05938	0.85501
13986.410	-11.05765	0.66205	-9.97139	1.11422
13990.402	-10.97640	0.75582	-10.01380	1.01738
13994.412	-11.12030	0.65233	-10.11452	0.95585
13998.409	-11.10304	0.61882	-10.18885	0.97512
14002.411	-11.07649	0.68249	-10.21075	1.09418
14006.399	-11.00989	0.74383	-10.14720	1.18421
14010.407	-11.05168	0.68082	-10.12404	1.11886
14014.404	-11.05161	0.60600	-10.16432	1.09138
14018.411	-10.89389	0.74979	-10.20779	1.16135
14022.434	-10.91921	0.65741	-10.01549	1.25805
14026.367	-10.88652	0.68537	-10.06597	1.24340
14030.411	-10.99611	1.00742	-10.19041	1.37225
14034.366	-13.62805	2.58399	-13.04370	4.41828
14038.406	-11.98676	3.33736	-12.74669	7.65168
14042.411	-11.89965	3.14868	-12.82970	5.52625
14046.381	-13.06080	9.74914	NaN	NaN
14050.411	NaN	NaN	NaN	NaN
14054.412	NaN	NaN	NaN	NaN
14058.409	NaN	NaN	NaN	NaN
14062.410	NaN	NaN	NaN	NaN
14066.410	NaN	NaN	NaN	NaN
14070.366	NaN	NaN	NaN	NaN
14074.410	NaN	NaN	NaN	NaN
14078.410	NaN	NaN	NaN	NaN
14082.407	NaN	NaN	NaN	NaN
14086.366	NaN	NaN	NaN	NaN
14090.410	NaN	NaN	NaN	NaN
14094.410	NaN	NaN	NaN	NaN
14098.436	NaN	NaN	NaN	NaN
14102.368	NaN	NaN	NaN	NaN
14106.411	NaN	NaN	NaN	NaN
14110.367	NaN	NaN	NaN	NaN
14114.410	NaN	NaN	NaN	NaN
14118.367	NaN	NaN	NaN	NaN
14122.411	NaN	NaN	-3.98600	10.11047
14126.412	NaN	NaN	NaN	NaN
14130.411	NaN	NaN	0.78531	13.71711
14134.368	-3.51646	3.16491	-4.99460	2.52437
14138.411	-0.92358	3.29662	-3.59419	9.62303
14142.414	-1.46015	1.64199	-3.32892	-0.08281
14146.413	-2.32907	0.50408	-2.38697	-0.20517
14150.425	-1.05208	-0.32199	0.04872	-0.05144
14154.396	-1.22712	-0.32425	-0.11173	0.30539
14158.410	-0.71206	0.17038	-0.12769	0.51265
14162.412	-1.11953	0.45919	-0.27197	0.77800
14166.413	-1.21879	0.35049	-0.79332	1.04986
14170.374	-1.83811	0.60333	-0.58588	0.94746
14174.368	-2.48673	0.35868	-0.57965	0.95442
14178.409	-2.23045	0.31954	-1.03015	0.72628
14182.410	-2.16892	0.34585	-0.90711	0.73692
14186.414	-2.16682	0.27458	-1.08646	0.71435
14190.416	-2.30001	0.31781	-1.06818	0.78306
14194.412	-2.04795	0.25519	-1.01027	0.88119
14198.412	-2.10582	0.27815	-1.07594	0.82991
14202.413	-2.21534	0.26780	-1.07632	0.76547
14206.415	-2.22857	0.19380	-1.40832	0.71339
14210.413	-2.25883	0.10498	-1.24062	0.66001
14214.413	-2.25578	0.11737	-1.28745	0.65401
14218.400	-2.02483	0.02987	-1.31555	0.61640
14222.415	-2.05234	0.05813	-1.32200	0.55057
14226.414	-2.16441	-0.01701	-1.30712	0.61568
14230.412	-2.18815	0.03990	-1.27879	0.62910
14234.370	-2.03801	-0.04954	-1.25168	0.43405
14238.412	-2.02775	-0.06342	-1.19614	0.57293
14242.412	-1.99677	-0.03032	-1.34318	0.51333
14246.414	-1.92733	-0.07975	-1.25721	0.51312
14250.416	-2.01471	-0.10522	-1.16332	0.40470
14254.414	-1.94020	-0.14499	-1.06634	0.29458
14258.414	-2.00532	-0.16979	-1.07049	0.28874
14262.393	-2.01434	-0.16400	-0.97861	0.33156
14266.379	-2.06423	-0.18943	-1.04744	0.27856
14270.417	-2.01424	-0.21079	-1.00926	0.22236
14274.415	-2.02810	-0.21588	-1.10271	0.20698
14278.414	-1.90817	-0.16863	-1.05662	0.21294
14282.412	-2.13271	-0.22244	-1.00859	0.19605
14286.415	-2.10840	-0.27142	-1.05270	0.14124
14290.417	-2.09628	-0.29508	-1.05007	0.12984
14294.413	-2.14203	-0.30535	-1.14630	0.10658
14298.419	-2.09708	-0.29086	-1.14761	0.12166
14302.403	-1.99570	-0.26997	-1.21980	0.10807
14306.404	-1.97123	-0.32754	-1.27720	0.03232
14310.411	-1.96058	-0.33405	-1.27750	0.00959
14314.411	-1.94734	-0.37773	-1.25084	0.00706
14318.415	-1.94238	-0.39899	-1.26815	0.02551
14322.416	-2.02733	-0.42264	-1.25304	0.03525
14326.414	-2.00024	-0.46560	-1.29551	0.00261
14330.309	-2.09564	-0.46361	-1.35110	0.04608
14334.414	-2.18020	-0.47042	-1.35162	0.02549
14338.417	-2.09846	-0.39694	-1.40167	0.10307
14342.415	-2.11742	-0.35485	-1.45038	0.05425
14346.295	-2.13428	-0.40066	-1.46383	-0.00902
14350.417	-2.13779	-0.42924	-1.37766	0.10217
14354.371	-2.20855	-0.40878	-1.34504	0.04119
14358.424	-2.15257	-0.37850	-1.38327	0.14530
14362.323	-2.22805	-0.33831	-1.39421	0.12317
14366.413	-2.40726	-0.30329	-1.42417	0.09748
14370.412	-2.17004	-0.31732	-1.46640	0.09002
14374.411	-2.16882	-0.33487	-1.36474	-0.03073
14378.415	-2.10436	-0.25950	-1.41643	0.03545
14382.415	-2.26896	-0.29517	-1.20214	-0.00713
14386.415	-2.33861	-0.33081	-1.24927	0.00062
14390.415	-2.20946	-0.32009	-1.33564	0.00204
14394.418	-2.10939	-0.31661	-1.17054	-0.07761
14398.413	-1.60486	-0.33356	-0.87113	-0.03220
14402.417	1.61952	-0.35838	1.29673	-0.07878
14406.416	2.83417	-0.34066	2.23702	-0.13609
14410.410	3.72086	-0.34090	2.89413	-0.06142
14414.415	4.10414	-0.33321	2.88059	-0.13240
14418.371	4.71521	-0.26335	5.25005	-0.06753
14422.416	4.64317	-0.36019	5.18079	-0.16616
14426.415	4.56710	-0.58012	5.31573	-0.09231
14430.407	4.38832	-0.17794	5.32097	-0.10995
14434.372	4.47442	-0.23099	5.36403	-0.09622
14438.415	4.38738	-0.33012	5.36341	-0.10767
14442.419	4.32501	-0.27306	5.34668	-0.08466
14446.415	4.54321	-0.26497	5.36902	-0.12283
14450.416	4.62024	-0.34765	5.44144	-0.09128
14454.417	4.53514	-0.47718	5.44070	-0.15703
14458.314	4.69154	-0.38520	5.43467	-0.19686
14462.421	4.68351	-0.57255	5.48199	-0.26816
14466.415	4.68669	-0.53359	5.45464	-0.17486
14470.394	4.64847	-0.37463	5.43369	-0.23362
14474.302	4.68915	-0.57009	5.40085	-0.24652
14478.419	4.76182	-0.55436	5.46084	-0.20885
14482.372	4.81724	-0.64404	5.47481	-0.24397
14486.415	4.80886	-0.70097	5.41158	-0.26309
14490.416	4.80714	-0.67223	5.45929	-0.20289
14494.415	4.84462	-0.61715	5.46986	-0.19277
14498.416	4.88168	-0.60900	5.45019	-0.18590
14502.416	4.84243	-0.63015	5.48408	-0.15059
14506.314	4.81192	-0.58470	5.44670	-0.16579
14510.417	4.81453	-0.62785	5.50183	-0.18343
14514.404	4.88912	-0.55039	5.48292	-0.13946
14518.417	4.86919	-0.54405	5.56050	-0.13927
14522.420	4.81825	-0.61406	5.57871	-0.14787
14526.417	4.85265	-0.42658	5.53353	-0.20296
14530.417	4.93216	-0.52246	5.57043	-0.21799
14534.372	4.92063	-0.47048	5.47577	-0.24746
14538.420	4.80941	-0.50208	5.47628	-0.27912
14542.416	4.78883	-0.33216	5.52856	-0.15416
14546.372	4.82412	-0.51470	5.34351	-0.16621
14550.419	4.84341	-0.56955	5.56200	-0.08998
14554.378	4.86537	-0.49657	5.40304	-0.18148
14558.419	4.79359	-0.52564	5.54880	-0.14476
14562.417	4.82023	-0.44718	5.48243	-0.13196
14566.417	4.86680	-0.40736	5.43408	-0.27520
14570.387	4.89543	-0.48612	5.38358	-0.07209
14574.415	4.83262	-0.52236	5.42734	-0.19179
14578.417	4.80416	-0.61682	5.58422	-0.10029
14582.415	4.76096	-0.50786	5.45986	-0.02587
14586.275	4.82656	-0.50576	5.42929	-0.03169
14590.417	4.90240	-0.54395	5.63009	-0.21598
14594.416	4.89360	-0.49736	5.52593	-0.25505
14598.419	4.80716	-0.51421	5.62589	-0.06437
14602.279	4.78474	-0.48788	5.55821	-0.12510
14606.416	4.74020	-0.46682	5.59199	-0.09625
14610.416	4.85891	-0.45461	5.71441	-0.09900
14614.419	4.70643	-0.53259	5.88090	-0.11029
14618.278	4.75240	-0.51797	5.65833	0.09864
14622.417	4.75046	-0.53109	5.57778	0.05226
14626.416	4.76643	-0.47780	5.72723	-0.04636
14630.418	4.75743	-0.48892	5.71278	-0.10627
14634.276	4.71927	-0.50678	5.67548	-0.03113
14638.410	4.72324	-0.44546	5.71507	-0.10222
14642.419	4.76295	-0.53633	5.64626	0.16205
14646.417	4.73335	-0.56815	5.66732	0.01177
14650.377	4.77606	-0.59483	5.77858	0.08010
14654.420	4.73875	-0.58796	5.69681	0.08306
14658.417	4.75354	-0.55929	5.53104	-0.47047
14662.418	4.66997	-0.53378	5.65629	-0.04733
14666.423	4.67451	-0.48492	5.62719	-0.20454
14670.374	4.67515	-0.46141	5.61288	-0.06662
14674.376	4.61780	-0.45640	5.68367	-0.14364
14678.389	4.79009	-0.52517	5.61419	-0.19764
14682.304	4.82629	-0.37582	5.60789	-0.17818
14686.417	4.77909	-0.39820	5.57739	-0.15991
14690.419	4.81507	-0.34423	5.52741	-0.09641
14694.292	4.79763	-0.24249	5.52500	-0.25805
14698.291	4.76404	-0.15868	5.53493	-0.37364
14702.293	4.80517	-0.18111	5.56888	-0.28854
14706.295	4.83393	-0.24253	5.55288	-0.25071
14710.294	4.83003	-0.27886	5.59042	-0.19617
14714.317	4.85214	-0.11608	5.60536	-0.23573
14718.293	4.91479	-0.12114	5.61106	-0.27732
14722.296	4.85140	-0.07530	5.65540	-0.21917
14726.295	4.76110	-0.34998	5.65071	-0.36964
14730.314	4.73027	-0.17972	5.65690	-0.31973
14734.294	4.62345	-0.07775	5.64901	-0.54715
14738.296	4.59472	-0.49255	5.64702	-0.44894
14742.295	4.55707	-0.27976	4.33929	-0.47221
14746.315	3.83991	-0.56792	2.46360	-0.80533
14750.295	1.92696	-0.75358	1.28951	-0.69102
14754.293	0.42956	-1.19193	0.78412	-1.35596
14758.297	0.15226	-1.37009	0.67248	-2.40752
14762.312	0.15226	-1.47618	0.71896	-2.23519
14766.272	0.15799	-1.79617	0.76417	-2.15662
14770.294	0.06257	-1.76996	0.78541	-2.04499
14774.299	0.12354	-1.73401	0.70754	-2.10848
14778.314	0.05956	-1.94680	0.66198	-2.36191
14782.293	0.09942	-1.97038	0.67915	-2.54491
14786.293	0.08880	-1.93590	0.60119	-2.51006
14790.295	0.05318	-1.98570	0.55312	-2.49421
14794.312	0.00928	-2.01997	0.52148	-2.43998
14798.295	-0.02266	-2.01940	0.48130	-2.48025
14802.295	-0.04785	-2.04913	0.39266	-2.42529
14806.283	-0.08671	-2.06749	0.44706	-2.38271
14810.314	-0.15779	-2.08474	0.47470	-2.36265
14814.295	-0.05996	-2.10934	0.44371	-2.37938
14818.293	-0.04070	-2.12554	0.43405	-2.39094
14822.297	-0.01199	-2.18078	0.42373	-2.32710
14826.317	-0.00107	-2.22628	0.47639	-2.30158
14830.295	-0.00988	-2.24065	0.46006	-2.25358
14834.296	-0.24284	-2.25494	0.41686	-2.23193
14838.299	-0.17859	-2.31415	0.40544	-2.23221
14842.317	-0.11272	-2.33815	0.42018	-2.20774
14846.295	-0.10490	-2.32336	0.48515	-2.18725
14850.266	-0.03365	-2.38059	0.47133	-2.18954
14854.249	0.00551	-2.33880	0.48279	-2.23094
14858.315	-0.05604	-2.33165	0.49763	-2.24635
14862.296	-0.25976	-2.37730	0.38856	-2.30706
14866.295	-0.25344	-2.34927	0.42477	-2.35235
14870.297	-0.19410	-2.28869	0.41127	-2.44520
14874.320	-0.27121	-2.23566	0.40509	-2.47315
14878.295	-0.30183	-2.27022	0.43519	-2.51364
14882.294	-0.38923	-2.26437	0.47100	-2.49615
14886.298	-0.38397	-2.19313	0.53361	-2.50944
14890.309	-0.39616	-2.09943	0.51235	-2.60145
14894.293	-0.41728	-2.03856	0.53793	-2.66894
14898.292	-0.38762	-2.17619	0.55389	-2.75357
14902.296	-0.44453	-2.22644	0.51714	-2.84198
14906.316	-0.40750	-2.15256	0.44959	-2.84357
14910.297	-0.45894	-2.12560	0.39494	-2.84335
14914.295	-0.51920	-2.14161	0.38524	-2.83740
14918.252	-0.59215	-2.13647	0.35191	-2.86738
14922.294	-0.60764	-2.15222	0.39226	-2.92871
14926.298	-0.54054	-2.08329	0.43581	-2.98981
14930.297	-0.50349	-2.14370	0.38330	-2.93540
14934.252	-0.52716	-2.25221	0.36474	-2.90904
14938.317	-0.40075	-2.24804	0.42693	-2.57483
14942.295	-0.49984	-2.22282	0.37060	-2.59290
14946.297	-0.54163	-2.12438	0.35216	-2.52887
14950.298	-0.51577	-2.08332	0.28969	-2.56723
14954.315	-0.39035	-2.08527	0.17380	-2.50758
14958.297	-0.33243	-2.17104	0.32295	-2.62334
14962.295	-0.34273	-2.23088	0.30262	-2.69577
14966.297	-0.30662	-2.19472	0.37762	-2.60172
14970.318	-0.22152	-2.18627	0.35057	-2.57334
14974.300	-0.27346	-2.22090	0.35375	-2.59714
14978.296	-0.45279	-2.18555	0.40110	-2.59562
14982.254	-0.39730	-2.16271	0.38368	-2.64628
14986.256	-0.31272	-2.14097	0.39765	-2.68788
14990.297	-0.15595	-2.19273	0.34444	-2.77532
14994.302	-0.22894	-2.20895	0.40956	-2.73575
14998.286	-0.32014	-2.21682	0.45386	-2.69927
15002.285	-0.49751	-2.11000	0.33062	-2.78690
15006.297	-0.29704	-2.12847	0.44743	-2.72528
15010.297	-0.41018	-2.04047	0.48100	-2.65639
15014.290	-0.26629	-2.08601	0.19005	-2.64930
15018.289	-0.35682	-2.08230	0.29667	-2.62602
15022.299	-0.40288	-2.03034	0.37278	-2.56041
15026.298	-0.37350	-1.97838	0.28716	-2.68338
15030.298	-0.39924	-1.86902	0.25180	-2.57931
15034.256	-0.43897	-1.93516	0.29505	-2.48593
15038.298	-0.36462	-1.83653	0.34762	-2.54807
15042.296	-0.45569	-1.79928	0.27252	-2.57291
15046.262	-0.44490	-1.89137	0.21427	-2.59710
15050.295	-0.49386	-1.88222	0.38169	-2.59679
15054.298	-0.48160	-1.78020	0.30493	-2.58776
15058.298	-0.52505	-1.78193	0.33898	-2.59125
15062.297	-0.49716	-1.77888	0.35491	-2.54688
15066.281	-0.48128	-1.75995	0.28629	-2.48638
15070.296	-0.45108	-1.78331	0.30895	-2.49215
15074.303	-0.47944	-1.79098	0.25867	-2.48849
15078.297	-0.51530	-1.77818	0.19809	-2.54386
15082.284	-0.50979	-1.77610	0.22408	-2.49267
15086.298	-0.26076	-1.77638	0.24249	-2.46506
15090.299	-0.20172	-1.77281	0.24795	-2.46828
15094.299	-0.24671	-1.75307	0.25445	-2.45345
15098.287	-0.22036	-1.77171	0.32647	-2.44626
15102.293	-0.27959	-1.74407	0.25187	-2.45786
15106.295	-0.26252	-1.70426	0.22160	-2.44309
15110.297	-0.28173	-1.67463	0.39167	-2.47641
15114.291	-0.30818	-1.66348	0.39119	-2.47931
15118.298	-0.35256	-1.65893	0.26644	-2.52215
15122.297	-0.29885	-1.66604	0.23388	-2.55625
15126.301	-0.36134	-1.68403	0.19509	-2.53010
15130.322	-0.37271	-1.71640	0.22969	-2.55836
15134.253	-0.35988	-1.75397	0.31409	-2.50133
15138.299	-0.33963	-1.80784	0.22914	-2.53421
15142.263	-0.42763	-1.88177	0.23259	-2.50645
15146.292	-0.37812	-1.82347	0.25818	-2.47165
15150.300	-0.38509	-1.85629	0.13925	-2.47618
15154.300	-0.32347	-1.82130	0.31558	-2.49128
15158.298	-0.24512	-1.77375	0.04405	-2.56778
15162.318	-0.31868	-1.82785	0.19971	-2.55797
15166.299	-0.29317	-1.89882	0.13213	-2.53524
15170.270	-0.27394	-1.95115	0.14876	-2.51544
15174.300	-0.36176	-1.74237	0.26039	-2.49328
15178.305	-0.32724	-1.71954	0.26525	-2.53611
15182.277	-0.31975	-1.54460	0.19010	-2.54944
15186.298	-0.34263	-1.60299	0.12203	-2.60177
15190.298	-0.32273	-1.63500	0.11635	-2.59937
15194.296	-0.40492	-1.74810	0.09269	-2.61388
15198.301	-0.47800	-1.73706	0.12409	-2.59716
15202.298	-0.55885	-1.70608	0.12483	-2.53772
15206.301	-0.63012	-1.77862	0.08383	-2.52778
15210.297	-0.67010	-1.67618	0.14091	-2.49873
15214.301	-0.63464	-1.63989	0.15240	-2.51723
15218.299	-0.57535	-1.58906	0.13161	-2.55852
15222.293	-0.55210	-1.71035	0.09336	-2.57730
15226.229	-0.61816	-1.69859	0.08024	-2.60379
15230.300	-0.55446	-1.73359	0.06274	-2.57048
15234.296	-0.47170	-1.78162	0.18832	-2.63777
15238.255	-0.27545	-1.74467	0.20432	-2.60645
15242.298	-0.32506	-1.78495	0.23373	-2.73146
15246.299	-0.31630	-1.92250	0.41239	-2.67501
15250.299	-0.36534	-2.04410	0.31287	-2.73050
15254.300	-0.25056	-2.19219	0.33387	-2.66432
15258.285	-0.19335	-2.06992	0.34774	-2.60208
15262.298	-0.18184	-2.02150	0.21849	-2.56890
15266.268	-0.17841	-1.97367	0.32235	-2.54726
15270.300	-0.11801	-1.96462	0.31131	-2.49962
15274.259	-0.21656	-2.00407	0.25349	-2.47351
15278.301	-0.33752	-2.00132	0.18179	-2.35538
15282.300	-0.42547	-1.91970	0.11570	-2.24729
15286.300	-0.44830	-1.94210	0.09510	-2.23164
15290.259	-0.61263	-1.93168	0.05497	-2.23221
15294.300	-0.80007	-1.37252	-0.16983	-1.83122
15298.301	-1.37109	0.78349	-1.60561	1.31333
15302.297	-2.73509	2.38344	-2.52453	2.44577
15306.260	-3.20068	4.23771	-3.19764	4.92753
15310.299	-3.92015	5.20936	-3.70403	6.71503
15314.300	-4.78378	7.10791	-3.69615	7.58669
15318.299	-5.35805	8.10968	-3.85619	10.11652
15322.287	-5.54285	9.22291	-3.91380	10.38512
15326.300	-5.70986	9.92485	-4.10606	12.62795
15330.301	-6.56211	9.99241	-4.30717	13.64934
15334.301	-6.70714	10.59200	-4.37675	13.75977
15338.259	-6.64251	11.00713	-4.26877	13.13107
15342.301	-6.80727	10.93784	-4.21207	12.75536
15346.303	-6.74714	10.66578	-4.41741	12.53690
15350.266	-6.92824	10.33935	-4.56281	12.69739
15354.260	-6.99357	10.76441	-4.48493	13.40840
15358.303	-7.01020	11.06344	-4.56050	13.57691
15362.301	-7.00296	11.07506	-4.62710	13.67857
15366.300	-6.99949	10.87581	-4.62821	12.86982
15370.258	-6.98920	10.85580	-4.60436	12.65082
15374.302	-6.93907	10.97920	-4.58659	13.76411
15378.303	-7.04452	10.84774	-4.56545	13.71859
15382.301	-7.10782	10.78448	-4.57606	13.43998
15386.263	-7.09729	11.26748	-4.68200	13.07404
15390.278	-7.09106	10.99535	-4.66770	13.55396
15394.301	-7.09759	10.99423	-4.63215	13.88388
15398.301	-7.20998	10.97001	-4.65693	13.76485
15402.261	-7.11098	10.95907	-4.71242	13.60704
15406.302	-7.08224	10.92751	-4.67456	13.33755
15410.301	-7.02458	11.00086	-4.68237	13.33823
15414.304	-7.08830	11.02272	-4.71691	13.54733
15418.260	-7.04007	11.04249	-4.72258	13.34298
15422.302	-7.00289	11.01486	-4.71126	13.41835
15426.302	-6.92714	10.91148	-4.66568	13.36309
15430.289	-6.88005	10.94263	-4.71176	13.50138
15434.262	-7.02597	10.99755	-4.74856	13.69837
15438.302	-6.86740	10.98674	-4.78343	13.45404
15442.303	-6.88834	11.01317	-4.78779	13.51762
15446.302	-6.86173	11.05775	-4.61514	13.34926
15450.305	-6.81485	10.97460	-4.60912	13.35659
15454.304	-6.75943	10.85735	-4.61169	13.43785
15458.303	-6.77418	10.78918	-4.60284	13.57939
15462.302	-6.82990	10.90760	-4.54725	13.56765
15466.308	-6.94399	10.84238	-4.70271	13.52716
15470.306	-6.94535	10.82916	-4.84243	13.64113
15474.302	-7.02766	10.99865	-4.65686	13.55206
15478.272	-6.91207	11.02664	-4.59006	13.33689
15482.168	-6.95822	10.90143	-4.67219	13.54250
15486.303	-6.95409	10.76140	-4.63644	13.43808
15490.302	-6.89409	10.78311	-4.56595	13.01513
15494.302	-6.90767	10.74600	-4.66186	13.47620
15498.305	-6.92873	10.77932	-4.64376	13.87402
15502.303	-6.48757	11.44593	-4.42898	14.06666
15506.300	-5.87548	13.78219	NaN	NaN
15510.301	-5.39800	14.40382	NaN	NaN
15514.306	NaN	NaN	NaN	NaN
15518.306	NaN	NaN	NaN	NaN
15522.303	NaN	NaN	NaN	NaN
15526.314	NaN	NaN	NaN	NaN
15530.306	NaN	NaN	NaN	NaN
15534.258	NaN	NaN	NaN	NaN
15538.302	-1.49525	13.92792	NaN	NaN
15542.302	NaN	NaN	NaN	NaN
15546.306	-2.17118	14.20861	NaN	NaN
15550.302	NaN	NaN	NaN	NaN
15554.296	NaN	NaN	NaN	NaN
15558.303	-1.94166	14.84142	NaN	NaN
15562.310	-2.03191	14.24705	NaN	NaN
15566.305	NaN	NaN	NaN	NaN
15570.305	NaN	NaN	NaN	NaN
15574.304	-2.00376	14.62636	NaN	NaN
15578.310	NaN	NaN	NaN	NaN
15582.305	NaN	NaN	NaN	NaN
15586.305	NaN	NaN	NaN	NaN
15590.303	-2.08062	14.97735	NaN	NaN
15594.306	NaN	NaN	NaN	NaN
15598.281	NaN	NaN	NaN	NaN
15602.305	-1.93638	13.90209	NaN	NaN
15606.308	NaN	NaN	NaN	NaN
15610.263	-2.06644	15.02180	NaN	NaN
15614.304	-2.05596	15.08058	NaN	NaN
15618.298	NaN	NaN	NaN	NaN
15622.303	NaN	NaN	NaN	NaN
15626.307	-2.05343	14.45905	NaN	NaN
15630.303	NaN	NaN	NaN	NaN
15634.259	-1.92441	14.38408	NaN	NaN
15638.304	NaN	NaN	NaN	NaN
15642.305	NaN	NaN	NaN	NaN
15646.303	NaN	NaN	NaN	NaN
15650.304	-1.96521	14.60461	NaN	NaN
15654.307	-1.94126	14.79892	NaN	NaN
15658.309	NaN	NaN	NaN	NaN
15662.303	NaN	NaN	NaN	NaN
15666.304	NaN	NaN	NaN	NaN
15670.286	NaN	NaN	NaN	NaN
15674.305	NaN	NaN	NaN	NaN
15678.309	NaN	NaN	NaN	NaN
15682.273	NaN	NaN	NaN	NaN
15686.306	NaN	NaN	NaN	NaN
15690.264	NaN	NaN	NaN	NaN
15694.303	NaN	NaN	NaN	NaN
15698.306	NaN	NaN	NaN	NaN
15702.304	NaN	NaN	NaN	NaN
15706.264	NaN	NaN	NaN	NaN
15710.305	-1.55437	15.09460	NaN	NaN
15714.304	-1.21067	13.64094	NaN	NaN
15718.306	-1.35546	13.06902	NaN	NaN
15722.168	-1.38937	13.00525	NaN	NaN
15726.305	-1.51496	13.62579	NaN	NaN
15730.179	-1.69815	13.95430	NaN	NaN
15734.181	-1.56831	12.16333	NaN	NaN
15738.164	NaN	NaN	NaN	NaN
15742.180	NaN	NaN	NaN	NaN
15746.179	-1.65597	13.78628	NaN	NaN
15750.179	-1.56538	14.64816	NaN	NaN
15754.201	-1.41995	14.81682	NaN	NaN
15758.182	-1.49698	14.74550	NaN	NaN
15762.184	NaN	NaN	NaN	NaN
15766.182	NaN	NaN	NaN	NaN
15770.205	NaN	NaN	NaN	NaN
15774.183	NaN	NaN	NaN	NaN
15778.179	NaN	NaN	NaN	NaN
15782.185	-1.33713	14.99589	NaN	NaN
15786.206	NaN	NaN	NaN	NaN
15790.186	-1.51878	14.94396	NaN	NaN
15794.183	-1.66001	14.66094	NaN	NaN
15798.185	-1.79515	14.43218	NaN	NaN
15802.204	NaN	NaN	NaN	NaN
15806.152	NaN	NaN	NaN	NaN
15810.182	NaN	NaN	NaN	NaN
15814.169	-1.68689	14.88912	NaN	NaN
15818.201	NaN	NaN	NaN	NaN
15822.184	NaN	NaN	NaN	NaN
15826.179	NaN	NaN	NaN	NaN
15830.181	-1.99451	14.85338	NaN	NaN
15834.202	NaN	NaN	NaN	NaN
15838.186	NaN	NaN	NaN	NaN
15842.181	-2.27503	14.84471	NaN	NaN
15846.181	NaN	NaN	NaN	NaN
15850.205	NaN	NaN	NaN	NaN
15854.137	NaN	NaN	NaN	NaN
15858.180	NaN	NaN	NaN	NaN
15862.184	NaN	NaN	NaN	NaN
15866.202	NaN	NaN	NaN	NaN
15870.173	NaN	NaN	NaN	NaN
15874.183	NaN	NaN	NaN	NaN
15878.182	NaN	NaN	NaN	NaN
15882.206	NaN	NaN	0.40398	12.42988
15886.184	NaN	NaN	NaN	NaN
15890.183	NaN	NaN	NaN	NaN
15894.183	NaN	NaN	NaN	NaN
15898.202	NaN	NaN	NaN	NaN
15902.183	NaN	NaN	NaN	NaN
15906.183	NaN	NaN	NaN	NaN
15910.182	NaN	NaN	NaN	NaN
15914.202	NaN	NaN	NaN	NaN
15918.139	NaN	NaN	NaN	NaN
15922.184	NaN	NaN	NaN	NaN
15926.186	NaN	NaN	NaN	NaN
15930.202	NaN	NaN	NaN	NaN
15934.139	NaN	NaN	NaN	NaN
15938.175	NaN	NaN	NaN	NaN
15942.183	NaN	NaN	NaN	NaN
15946.201	NaN	NaN	NaN	NaN
15950.185	NaN	NaN	NaN	NaN
15954.182	NaN	NaN	NaN	NaN
15958.181	NaN	NaN	NaN	NaN
15962.208	NaN	NaN	NaN	NaN
15966.182	NaN	NaN	NaN	NaN
15970.187	NaN	NaN	NaN	NaN
15974.185	NaN	NaN	NaN	NaN
15978.184	NaN	NaN	NaN	NaN
15982.183	NaN	NaN	NaN	NaN
15986.183	NaN	NaN	NaN	NaN
15990.184	NaN	NaN	NaN	NaN
15994.207	NaN	NaN	NaN	NaN
15998.178	NaN	NaN	NaN	NaN
16002.184	NaN	NaN	NaN	NaN
16006.184	NaN	NaN	NaN	NaN
16010.205	NaN	NaN	NaN	NaN
16014.185	NaN	NaN	NaN	NaN
16018.182	NaN	NaN	NaN	NaN
16022.182	NaN	NaN	NaN	NaN
16026.205	NaN	NaN	NaN	NaN
16030.187	NaN	NaN	NaN	NaN
16034.142	NaN	NaN	NaN	NaN
16038.182	NaN	NaN	NaN	NaN
16042.206	NaN	NaN	NaN	NaN
16046.185	NaN	NaN	NaN	NaN
16050.185	NaN	NaN	NaN	NaN
16054.187	-10.99011	14.10952	NaN	NaN
16058.206	-11.27156	14.28394	NaN	NaN
16062.154	NaN	NaN	NaN	NaN
16066.185	NaN	NaN	NaN	NaN
16070.185	-10.83879	14.25936	NaN	NaN
16074.205	-10.98702	14.36660	NaN	NaN
16078.183	-11.10106	13.50297	NaN	NaN
16082.190	-10.98554	12.59651	NaN	NaN
16086.185	-11.06318	12.64819	NaN	NaN
16090.208	-11.18360	13.88054	NaN	NaN
16094.185	-10.98181	12.30831	NaN	NaN
16098.188	-11.12820	13.52806	NaN	NaN
16102.163	-11.19199	13.57787	NaN	NaN
16106.174	NaN	NaN	NaN	NaN
16110.140	-11.21603	14.28434	NaN	NaN
16114.187	-11.36279	14.36265	NaN	NaN
16118.186	-11.35270	13.40107	NaN	NaN
16122.207	-11.35966	14.59745	NaN	NaN
16126.186	-11.35873	14.25401	NaN	NaN
16130.189	-11.42339	14.39150	NaN	NaN
16134.142	-11.41371	14.40137	NaN	NaN
16138.187	-11.35816	13.47786	NaN	NaN
16142.182	-11.25815	12.12265	NaN	NaN
16146.188	-11.33886	13.35763	NaN	NaN
16150.187	-11.40536	14.59363	NaN	NaN
16154.189	-11.36014	14.56075	NaN	NaN
16158.197	-11.36909	13.81254	NaN	NaN
16162.186	NaN	NaN	NaN	NaN
16166.182	NaN	NaN	NaN	NaN
16170.207	NaN	NaN	NaN	NaN
16174.186	NaN	NaN	NaN	NaN
16178.181	NaN	NaN	NaN	NaN
16182.185	NaN	NaN	NaN	NaN
16186.191	-11.46897	14.44961	NaN	NaN
16190.189	NaN	NaN	NaN	NaN
16194.187	-11.45996	14.34454	NaN	NaN
16198.184	-11.49912	14.55472	NaN	NaN
16202.146	NaN	NaN	NaN	NaN
16206.187	NaN	NaN	NaN	NaN
16210.190	-11.44006	13.98199	NaN	NaN
16214.185	NaN	NaN	NaN	NaN
16218.190	-11.27324	13.92017	NaN	NaN
16222.187	NaN	NaN	NaN	NaN
16226.188	NaN	NaN	NaN	NaN
16230.175	-11.36794	13.80779	NaN	NaN
16234.185	NaN	NaN	NaN	NaN
16238.144	NaN	NaN	NaN	NaN
16242.160	NaN	NaN	NaN	NaN
16246.185	-11.27787	13.29267	NaN	NaN
16250.186	-11.40064	14.33509	NaN	NaN
16254.186	NaN	NaN	NaN	NaN
16258.188	NaN	NaN	NaN	NaN
16262.186	-11.58144	13.72456	NaN	NaN
16266.189	-11.54163	14.50169	NaN	NaN
16270.151	-11.27703	12.21258	NaN	NaN
16274.188	NaN	NaN	NaN	NaN
16278.186	-11.77467	14.55491	NaN	NaN
16282.192	-12.00286	12.84148	NaN	NaN
16286.186	-12.47163	10.26018	NaN	NaN
16290.187	-12.37150	12.38392	NaN	NaN
16294.187	-12.29121	12.25345	NaN	NaN
16298.188	-12.24950	12.66132	NaN	NaN
16302.187	-12.45885	14.30639	NaN	NaN
16306.177	-11.62411	9.04638	NaN	NaN
